Time,FZ,C3,CZ,C4,PZ,PO7,OZ,PO8,AccX,AccY,AccZ,Gyro1,Gyro2,Gyro3,Battery,Counter,Validation
1650899.477863,284423.46875,343267.46875,321206.5625,322948.5625,341531.8125,311545.78125,304762.5625,288973.03125,-0.221435546875,0.8154296875,-0.412109375,18.554685592651367,-0.1220703050494194,-4.547118663787842,80.0,1463476.0,1.0
1650899.5028648,290736.40625,351344.3125,330036.5625,331715.1875,346402.25,315131.53125,307115.5,292898.4375,-0.219970703125,0.81787109375,-0.41650390625,18.402097702026367,-0.2441406100988388,-4.425048351287842,80.0,1463477.0,1.0
1650899.505343,290592.28125,350798.75,330516.5,333384.25,346197.15625,313347.25,305513.3125,292113.71875,-0.22021484375,0.82373046875,-0.41943359375,18.035886764526367,-0.3662109076976776,-4.394530773162842,80.0,1463478.0,1.0
1650899.5077972,284034.8125,342061.1875,321639.28125,325286.125,341016.1875,308525.4375,302082.5,287549.3125,-0.221435546875,0.827880859375,-0.4189453125,17.730710983276367,-0.3051757514476776,-4.425048351287842,80.0,1463479.0,1.0
1650899.5103182,280271.84375,337267.0,315792.53125,318755.1875,338123.09375,307447.71875,301662.8125,285664.0625,-0.218017578125,0.830322265625,-0.423828125,17.272947311401367,-0.4577636420726776,-4.364013195037842,80.0,1463480.0,1.0
1650899.5128427,284328.15625,342706.8125,320700.6875,322444.40625,341303.375,311433.9375,304696.65625,288861.53125,-0.217529296875,0.83349609375,-0.42529296875,16.693113327026367,-0.6103515028953552,-4.302978038787842,80.0,1463481.0,1.0
1650899.5153382,290655.9375,350794.65625,329537.0625,331205.46875,346165.15625,315037.46875,307053.15625,292790.78125,-0.2158203125,0.838623046875,-0.427978515625,16.235349655151367,-0.6713866591453552,-4.180907726287842,80.0,1463482.0,1.0
1650899.5178241,290652.71875,350423.78125,330195.375,333046.65625,346064.9375,313355.90625,305532.09375,292113.34375,-0.212646484375,0.843994140625,-0.428955078125,15.533446311950684,-0.7324218153953552,-4.028319835662842,80.0,1463483.0,1.0
1650899.5203179,284173.21875,341796.28125,321448.84375,325087.53125,340961.40625,308587.75,302142.75,287616.53125,-0.212646484375,0.848876953125,-0.43701171875,14.923094749450684,-0.7324218153953552,-3.936767339706421,80.0,1463484.0,1.0
1650899.5228518,280334.96875,336915.28125,315540.75,318504.40625,338024.90625,307439.84375,301659.96875,285669.34375,-0.20947265625,0.8525390625,-0.435791015625,14.129637718200684,-0.7324218153953552,-3.875732183456421,80.0,1463485.0,1.0
1650899.5253456,284315.1875,342243.9375,320368.09375,322102.5,341189.03125,311373.21875,304652.5,288810.3125,-0.206787109375,0.855712890625,-0.43798828125,13.275145530700684,-0.6713866591453552,-3.723144292831421,80.0,1463486.0,1.0
1650899.5278231,290696.96875,350380.6875,329283.9375,330923.6875,346158.53125,315037.03125,307058.96875,292784.96875,-0.205810546875,0.8603515625,-0.439208984375,12.451170921325684,-0.6713866591453552,-3.540038824081421,80.0,1463487.0,1.0
1650899.5303229,290760.90625,350122.5625,330075.8125,332899.9375,346140.84375,313404.09375,305561.6875,292153.9375,-0.20703125,0.86328125,-0.440185546875,11.535643577575684,-0.6713866591453552,-3.417968511581421,80.0,1463488.0,1.0
1650899.5334376,284289.53125,341557.28125,321399.40625,325030.0625,341056.34375,308626.8125,302149.90625,287663.3125,-0.20703125,0.864990234375,-0.442138671875,10.742186546325684,-0.6713866591453552,-3.265380620956421,80.0,1463489.0,1.0
1650899.5334836,280367.15625,336621.125,315419.25,318387.65625,338072.84375,307431.71875,301637.625,285677.9375,-0.2080078125,0.867919921875,-0.44091796875,9.887694358825684,-0.8239745497703552,-3.082275152206421,80.0,1463490.0,1.0
1650899.5353638,284248.21875,341885.9375,320126.875,321865.65625,341139.3125,311324.84375,304611.03125,288771.40625,-0.207275390625,0.871826171875,-0.441162109375,8.911131858825684,-0.8544921278953552,-2.929687261581421,80.0,1463491.0,1.0
1650899.5378277,290622.75,350070.4375,329036.28125,330674.59375,346064.84375,315001.71875,307030.375,292749.125,-0.20947265625,0.87255859375,-0.44189453125,7.690429210662842,-0.8850097060203552,-2.868652105331421,80.0,1463492.0,1.0
1650899.5415054,290789.0625,349958.59375,329967.5625,332793.1875,346126.875,313444.53125,305596.5625,292193.71875,-0.209716796875,0.8720703125,-0.441162109375,6.652831554412842,-0.9460448622703552,-2.777099370956421,80.0,1463493.0,1.0
1650899.5533713,284317.875,341405.21875,321320.90625,324968.09375,341056.15625,308649.875,302169.59375,287695.03125,-0.2099609375,0.872314453125,-0.44384765625,5.432128429412842,-1.0070799589157104,-2.685546636581421,80.0,1463494.0,1.0
1650899.5534035,280316.46875,336378.40625,315259.21875,318253.625,338030.09375,307396.9375,301614.71875,285661.9375,-0.211669921875,0.867919921875,-0.4462890625,4.272460460662842,-1.1291502714157104,-2.624511480331421,80.0,1463495.0,1.0
1650899.556503,284125.375,341560.25,319877.4375,321636.6875,341070.90625,311270.0625,304582.59375,288729.5625,-0.208251953125,0.866943359375,-0.447509765625,3.356933355331421,-1.3122557401657104,-2.624511480331421,80.0,1463496.0,1.0
1650899.5565351,290522.28125,349768.875,328797.5625,330438.1875,346019.875,314984.90625,307041.5625,292731.5,-0.206298828125,0.866943359375,-0.45263671875,2.502441167831421,-1.4038084745407104,-2.716064214706421,80.0,1463497.0,1.0
1650899.5565439,290771.96875,349744.8125,329828.34375,332647.875,346124.28125,313459.8125,305620.15625,292204.625,-0.2041015625,0.8681640625,-0.45458984375,1.6479490995407104,-1.4038084745407104,-2.655029058456421,80.0,1463498.0,1.0
1650899.5591674,284375.0,341258.40625,321272.1875,324926.6875,341103.09375,308678.40625,302193.28125,287731.875,-0.201416015625,0.868896484375,-0.453369140625,0.7019042372703552,-1.4343260526657104,-2.532958745956421,80.0,1463499.0,1.0
1650899.5814992,280297.875,336140.21875,315126.4375,318143.21875,338024.375,307363.6875,301590.9375,285650.21875,-0.200439453125,0.86865234375,-0.457763671875,-0.03051757626235485,-1.3732908964157104,-2.563476324081421,80.0,1463500.0,1.0
1650899.5815405,284010.9375,341214.5,319632.90625,321406.3125,341006.1875,311205.3125,304544.40625,288677.8125,-0.19677734375,0.8701171875,-0.459716796875,-0.7934569716453552,-1.3427733182907104,-2.441406011581421,80.0,1463501.0,1.0
1650899.5815511,290398.15625,349420.0,328540.53125,330180.0625,345938.5,314920.09375,306986.28125,292660.25,-0.193359375,0.875732421875,-0.458740234375,-1.6479490995407104,-1.3122557401657104,-2.441406011581421,80.0,1463502.0,1.0
1650899.5846819,290761.78125,349519.6875,329695.3125,332520.9375,346110.78125,313443.90625,305589.3125,292181.21875,-0.19091796875,0.87939453125,-0.46484375,-2.227782964706421,-1.0986326932907104,-2.319335699081421,80.0,1463503.0,1.0
1650899.5847105,284429.0,341085.65625,321206.90625,324890.75,341118.125,308677.6875,302178.96875,287738.125,-0.18896484375,0.885498046875,-0.46826171875,-2.960204839706421,-0.7324218153953552,-2.075195074081421,80.0,1463504.0,1.0
1650899.5891676,280288.75,335874.84375,314972.75,318034.125,337982.1875,307321.5625,301561.625,285624.71875,-0.18359375,0.895263671875,-0.462646484375,-3.540038824081421,-0.5493163466453552,-1.7700194120407104,80.0,1463505.0,1.0
1650899.5915451,283887.8125,340821.125,319326.0625,321143.09375,340868.9375,311099.28125,304459.75,288584.5625,-0.18115234375,0.907470703125,-0.464111328125,-4.211425304412842,-0.3356933295726776,-1.4648436307907104,80.0,1463506.0,1.0
1650899.5943377,290300.625,349052.09375,328241.0,329921.40625,345818.0625,314860.46875,306943.1875,292599.1875,-0.176025390625,0.918701171875,-0.46142578125,-4.943847179412842,0.1525878757238388,-1.1291502714157104,80.0,1463507.0,1.0
1650899.5979136,290800.0625,349285.1875,329546.4375,332421.34375,346081.46875,313475.625,305628.125,292208.46875,-0.171875,0.9267578125,-0.458740234375,-5.981444835662842,0.6408690810203552,-0.5798339247703552,80.0,1463508.0,1.0
1650899.6072871,284526.90625,340903.90625,321138.4375,324890.9375,341130.46875,308722.3125,302221.4375,287784.0,-0.1689453125,0.92919921875,-0.452880859375,-6.988524913787842,1.1596678495407104,0.1831054538488388,80.0,1463509.0,1.0
1650899.6073305,280263.25,335567.46875,314793.21875,317932.46875,337930.0625,307280.96875,301528.09375,285595.21875,-0.16748046875,0.92431640625,-0.449951171875,-8.300780296325684,1.5258787870407104,0.9155272841453552,80.0,1463510.0,1.0
1650899.6092357,283720.71875,340382.65625,319017.34375,320895.96875,340773.5625,311027.40625,304415.5625,288527.0625,-0.16748046875,0.91650390625,-0.4462890625,-9.429930686950684,1.9836424589157104,1.6479490995407104,80.0,1463511.0,1.0
1650899.6180209,290113.9375,348612.40625,327938.71875,329652.3125,345752.28125,314821.21875,306932.46875,292572.90625,-0.167236328125,0.905029296875,-0.442138671875,-10.406493186950684,2.410888433456421,2.227782964706421,80.0,1463512.0,1.0
1650899.6210014,290690.71875,348937.03125,329350.65625,332247.96875,346081.90625,313472.6875,305624.1875,292213.65625,-0.1728515625,0.892578125,-0.440673828125,-11.230467796325684,2.868652105331421,2.716064214706421,80.0,1463513.0,1.0
1650899.6211112,284426.9375,340556.375,320972.0625,324757.09375,341143.0625,308687.34375,302181.375,287769.59375,-0.18017578125,0.882080078125,-0.436767578125,-11.627196311950684,3.112792730331421,3.082275152206421,80.0,1463514.0,1.0
1650899.6242132,280087.84375,335122.59375,314542.0625,317717.8125,337908.15625,307204.625,301478.71875,285552.9375,-0.18798828125,0.874755859375,-0.43115234375,-12.084959983825684,3.265380620956421,3.295898199081421,80.0,1463515.0,1.0
1650899.637917,283479.0625,339865.4375,318690.21875,320587.875,340730.375,310948.0,304383.65625,288477.53125,-0.197265625,0.870361328125,-0.43017578125,-12.451170921325684,3.265380620956421,3.387450933456421,80.0,1463516.0,1.0
1650899.6411918,289920.8125,348149.71875,327664.78125,329377.8125,345757.4375,314794.84375,306932.28125,292556.53125,-0.205322265625,0.869140625,-0.431396484375,-12.603758811950684,3.112792730331421,3.417968511581421,80.0,1463517.0,1.0
1650899.6412522,290663.15625,348631.53125,329243.28125,332141.21875,346176.78125,313511.84375,305661.09375,292253.1875,-0.21533203125,0.87451171875,-0.43408203125,-12.847899436950684,2.868652105331421,3.417968511581421,80.0,1463518.0,1.0
1650899.642931,284539.59375,340389.28125,320988.5,324797.0625,341286.375,308750.03125,302230.75,287839.6875,-0.22412109375,0.87939453125,-0.431884765625,-12.878417015075684,2.502441167831421,3.265380620956421,80.0,1463519.0,1.0
1650899.6466382,280189.3125,334963.53125,314542.78125,317759.9375,338020.1875,307235.375,301498.9375,285592.8125,-0.235595703125,0.891845703125,-0.43359375,-13.183592796325684,1.8615721464157104,3.143310308456421,80.0,1463520.0,1.0
1650899.655432,283531.28125,339715.78125,318667.3125,320601.71875,340820.21875,310983.5,304416.5625,288515.53125,-0.241455078125,0.903076171875,-0.42919921875,-13.580321311950684,1.1291502714157104,2.899169683456421,80.0,1463521.0,1.0
1650899.6583948,290061.1875,348183.6875,327781.71875,329518.71875,345919.375,314921.625,307047.28125,292678.21875,-0.246826171875,0.9140625,-0.427001953125,-14.129637718200684,0.3662109076976776,2.655029058456421,80.0,1463522.0,1.0
1650899.658441,290993.875,348950.625,329615.65625,332541.75,346453.75,313740.53125,305844.9375,292473.3125,-0.25146484375,0.921630859375,-0.422607421875,-14.831542015075684,-0.3356933295726776,2.319335699081421,80.0,1463523.0,1.0
1650899.6642324,284998.78125,340928.75,321571.6875,325427.65625,341654.375,309021.71875,302425.65625,288100.3125,-0.250732421875,0.927734375,-0.422607421875,-15.594481468200684,-1.1291502714157104,2.014159917831421,80.0,1463524.0,1.0
1650899.6709924,280616.875,335599.3125,315196.09375,318468.90625,338423.21875,307486.15625,301658.0,285841.1875,-0.246337890625,0.9326171875,-0.421630859375,-16.387937545776367,-2.014159917831421,1.7700194120407104,80.0,1463525.0,1.0
1650899.6710377,283867.0,340436.125,319351.375,321333.96875,341256.78125,311222.5,304554.875,288760.0625,-0.239013671875,0.931884765625,-0.416748046875,-17.089841842651367,-2.777099370956421,1.8005369901657104,80.0,1463526.0,1.0
1650899.6729252,290406.5625,349089.28125,328590.15625,330365.15625,346446.78125,315195.28125,307183.4375,292927.59375,-0.22998046875,0.9287109375,-0.408447265625,-17.822263717651367,-3.509521245956421,1.8615721464157104,80.0,1463527.0,1.0
1650899.6843391,291436.71875,350070.96875,330602.25,333577.8125,347101.25,314042.03125,305980.09375,292729.53125,-0.217041015625,0.927490234375,-0.40087890625,-18.432615280151367,-4.028319835662842,1.9531248807907104,80.0,1463528.0,1.0
1650899.6872607,285438.3125,342090.78125,322599.25,326532.09375,342330.03125,309264.75,302518.4375,288316.40625,-0.209228515625,0.925537109375,-0.392578125,-18.707273483276367,-4.333495616912842,2.197265386581421,80.0,1463529.0,1.0
1650899.6873095,280904.3125,336639.5625,316100.4375,319469.28125,339051.03125,307653.0,301725.78125,285992.1875,-0.20068359375,0.927734375,-0.384521484375,-18.951414108276367,-4.608153820037842,2.685546636581421,80.0,1463530.0,1.0
1650899.6891781,283946.375,341310.71875,320067.15625,322136.65625,341798.6875,311308.59375,304573.1875,288822.625,-0.192626953125,0.929443359375,-0.377197265625,-19.073484420776367,-4.821776866912842,3.112792730331421,80.0,1463531.0,1.0
1650899.6979116,290392.625,349880.625,329206.6875,331049.5625,346951.21875,315248.21875,307195.3125,292965.75,-0.18310546875,0.93017578125,-0.365966796875,-19.195554733276367,-4.821776866912842,3.479003667831421,80.0,1463532.0,1.0
1650899.7010771,291465.78125,350846.3125,331223.625,334270.625,347622.46875,314094.25,306001.9375,292772.46875,-0.170654296875,0.92529296875,-0.35791015625,-19.470212936401367,-4.730224132537842,4.089354991912842,80.0,1463533.0,1.0
1650899.7011229,285484.375,342799.96875,323185.5,327211.3125,342844.3125,309280.3125,302508.25,288323.84375,-0.161376953125,0.915771484375,-0.348876953125,-19.409177780151367,-4.577636241912842,4.638671398162842,80.0,1463534.0,1.0
1650899.7116209,280819.90625,337167.21875,316518.96875,319988.21875,339484.84375,307577.8125,301651.125,285927.09375,-0.15283203125,0.905517578125,-0.3466796875,-19.165037155151367,-4.272460460662842,5.126952648162842,80.0,1463535.0,1.0
1650899.7147216,283759.53125,341730.5625,320377.3125,322521.65625,342217.5625,311245.8125,304531.8125,288768.46875,-0.14306640625,0.8955078125,-0.342041015625,-18.524168014526367,-3.967284917831421,5.706786632537842,80.0,1463536.0,1.0
1650899.7147646,290212.125,350290.3125,329522.03125,331401.28125,347399.6875,315237.9375,307200.4375,292946.28125,-0.130859375,0.888671875,-0.33544921875,-17.669675827026367,-3.479003667831421,6.256103038787842,80.0,1463537.0,1.0
1650899.7166789,291399.96875,351315.625,331621.125,334688.34375,348105.09375,314109.875,306024.8125,292784.1875,-0.12158203125,0.883056640625,-0.32568359375,-16.815183639526367,-2.746581792831421,6.622313976287842,80.0,1463538.0,1.0
1650899.7254807,285496.0625,343276.5,323604.8125,327665.5,343313.25,309268.0625,302505.3125,288322.125,-0.113525390625,0.884033203125,-0.319091796875,-15.655516624450684,-2.166747808456421,7.080077648162842,80.0,1463539.0,1.0
1650899.7285004,280801.03125,337570.28125,316869.4375,320382.0625,339910.40625,307535.6875,301617.6875,285893.03125,-0.105224609375,0.88720703125,-0.310546875,-14.556883811950684,-1.4343260526657104,7.598876476287842,80.0,1463540.0,1.0
1650899.7285444,283685.59375,342065.3125,320659.46875,322830.375,342601.9375,311200.125,304509.28125,288740.84375,-0.09912109375,0.896484375,-0.298583984375,-13.610838890075684,-0.7324218153953552,8.148192405700684,80.0,1463541.0,1.0
1650899.7303679,290221.15625,350706.3125,329861.96875,331743.09375,347805.5,315256.0,307244.6875,292993.5625,-0.09521484375,0.9013671875,-0.2919921875,-12.725829124450684,-0.2136230319738388,8.819579124450684,80.0,1463542.0,1.0
1650899.7441967,291589.59375,351888.8125,332115.5625,335171.65625,348574.40625,314203.84375,306106.875,292903.875,-0.092041015625,0.909423828125,-0.281982421875,-11.505125999450684,0.7629393935203552,9.277342796325684,80.0,1463543.0,1.0
1650899.7473989,285806.5,343951.34375,324211.1875,328261.9375,343809.09375,309377.84375,302573.25,288465.8125,-0.09423828125,0.92333984375,-0.273681640625,-10.437010765075684,1.6784666776657104,9.857176780700684,80.0,1463544.0,1.0
1650899.7474465,281131.84375,338291.34375,317499.3125,320999.40625,340392.84375,307649.6875,301695.09375,286052.28125,-0.095947265625,0.93798828125,-0.26904296875,-9.460448265075684,2.288818120956421,10.192870140075684,80.0,1463545.0,1.0
1650899.7492408,283970.625,342832.25,321275.6875,323423.15625,343061.125,311313.15625,304581.4375,288881.75,-0.096435546875,0.952880859375,-0.26220703125,-8.758543968200684,2.746581792831421,10.314940452575684,80.0,1463546.0,1.0
1650899.7529206,290515.46875,351574.09375,330529.125,332382.78125,348275.78125,315385.375,307318.8125,293130.4375,-0.09521484375,0.97216796875,-0.258056640625,-7.751464366912842,3.356933355331421,10.620116233825684,80.0,1463547.0,1.0
1650899.7616901,291990.5,352905.4375,332905.03125,335945.9375,349070.875,314352.34375,306196.375,293063.40625,-0.09619140625,0.99560546875,-0.258056640625,-7.141112804412842,3.662109136581421,11.016844749450684,80.0,1463548.0,1.0
1650899.7686254,286268.5625,345053.375,325074.5625,329128.1875,344285.8125,309519.28125,302657.5625,288640.0625,-0.093505859375,1.015869140625,-0.254150390625,-6.530761241912842,4.028319835662842,11.291502952575684,80.0,1463549.0,1.0
1650899.7686699,281551.53125,339415.46875,318360.65625,321862.53125,340837.46875,307779.4375,301775.46875,286209.4375,-0.090087890625,1.032470703125,-0.24755859375,-5.706786632537842,4.425048351287842,11.566161155700684,80.0,1463550.0,1.0
1650899.7710023,284313.75,343979.15625,322121.65625,324256.875,343501.53125,311463.625,304684.59375,289062.96875,-0.087158203125,1.045166015625,-0.2412109375,-5.187987804412842,4.669188976287842,11.657713890075684,80.0,1463551.0,1.0
1650899.771046,290810.875,352760.15625,331376.34375,333210.25,348732.65625,315537.625,307409.28125,293298.34375,-0.08447265625,1.05322265625,-0.235107421875,-4.730224132537842,5.035399913787842,11.657713890075684,80.0,1463552.0,1.0
1650899.7840382,292294.65625,354119.6875,333767.53125,336813.34375,349552.15625,314490.5,306261.1875,293204.65625,-0.084228515625,1.062255859375,-0.2265625,-4.272460460662842,5.340575695037842,11.535643577575684,80.0,1463553.0,1.0
1650899.791554,286600.25,346274.6875,325947.0,330026.28125,344801.34375,309642.84375,302712.46875,288749.0625,-0.081787109375,1.0693359375,-0.221435546875,-3.814697027206421,5.615233898162842,11.413573265075684,80.0,1463554.0,1.0
1650899.7915955,281815.375,340569.0,319168.875,322706.53125,341336.53125,307862.9375,301807.03125,286298.5,-0.08203125,1.0732421875,-0.2138671875,-3.143310308456421,5.920409679412842,11.077879905700684,80.0,1463555.0,1.0
1650899.7916067,284508.21875,345117.03125,322883.65625,325055.09375,344001.9375,311550.53125,304730.09375,289163.90625,-0.080078125,1.075927734375,-0.2021484375,-2.685546636581421,6.103515148162842,10.589598655700684,80.0,1463556.0,1.0
1650899.7948649,290946.21875,353861.5625,332083.375,333956.625,349228.40625,315619.0,307463.09375,293393.75,-0.07861328125,1.080322265625,-0.189208984375,-2.136230230331421,6.317138195037842,10.040282249450684,80.0,1463557.0,1.0
1650899.7949136,292386.21875,355121.59375,334375.3125,337475.9375,350009.5625,314528.75,306289.46875,293246.0625,-0.076171875,1.081787109375,-0.177978515625,-1.9836424589157104,6.622313976287842,9.338377952575684,80.0,1463558.0,1.0
1650899.8003698,286586.65625,347039.28125,326350.3125,330503.1875,345136.0,309559.15625,302639.40625,288680.75,-0.072021484375,1.08251953125,-0.165771484375,-1.8615721464157104,6.835937023162842,8.697508811950684,80.0,1463559.0,1.0
1650899.8091976,281621.875,341005.65625,319288.0625,322906.625,341520.625,307655.6875,301644.21875,286115.84375,-0.067138671875,1.07861328125,-0.1513671875,-1.6174315214157104,6.927489757537842,8.178709983825684,80.0,1463560.0,1.0
1650899.8134705,284120.90625,345202.59375,322703.40625,324954.6875,344057.5625,311264.5,304522.0625,288898.1875,-0.060302734375,1.075927734375,-0.141357421875,-1.3732908964157104,6.683349132537842,7.629394054412842,80.0,1463561.0,1.0
1650899.813513,290427.3125,353634.46875,331639.28125,333592.125,349165.8125,315270.375,307213.9375,293060.8125,-0.04833984375,1.0751953125,-0.134765625,-1.2817381620407104,6.805419445037842,7.080077648162842,80.0,1463562.0,1.0
1650899.8193421,291771.46875,354555.8125,333662.3125,336851.8125,349803.84375,314087.0,305972.78125,292826.1875,-0.035888671875,1.070556640625,-0.131591796875,-1.3427733182907104,7.019042491912842,6.500243663787842,80.0,1463563.0,1.0
1650899.8310087,285844.03125,346051.34375,325302.3125,329562.90625,344743.03125,309000.46875,302253.96875,288150.03125,-0.025390625,1.06689453125,-0.129150390625,-1.3122557401657104,7.324218273162842,6.134032726287842,80.0,1463564.0,1.0
1650899.8310529,280714.0625,339528.28125,317839.0625,321569.5625,340904.34375,306990.84375,301210.34375,285485.4375,-0.015380859375,1.068603515625,-0.124755859375,-1.0681151151657104,7.995604991912842,5.798339366912842,80.0,1463565.0,1.0
1650899.8334664,283027.09375,343212.3125,320833.8125,323178.96875,343199.78125,310507.15625,304050.78125,288188.46875,-0.01123046875,1.0712890625,-0.116455078125,-1.0681151151657104,8.666991233825684,5.340575695037842,80.0,1463566.0,1.0
1650899.8335046,289269.3125,351269.9375,329487.625,331510.4375,348151.15625,314506.9375,306757.9375,292355.5625,-0.015380859375,1.074462890625,-0.10888671875,-1.0986326932907104,9.307860374450684,4.943847179412842,80.0,1463567.0,1.0
1650899.8466808,290709.84375,352009.6875,331425.875,334671.625,348731.84375,313401.6875,305589.3125,292212.0625,-0.02587890625,1.0810546875,-0.1044921875,-1.2512205839157104,10.009764671325684,4.516601085662842,80.0,1463568.0,1.0
1650899.8511242,284897.5,343378.5,323026.53125,327345.6875,343628.59375,308391.59375,301940.0625,287623.5,-0.037353515625,1.0908203125,-0.095458984375,-1.8005369901657104,10.498045921325684,3.814697027206421,80.0,1463569.0,1.0
1650899.8511682,279743.53125,336599.84375,315382.40625,319168.96875,339653.46875,306358.3125,300871.46875,284939.0625,-0.050048828125,1.099609375,-0.0908203125,-2.380370855331421,10.833739280700684,3.082275152206421,80.0,1463570.0,1.0
1650899.853462,282036.90625,340082.0625,318233.5,320603.96875,341840.53125,309882.28125,303712.65625,287650.875,-0.06689453125,1.1064453125,-0.086181640625,-3.173827886581421,10.955809593200684,2.197265386581421,80.0,1463571.0,1.0
1650899.8535038,288470.09375,348277.75,327059.6875,329059.625,346879.96875,314061.78125,306558.03125,291995.875,-0.07861328125,1.115478515625,-0.076416015625,-3.997802495956421,10.772704124450684,1.4343260526657104,80.0,1463572.0,1.0
1650899.8616813,290213.71875,349378.71875,329381.9375,332580.90625,347662.4375,313180.5,305537.375,292073.3125,-0.08642578125,1.121337890625,-0.06689453125,-5.035399913787842,10.253905296325684,0.4882812201976776,80.0,1463573.0,1.0
1650899.8803475,284575.625,340989.46875,321241.78125,325522.875,342661.125,308251.65625,301913.6875,287563.15625,-0.09033203125,1.123291015625,-0.06103515625,-6.042479991912842,9.765624046325684,-0.4577636420726776,80.0,1463574.0,1.0
1650899.8803914,279420.4375,334249.4375,313644.25,317410.25,338671.21875,306190.40625,300809.4375,284859.3125,-0.093505859375,1.119384765625,-0.0546875,-7.263183116912842,9.246825218200684,-1.4038084745407104,80.0,1463575.0,1.0
1650899.8804031,281710.59375,337796.84375,316558.125,318908.09375,340894.15625,309753.25,303675.8125,287588.8125,-0.093505859375,1.11181640625,-0.044921875,-8.636473655700684,8.697508811950684,-2.319335699081421,80.0,1463576.0,1.0
1650899.8835523,288202.25,346178.90625,325562.03125,327542.125,346033.4375,314021.0,306561.6875,291990.875,-0.0908203125,1.097900390625,-0.0361328125,-9.979247093200684,8.056639671325684,-3.204345464706421,80.0,1463577.0,1.0
1650899.8835986,290063.59375,347528.4375,328139.28125,331335.9375,346962.9375,313231.46875,305585.09375,292146.53125,-0.086181640625,1.07958984375,-0.028076171875,-11.169432640075684,7.476806163787842,-3.906249761581421,80.0,1463578.0,1.0
1650899.8916309,284488.53125,339278.125,320155.3125,324463.75,342064.40625,308331.25,301974.125,287671.15625,-0.079345703125,1.056640625,-0.0205078125,-12.329100608825684,7.080077648162842,-4.699706554412842,80.0,1463579.0,1.0
1650899.8942038,279237.0625,332477.84375,312516.125,316325.125,338047.09375,306189.21875,300796.28125,284892.03125,-0.07275390625,1.02783203125,-0.007568359375,-13.336180686950684,6.835937023162842,-5.340575695037842,80.0,1463580.0,1.0
1650899.8966896,281449.0625,336006.5625,315427.65625,317804.375,340278.40625,309727.96875,303639.25,287603.3125,-0.068115234375,0.995849609375,0.0009765625,-13.946532249450684,6.469726085662842,-5.920409679412842,80.0,1463581.0,1.0
1650899.8993481,287989.28125,344552.4375,324612.96875,326583.59375,345544.5625,314079.125,306585.40625,292076.53125,-0.065185546875,0.963134765625,0.006103515625,-14.251708030700684,6.103515148162842,-6.408690929412842,80.0,1463582.0,1.0
1650899.9016803,289953.09375,346124.46875,327429.03125,330590.90625,346620.6875,313361.09375,305661.09375,292291.375,-0.06298828125,0.93017578125,0.013916015625,-14.160155296325684,5.767821788787842,-6.835937023162842,80.0,1463583.0,1.0
1650899.9041291,284365.15625,337913.6875,319506.75,323781.21875,341761.75,308399.90625,301999.53125,287754.21875,-0.06298828125,0.89453125,0.013916015625,-13.885497093200684,5.340575695037842,-7.263183116912842,80.0,1463584.0,1.0
1650899.9066687,279008.4375,330995.71875,311761.34375,315540.5625,337721.1875,306168.5,300760.53125,284882.5625,-0.061767578125,0.858642578125,0.015869140625,-13.122557640075684,5.249022960662842,-7.720946788787842,80.0,1463585.0,1.0
1650899.9161068,281097.15625,334399.28125,314546.5625,316875.40625,339924.90625,309652.5,303574.0,287526.875,-0.069580078125,0.829345703125,0.0185546875,-11.871336936950684,5.187987804412842,-8.239745140075684,80.0,1463586.0,1.0
1650899.9161515,287619.9375,342982.4375,323771.125,325659.125,345268.84375,314039.875,306550.96875,292032.34375,-0.07958984375,0.802978515625,0.01806640625,-10.437010765075684,5.004882335662842,-8.789061546325684,80.0,1463587.0,1.0
1650899.9178194,289630.875,344651.5,326700.53125,329776.5,346463.21875,313361.09375,305656.90625,292300.40625,-0.091552734375,0.780029296875,0.01806640625,-8.819579124450684,4.699706554412842,-9.307860374450684,80.0,1463588.0,1.0
1650899.9266979,284041.4375,336428.375,318773.1875,323006.6875,341639.53125,308368.15625,301983.625,287732.0625,-0.108642578125,0.761474609375,0.011474609375,-6.805419445037842,4.364013195037842,-9.918211936950684,80.0,1463589.0,1.0
1650899.9310213,278604.84375,329359.3125,310855.65625,314652.0625,337519.9375,306046.0,300687.40625,284770.90625,-0.1328125,0.75048828125,0.00732421875,-4.730224132537842,3.692626714706421,-10.467528343200684,80.0,1463590.0,1.0
1650899.9310649,280667.84375,332677.75,313524.4375,315879.15625,339661.9375,309519.625,303504.875,287388.09375,-0.154541015625,0.74755859375,0.006103515625,-2.471923589706421,2.777099370956421,-11.108397483825684,80.0,1463591.0,1.0
1650899.9398319,287317.46875,341376.40625,322835.90625,324718.375,345017.96875,314005.09375,306566.15625,291956.4375,-0.176025390625,0.749267578125,0.005126953125,-0.3967284858226776,1.7395018339157104,-11.840819358825684,80.0,1463592.0,1.0
1650899.9398755,289547.90625,343294.75,325976.4375,329026.625,346266.34375,313437.375,305744.25,292309.34375,-0.1962890625,0.755126953125,0.007568359375,1.5563963651657104,0.2441406100988388,-12.329100608825684,80.0,1463593.0,1.0
1650899.9415426,284074.40625,335184.28125,318137.65625,322376.8125,341419.6875,308441.84375,302052.1875,287763.625,-0.21240234375,0.758056640625,0.00732421875,3.326415777206421,-1.6479490995407104,-12.847899436950684,80.0,1463594.0,1.0
1650899.9453666,278618.34375,328083.03125,310156.75,314006.09375,337202.09375,306048.40625,300697.5,284745.78125,-0.22412109375,0.764892578125,0.00439453125,4.852294445037842,-3.601073980331421,-13.214110374450684,80.0,1463595.0,1.0
1650899.9547618,280668.46875,331429.90625,312805.875,315228.8125,339305.5625,309515.25,303514.0,287346.625,-0.236083984375,0.77001953125,-0.00048828125,6.011962413787842,-5.523681163787842,-13.580321311950684,80.0,1463596.0,1.0
1650899.9548133,287379.4375,340290.65625,322241.1875,324162.96875,344713.4375,314059.625,306615.875,291955.8125,-0.24755859375,0.7724609375,-0.00390625,6.866454601287842,-7.629394054412842,-13.793944358825684,80.0,1463597.0,1.0
1650899.9567024,289725.46875,342426.0625,325591.09375,328664.8125,346052.21875,313564.6875,305834.65625,292385.34375,-0.257568359375,0.77099609375,-0.015625,7.690429210662842,-9.765624046325684,-13.946532249450684,80.0,1463598.0,1.0
1650899.9704037,284333.5,334479.46875,317896.4375,322183.34375,341270.65625,308600.09375,302153.65625,287887.625,-0.26513671875,0.773681640625,-0.0244140625,8.514403343200684,-11.779784202575684,-14.282225608825684,80.0,1463599.0,1.0
1650899.9733897,278870.5625,327401.40625,309906.0625,313830.21875,337039.90625,306181.375,300783.3125,284856.375,-0.271484375,0.779052734375,-0.031005859375,9.338377952575684,-13.885497093200684,-14.465331077575684,80.0,1463600.0,1.0
1650899.9734384,280879.0,330722.0625,312490.53125,314978.65625,339065.6875,309604.40625,303570.3125,287405.71875,-0.27294921875,0.789306640625,-0.044677734375,10.162352561950684,-15.869139671325684,-14.678954124450684,80.0,1463601.0,1.0
1650899.9753719,287639.6875,339693.15625,321987.0,323934.71875,344469.375,314176.65625,306698.5,292028.3125,-0.27001953125,0.80322265625,-0.052978515625,10.742186546325684,-17.761228561401367,-14.556883811950684,80.0,1463602.0,1.0
1650899.9823994,290105.625,342044.28125,325515.90625,328594.0,345871.0,313749.84375,305964.8125,292513.0,-0.260986328125,0.818115234375,-0.06591796875,11.047362327575684,-19.561765670776367,-14.251708030700684,80.0,1463603.0,1.0
1650899.9824442,284801.125,334235.40625,317950.375,322258.875,341110.25,308802.59375,302293.0625,288049.0,-0.248291015625,0.835205078125,-0.080810546875,11.322020530700684,-21.148679733276367,-13.732909202575684,80.0,1463604.0,1.0
1650899.9875577,279333.25,327174.65625,309962.75,313929.71875,336825.4375,306348.1875,300903.9375,284995.5625,-0.23095703125,0.852783203125,-0.095458984375,11.505125999450684,-22.460935592651367,-12.908934593200684,80.0,1463605.0,1.0
1650900.0040624,281310.9375,330508.1875,312513.15625,315039.625,338787.03125,309740.9375,303664.46875,287508.09375,-0.21142578125,0.868408203125,-0.113037109375,11.657713890075684,-23.498533248901367,-11.871336936950684,80.0,1463606.0,1.0
1650900.0041067,288106.21875,339608.125,322085.6875,324046.9375,344200.875,314347.78125,306808.375,292136.96875,-0.18896484375,0.88671875,-0.127197265625,11.383055686950684,-24.108884811401367,-10.559081077575684,80.0,1463607.0,1.0
1650900.0041186,290636.4375,342144.25,325781.4375,328854.25,345674.75,313976.84375,306101.0,292657.75,-0.1630859375,0.902587890625,-0.14501953125,11.199950218200684,-24.047849655151367,-8.880614280700684,80.0,1463608.0,1.0
1650900.0066885,285345.96875,334445.875,318334.0,322653.34375,340960.15625,309025.5,302410.09375,288197.78125,-0.14013671875,0.92041015625,-0.15771484375,10.650633811950684,-23.620603561401367,-6.896972179412842,80.0,1463609.0,1.0
1650900.0092002,279809.6875,327372.25,310340.3125,314344.03125,336664.9375,306508.9375,300964.5625,285110.71875,-0.117919921875,0.932861328125,-0.169677734375,10.009764671325684,-22.949216842651367,-4.699706554412842,80.0,1463610.0,1.0
1650900.0116821,281678.65625,330666.90625,312839.84375,315402.1875,338610.625,309858.5,303706.21875,287591.6875,-0.100830078125,0.942626953125,-0.17919921875,9.399413108825684,-21.759031295776367,-2.319335699081421,80.0,1463611.0,1.0
1650900.0142324,288406.1875,339788.71875,322406.59375,324380.34375,344039.3125,314459.8125,306851.125,292208.46875,-0.09130859375,0.94921875,-0.187255859375,8.789061546325684,-20.324705123901367,0.0915527269244194,80.0,1463612.0,1.0
1650900.0166158,290991.84375,342475.15625,326231.875,329293.5,345607.96875,314144.65625,306190.40625,292787.5625,-0.091796875,0.954345703125,-0.19287109375,8.087157249450684,-18.890378952026367,2.441406011581421,80.0,1463613.0,1.0
1650900.0254771,285773.78125,334921.25,318938.21875,323234.21875,340999.46875,309243.5625,302538.28125,288395.28125,-0.09423828125,0.95703125,-0.200927734375,7.354735851287842,-17.395017623901367,4.760741710662842,80.0,1463614.0,1.0
1650900.0284669,280198.25,327846.09375,310960.53125,314938.25,336728.5,306703.15625,301075.59375,285295.34375,-0.099365234375,0.957275390625,-0.206787109375,6.561278820037842,-15.960692405700684,6.805419445037842,80.0,1463615.0,1.0
1650900.0285088,281959.3125,331071.5625,313369.0625,315903.9375,338639.9375,309984.375,303764.78125,287702.5625,-0.109375,0.9580078125,-0.2080078125,5.950927257537842,-14.526366233825684,8.544920921325684,80.0,1463616.0,1.0
1650900.0304382,288676.0,340245.96875,322943.125,324875.75,344103.6875,314595.375,306932.75,292318.0,-0.11865234375,0.957763671875,-0.215087890625,5.310058116912842,-13.397215843200684,9.979247093200684,80.0,1463617.0,1.0
1650900.0442377,291311.28125,343058.96875,326864.6875,329872.25,345743.875,314313.90625,306301.4375,292926.875,-0.129150390625,0.9560546875,-0.216064453125,4.821776866912842,-12.298583030700684,11.169432640075684,80.0,1463618.0,1.0
1650900.0473454,286122.8125,335597.25,319662.5,323909.0625,341190.1875,309418.6875,302633.6875,288542.4375,-0.1328125,0.953125,-0.216552734375,4.241942882537842,-11.596678733825684,12.268065452575684,80.0,1463619.0,1.0
1650900.0473886,280504.65625,328517.5625,311678.90625,315625.25,336921.28125,306840.28125,301133.34375,285406.03125,-0.134765625,0.950439453125,-0.217041015625,3.631591558456421,-10.925292015075684,13.092040061950684,80.0,1463620.0,1.0
1650900.0584721,282204.65625,331709.75,314032.09375,316552.5625,338831.28125,310104.90625,303828.53125,287794.0,-0.13623046875,0.94482421875,-0.218017578125,3.021239995956421,-10.406493186950684,13.732909202575684,80.0,1463621.0,1.0
1650900.0585138,288863.59375,340867.15625,323561.46875,325485.75,344298.34375,314707.03125,306993.0,292385.78125,-0.135009765625,0.935302734375,-0.218017578125,2.441406011581421,-9.796141624450684,14.251708030700684,80.0,1463622.0,1.0
1650900.0610085,291524.34375,343753.75,327543.0,330538.40625,345999.5625,314453.84375,306377.625,293019.84375,-0.135986328125,0.92578125,-0.220947265625,1.8615721464157104,-9.399413108825684,14.648436546325684,80.0,1463623.0,1.0
1650900.0610527,286383.0,336382.59375,320429.09375,324662.84375,341521.15625,309584.90625,302728.28125,288673.34375,-0.13818359375,0.915771484375,-0.22021484375,1.5563963651657104,-8.972167015075684,14.801024436950684,80.0,1463624.0,1.0
1650900.0666982,280732.8125,329292.53125,312425.0,316367.40625,337259.59375,306976.28125,301208.1875,285524.40625,-0.1396484375,0.91015625,-0.2216796875,1.3732908964157104,-8.544920921325684,14.770506858825684,80.0,1463625.0,1.0
1650900.0711611,282348.84375,332406.3125,314692.71875,317216.5,339136.34375,310188.84375,303863.3125,287873.3125,-0.139892578125,0.90869140625,-0.228759765625,1.3732908964157104,-8.392333030700684,14.556883811950684,80.0,1463626.0,1.0
1650900.071206,288976.0625,341538.875,324183.8125,326113.5625,344592.3125,314781.5,307023.21875,292457.65625,-0.140380859375,0.911865234375,-0.22998046875,1.4343260526657104,-8.026122093200684,14.007567405700684,80.0,1463627.0,1.0
1650900.0816474,291701.8125,344498.15625,328220.0,331225.5,346313.75,314559.5,306427.78125,293113.71875,-0.1328125,0.92431640625,-0.2314453125,1.5258787870407104,-7.781981945037842,13.549803733825684,80.0,1463628.0,1.0
1650900.0847695,286631.8125,337204.25,321164.28125,325420.5,341830.6875,309689.15625,302775.125,288766.3125,-0.123046875,0.936767578125,-0.233154296875,1.4953612089157104,-7.629394054412842,13.092040061950684,80.0,1463629.0,1.0
1650900.084813,280973.78125,330087.4375,313127.21875,317113.875,337510.90625,307037.25,301228.03125,285584.75,-0.10986328125,0.954833984375,-0.239501953125,1.2207030057907104,-7.171630382537842,12.725829124450684,80.0,1463630.0,1.0
1650900.0866581,282528.84375,333116.75,315287.375,317876.875,339306.125,310208.625,303863.84375,287892.375,-0.09521484375,0.969482421875,-0.242431640625,0.7324218153953552,-6.683349132537842,12.634276390075684,80.0,1463631.0,1.0
1650900.0993383,289149.0625,342243.59375,324732.78125,326733.96875,344731.25,314810.65625,307038.40625,292479.125,-0.07958984375,0.9833984375,-0.242919921875,0.2746581733226776,-5.920409679412842,12.664793968200684,80.0,1463632.0,1.0
1650900.101685,291945.1875,345294.40625,328837.4375,331906.78125,346490.84375,314642.46875,306487.84375,293192.40625,-0.0673828125,0.998291015625,-0.239501953125,-0.6713866591453552,-4.913329601287842,12.878417015075684,80.0,1463633.0,1.0
1650900.1042155,286947.59375,338082.3125,321862.8125,326179.8125,342042.78125,309810.3125,302859.96875,288887.46875,-0.05810546875,1.01025390625,-0.236328125,-1.6479490995407104,-3.784179449081421,13.122557640075684,80.0,1463634.0,1.0
1650900.106608,281238.5,330903.375,313762.0,317815.1875,337670.15625,307107.8125,301263.09375,285656.125,-0.05078125,1.018798828125,-0.232421875,-2.807616949081421,-2.716064214706421,13.427733421325684,80.0,1463635.0,1.0
1650900.1105418,282675.8125,333793.46875,315784.375,318443.875,339395.6875,310222.8125,303857.0625,287908.1875,-0.04638671875,1.023193359375,-0.22998046875,-4.089354991912842,-1.5258787870407104,13.763426780700684,80.0,1463636.0,1.0
1650900.1421957,289191.4375,342803.1875,325113.8125,327178.59375,344771.5625,314792.78125,307009.53125,292461.0625,-0.041748046875,1.025390625,-0.226318359375,-5.584716320037842,-0.2746581733226776,14.038084983825684,80.0,1463637.0,1.0
1650900.1422405,291990.59375,345857.78125,329225.5625,332350.6875,346563.1875,314655.0,306486.0625,293200.90625,-0.0400390625,1.024658203125,-0.220703125,-7.019042491912842,0.9155272841453552,14.190672874450684,80.0,1463638.0,1.0
1650900.1452267,287019.75,338668.09375,322297.25,326666.125,342162.65625,309845.15625,302880.46875,288917.59375,-0.039794921875,1.020751953125,-0.21923828125,-8.361815452575684,2.014159917831421,14.282225608825684,80.0,1463639.0,1.0
1650900.1452603,281249.5,331392.34375,314124.8125,318233.34375,337769.21875,307100.1875,301254.0625,285647.34375,-0.041259765625,1.0185546875,-0.217041015625,-9.582518577575684,3.143310308456421,14.312743186950684,80.0,1463640.0,1.0
1650900.1452725,282535.28125,334071.96875,315942.625,318663.65625,339394.09375,310119.125,303776.59375,287806.96875,-0.046875,1.016845703125,-0.2158203125,-10.742186546325684,4.180907726287842,14.282225608825684,80.0,1463641.0,1.0
1650900.1496143,289014.40625,342996.75,325189.1875,327311.28125,344754.75,314700.59375,306951.5,292366.71875,-0.05078125,1.017822265625,-0.21240234375,-11.901854515075684,5.157470226287842,14.007567405700684,80.0,1463642.0,1.0
1650900.1496608,291875.1875,346079.9375,329339.46875,332514.125,346579.625,314608.25,306461.28125,293149.3125,-0.060302734375,1.01904296875,-0.20947265625,-13.122557640075684,5.920409679412842,13.580321311950684,80.0,1463643.0,1.0
1650900.1496716,286992.125,338939.28125,322477.75,326896.34375,342215.15625,309826.40625,302864.0,288902.9375,-0.067626953125,1.017333984375,-0.204833984375,-14.282225608825684,6.622313976287842,13.092040061950684,80.0,1463644.0,1.0
1650900.1496826,281202.75,331582.875,314238.625,318404.28125,337778.3125,307039.9375,301208.0,285603.53125,-0.079345703125,1.014404296875,-0.203125,-15.380858421325684,6.988524913787842,12.329100608825684,80.0,1463645.0,1.0
1650900.1517189,282383.1875,334105.75,315898.28125,318678.03125,339321.03125,310007.90625,303704.34375,287713.46875,-0.092041015625,1.008544921875,-0.205810546875,-16.387937545776367,7.293700695037842,11.505125999450684,80.0,1463646.0,1.0
1650900.1542319,288817.09375,342972.4375,325072.53125,327243.9375,344665.4375,314605.90625,306892.5,292280.625,-0.101806640625,1.000732421875,-0.206787109375,-17.333982467651367,7.354735851287842,10.528563499450684,80.0,1463647.0,1.0
1650900.1578314,291776.03125,346163.1875,329332.21875,332549.1875,346578.375,314604.125,306461.75,293147.4375,-0.1123046875,0.993896484375,-0.2060546875,-18.035886764526367,7.324218273162842,9.216307640075684,80.0,1463648.0,1.0
1650900.1665997,286973.53125,339096.90625,322555.71875,327021.9375,342259.21875,309841.5,302877.59375,288919.90625,-0.11865234375,0.9873046875,-0.20947265625,-18.554685592651367,7.049560070037842,7.904052257537842,80.0,1463649.0,1.0
1650900.1709206,281147.6875,331669.40625,314251.0625,318476.96875,337777.0625,307002.21875,301185.03125,285568.40625,-0.12646484375,0.984375,-0.208740234375,-18.890378952026367,6.866454601287842,6.561278820037842,80.0,1463650.0,1.0
1650900.1709522,282233.15625,334063.75,315774.46875,318620.90625,339245.21875,309925.1875,303653.46875,287634.78125,-0.133056640625,0.98095703125,-0.21044921875,-19.042966842651367,6.225585460662842,5.035399913787842,80.0,1463651.0,1.0
1650900.182108,288635.59375,342896.875,324902.5625,327134.34375,344567.28125,314532.34375,306851.90625,292211.53125,-0.135986328125,0.98193359375,-0.209716796875,-19.134519577026367,5.767821788787842,3.540038824081421,80.0,1463652.0,1.0
1650900.182129,291697.15625,346210.75,329276.625,332544.71875,346544.9375,314599.3125,306476.21875,293141.53125,-0.135498046875,0.9794921875,-0.20751953125,-19.134519577026367,5.157470226287842,2.044677495956421,80.0,1463653.0,1.0
1650900.185808,287007.0625,339248.1875,322615.78125,327139.4375,342282.5625,309877.96875,302918.375,288952.71875,-0.134033203125,0.97802734375,-0.208740234375,-19.134519577026367,4.730224132537842,0.5798339247703552,80.0,1463654.0,1.0
1650900.1858261,281169.84375,331768.125,314272.59375,318571.90625,337766.625,306998.1875,301190.65625,285564.5625,-0.132568359375,0.97705078125,-0.2109375,-18.981931686401367,4.272460460662842,-0.6713866591453552,80.0,1463655.0,1.0
1650900.1996143,282174.4375,334060.6875,315686.21875,318610.625,339179.0625,309879.25,303628.15625,287586.6875,-0.130126953125,0.97265625,-0.212158203125,-18.798826217651367,3.875732183456421,-1.8310545682907104,80.0,1463656.0,1.0
1650900.1996419,288550.84375,342895.28125,324792.5,327089.46875,344507.375,314514.1875,306847.53125,292180.40625,-0.12646484375,0.96923828125,-0.212158203125,-18.585203170776367,3.540038824081421,-2.868652105331421,80.0,1463657.0,1.0
1650900.2019828,291698.875,346339.65625,329301.65625,332623.125,346571.78125,314659.75,306534.25,293188.28125,-0.121826171875,0.968017578125,-0.20556640625,-18.310544967651367,3.417968511581421,-3.814697027206421,80.0,1463658.0,1.0
1650900.2020132,287105.21875,339489.125,322777.34375,327364.1875,342381.28125,309970.96875,302995.96875,289043.21875,-0.11767578125,0.962890625,-0.203125,-17.883298873901367,3.265380620956421,-4.638671398162842,80.0,1463659.0,1.0
1650900.2077961,281219.75,331951.21875,314381.40625,318766.125,337821.6875,307020.96875,301208.0,285590.75,-0.11572265625,0.959716796875,-0.200439453125,-17.364500045776367,3.204345464706421,-5.340575695037842,80.0,1463660.0,1.0
1650900.2103243,282093.59375,334111.125,315646.53125,318663.125,339151.625,309835.5,303596.875,287539.5625,-0.113037109375,0.95703125,-0.19775390625,-16.784666061401367,3.265380620956421,-5.859374523162842,80.0,1463661.0,1.0
1650900.2141321,288457.0625,342968.125,324757.53125,327127.71875,344507.09375,314518.65625,306863.34375,292164.75,-0.11181640625,0.9501953125,-0.19189453125,-16.265867233276367,3.204345464706421,-6.347655773162842,80.0,1463662.0,1.0
1650900.2233989,291720.3125,346572.40625,329427.71875,332808.625,346686.21875,314765.25,306623.84375,293266.34375,-0.110107421875,0.9462890625,-0.18798828125,-15.808104515075684,3.295898199081421,-6.622313976287842,80.0,1463663.0,1.0
1650900.2234301,287181.65625,339789.625,322981.46875,327639.5,342527.53125,310059.65625,303054.25,289122.0625,-0.113037109375,0.940673828125,-0.1865234375,-15.319823265075684,3.326415777206421,-6.805419445037842,80.0,1463664.0,1.0
1650900.2253254,281239.84375,332158.28125,314509.96875,318987.03125,337921.28125,307032.34375,301198.8125,285610.5,-0.111083984375,0.9345703125,-0.18408203125,-14.678954124450684,3.387450933456421,-6.866454601287842,80.0,1463665.0,1.0
1650900.2290324,282015.625,334199.8125,315644.46875,318753.3125,339191.40625,309794.125,303556.65625,287506.125,-0.1123046875,0.9306640625,-0.183349609375,-13.885497093200684,3.601073980331421,-6.866454601287842,80.0,1463666.0,1.0
1650900.2434198,288367.8125,343064.78125,324738.21875,327175.28125,344558.6875,314509.53125,306861.84375,292157.0625,-0.115234375,0.930419921875,-0.181640625,-13.092040061950684,3.753661870956421,-6.896972179412842,80.0,1463667.0,1.0
1650900.2434496,291718.25,346791.09375,329525.71875,332955.4375,346814.6875,314826.9375,306675.875,293323.125,-0.11865234375,0.928466796875,-0.179931640625,-12.207030296325684,3.906249761581421,-6.988524913787842,80.0,1463668.0,1.0
1650900.2453234,287266.875,340087.25,323186.3125,327904.65625,342711.34375,310149.96875,303116.03125,289210.84375,-0.120849609375,0.931396484375,-0.181640625,-11.505125999450684,4.119872570037842,-6.927489757537842,80.0,1463669.0,1.0
1650900.2478513,281289.28125,332381.0,314644.8125,319201.625,338046.71875,307054.96875,301211.9375,285636.34375,-0.1259765625,0.929931640625,-0.18212890625,-10.772704124450684,4.211425304412842,-6.835937023162842,80.0,1463670.0,1.0
1650900.2502245,281973.09375,334300.46875,315639.1875,318828.78125,339233.4375,309759.4375,303538.125,287467.78125,-0.129638671875,0.932861328125,-0.18115234375,-10.192870140075684,4.180907726287842,-6.652831554412842,80.0,1463671.0,1.0
1650900.259644,288324.375,343183.25,324727.84375,327223.84375,344617.15625,314517.3125,306884.0,292142.40625,-0.13427734375,0.9306640625,-0.181396484375,-9.643553733825684,4.150390148162842,-6.378173351287842,80.0,1463672.0,1.0
1650900.2596736,291761.625,347039.625,329643.90625,333107.96875,346949.4375,314902.65625,306743.09375,293374.625,-0.137451171875,0.928955078125,-0.180908203125,-9.002684593200684,4.241942882537842,-6.225585460662842,80.0,1463673.0,1.0
1650900.261545,287392.84375,340442.3125,323431.8125,328181.5625,342916.375,310251.875,303198.125,289300.96875,-0.1396484375,0.9248046875,-0.179931640625,-8.331297874450684,3.997802495956421,-5.798339366912842,80.0,1463674.0,1.0
1650900.2652285,281397.84375,332703.40625,314872.0,319473.59375,338245.46875,307118.53125,301271.65625,285703.21875,-0.141357421875,0.91845703125,-0.1796875,-7.751464366912842,3.936767339706421,-5.523681163787842,80.0,1463675.0,1.0
1650900.274541,281986.75,334525.53125,315757.03125,318989.28125,339376.46875,309765.34375,303551.71875,287476.0,-0.14599609375,0.90966796875,-0.182373046875,-7.049560070037842,3.845214605331421,-5.310058116912842,80.0,1463676.0,1.0
1650900.2745596,288286.46875,343402.65625,324821.375,327334.59375,344752.34375,314522.59375,306889.375,292135.625,-0.14892578125,0.899658203125,-0.182861328125,-6.317138195037842,3.662109136581421,-5.004882335662842,80.0,1463677.0,1.0
1650900.2809058,291781.5625,347381.71875,329859.90625,333321.21875,347163.8125,314967.75,306788.34375,293425.59375,-0.152099609375,0.89013671875,-0.1845703125,-5.279540538787842,3.387450933456421,-4.791259288787842,80.0,1463678.0,1.0
1650900.2809353,287496.90625,340906.40625,323777.71875,328535.625,343209.34375,310356.65625,303277.59375,289408.34375,-0.15234375,0.887451171875,-0.185546875,-4.302978038787842,3.173827886581421,-4.669188976287842,80.0,1463679.0,1.0
1650900.2827944,281489.9375,333143.375,315199.75,319828.8125,338521.9375,307180.9375,301311.90625,285775.1875,-0.156494140625,0.886474609375,-0.186767578125,-3.204345464706421,2.868652105331421,-4.608153820037842,80.0,1463680.0,1.0
1650900.2941236,282019.21875,334886.0,315993.25,319255.4375,339600.0,309780.34375,303557.1875,287493.4375,-0.1572265625,0.8896484375,-0.1875,-2.136230230331421,2.502441167831421,-4.608153820037842,80.0,1463681.0,1.0
1650900.2971694,288322.40625,343793.4375,325052.9375,327578.59375,344978.90625,314555.59375,306904.9375,292155.1875,-0.156494140625,0.89501953125,-0.187255859375,-1.0375975370407104,2.288818120956421,-4.394530773162842,80.0,1463682.0,1.0
1650900.2971987,291910.75,347923.0625,330223.25,333683.5625,347472.71875,315075.5625,306860.21875,293513.5625,-0.157958984375,0.900634765625,-0.1875,-0.3662109076976776,1.8920897245407104,-4.333495616912842,80.0,1463683.0,1.0
1650900.3028245,287733.03125,341587.34375,324285.03125,329047.65625,343598.1875,310517.4375,303384.1875,289558.09375,-0.156005859375,0.906982421875,-0.18994140625,0.3967284858226776,1.5258787870407104,-4.272460460662842,80.0,1463684.0,1.0
1650900.3095337,281724.1875,333823.40625,315706.6875,320359.4375,338894.40625,307305.3125,301380.5625,285898.3125,-0.1552734375,0.9130859375,-0.189453125,0.9460448622703552,1.2207030057907104,-4.089354991912842,80.0,1463685.0,1.0
1650900.3095667,282189.625,335516.5,316421.15625,319713.375,339917.84375,309853.03125,303590.53125,287560.21875,-0.15478515625,0.91943359375,-0.194580078125,1.4953612089157104,1.0986326932907104,-3.967284917831421,80.0,1463686.0,1.0
1650900.3158577,288472.96875,344456.5,325479.21875,328022.6875,345297.1875,314638.625,306958.9375,292217.15625,-0.154052734375,0.923583984375,-0.1953125,1.7700194120407104,0.7324218153953552,-3.784179449081421,80.0,1463687.0,1.0
1650900.3158916,292105.40625,348705.03125,330746.125,334209.46875,347847.4375,315204.6875,306946.6875,293615.9375,-0.149658203125,0.926513671875,-0.197265625,2.075195074081421,0.4577636420726776,-3.479003667831421,80.0,1463688.0,1.0
1650900.3178054,287941.34375,342423.03125,324872.0625,329645.875,344000.875,310639.28125,303455.25,289668.4375,-0.146728515625,0.930419921875,-0.200439453125,2.288818120956421,0.3051757514476776,-3.173827886581421,80.0,1463689.0,1.0
1650900.3265785,281890.03125,334610.28125,316251.625,320938.15625,339269.71875,307373.0625,301414.71875,285970.8125,-0.146728515625,0.93115234375,-0.201416015625,2.288818120956421,0.1525878757238388,-2.899169683456421,80.0,1463690.0,1.0
1650900.3303261,282293.0625,336227.75,316874.4375,320210.46875,340245.0625,309874.59375,303590.4375,287585.96875,-0.148193359375,0.93505859375,-0.202880859375,2.380370855331421,0.0610351525247097,-2.716064214706421,80.0,1463691.0,1.0
1650900.3341172,288548.78125,345151.0,325892.46875,328468.375,345619.40625,314664.84375,306970.28125,292240.84375,-0.1494140625,0.938720703125,-0.2080078125,2.471923589706421,-0.03051757626235485,-2.471923589706421,80.0,1463692.0,1.0
1650900.3434191,292219.46875,349465.4375,331223.71875,334702.71875,348218.8125,315272.8125,306994.78125,293691.28125,-0.150146484375,0.946533203125,-0.20947265625,2.532958745956421,-0.2746581733226776,-2.319335699081421,80.0,1463693.0,1.0
1650900.3434486,288114.0,343257.1875,325442.03125,330235.59375,344427.53125,310744.96875,303524.28125,289787.59375,-0.1513671875,0.954345703125,-0.213134765625,2.471923589706421,-0.4882812201976776,-2.197265386581421,80.0,1463694.0,1.0
1650900.3459233,282054.53125,335421.5625,316795.125,321519.5625,339673.84375,307441.5625,301445.125,286056.375,-0.152587890625,0.959716796875,-0.213134765625,2.258300542831421,-0.6408690810203552,-1.9531248807907104,80.0,1463695.0,1.0
1650900.3459531,282440.21875,337017.84375,317377.71875,320755.25,340631.21875,309935.03125,303631.28125,287656.25,-0.155029296875,0.964599609375,-0.216064453125,1.9531248807907104,-0.8239745497703552,-1.8310545682907104,80.0,1463696.0,1.0
1650900.3591261,288686.375,345979.4375,326397.8125,328997.5,346007.625,314741.375,307028.59375,292302.09375,-0.156982421875,0.96923828125,-0.21630859375,1.5869139432907104,-1.0070799589157104,-1.5869139432907104,80.0,1463697.0,1.0
1650900.3615318,292389.1875,350393.75,331814.4375,335301.125,348659.5,315400.21875,307080.53125,293786.0625,-0.15673828125,0.972900390625,-0.21728515625,1.2207030057907104,-1.2207030057907104,-1.4343260526657104,80.0,1463698.0,1.0
1650900.3641271,288315.625,344264.8125,326114.65625,330922.40625,344915.40625,310884.875,303612.53125,289905.09375,-0.156982421875,0.97509765625,-0.2197265625,0.9460448622703552,-1.4343260526657104,-1.3732908964157104,80.0,1463699.0,1.0
1650900.3665812,282255.0625,336444.09375,317482.40625,322240.90625,340171.5625,307561.1875,301517.53125,286173.25,-0.156005859375,0.97900390625,-0.221435546875,0.5187987685203552,-1.5563963651657104,-1.1901854276657104,80.0,1463700.0,1.0
1650900.3753254,282566.84375,337971.34375,317970.5625,321396.09375,341082.09375,309999.5625,303660.96875,287715.875,-0.152587890625,0.982421875,-0.220703125,0.2746581733226776,-1.8005369901657104,-1.0986326932907104,80.0,1463701.0,1.0
1650900.378421,288779.09375,346910.09375,326944.4375,329586.6875,346444.71875,314803.78125,307066.75,292353.6875,-0.150390625,0.988037109375,-0.2216796875,-0.0915527269244194,-1.8615721464157104,-0.8544921278953552,80.0,1463702.0,1.0
1650900.3784491,292484.03125,351341.28125,332371.0,335891.21875,349102.78125,315469.5,307120.9375,293835.96875,-0.144775390625,0.990478515625,-0.22021484375,-0.4272460639476776,-1.9531248807907104,-0.6408690810203552,80.0,1463703.0,1.0
1650900.3802746,288462.34375,345253.46875,326727.1875,331572.5,345389.90625,310971.96875,303665.0,289986.1875,-0.140625,0.993408203125,-0.2216796875,-0.8850097060203552,-1.9531248807907104,-0.1525878757238388,80.0,1463704.0,1.0
1650900.3946698,282350.125,337342.5625,318021.625,322833.3125,340585.96875,307581.21875,301512.625,286201.0625,-0.135498046875,0.99560546875,-0.22119140625,-1.2817381620407104,-1.8920897245407104,0.2746581733226776,80.0,1463705.0,1.0
1650900.3946988,282585.0625,338765.65625,318402.75,321889.1875,341433.03125,309964.625,303614.21875,287690.21875,-0.130126953125,0.9931640625,-0.221923828125,-1.6479490995407104,-1.5563963651657104,0.6713866591453552,80.0,1463706.0,1.0
1650900.3965131,288756.46875,347674.0625,327332.375,330023.4375,346788.125,314772.3125,307022.0625,292322.03125,-0.12353515625,0.986083984375,-0.22265625,-2.044677495956421,-1.1901854276657104,1.2512205839157104,80.0,1463707.0,1.0
1650900.3991263,292509.5,352188.9375,332834.125,336387.4375,349518.90625,315498.8125,307135.15625,293864.5625,-0.11572265625,0.978271484375,-0.2236328125,-2.136230230331421,-1.0375975370407104,1.6784666776657104,80.0,1463708.0,1.0
1650900.4016042,288514.625,346136.28125,327243.59375,332122.0,345849.53125,311017.84375,303691.75,290041.4375,-0.11328125,0.970947265625,-0.22900390625,-2.044677495956421,-0.5798339247703552,2.136230230331421,80.0,1463709.0,1.0
1650900.4103262,282413.84375,338205.96875,318543.9375,323401.40625,341073.5,307632.78125,301559.125,286275.25,-0.11083984375,0.964111328125,-0.231201171875,-1.7395018339157104,0.0915527269244194,2.471923589706421,80.0,1463710.0,1.0
1650900.4146684,282593.375,339536.78125,318835.65625,322373.15625,341880.84375,309983.5625,303640.0625,287727.3125,-0.11328125,0.960205078125,-0.2314453125,-1.2207030057907104,0.5493163466453552,2.685546636581421,80.0,1463711.0,1.0
1650900.4147045,288716.59375,348377.15625,327683.375,330416.46875,347186.71875,314767.90625,307019.1875,292316.5,-0.117431640625,0.958251953125,-0.233642578125,-0.5187987685203552,1.0681151151657104,2.777099370956421,80.0,1463712.0,1.0
1650900.4176754,292494.3125,352906.0,333200.40625,336786.4375,349932.03125,315526.625,307162.96875,293887.09375,-0.12060546875,0.95556640625,-0.232666015625,0.1525878757238388,1.5869139432907104,2.960204839706421,80.0,1463713.0,1.0
1650900.4246109,288525.53125,346853.125,327629.5625,332544.1875,346268.3125,311045.90625,303726.96875,290076.84375,-0.123779296875,0.95654296875,-0.234130859375,0.7019042372703552,1.9226073026657104,2.990722417831421,80.0,1463714.0,1.0
1650900.4246357,282390.34375,338826.34375,318851.75,323757.53125,341429.0,307603.75,301547.3125,286257.09375,-0.127685546875,0.95703125,-0.2373046875,1.4038084745407104,2.227782964706421,2.899169683456421,80.0,1463715.0,1.0
1650900.4265808,282518.5625,340035.84375,319021.09375,322610.78125,342157.9375,309906.78125,303592.6875,287654.90625,-0.130615234375,0.956787109375,-0.237548828125,1.9531248807907104,2.532958745956421,2.838134527206421,80.0,1463716.0,1.0
1650900.4403247,288619.15625,348831.34375,327806.78125,330578.375,347436.4375,314694.0625,306980.5625,292234.5,-0.135009765625,0.952392578125,-0.23974609375,2.624511480331421,2.716064214706421,2.746581792831421,80.0,1463717.0,1.0
1650900.4433582,292392.21875,353355.53125,333317.1875,336923.3125,350176.75,315462.78125,307123.8125,293810.84375,-0.139404296875,0.95166015625,-0.24462890625,3.356933355331421,2.868652105331421,2.563476324081421,80.0,1463718.0,1.0
1650900.4433861,288449.53125,347305.4375,327779.125,332711.8125,346532.96875,311004.6875,303699.6875,290032.125,-0.140625,0.94921875,-0.243896484375,3.997802495956421,2.960204839706421,2.410888433456421,80.0,1463719.0,1.0
1650900.4478291,282299.9375,339194.53125,318933.84375,323871.4375,341655.71875,307532.125,301496.78125,286190.40625,-0.140625,0.948974609375,-0.24462890625,4.882812023162842,3.021239995956421,2.227782964706421,80.0,1463720.0,1.0
1650900.45028,282372.28125,340261.59375,318962.53125,322594.15625,342307.6875,309787.40625,303515.59375,287540.1875,-0.14208984375,0.948974609375,-0.246337890625,5.615233898162842,3.051757574081421,2.014159917831421,80.0,1463721.0,1.0
1650900.454669,288427.46875,348944.09375,327639.125,330445.875,347522.78125,314558.25,306899.46875,292095.5625,-0.142578125,0.9482421875,-0.250244140625,6.317138195037842,3.204345464706421,2.014159917831421,80.0,1463722.0,1.0
1650900.4547008,292200.96875,353415.59375,333125.5,336751.03125,350249.25,315350.75,307063.28125,293689.78125,-0.14306640625,0.9521484375,-0.24853515625,6.835937023162842,3.143310308456421,1.8920897245407104,80.0,1463723.0,1.0
1650900.4602962,288250.0,347266.03125,327528.34375,332474.96875,346568.09375,310876.3125,303635.59375,289907.3125,-0.139404296875,0.95458984375,-0.2490234375,7.263183116912842,3.234863042831421,1.8005369901657104,80.0,1463724.0,1.0
1650900.4746121,282008.5,338908.34375,318487.6875,323446.84375,341562.375,307306.46875,301363.40625,285982.8125,-0.139404296875,0.953125,-0.250244140625,7.720946788787842,3.234863042831421,1.8615721464157104,80.0,1463725.0,1.0
1650900.474637,281934.625,339639.4375,318223.3125,321885.53125,342029.0,309439.1875,303283.875,287212.6875,-0.141357421875,0.949462890625,-0.25390625,8.056639671325684,3.295898199081421,1.8615721464157104,80.0,1463726.0,1.0
1650900.4771122,287942.25,348110.03125,326722.625,329551.1875,347150.78125,314196.6875,306665.78125,291750.53125,-0.14306640625,0.9501953125,-0.25537109375,8.453368186950684,3.448486089706421,1.8920897245407104,80.0,1463727.0,1.0
1650900.47714,291777.8125,352566.0625,332223.28125,335848.9375,349891.1875,315071.09375,306902.53125,293423.96875,-0.14501953125,0.95068359375,-0.2529296875,8.728026390075684,3.326415777206421,1.7700194120407104,80.0,1463728.0,1.0
1650900.4791261,287935.0,346520.90625,326754.34375,331695.34375,346274.5,310690.4375,303531.875,289739.25,-0.147216796875,0.951904296875,-0.251708984375,8.972167015075684,3.295898199081421,1.7395018339157104,80.0,1463729.0,1.0
1650900.4828257,281768.875,338215.71875,317788.09375,322751.78125,341301.78125,307160.90625,301282.5625,285864.25,-0.147705078125,0.95703125,-0.250732421875,9.216307640075684,3.265380620956421,1.7700194120407104,80.0,1463730.0,1.0
1650900.4965828,281761.8125,338977.1875,317566.53125,321237.5,341786.25,309327.25,303241.46875,287128.375,-0.146484375,0.96044921875,-0.25244140625,9.246825218200684,3.265380620956421,1.8920897245407104,80.0,1463731.0,1.0
1650900.4996687,287825.75,347518.3125,326132.96875,328955.8125,346929.3125,314127.84375,306657.0,291693.5,-0.143798828125,0.9638671875,-0.25244140625,9.033202171325684,3.082275152206421,2.044677495956421,80.0,1463732.0,1.0
1650900.4996983,291745.0,352127.96875,331781.71875,335387.40625,349744.8125,315073.34375,306939.0,293429.25,-0.141845703125,0.962158203125,-0.25146484375,8.911131858825684,3.082275152206421,2.258300542831421,80.0,1463733.0,1.0
1650900.5015094,287943.5,346164.96875,326419.25,331339.3125,346182.59375,310717.4375,303574.78125,289775.09375,-0.141357421875,0.959228515625,-0.25439453125,8.728026390075684,3.021239995956421,2.471923589706421,80.0,1463734.0,1.0
1650900.5040857,281718.1875,337773.21875,317389.96875,322343.28125,341159.53125,307118.0,301269.625,285841.09375,-0.138916015625,0.955322265625,-0.2529296875,8.422850608825684,3.051757574081421,2.624511480331421,80.0,1463735.0,1.0
1650900.5127944,281594.8125,338353.21875,316997.8125,320663.0625,341527.15625,309178.09375,303143.40625,286998.1875,-0.13671875,0.950439453125,-0.255859375,8.270262718200684,2.990722417831421,2.868652105331421,80.0,1463736.0,1.0
1650900.5158949,287638.25,346841.875,325520.625,328328.53125,346648.84375,313978.625,306567.6875,291556.4375,-0.13916015625,0.947509765625,-0.2578125,8.209227561950684,3.021239995956421,2.960204839706421,80.0,1463737.0,1.0
1650900.5159244,291631.1875,351559.34375,331288.53125,334863.46875,349546.96875,315011.09375,306917.375,293374.96875,-0.140869140625,0.947021484375,-0.258544921875,8.148192405700684,2.990722417831421,3.021239995956421,80.0,1463738.0,1.0
1650900.5241103,287910.96875,345734.375,326069.84375,330953.09375,346073.3125,310728.78125,303608.3125,289801.125,-0.14404296875,0.944580078125,-0.25830078125,8.117674827575684,2.899169683456421,3.143310308456421,80.0,1463739.0,1.0
1650900.5408655,281680.53125,337338.34375,317043.25,321971.34375,341048.9375,307111.375,301277.65625,285851.1875,-0.148193359375,0.941650390625,-0.257080078125,8.117674827575684,2.899169683456421,3.143310308456421,80.0,1463740.0,1.0
1650900.5408922,281516.46875,337839.3125,316575.28125,320227.5625,341370.96875,309131.15625,303118.625,286961.0,-0.150390625,0.939453125,-0.258056640625,8.026122093200684,2.807616949081421,3.265380620956421,80.0,1463741.0,1.0
1650900.549124,287574.34375,346337.53125,325098.1875,327888.75,346498.0,313956.28125,306561.53125,291531.84375,-0.155517578125,0.93408203125,-0.257568359375,7.934569835662842,2.502441167831421,3.143310308456421,80.0,1463742.0,1.0
1650900.5590847,291604.28125,351147.0,330951.65625,334494.78125,349438.53125,315032.75,306938.09375,293391.34375,-0.159912109375,0.92626953125,-0.257568359375,7.873534679412842,2.166747808456421,3.021239995956421,80.0,1463743.0,1.0
1650900.5591324,287918.5625,345419.0625,325842.3125,330693.4375,346021.46875,310780.0,303646.59375,289854.65625,-0.16552734375,0.91796875,-0.259033203125,7.965087413787842,1.7395018339157104,2.777099370956421,80.0,1463744.0,1.0
1650900.5591455,281670.96875,337013.09375,316822.21875,321729.0625,340990.28125,307128.375,301292.9375,285883.21875,-0.171142578125,0.912109375,-0.2587890625,8.087157249450684,1.2512205839157104,2.441406011581421,80.0,1463745.0,1.0
1650900.5642318,281453.53125,337431.59375,316268.96875,319908.65625,341255.375,309082.875,303091.375,286933.65625,-0.176025390625,0.908447265625,-0.25830078125,8.361815452575684,0.8239745497703552,2.044677495956421,80.0,1463746.0,1.0
1650900.5642764,287489.40625,345907.21875,324759.78125,327530.6875,346353.0,313891.71875,306523.15625,291473.90625,-0.1767578125,0.9091796875,-0.26123046875,8.728026390075684,0.2441406100988388,1.5869139432907104,80.0,1463747.0,1.0
1650900.5642882,291621.78125,350859.28125,330752.46875,334262.5,349389.4375,315070.90625,306981.1875,293419.3125,-0.1748046875,0.91064453125,-0.261962890625,8.972167015075684,-0.2136230319738388,1.1901854276657104,80.0,1463748.0,1.0
1650900.5678646,287999.65625,345233.25,325743.875,330560.9375,346023.0,310852.25,303706.40625,289924.03125,-0.17138671875,0.9130859375,-0.267578125,9.216307640075684,-0.7629393935203552,0.7934569716453552,80.0,1463749.0,1.0
1650900.5679192,281716.75,336777.40625,316678.0,321569.375,340946.1875,307144.09375,301300.09375,285910.75,-0.167236328125,0.915283203125,-0.274658203125,9.429930686950684,-1.1291502714157104,0.5187987685203552,80.0,1463750.0,1.0
1650900.5679317,281464.28125,337119.21875,316041.625,319679.9375,341154.5,309058.75,303066.25,286913.96875,-0.15966796875,0.915771484375,-0.273681640625,9.643553733825684,-1.4038084745407104,0.3967284858226776,80.0,1463751.0,1.0
1650900.5704558,287482.25,345564.15625,324491.90625,327254.40625,346222.28125,313859.09375,306488.125,291431.34375,-0.15380859375,0.916748046875,-0.2734375,9.765624046325684,-1.6174315214157104,0.3662109076976776,80.0,1463752.0,1.0
1650900.5766877,291641.65625,350582.125,330541.53125,334030.75,349284.28125,315066.28125,306969.125,293403.84375,-0.150634765625,0.91943359375,-0.279296875,9.796141624450684,-1.7395018339157104,0.2441406100988388,80.0,1463753.0,1.0
1650900.5910977,288072.25,345045.59375,325637.03125,330435.78125,345982.21875,310893.1875,303737.6875,289966.78125,-0.1484375,0.922607421875,-0.282470703125,9.918211936950684,-1.7700194120407104,0.3051757514476776,80.0,1463754.0,1.0
1650900.5911403,281767.28125,336553.0,316547.21875,321435.09375,340883.78125,307148.65625,301309.5625,285927.65625,-0.146728515625,0.923095703125,-0.280517578125,9.857176780700684,-1.7700194120407104,0.4272460639476776,80.0,1463755.0,1.0
1650900.5934133,281443.875,336778.40625,315797.0,319441.9375,341018.96875,308999.375,303027.09375,286861.125,-0.145263671875,0.921142578125,-0.27978515625,9.704588890075684,-1.6174315214157104,0.4882812201976776,80.0,1463756.0,1.0
1650900.5934625,287440.21875,345190.78125,324204.75,326964.46875,346068.40625,313800.90625,306451.71875,291365.5625,-0.145751953125,0.919921875,-0.275634765625,9.582518577575684,-1.5869139432907104,0.5798339247703552,80.0,1463757.0,1.0
1650900.6022847,291619.125,350269.65625,330312.40625,333779.0625,349168.96875,315050.625,306961.875,293374.09375,-0.14990234375,0.914306640625,-0.27734375,9.552000999450684,-1.4343260526657104,0.7629393935203552,80.0,1463758.0,1.0
1650900.6023282,288065.375,344791.15625,325479.0625,330250.53125,345913.90625,310900.53125,303737.15625,289966.5,-0.15234375,0.909423828125,-0.279052734375,9.368895530700684,-1.3122557401657104,0.8239745497703552,80.0,1463759.0,1.0
1650900.6084889,281736.6875,336260.09375,316373.125,321248.5,340820.40625,307135.59375,301294.46875,285922.90625,-0.156005859375,0.90478515625,-0.2802734375,9.460448265075684,-1.2817381620407104,0.9765624403953552,80.0,1463760.0,1.0
1650900.6085308,281335.6875,336355.59375,315508.125,319151.90625,340889.25,308919.28125,302963.34375,286793.28125,-0.157958984375,0.9033203125,-0.28466796875,9.490965843200684,-1.1291502714157104,0.9765624403953552,80.0,1463761.0,1.0
1650900.6166545,287327.5,344734.8125,323871.25,326619.53125,345921.34375,313725.96875,306404.34375,291290.53125,-0.158447265625,0.904052734375,-0.283447265625,9.674071311950684,-1.2512205839157104,0.8850097060203552,80.0,1463762.0,1.0
1650900.6233951,291563.9375,349892.25,330058.46875,333496.71875,349071.84375,315038.1875,306966.09375,293352.625,-0.1611328125,0.906494140625,-0.282958984375,9.857176780700684,-1.3732908964157104,0.7324218153953552,80.0,1463763.0,1.0
1650900.6234386,288076.8125,344503.53125,325324.375,330067.34375,345864.46875,310928.59375,303770.9375,289990.90625,-0.164306640625,0.91162109375,-0.280029296875,9.796141624450684,-1.5258787870407104,0.8544921278953552,80.0,1463764.0,1.0
1650900.631035,281722.90625,335920.4375,316175.1875,321036.25,340724.28125,307113.4375,301281.78125,285903.5,-0.164306640625,0.9169921875,-0.282958984375,9.857176780700684,-1.5869139432907104,0.7019042372703552,80.0,1463765.0,1.0
1650900.6310792,281278.9375,335909.28125,315197.34375,318838.53125,340719.0,308842.21875,302920.78125,286722.375,-0.164794921875,0.9189453125,-0.28466796875,9.643553733825684,-1.7089842557907104,0.6713866591453552,80.0,1463766.0,1.0
1650900.6397872,287237.53125,344221.53125,323491.71875,326232.5625,345696.9375,313629.78125,306354.28125,291191.9375,-0.162841796875,0.921630859375,-0.28564453125,9.552000999450684,-1.7395018339157104,0.6103515028953552,80.0,1463767.0,1.0
1650900.63983,291550.96875,349476.5,329774.15625,333190.0625,348913.4375,315027.65625,306988.71875,293330.90625,-0.158203125,0.921875,-0.288818359375,9.216307640075684,-1.8005369901657104,0.6408690810203552,80.0,1463768.0,1.0
1650900.646102,288105.15625,344164.3125,325127.96875,329843.0,345747.53125,310951.6875,303807.96875,290010.78125,-0.153076171875,0.9208984375,-0.291748046875,8.880614280700684,-1.7700194120407104,0.6103515028953552,80.0,1463769.0,1.0
1650900.6461484,281715.84375,335533.5,315949.78125,320793.40625,340589.90625,307095.625,301278.09375,285897.34375,-0.1513671875,0.9189453125,-0.29443359375,8.636473655700684,-1.6784666776657104,0.7324218153953552,80.0,1463770.0,1.0
1650900.6479734,281184.78125,335392.9375,314851.4375,318482.34375,340512.125,308755.65625,302863.03125,286648.25,-0.148681640625,0.915771484375,-0.298095703125,8.575438499450684,-1.5258787870407104,0.7934569716453552,80.0,1463771.0,1.0
1650900.6622918,287133.125,343673.1875,323109.0625,325833.46875,345488.15625,313555.03125,306308.3125,291121.28125,-0.14990234375,0.91357421875,-0.298095703125,8.300780296325684,-1.3732908964157104,0.6713866591453552,80.0,1463772.0,1.0
1650900.6623377,291464.53125,348984.15625,329441.03125,332824.5625,348730.59375,314979.53125,306950.0,293278.6875,-0.151611328125,0.9130859375,-0.300537109375,8.209227561950684,-1.1901854276657104,0.5798339247703552,80.0,1463773.0,1.0
1650900.6642398,288082.25,343775.65625,324912.9375,329595.0,345644.625,310961.78125,303812.53125,290026.25,-0.1533203125,0.91162109375,-0.299072265625,8.148192405700684,-0.9765624403953552,0.5187987685203552,80.0,1463774.0,1.0
1650900.6667196,281686.34375,335119.09375,315730.46875,320554.0625,340484.5,307090.53125,301279.96875,285908.96875,-0.15380859375,0.90673828125,-0.297119140625,8.026122093200684,-0.8544921278953552,0.4272460639476776,80.0,1463775.0,1.0
1650900.6704567,281108.59375,334877.0625,314537.6875,318155.375,340353.4375,308710.0625,302842.625,286620.90625,-0.153564453125,0.9052734375,-0.298828125,7.843017101287842,-0.6713866591453552,0.3356933295726776,80.0,1463776.0,1.0
1650900.6747404,286992.03125,343062.1875,322694.84375,325397.34375,345251.78125,313461.15625,306240.625,291027.40625,-0.1552734375,0.906005859375,-0.302734375,7.904052257537842,-0.5187987685203552,0.1831054538488388,80.0,1463777.0,1.0
1650900.6747833,291375.3125,348434.03125,329087.53125,332434.65625,348528.53125,314937.96875,306920.21875,293228.625,-0.155029296875,0.908203125,-0.302734375,7.873534679412842,-0.4882812201976776,-0.03051757626235485,80.0,1463778.0,1.0
1650900.6829406,288071.09375,343326.65625,324668.3125,329306.46875,345504.0625,310975.0,303830.75,290040.53125,-0.152587890625,0.910400390625,-0.30078125,7.843017101287842,-0.3662109076976776,-0.3051757514476776,80.0,1463779.0,1.0
1650900.6874147,281675.4375,334659.8125,315480.21875,320264.5625,340331.0,307080.71875,301273.0,285912.1875,-0.151123046875,0.913330078125,-0.302978515625,7.659911632537842,-0.2746581733226776,-0.5493163466453552,80.0,1463780.0,1.0
1650900.6874613,281013.03125,334283.0625,314157.375,317742.65625,340111.9375,308621.8125,302776.21875,286545.0,-0.14697265625,0.917724609375,-0.303955078125,7.507323741912842,-0.1525878757238388,-0.6103515028953552,80.0,1463781.0,1.0
1650900.6979386,286919.4375,342481.125,322309.125,324961.21875,345019.21875,313404.90625,306222.59375,290976.90625,-0.142578125,0.91796875,-0.301513671875,7.293700695037842,0.1831054538488388,-0.7019042372703552,80.0,1463782.0,1.0
1650900.7010336,291400.25,348007.1875,328841.21875,332119.125,348386.28125,314975.875,306976.0,293267.96875,-0.140869140625,0.91748046875,-0.30615234375,7.263183116912842,0.3967284858226776,-0.6103515028953552,80.0,1463783.0,1.0
1650900.701077,288177.75,343051.71875,324579.09375,329151.8125,345448.09375,311072.09375,303912.75,290143.90625,-0.138916015625,0.919189453125,-0.306640625,7.110595226287842,0.7324218153953552,-0.6713866591453552,80.0,1463784.0,1.0
1650900.7066804,281745.375,334370.75,315383.65625,320121.34375,340251.9375,307125.5,301306.8125,285972.25,-0.138916015625,0.920166015625,-0.30419921875,6.927489757537842,1.0070799589157104,-0.7019042372703552,80.0,1463785.0,1.0
1650900.7111004,281032.34375,333931.40625,313987.65625,317534.09375,339987.03125,308615.03125,302768.15625,286551.96875,-0.137451171875,0.919677734375,-0.30419921875,6.744384288787842,1.2512205839157104,-0.7629393935203552,80.0,1463786.0,1.0
1650900.7111473,286909.15625,342114.5625,322108.40625,324714.28125,344875.53125,313392.3125,306198.625,290959.90625,-0.13720703125,0.9228515625,-0.303955078125,6.530761241912842,1.4648436307907104,-0.9155272841453552,80.0,1463787.0,1.0
1650900.7166944,291440.65625,347758.1875,328739.90625,331957.21875,348304.03125,315019.15625,306992.28125,293295.84375,-0.14013671875,0.921630859375,-0.302490234375,6.256103038787842,1.8005369901657104,-0.9155272841453552,80.0,1463788.0,1.0
1650900.7258465,288296.03125,342954.09375,324620.9375,329132.40625,345455.0,311171.4375,303981.9375,290236.0,-0.1376953125,0.920654296875,-0.302734375,6.103515148162842,2.105712652206421,-0.9765624403953552,80.0,1463789.0,1.0
1650900.7258964,281876.625,334311.40625,315469.0625,320159.4375,340292.0,307225.53125,301378.6875,286078.5625,-0.1376953125,0.917236328125,-0.29931640625,5.981444835662842,2.532958745956421,-0.8850097060203552,80.0,1463790.0,1.0
1650900.7329393,281037.78125,333727.03125,313925.34375,317434.03125,339923.28125,308604.125,302746.625,286552.0625,-0.138427734375,0.917236328125,-0.30322265625,5.767821788787842,2.716064214706421,-1.0070799589157104,80.0,1463791.0,1.0
1650900.7353165,286867.5,341862.875,321981.09375,324544.9375,344777.8125,313354.21875,306161.5,290927.71875,-0.14013671875,0.913330078125,-0.299072265625,5.615233898162842,2.960204839706421,-1.1596678495407104,80.0,1463792.0,1.0
1650900.7379578,291458.71875,347612.03125,328700.84375,331863.15625,348267.65625,315044.1875,307001.9375,293315.34375,-0.1416015625,0.9140625,-0.296630859375,5.462646007537842,3.326415777206421,-1.2512205839157104,80.0,1463793.0,1.0
1650900.7415983,288378.09375,342917.625,324698.625,329160.84375,345490.75,311241.4375,304018.4375,290308.40625,-0.144775390625,0.911865234375,-0.29345703125,5.340575695037842,3.387450933456421,-1.2817381620407104,80.0,1463794.0,1.0
1650900.7504278,281915.6875,334227.78125,315498.5625,320161.5,340289.15625,307230.71875,301368.5,286101.71875,-0.145751953125,0.91015625,-0.292724609375,5.279540538787842,3.540038824081421,-1.4648436307907104,80.0,1463795.0,1.0
1650900.7535181,281001.9375,333528.1875,313831.03125,317329.34375,339859.8125,308554.65625,302702.4375,286519.5,-0.146728515625,0.908447265625,-0.2919921875,5.279540538787842,3.540038824081421,-1.6174315214157104,80.0,1463796.0,1.0
1650900.753572,286835.5625,341647.875,321855.5625,324401.96875,344717.75,313333.84375,306149.625,290911.28125,-0.148681640625,0.909912109375,-0.291748046875,5.157470226287842,3.631591558456421,-1.7395018339157104,80.0,1463797.0,1.0
1650900.7554542,291503.5,347513.75,328681.34375,331814.6875,348284.8125,315103.8125,307063.4375,293375.875,-0.150146484375,0.909423828125,-0.289306640625,5.035399913787842,3.601073980331421,-1.7395018339157104,80.0,1463798.0,1.0
1650900.7804331,288477.15625,342935.40625,324790.1875,329226.71875,345566.46875,311334.0625,304095.59375,290408.375,-0.15478515625,0.9111328125,-0.2890625,4.882812023162842,3.540038824081421,-1.8920897245407104,80.0,1463799.0,1.0
1650900.7829593,281987.46875,334225.5625,315579.375,320234.0,340352.625,307286.0,301407.84375,286172.4375,-0.157958984375,0.908203125,-0.283447265625,4.882812023162842,3.570556402206421,-1.9226073026657104,80.0,1463800.0,1.0
1650900.7855623,280980.125,333398.1875,313785.96875,317285.96875,339836.21875,308527.03125,302678.125,286508.15625,-0.15966796875,0.910400390625,-0.27880859375,4.669188976287842,3.540038824081421,-1.9531248807907104,80.0,1463801.0,1.0
1650900.7879545,286771.28125,341475.65625,321745.6875,324287.4375,344654.78125,313289.03125,306111.90625,290865.3125,-0.1591796875,0.909912109375,-0.277587890625,4.486083507537842,3.387450933456421,-2.197265386581421,80.0,1463802.0,1.0
1650900.7904151,291489.90625,347434.0,328653.1875,331763.28125,348265.75,315114.09375,307059.875,293369.875,-0.160888671875,0.909423828125,-0.275390625,4.425048351287842,3.173827886581421,-2.166747808456421,80.0,1463803.0,1.0
1650900.7928835,288553.0625,342984.5,324904.71875,329315.875,345632.8125,311412.3125,304145.84375,290473.71875,-0.15869140625,0.90673828125,-0.2763671875,4.272460460662842,3.021239995956421,-2.227782964706421,80.0,1463804.0,1.0
1650900.795494,282055.25,334263.125,315690.40625,320329.21875,340411.375,307337.5625,301439.125,286219.375,-0.156005859375,0.906494140625,-0.27880859375,4.241942882537842,2.990722417831421,-2.075195074081421,80.0,1463805.0,1.0
1650900.7992128,281018.5625,333375.5625,313825.9375,317315.9375,339871.4375,308557.625,302702.28125,286531.59375,-0.152099609375,0.907958984375,-0.276123046875,4.028319835662842,2.929687261581421,-2.197265386581421,80.0,1463806.0,1.0
1650900.7992559,286765.84375,341394.40625,321715.03125,324233.09375,344647.46875,313299.21875,306118.96875,290859.40625,-0.149169921875,0.9130859375,-0.276123046875,3.936767339706421,2.960204839706421,-2.136230230331421,80.0,1463807.0,1.0
1650900.7992889,291507.53125,347397.53125,328661.3125,331735.03125,348273.8125,315151.21875,307086.4375,293386.0625,-0.14892578125,0.921875,-0.277587890625,3.753661870956421,2.899169683456421,-1.9226073026657104,80.0,1463808.0,1.0
1650900.8016619,288635.59375,343039.46875,325007.34375,329382.75,345688.53125,311484.8125,304200.1875,290532.71875,-0.148193359375,0.9296875,-0.27685546875,3.570556402206421,2.960204839706421,-1.7089842557907104,80.0,1463809.0,1.0
1650900.8042368,282144.375,334309.78125,315794.5,320412.8125,340460.09375,307384.4375,301473.71875,286266.3125,-0.147705078125,0.93359375,-0.27490234375,3.234863042831421,3.021239995956421,-1.5563963651657104,80.0,1463810.0,1.0
1650900.818637,281029.84375,333308.59375,313813.78125,317292.6875,339842.8125,308530.625,302675.625,286507.90625,-0.144287109375,0.93603515625,-0.277099609375,2.777099370956421,3.265380620956421,-1.3122557401657104,80.0,1463811.0,1.0
1650900.8186822,286732.75,341268.78125,321631.34375,324127.84375,344581.84375,313258.46875,306090.0625,290807.75,-0.13916015625,0.93603515625,-0.2783203125,2.288818120956421,3.356933355331421,-1.0375975370407104,80.0,1463812.0,1.0
1650900.8204556,291562.15625,347395.84375,328689.84375,331723.78125,348295.09375,315202.25,307131.65625,293412.875,-0.13671875,0.9375,-0.27734375,1.9226073026657104,3.387450933456421,-0.5798339247703552,80.0,1463813.0,1.0
1650900.8229558,288757.625,343148.1875,325152.53125,329487.875,345774.4375,311576.0,304253.5625,290603.1875,-0.137451171875,0.93994140625,-0.273681640625,1.4953612089157104,3.570556402206421,-0.3967284858226776,80.0,1463814.0,1.0
1650900.8260325,282223.78125,334377.8125,315906.34375,320502.21875,340515.96875,307420.8125,301477.40625,286296.96875,-0.134033203125,0.94091796875,-0.27294921875,1.1291502714157104,3.845214605331421,-0.03051757626235485,80.0,1463815.0,1.0
1650900.8260769,281024.125,333254.15625,313802.40625,317270.25,339832.90625,308505.125,302654.96875,286486.0,-0.133544921875,0.940673828125,-0.27294921875,0.9155272841453552,3.997802495956421,0.0610351525247097,80.0,1463816.0,1.0
1650900.8343358,286690.46875,341166.6875,321560.625,324042.71875,344548.5,313227.15625,306068.96875,290773.21875,-0.135498046875,0.9384765625,-0.27783203125,0.6103515028953552,4.241942882537842,0.3662109076976776,80.0,1463817.0,1.0
1650900.8367071,291532.375,347339.96875,328658.28125,331666.71875,348281.78125,315190.09375,307117.1875,293391.59375,-0.1357421875,0.939697265625,-0.27490234375,0.3356933295726776,4.486083507537842,0.5798339247703552,80.0,1463818.0,1.0
1650900.8403625,288802.34375,343203.71875,325239.71875,329551.90625,345842.125,311613.5625,304279.9375,290637.25,-0.138427734375,0.9384765625,-0.2705078125,-0.0610351525247097,4.608153820037842,0.7934569716453552,80.0,1463819.0,1.0
1650900.8547879,282294.15625,334461.0625,316028.5625,320614.875,340619.78125,307465.0625,301512.625,286349.65625,-0.1376953125,0.935546875,-0.270751953125,-0.3662109076976776,4.638671398162842,0.9155272841453552,80.0,1463820.0,1.0
1650900.8548314,280990.59375,333211.6875,313797.59375,317261.03125,339853.8125,308465.96875,302617.59375,286452.71875,-0.140380859375,0.92822265625,-0.274169921875,-0.7019042372703552,4.943847179412842,1.1901854276657104,80.0,1463821.0,1.0
1650900.8567432,286601.9375,341064.5625,321484.96875,323947.5,344531.78125,313169.875,306029.0,290711.53125,-0.138916015625,0.925537109375,-0.27294921875,-0.7629393935203552,4.974364757537842,1.2817381620407104,80.0,1463822.0,1.0
1650900.8592672,291519.78125,347351.9375,328685.5625,331655.5625,348344.1875,315220.21875,307152.5,293413.0625,-0.13818359375,0.92578125,-0.271484375,-0.7934569716453552,5.035399913787842,1.2207030057907104,80.0,1463823.0,1.0
1650900.8617069,288865.5625,343340.0625,325396.625,329669.5625,345980.15625,311697.25,304345.5625,290720.125,-0.138671875,0.9267578125,-0.2734375,-0.9155272841453552,5.065917491912842,1.2817381620407104,80.0,1463824.0,1.0
1650900.8704468,282302.0,334541.71875,316148.375,320708.84375,340715.15625,307485.1875,301517.28125,286376.8125,-0.138671875,0.924072265625,-0.27294921875,-0.9460448622703552,5.096435070037842,1.1596678495407104,80.0,1463825.0,1.0
1650900.8761017,280930.0625,333190.21875,313815.03125,317263.1875,339895.5625,308437.5625,302592.9375,286429.21875,-0.138427734375,0.9228515625,-0.2734375,-0.9155272841453552,5.126952648162842,1.1596678495407104,80.0,1463826.0,1.0
1650900.8761478,286522.375,341009.40625,321450.71875,323896.09375,344559.84375,313150.90625,306017.03125,290686.96875,-0.14111328125,0.9228515625,-0.27587890625,-0.8239745497703552,5.218505382537842,1.0681151151657104,80.0,1463827.0,1.0
1650900.8779605,291511.46875,347393.96875,328739.0,331679.6875,348436.0,315274.84375,307201.75,293453.28125,-0.140380859375,0.927490234375,-0.279541015625,-0.7629393935203552,5.157470226287842,0.9460448622703552,80.0,1463828.0,1.0
1650900.8803976,288922.25,343470.875,325545.84375,329788.21875,346115.96875,311780.375,304408.15625,290793.625,-0.138916015625,0.932373046875,-0.280029296875,-0.7019042372703552,5.126952648162842,0.8850097060203552,80.0,1463829.0,1.0
1650900.8892367,282372.5625,334667.59375,316297.59375,320843.46875,340842.9375,307539.8125,301550.15625,286430.375,-0.134521484375,0.94140625,-0.27685546875,-0.6713866591453552,5.126952648162842,0.7629393935203552,80.0,1463830.0,1.0
1650900.8923837,280937.84375,333208.65625,313852.125,317297.0625,339948.40625,308423.59375,302576.375,286418.40625,-0.131103515625,0.948486328125,-0.275146484375,-0.8544921278953552,5.035399913787842,0.7934569716453552,80.0,1463831.0,1.0
1650900.8924289,286503.4375,340984.5625,321428.65625,323864.1875,344570.75,313122.65625,306002.1875,290653.4375,-0.127685546875,0.96044921875,-0.272705078125,-0.9765624403953552,5.096435070037842,0.8850097060203552,80.0,1463832.0,1.0
1650900.902922,291544.1875,347446.09375,328781.75,331702.0625,348474.8125,315287.90625,307218.3125,293454.1875,-0.126708984375,0.96923828125,-0.270263671875,-1.3427733182907104,5.126952648162842,1.0375975370407104,80.0,1463833.0,1.0
1650900.9147987,289051.53125,343650.5625,325720.90625,329948.25,346223.25,311849.6875,304462.15625,290863.8125,-0.12548828125,0.9794921875,-0.271484375,-1.8310545682907104,5.096435070037842,1.1901854276657104,80.0,1463834.0,1.0
1650900.9148418,282502.1875,334838.625,316475.40625,321022.21875,340937.6875,307582.8125,301580.75,286490.8125,-0.1240234375,0.984130859375,-0.267578125,-2.319335699081421,5.157470226287842,1.3732908964157104,80.0,1463835.0,1.0
1650900.9166776,280991.9375,333280.71875,313926.96875,317386.28125,339975.25,308406.625,302561.0,286418.03125,-0.123779296875,0.9912109375,-0.265869140625,-2.899169683456421,5.096435070037842,1.4648436307907104,80.0,1463836.0,1.0
1650900.9193344,286523.0,341033.28125,321462.4375,323907.375,344587.46875,313113.0,306004.53125,290651.5625,-0.1259765625,0.98876953125,-0.26123046875,-3.540038824081421,5.187987804412842,1.5563963651657104,80.0,1463837.0,1.0
1650900.9217164,291594.34375,347580.1875,328892.15625,331810.59375,348551.78125,315339.3125,307263.1875,293505.34375,-0.130615234375,0.986328125,-0.25927734375,-4.119872570037842,5.126952648162842,1.5563963651657104,80.0,1463838.0,1.0
1650900.9267153,289118.5625,343852.0,325914.90625,330142.0625,346346.03125,311919.6875,304500.59375,290930.6875,-0.134765625,0.98095703125,-0.2578125,-4.730224132537842,5.065917491912842,1.5869139432907104,80.0,1463839.0,1.0
1650900.9297829,282538.84375,335014.03125,316654.59375,321213.625,341049.71875,307615.28125,301582.53125,286523.28125,-0.14111328125,0.975830078125,-0.255126953125,-5.157470226287842,4.791259288787842,1.4648436307907104,80.0,1463840.0,1.0
1650900.9298268,280946.78125,333353.75,314003.21875,317478.84375,340037.09375,308384.34375,302527.65625,286398.625,-0.14599609375,0.96826171875,-0.249755859375,-5.615233898162842,4.364013195037842,1.1901854276657104,80.0,1463841.0,1.0
1650900.9317734,286420.4375,341053.46875,321474.6875,323926.9375,344628.25,313080.71875,305964.8125,290614.53125,-0.151123046875,0.960205078125,-0.2431640625,-5.798339366912842,3.967284917831421,0.9765624403953552,80.0,1463842.0,1.0
1650900.942982,291535.78125,347686.6875,328982.03125,331895.0,348664.6875,315372.9375,307278.65625,293523.9375,-0.15673828125,0.95068359375,-0.24072265625,-5.828856945037842,3.509521245956421,0.5798339247703552,80.0,1463843.0,1.0
1650900.9460546,289161.5,344101.1875,326146.3125,330365.15625,346566.21875,312030.625,304586.875,291030.53125,-0.16015625,0.937744140625,-0.2392578125,-5.798339366912842,2.868652105331421,0.0,80.0,1463844.0,1.0
1650900.9461005,282544.65625,335228.25,316856.03125,321419.96875,341251.6875,307668.75,301617.21875,286578.78125,-0.16357421875,0.923828125,-0.235595703125,-5.584716320037842,2.227782964706421,-0.5493163466453552,80.0,1463845.0,1.0
1650900.9478881,280852.1875,333440.5625,314069.375,317561.8125,340160.75,308349.3125,302497.4375,286375.125,-0.168701171875,0.91552734375,-0.23095703125,-5.279540538787842,1.4953612089157104,-1.1901854276657104,80.0,1463846.0,1.0
1650900.954347,286272.46875,341082.1875,321467.09375,323925.59375,344720.0625,313028.0625,305927.71875,290560.4375,-0.1689453125,0.908203125,-0.2294921875,-4.730224132537842,0.8239745497703552,-1.7089842557907104,80.0,1463847.0,1.0
1650900.9584475,291430.65625,347790.125,329037.375,331936.375,348800.5,315370.15625,307274.625,293506.84375,-0.169677734375,0.8994140625,-0.229736328125,-3.997802495956421,0.03051757626235485,-2.319335699081421,80.0,1463848.0,1.0
1650900.9584931,289157.03125,344328.0,326336.28125,330536.375,346792.15625,312094.90625,304625.78125,291087.6875,-0.170654296875,0.89453125,-0.2314453125,-3.173827886581421,-0.7019042372703552,-2.960204839706421,80.0,1463849.0,1.0
1650900.9715944,282566.125,335453.03125,317050.125,321609.34375,341481.5625,307720.9375,301647.625,286634.84375,-0.17236328125,0.886962890625,-0.23291015625,-2.380370855331421,-1.4038084745407104,-3.387450933456421,80.0,1463850.0,1.0
1650900.9772852,280826.875,333566.375,314160.40625,317657.8125,340333.03125,308356.09375,302502.71875,286384.96875,-0.1728515625,0.884521484375,-0.23291015625,-1.8005369901657104,-1.8005369901657104,-3.723144292831421,80.0,1463851.0,1.0
1650900.9773294,286213.46875,341148.53125,321481.9375,323936.34375,344848.1875,313024.84375,305919.21875,290547.3125,-0.176025390625,0.88427734375,-0.23046875,-0.8544921278953552,-2.624511480331421,-4.333495616912842,80.0,1463852.0,1.0
1650900.9792839,291423.9375,347927.53125,329105.75,331981.53125,348955.1875,315409.59375,307296.71875,293525.71875,-0.177490234375,0.88134765625,-0.2275390625,0.0915527269244194,-3.295898199081421,-4.852294445037842,80.0,1463853.0,1.0
1650900.9817054,289212.46875,344552.96875,326487.3125,330662.5,346978.84375,312151.59375,304661.53125,291131.125,-0.1787109375,0.879638671875,-0.23095703125,1.0375975370407104,-4.028319835662842,-5.218505382537842,80.0,1463854.0,1.0
1650900.9841562,282604.375,335645.0,317183.6875,321736.125,341649.65625,307739.8125,301657.71875,286656.03125,-0.179931640625,0.8779296875,-0.232177734375,2.075195074081421,-4.669188976287842,-5.554198741912842,80.0,1463855.0,1.0
1650900.9935401,280765.28125,333608.84375,314144.5,317649.59375,340408.21875,308293.4375,302449.5,286325.6875,-0.17822265625,0.876953125,-0.23486328125,3.112792730331421,-5.310058116912842,-5.889892101287842,80.0,1463856.0,1.0
1650900.9935836,286125.59375,341138.40625,321392.09375,323844.25,344882.96875,312954.65625,305872.5625,290467.1875,-0.175048828125,0.88134765625,-0.23583984375,4.150390148162842,-5.859374523162842,-6.134032726287842,80.0,1463857.0,1.0
1650900.9955059,291408.125,348006.5,329089.5,331940.0625,349034.125,315405.03125,307305.03125,293501.5625,-0.170166015625,0.885498046875,-0.240966796875,5.065917491912842,-6.469726085662842,-6.256103038787842,80.0,1463858.0,1.0
1650901.0071685,289276.65625,344734.0,326580.5625,330727.96875,347111.78125,312194.25,304697.5625,291160.09375,-0.16650390625,0.889404296875,-0.24267578125,5.920409679412842,-6.744384288787842,-6.256103038787842,80.0,1463859.0,1.0
1650901.0072204,282670.625,335813.875,317265.9375,321805.84375,341768.65625,307754.84375,301667.75,286671.5,-0.16259765625,0.892578125,-0.243896484375,6.530761241912842,-7.141112804412842,-6.103515148162842,80.0,1463860.0,1.0
1650901.0160368,280784.9375,333689.3125,314136.15625,317638.96875,340473.0625,308267.9375,302439.78125,286308.78125,-0.163818359375,0.89697265625,-0.245361328125,7.141112804412842,-7.171630382537842,-6.011962413787842,80.0,1463861.0,1.0
1650901.01609,286113.78125,341176.25,321320.125,323754.9375,344909.15625,312921.84375,305862.0,290427.75,-0.1640625,0.897216796875,-0.24853515625,7.720946788787842,-7.324218273162842,-5.859374523162842,80.0,1463862.0,1.0
1650901.0184147,291422.15625,348110.375,329065.25,331876.125,349084.03125,315411.90625,307321.21875,293483.875,-0.166259765625,0.895751953125,-0.249267578125,8.270262718200684,-7.385253429412842,-5.523681163787842,80.0,1463863.0,1.0
1650901.018465,289338.0625,344932.75,326660.84375,330763.0,347221.21875,312244.59375,304745.5625,291195.15625,-0.16748046875,0.8955078125,-0.249755859375,8.605956077575684,-7.507323741912842,-5.249022960662842,80.0,1463864.0,1.0
1650901.0230632,282688.875,335972.40625,317335.875,321847.0625,341864.84375,307769.9375,301682.5,286692.0625,-0.171142578125,0.893310546875,-0.25048828125,9.033202171325684,-7.537841320037842,-5.035399913787842,80.0,1463865.0,1.0
1650901.0254639,280704.75,333711.5625,314076.53125,317562.6875,340497.46875,308210.0,302394.34375,286258.0,-0.172119140625,0.886962890625,-0.251708984375,9.399413108825684,-7.690429210662842,-4.791259288787842,80.0,1463866.0,1.0
1650901.0292395,285966.8125,341089.15625,321153.71875,323560.5625,344876.71875,312826.8125,305788.875,290326.09375,-0.171630859375,0.881103515625,-0.254150390625,9.887694358825684,-7.720946788787842,-4.547118663787842,80.0,1463867.0,1.0
1650901.0378198,291317.71875,348070.3125,328950.1875,331711.4375,349093.3125,315366.6875,307286.25,293423.6875,-0.171875,0.875,-0.259765625,10.314940452575684,-7.781981945037842,-4.394530773162842,80.0,1463868.0,1.0
1650901.0461575,289333.25,345012.6875,326684.96875,330733.25,347329.75,312281.59375,304782.3125,291222.0625,-0.173828125,0.873046875,-0.259765625,10.833739280700684,-7.812499523162842,-4.241942882537842,80.0,1463869.0,1.0
1650901.0462161,282659.09375,335998.78125,317328.09375,321799.6875,341942.1875,307757.78125,301685.0,286683.21875,-0.173583984375,0.873046875,-0.265625,11.230467796325684,-7.873534679412842,-3.967284917831421,80.0,1463870.0,1.0
1650901.0479536,280615.96875,333609.0,313941.8125,317397.46875,340494.59375,308128.8125,302342.75,286180.46875,-0.17578125,0.872314453125,-0.27001953125,11.688231468200684,-7.873534679412842,-3.814697027206421,80.0,1463871.0,1.0
1650901.0504558,285845.5625,340902.21875,320922.15625,323288.40625,344809.90625,312718.0,305713.6875,290208.90625,-0.174560546875,0.873046875,-0.276123046875,12.237547874450684,-7.934569835662842,-3.631591558456421,80.0,1463872.0,1.0
1650901.0591681,291247.34375,347922.25,328754.21875,331451.875,349036.46875,315300.6875,307243.59375,293333.59375,-0.174072265625,0.877685546875,-0.28076171875,12.786864280700684,-7.995604991912842,-3.387450933456421,80.0,1463873.0,1.0
1650901.0636197,289342.375,344955.03125,326593.4375,330575.34375,347321.0,312270.25,304776.6875,291192.375,-0.172607421875,0.881591796875,-0.287109375,13.061522483825684,-7.965087413787842,-3.143310308456421,80.0,1463874.0,1.0
1650901.0636628,282702.375,335960.875,317273.46875,321699.28125,341956.125,307762.71875,301698.5,286692.96875,-0.1689453125,0.886962890625,-0.292724609375,13.366698265075684,-7.873534679412842,-2.838134527206421,80.0,1463875.0,1.0
1650901.0692381,280573.59375,333429.21875,313748.84375,317179.125,340407.59375,308048.0,302293.15625,286114.15625,-0.164306640625,0.892822265625,-0.296630859375,13.458250999450684,-7.690429210662842,-2.624511480331421,80.0,1463876.0,1.0
1650901.0785198,285771.0,340632.09375,320629.09375,322964.3125,344652.03125,312609.1875,305641.34375,290095.4375,-0.161376953125,0.9013671875,-0.30126953125,13.549803733825684,-7.354735851287842,-2.136230230331421,80.0,1463877.0,1.0
1650901.078562,291222.59375,347695.34375,328502.34375,331154.4375,348899.21875,315243.84375,307208.75,293255.15625,-0.15869140625,0.906494140625,-0.30517578125,13.549803733825684,-7.049560070037842,-1.7700194120407104,80.0,1463878.0,1.0
1650901.0810368,289398.34375,344834.5,326455.65625,330388.3125,347247.40625,312279.09375,304798.40625,291187.1875,-0.15771484375,0.91015625,-0.308349609375,13.519286155700684,-6.713866710662842,-1.3732908964157104,80.0,1463879.0,1.0
1650901.0810799,282757.28125,335832.84375,317146.0625,321536.375,341871.1875,307761.625,301705.90625,286687.59375,-0.159423828125,0.919677734375,-0.310791015625,13.336180686950684,-6.347655773162842,-0.9765624403953552,80.0,1463880.0,1.0
1650901.089299,280579.125,333201.125,313535.96875,316942.03125,340262.78125,308004.1875,302265.0625,286068.625,-0.158935546875,0.9267578125,-0.316650390625,13.061522483825684,-5.859374523162842,-0.6103515028953552,80.0,1463881.0,1.0
1650901.0929549,285719.21875,340309.4375,320315.8125,322626.53125,344447.375,312525.59375,305595.21875,290007.0,-0.158203125,0.931640625,-0.31982421875,12.634276390075684,-5.493163585662842,-0.2136230319738388,80.0,1463882.0,1.0
1650901.0966941,291180.125,347385.375,328195.15625,330808.15625,348693.40625,315173.90625,307178.34375,293179.25,-0.158447265625,0.937744140625,-0.323974609375,12.176512718200684,-5.187987804412842,0.3051757514476776,80.0,1463883.0,1.0
1650901.1060326,289401.8125,344608.46875,326238.9375,330128.9375,347081.46875,312235.46875,304764.875,291145.34375,-0.160400390625,0.940185546875,-0.326904296875,11.505125999450684,-4.791259288787842,0.7934569716453552,80.0,1463884.0,1.0
1650901.1060766,282776.65625,335634.34375,316977.6875,321338.34375,341740.84375,307730.59375,301677.9375,286670.625,-0.162353515625,0.940673828125,-0.32861328125,10.894774436950684,-4.455565929412842,1.1291502714157104,80.0,1463885.0,1.0
1650901.1085771,280547.125,332916.1875,313293.0625,316682.46875,340097.1875,307941.96875,302226.71875,286023.5625,-0.1669921875,0.94384765625,-0.33251953125,10.162352561950684,-4.241942882537842,1.4343260526657104,80.0,1463886.0,1.0
1650901.1086198,285664.25,339966.375,320009.3125,322296.0625,344256.21875,312466.125,305565.875,289952.03125,-0.170166015625,0.945556640625,-0.333984375,9.613036155700684,-3.997802495956421,1.6479490995407104,80.0,1463887.0,1.0
1650901.1192366,291176.90625,347114.90625,327953.125,330524.28125,348546.0625,315179.375,307199.15625,293176.03125,-0.173095703125,0.946044921875,-0.336669921875,8.972167015075684,-3.814697027206421,1.8920897245407104,80.0,1463888.0,1.0
1650901.1221697,289424.78125,344409.46875,326091.59375,329932.875,346978.03125,312276.5,304807.09375,291183.25,-0.175048828125,0.946533203125,-0.337646484375,8.209227561950684,-3.662109136581421,2.105712652206421,80.0,1463889.0,1.0
1650901.1222203,282773.53125,335423.875,316834.84375,321153.71875,341627.75,307734.1875,301680.625,286684.28125,-0.171630859375,0.948974609375,-0.3388671875,7.568358898162842,-3.570556402206421,2.288818120956421,80.0,1463890.0,1.0
1650901.1267125,280480.78125,332619.09375,313062.46875,316416.5,339929.28125,307882.59375,302181.375,285983.25,-0.175537109375,0.948974609375,-0.341064453125,6.774901866912842,-3.509521245956421,2.441406011581421,80.0,1463891.0,1.0
1650901.1329313,285531.84375,339584.34375,319681.71875,321927.28125,344026.09375,312359.84375,305485.59375,289856.375,-0.175537109375,0.951904296875,-0.34423828125,6.042479991912842,-3.479003667831421,2.471923589706421,80.0,1463892.0,1.0
1650901.136707,291084.53125,346787.875,327681.0625,330197.25,348359.375,315123.59375,307160.46875,293114.4375,-0.174560546875,0.95263671875,-0.346435546875,5.432128429412842,-3.265380620956421,2.593993902206421,80.0,1463893.0,1.0
1650901.1459007,289468.25,344262.84375,326004.21875,329788.65625,346918.40625,312329.96875,304853.9375,291229.75,-0.174560546875,0.9541015625,-0.3466796875,4.638671398162842,-3.265380620956421,2.593993902206421,80.0,1463894.0,1.0
1650901.1459464,282849.8125,335330.09375,316801.40625,321080.0625,341602.1875,307795.15625,301729.875,286751.0,-0.173583984375,0.951904296875,-0.348388671875,3.845214605331421,-3.295898199081421,2.685546636581421,80.0,1463895.0,1.0
1650901.1522711,280455.03125,332406.40625,312913.96875,316246.09375,339823.96875,307854.53125,302156.09375,285963.5,-0.173095703125,0.952880859375,-0.3505859375,3.326415777206421,-3.234863042831421,2.624511480331421,80.0,1463896.0,1.0
1650901.152315,285456.75,339308.09375,319463.03125,321688.5625,343886.875,312306.0,305445.375,289805.65625,-0.1748046875,0.947265625,-0.349853515625,2.593993902206421,-3.234863042831421,2.593993902206421,80.0,1463897.0,1.0
1650901.1543395,291042.96875,346581.15625,327518.6875,330003.6875,348257.28125,315110.875,307143.28125,293102.90625,-0.1708984375,0.945068359375,-0.34912109375,1.8920897245407104,-3.051757574081421,2.502441167831421,80.0,1463898.0,1.0
1650901.1579034,289503.21875,344185.21875,325981.0625,329732.6875,346902.5625,312378.875,304879.40625,291286.96875,-0.17041015625,0.94287109375,-0.3486328125,1.2512205839157104,-2.929687261581421,2.380370855331421,80.0,1463899.0,1.0
1650901.1716155,282870.09375,335252.125,316795.75,321051.8125,341586.0,307816.25,301731.9375,286791.125,-0.168701171875,0.938720703125,-0.3505859375,0.7629393935203552,-2.807616949081421,2.197265386581421,80.0,1463900.0,1.0
1650901.1746793,280415.96875,332245.71875,312830.03125,316151.75,339772.46875,307832.09375,302131.59375,285964.75,-0.16357421875,0.933349609375,-0.3486328125,0.3967284858226776,-2.685546636581421,1.9531248807907104,80.0,1463901.0,1.0
1650901.1747111,285376.53125,339096.46875,319314.34375,321522.78125,343807.40625,312269.8125,305413.90625,289781.4375,-0.15966796875,0.933837890625,-0.347900390625,-0.0915527269244194,-2.441406011581421,1.8920897245407104,80.0,1463902.0,1.0
1650901.1766928,291002.03125,346429.34375,327418.03125,329873.5,348210.96875,315114.8125,307150.625,293106.40625,-0.153076171875,0.93603515625,-0.3505859375,-0.5187987685203552,-2.197265386581421,1.7395018339157104,80.0,1463903.0,1.0
1650901.1791128,289547.71875,344152.59375,325996.71875,329723.21875,346922.4375,312429.84375,304926.0,291341.875,-0.149169921875,0.93896484375,-0.3486328125,-0.7629393935203552,-1.8615721464157104,1.5563963651657104,80.0,1463904.0,1.0
1650901.1878658,282933.40625,335245.0625,316847.71875,321099.53125,341623.0,307859.09375,301771.8125,286849.25,-0.146484375,0.942626953125,-0.34814453125,-1.2512205839157104,-1.5869139432907104,1.4648436307907104,80.0,1463905.0,1.0
1650901.1922105,280420.8125,332148.5625,312792.03125,316125.03125,339753.3125,307818.5,302127.1875,285971.28125,-0.1435546875,0.94287109375,-0.34521484375,-1.6784666776657104,-1.1596678495407104,1.3122557401657104,80.0,1463906.0,1.0
1650901.192243,285361.78125,338964.84375,319231.125,321452.15625,343775.5625,312264.96875,305423.28125,289791.90625,-0.140380859375,0.942138671875,-0.343017578125,-2.166747808456421,-0.7019042372703552,1.2207030057907104,80.0,1463907.0,1.0
1650901.2009603,291018.125,346359.59375,327385.21875,329840.3125,348209.875,315150.65625,307189.53125,293148.15625,-0.1357421875,0.94140625,-0.34326171875,-2.685546636581421,-0.0610351525247097,1.1596678495407104,80.0,1463908.0,1.0
1650901.2009956,289608.25,344170.84375,326054.21875,329771.65625,346962.46875,312491.34375,304971.34375,291408.46875,-0.13134765625,0.94091796875,-0.341796875,-3.082275152206421,0.3356933295726776,1.0375975370407104,80.0,1463909.0,1.0
1650901.2028848,282999.84375,335279.9375,316933.1875,321185.5625,341680.3125,307913.0,301811.40625,286920.875,-0.1298828125,0.939208984375,-0.340576171875,-3.692626714706421,0.8544921278953552,0.9155272841453552,80.0,1463910.0,1.0
1650901.2091398,280415.0625,332095.8125,312790.6875,316135.59375,339763.25,307819.75,302123.53125,285989.5,-0.1298828125,0.9365234375,-0.337646484375,-4.028319835662842,1.6174315214157104,0.8544921278953552,80.0,1463911.0,1.0
1650901.2160224,285269.78125,338829.3125,319131.59375,321360.34375,343728.8125,312216.0625,305369.90625,289742.375,-0.12939453125,0.932861328125,-0.3330078125,-4.425048351287842,2.105712652206421,0.6713866591453552,80.0,1463912.0,1.0
1650901.2160703,290979.75,346310.53125,327371.1875,329821.375,348240.1875,315176.5,307192.90625,293161.1875,-0.131591796875,0.927001953125,-0.33203125,-4.699706554412842,2.655029058456421,0.6713866591453552,80.0,1463913.0,1.0
1650901.2180646,289659.65625,344246.28125,326179.5625,329891.75,347084.78125,312581.75,305021.125,291488.125,-0.1337890625,0.919677734375,-0.327880859375,-5.035399913787842,3.204345464706421,0.6103515028953552,80.0,1463914.0,1.0
1650901.2292451,283021.90625,335327.9375,317043.96875,321304.375,341780.53125,307946.53125,301805.34375,286954.9375,-0.13818359375,0.91162109375,-0.327392578125,-5.523681163787842,3.875732183456421,0.2441406100988388,80.0,1463915.0,1.0
1650901.2323006,280360.4375,332044.5625,312801.9375,316163.84375,339809.46875,307794.96875,302087.25,285975.65625,-0.139404296875,0.906005859375,-0.323486328125,-5.523681163787842,4.302978038787842,-0.1220703050494194,80.0,1463916.0,1.0
1650901.2323487,285176.8125,338722.09375,319087.96875,321325.03125,343758.5,312198.71875,305359.4375,289733.0625,-0.14306640625,0.902587890625,-0.321044921875,-5.462646007537842,4.638671398162842,-0.4882812201976776,80.0,1463917.0,1.0
1650901.2453522,290895.28125,346235.6875,327339.4375,329780.59375,348271.84375,315170.15625,307186.5625,293152.625,-0.145263671875,0.90283203125,-0.322021484375,-5.310058116912842,4.821776866912842,-0.8239745497703552,80.0,1463918.0,1.0
1650901.2485852,289656.8125,344278.03125,326255.375,329955.125,347178.40625,312621.15625,305048.9375,291531.125,-0.14794921875,0.902099609375,-0.3193359375,-5.218505382537842,5.065917491912842,-1.0986326932907104,80.0,1463919.0,1.0
1650901.2486326,283064.75,335395.375,317168.59375,321428.21875,341908.84375,308001.25,301857.71875,287023.59375,-0.15234375,0.90234375,-0.315673828125,-5.157470226287842,5.218505382537842,-1.2817381620407104,80.0,1463920.0,1.0
1650901.250459,280329.59375,332003.8125,312819.65625,316190.75,339872.25,307786.3125,302090.8125,285983.6875,-0.15673828125,0.90185546875,-0.312744140625,-5.249022960662842,5.371093273162842,-1.5258787870407104,80.0,1463921.0,1.0
1650901.252765,285073.34375,338597.75,318996.59375,321238.125,343751.4375,312142.40625,305325.90625,289683.4375,-0.16064453125,0.900634765625,-0.312255859375,-5.126952648162842,5.462646007537842,-1.7395018339157104,80.0,1463922.0,1.0
1650901.2604647,290852.1875,346185.25,327318.96875,329748.25,348322.28125,315187.59375,307218.3125,293166.9375,-0.166259765625,0.89892578125,-0.31005859375,-4.943847179412842,5.310058116912842,-2.044677495956421,80.0,1463923.0,1.0
1650901.2630791,289680.9375,344318.4375,326332.90625,330015.75,347285.59375,312678.46875,305097.21875,291586.65625,-0.16845703125,0.898193359375,-0.309326171875,-4.821776866912842,5.218505382537842,-2.258300542831421,80.0,1463924.0,1.0
1650901.2654561,283055.0,335394.28125,317214.1875,321472.5625,341979.5625,307995.96875,301842.625,287027.96875,-0.171875,0.895263671875,-0.30859375,-4.577636241912842,5.004882335662842,-2.410888433456421,80.0,1463925.0,1.0
1650901.2697893,280234.46875,331875.6875,312732.125,316115.8125,339862.84375,307705.21875,302025.09375,285915.84375,-0.174072265625,0.893310546875,-0.3076171875,-4.394530773162842,4.791259288787842,-2.502441167831421,80.0,1463926.0,1.0
1650901.2698333,284940.21875,338405.34375,318835.125,321075.75,343710.84375,312057.09375,305268.78125,289604.25,-0.17578125,0.89404296875,-0.301025390625,-4.241942882537842,4.516601085662842,-2.655029058456421,80.0,1463927.0,1.0
1650901.2829613,290754.0,346040.34375,327203.96875,329611.4375,348311.90625,315149.78125,307201.75,293126.4375,-0.178955078125,0.89453125,-0.299560546875,-3.997802495956421,4.241942882537842,-2.746581792831421,80.0,1463928.0,1.0
1650901.2905671,289658.59375,344262.84375,326324.03125,329981.84375,347330.375,312691.1875,305122.78125,291600.5,-0.17724609375,0.892578125,-0.302001953125,-3.784179449081421,3.784179449081421,-2.716064214706421,80.0,1463929.0,1.0
1650901.2906181,283056.96875,335340.75,317222.84375,321469.15625,342031.9375,308006.4375,301864.25,287046.3125,-0.177734375,0.891845703125,-0.29736328125,-3.601073980331421,3.601073980331421,-2.807616949081421,80.0,1463930.0,1.0
1650901.2906321,280173.40625,331712.96875,312634.125,316012.375,339849.25,307658.8125,301999.25,285877.03125,-0.179931640625,0.890380859375,-0.299560546875,-3.326415777206421,3.234863042831421,-2.807616949081421,80.0,1463931.0,1.0
1650901.2935094,284828.03125,338164.65625,318646.03125,320875.9375,343655.0625,311996.46875,305229.28125,289538.53125,-0.179931640625,0.891357421875,-0.298095703125,-2.990722417831421,2.929687261581421,-2.868652105331421,80.0,1463932.0,1.0
1650901.2935517,290654.40625,345821.375,327021.3125,329404.03125,348253.53125,315106.0625,307164.9375,293063.9375,-0.180419921875,0.8935546875,-0.294677734375,-2.685546636581421,2.532958745956421,-2.868652105331421,80.0,1463933.0,1.0
1650901.3067125,289660.28125,344163.9375,326266.46875,329896.84375,347343.09375,312707.8125,305132.0,291604.09375,-0.18115234375,0.89990234375,-0.294677734375,-2.471923589706421,2.136230230331421,-2.746581792831421,80.0,1463934.0,1.0
1650901.3109997,283105.15625,335273.21875,317212.5,321443.9375,342068.6875,308028.78125,301885.90625,287073.9375,-0.1826171875,0.901611328125,-0.29052734375,-2.410888433456421,1.6784666776657104,-2.655029058456421,80.0,1463935.0,1.0
1650901.3110438,280156.78125,331531.0,312518.4375,315892.84375,339817.0,307625.5625,301984.6875,285855.84375,-0.181396484375,0.904541015625,-0.29052734375,-2.319335699081421,1.2817381620407104,-2.349853277206421,80.0,1463936.0,1.0
1650901.3199901,284734.59375,337872.5625,318408.3125,320623.375,343536.125,311915.125,305179.125,289461.28125,-0.181396484375,0.904296875,-0.2939453125,-2.166747808456421,0.8850097060203552,-2.227782964706421,80.0,1463937.0,1.0
1650901.3200389,290616.21875,345598.65625,326839.375,329186.125,348169.03125,315085.6875,307160.625,293035.5,-0.182373046875,0.905029296875,-0.29150390625,-2.136230230331421,0.6103515028953552,-2.014159917831421,80.0,1463938.0,1.0
1650901.326052,289711.25,344063.0,326215.59375,329805.46875,347331.71875,312751.96875,305170.96875,291637.34375,-0.179931640625,0.90283203125,-0.29443359375,-2.014159917831421,0.1525878757238388,-1.8005369901657104,80.0,1463939.0,1.0
1650901.3260953,283138.15625,335154.9375,317159.28125,321362.3125,342037.21875,308032.625,301884.09375,287074.5625,-0.18017578125,0.8994140625,-0.296142578125,-1.8005369901657104,-0.1220703050494194,-1.4953612089157104,80.0,1463940.0,1.0
1650901.3347705,280108.15625,331305.71875,312358.125,315716.53125,339717.5625,307560.375,301926.3125,285787.625,-0.177490234375,0.899169921875,-0.29541015625,-1.6174315214157104,-0.4272460639476776,-1.3122557401657104,80.0,1463941.0,1.0
1650901.3348133,284663.875,337612.5625,318207.125,320396.8125,343428.3125,311860.9375,305140.125,289396.0,-0.176513671875,0.899658203125,-0.295654296875,-1.3427733182907104,-0.7629393935203552,-0.9765624403953552,80.0,1463942.0,1.0
1650901.3485648,290577.4375,345389.09375,326684.15625,328986.3125,348095.1875,315074.125,307156.71875,293003.5,-0.173828125,0.8984375,-0.294189453125,-1.0986326932907104,-1.1291502714157104,-0.6103515028953552,80.0,1463943.0,1.0
1650901.3486095,289765.625,343973.4375,326186.625,329726.15625,347334.15625,312803.46875,305221.125,291672.125,-0.17138671875,0.8994140625,-0.293212890625,-0.8850097060203552,-1.4648436307907104,-0.3051757514476776,80.0,1463944.0,1.0
1650901.3554804,283240.34375,335114.96875,317192.8125,321358.28125,342075.125,308100.03125,301951.875,287139.8125,-0.170166015625,0.899169921875,-0.290771484375,-0.8239745497703552,-1.5258787870407104,-0.1525878757238388,80.0,1463945.0,1.0
1650901.355525,280115.5625,331141.375,312272.84375,315604.78125,339673.65625,307543.9375,301929.34375,285782.1875,-0.169677734375,0.899169921875,-0.293212890625,-0.6103515028953552,-1.6174315214157104,0.1525878757238388,80.0,1463946.0,1.0
1650901.3555369,284574.8125,337330.03125,317991.84375,320150.5625,343304.84375,311787.625,305096.5,289325.28125,-0.17138671875,0.900146484375,-0.291259765625,-0.3967284858226776,-1.7395018339157104,0.5187987685203552,80.0,1463947.0,1.0
1650901.3583638,290518.5,345156.0,326502.9375,328756.34375,347993.25,315040.34375,307142.125,292957.90625,-0.170166015625,0.899169921875,-0.29150390625,-0.3356933295726776,-1.9836424589157104,0.9765624403953552,80.0,1463948.0,1.0
1650901.3584014,289794.125,343860.25,326131.8125,329617.96875,347307.59375,312830.375,305244.03125,291692.875,-0.17041015625,0.900146484375,-0.290771484375,-0.1220703050494194,-2.227782964706421,1.2207030057907104,80.0,1463949.0,1.0
1650901.3616505,283255.71875,334986.6875,317136.3125,321261.5625,342039.90625,308094.5,301934.09375,287138.21875,-0.167724609375,0.898193359375,-0.291259765625,0.03051757626235485,-2.380370855331421,1.4953612089157104,80.0,1463950.0,1.0
1650901.3704627,280074.53125,330929.46875,312131.65625,315433.90625,339593.75,307496.375,301889.90625,285744.34375,-0.165283203125,0.89794921875,-0.29248046875,0.1220703050494194,-2.685546636581421,1.8615721464157104,80.0,1463951.0,1.0
1650901.3849089,284492.03125,337059.21875,317777.90625,319902.28125,343184.84375,311724.3125,305064.40625,289267.15625,-0.1630859375,0.900146484375,-0.29296875,0.2746581733226776,-2.838134527206421,2.105712652206421,80.0,1463952.0,1.0
1650901.3849534,290485.4375,344951.28125,326343.8125,328549.5625,347916.375,315034.25,307154.8125,292943.40625,-0.15966796875,0.901611328125,-0.2939453125,0.3051757514476776,-2.960204839706421,2.441406011581421,80.0,1463953.0,1.0
1650901.3873181,289845.28125,343772.34375,326088.8125,329522.5,347292.40625,312875.71875,305272.71875,291723.53125,-0.158203125,0.901611328125,-0.292724609375,0.3356933295726776,-3.021239995956421,2.624511480331421,80.0,1463954.0,1.0
1650901.3873634,283326.4375,334927.84375,317130.84375,321214.15625,342033.65625,308129.8125,301948.3125,287172.625,-0.156494140625,0.9033203125,-0.29345703125,0.3662109076976776,-2.838134527206421,3.051757574081421,80.0,1463955.0,1.0
1650901.3892726,280085.34375,330785.09375,312047.4375,315318.21875,339534.5625,307479.71875,301867.75,285733.375,-0.153076171875,0.9033203125,-0.2939453125,0.2746581733226776,-2.929687261581421,3.265380620956421,80.0,1463956.0,1.0
1650901.3916519,284425.25,336815.15625,317586.375,319672.34375,343059.34375,311661.46875,305005.125,289198.875,-0.152587890625,0.903564453125,-0.29443359375,0.2746581733226776,-2.868652105331421,3.448486089706421,80.0,1463957.0,1.0
1650901.4199065,290451.53125,344752.6875,326197.53125,328348.75,347814.96875,315010.21875,307133.46875,292907.90625,-0.149658203125,0.90478515625,-0.29248046875,0.1220703050494194,-2.899169683456421,3.448486089706421,80.0,1463958.0,1.0
1650901.4199571,289904.1875,343694.21875,326084.0625,329459.28125,347271.46875,312923.09375,305315.53125,291763.9375,-0.150390625,0.906005859375,-0.295166015625,0.0610351525247097,-2.685546636581421,3.662109136581421,80.0,1463959.0,1.0
1650901.4218549,283391.15625,334865.1875,317158.46875,321196.375,342021.3125,308163.6875,301981.1875,287206.875,-0.148193359375,0.9052734375,-0.294677734375,-0.1220703050494194,-2.746581792831421,3.753661870956421,80.0,1463960.0,1.0
1650901.4241902,280106.1875,330665.09375,312012.84375,315249.375,339489.125,307477.21875,301873.65625,285729.0625,-0.146728515625,0.906982421875,-0.293212890625,-0.3356933295726776,-2.502441167831421,3.784179449081421,80.0,1463961.0,1.0
1650901.4267195,284395.5625,336628.90625,317473.71875,319522.75,342973.125,311631.0,304980.8125,289159.53125,-0.144287109375,0.906494140625,-0.293212890625,-0.4882812201976776,-2.532958745956421,3.723144292831421,80.0,1463962.0,1.0
1650901.4293425,290444.3125,344598.75,326104.0,328204.4375,347747.84375,315007.09375,307125.15625,292889.0625,-0.142822265625,0.9052734375,-0.29248046875,-0.6713866591453552,-2.410888433456421,3.753661870956421,80.0,1463963.0,1.0
1650901.4317051,289970.4375,343656.5625,326103.84375,329425.46875,347270.5,312966.5625,305342.625,291794.96875,-0.143798828125,0.904541015625,-0.29296875,-0.9155272841453552,-2.197265386581421,3.692626714706421,80.0,1463964.0,1.0
1650901.43424,283499.09375,334891.5625,317250.3125,321247.25,342063.4375,308217.6875,302023.125,287263.90625,-0.14306640625,0.906494140625,-0.292724609375,-1.0681151151657104,-2.075195074081421,3.723144292831421,80.0,1463965.0,1.0
1650901.4367204,280102.40625,330550.03125,311965.8125,315177.59375,339435.65625,307427.15625,301832.25,285695.8125,-0.141845703125,0.907470703125,-0.292236328125,-1.2207030057907104,-2.075195074081421,3.601073980331421,80.0,1463966.0,1.0
1650901.4393481,284329.03125,336425.15625,317327.1875,319348.59375,342870.78125,311561.59375,304930.65625,289098.46875,-0.140869140625,0.910888671875,-0.29443359375,-1.2207030057907104,-1.8920897245407104,3.479003667831421,80.0,1463967.0,1.0
1650901.4422736,290415.6875,344441.75,325995.125,328053.625,347679.78125,314993.40625,307122.28125,292867.40625,-0.13818359375,0.915283203125,-0.291015625,-1.4343260526657104,-1.7089842557907104,3.387450933456421,80.0,1463968.0,1.0
1650901.4423236,290022.03125,343602.03125,326095.96875,329368.09375,347254.21875,312999.4375,305373.03125,291820.625,-0.137939453125,0.91748046875,-0.28955078125,-1.6174315214157104,-1.6174315214157104,3.356933355331421,80.0,1463969.0,1.0
1650901.4442124,283564.4375,334849.34375,317263.71875,321221.6875,342049.5625,308236.65625,302032.4375,287286.34375,-0.136474609375,0.91845703125,-0.29052734375,-1.8920897245407104,-1.2207030057907104,3.265380620956421,80.0,1463970.0,1.0
1650901.4529626,280108.3125,330422.09375,311896.15625,315079.875,339375.40625,307402.3125,301810.4375,285673.28125,-0.1357421875,0.91845703125,-0.291259765625,-2.105712652206421,-1.0375975370407104,3.143310308456421,80.0,1463971.0,1.0
1650901.4574013,284266.5625,336207.34375,317157.3125,319149.65625,342754.0,311499.5625,304889.6875,289035.4375,-0.135498046875,0.917724609375,-0.292724609375,-2.349853277206421,-0.8544921278953552,3.112792730331421,80.0,1463972.0,1.0
1650901.4574482,290358.375,344246.03125,325833.46875,327851.1875,347564.0,314949.875,307093.9375,292813.40625,-0.135498046875,0.91943359375,-0.293212890625,-2.655029058456421,-0.5493163466453552,3.021239995956421,80.0,1463973.0,1.0
1650901.4592107,290078.09375,343556.34375,326089.34375,329318.46875,347239.5625,313042.8125,305410.9375,291860.78125,-0.1357421875,0.921630859375,-0.29248046875,-2.777099370956421,-0.3051757514476776,2.868652105331421,80.0,1463974.0,1.0
1650901.4704542,283671.46875,334869.75,317326.21875,321249.84375,342071.28125,308291.1875,302075.4375,287349.40625,-0.134521484375,0.921875,-0.291259765625,-3.112792730331421,-0.0610351525247097,2.807616949081421,80.0,1463975.0,1.0
1650901.4734416,280142.46875,330348.6875,311869.34375,315026.5,339336.0625,307392.90625,301803.1875,285680.625,-0.13330078125,0.926025390625,-0.292236328125,-3.356933355331421,0.1220703050494194,2.655029058456421,80.0,1463976.0,1.0
1650901.4734744,284226.5,336038.8125,317028.9375,318992.125,342660.40625,311460.3125,304866.53125,289001.625,-0.135009765625,0.925537109375,-0.29150390625,-3.601073980331421,0.2746581733226776,2.502441167831421,80.0,1463977.0,1.0
1650901.4752873,290336.3125,344109.9375,325726.8125,327703.40625,347486.3125,314945.40625,307096.09375,292799.46875,-0.134033203125,0.925048828125,-0.29150390625,-3.784179449081421,0.4577636420726776,2.349853277206421,80.0,1463978.0,1.0
1650901.4867193,290136.375,343536.21875,326098.03125,329280.625,347224.1875,313092.625,305447.25,291897.25,-0.13671875,0.9248046875,-0.296630859375,-3.997802495956421,0.6713866591453552,2.227782964706421,80.0,1463979.0,1.0
1650901.5016484,283731.8125,334861.6875,317367.34375,321256.1875,342065.125,308325.25,302096.0,287380.25,-0.13720703125,0.924072265625,-0.294921875,-4.241942882537842,0.7324218153953552,2.044677495956421,80.0,1463980.0,1.0
1650901.5016924,280121.09375,330233.71875,311809.625,314948.25,339267.84375,307355.09375,301770.28125,285646.375,-0.137451171875,0.92529296875,-0.293701171875,-4.364013195037842,0.7934569716453552,2.014159917831421,80.0,1463981.0,1.0
1650901.5017289,284158.46875,335859.28125,316889.71875,318827.1875,342558.90625,311406.5625,304828.28125,288942.53125,-0.137939453125,0.92333984375,-0.2939453125,-4.577636241912842,1.0375975370407104,1.8615721464157104,80.0,1463982.0,1.0
1650901.5042097,290303.3125,343978.0,325621.75,327556.4375,347416.21875,314938.59375,307097.875,292779.53125,-0.13720703125,0.92529296875,-0.29150390625,-4.760741710662842,1.0681151151657104,1.7700194120407104,80.0,1463983.0,1.0
1650901.5068119,290185.375,343514.15625,326112.78125,329254.4375,347216.75,313136.25,305478.96875,291930.59375,-0.138427734375,0.92529296875,-0.2919921875,-4.913329601287842,1.1901854276657104,1.6174315214157104,80.0,1463984.0,1.0
1650901.5097216,283810.84375,334873.84375,317430.46875,321296.59375,342074.15625,308362.28125,302110.03125,287415.5625,-0.13818359375,0.926513671875,-0.291748046875,-5.035399913787842,1.2512205839157104,1.4953612089157104,80.0,1463985.0,1.0
1650901.5097551,280121.375,330143.875,311767.25,314893.71875,339206.875,307323.625,301734.53125,285617.125,-0.1396484375,0.926513671875,-0.292236328125,-5.126952648162842,1.4038084745407104,1.4648436307907104,80.0,1463986.0,1.0
1650901.5116248,284064.84375,335655.34375,316726.5625,318649.53125,342429.46875,311328.78125,304766.5,288864.5625,-0.14111328125,0.92529296875,-0.2939453125,-5.157470226287842,1.4038084745407104,1.5258787870407104,80.0,1463987.0,1.0
1650901.5204732,290228.125,343802.9375,325491.75,327394.59375,347313.84375,314905.78125,307078.84375,292738.5625,-0.1435546875,0.926025390625,-0.2900390625,-5.371093273162842,1.4038084745407104,1.4343260526657104,80.0,1463988.0,1.0
1650901.5237727,290204.25,343459.4375,326115.90625,329215.375,347197.8125,313176.75,305511.71875,291964.125,-0.146484375,0.92333984375,-0.286865234375,-5.493163585662842,1.4648436307907104,1.3122557401657104,80.0,1463989.0,1.0
1650901.5238187,283871.09375,334864.375,317491.25,321326.09375,342089.96875,308406.96875,302140.15625,287468.75,-0.147216796875,0.923095703125,-0.2861328125,-5.554198741912842,1.4343260526657104,1.3427733182907104,80.0,1463990.0,1.0
1650901.5292404,280130.9375,330052.125,311746.21875,314856.15625,339181.75,307318.875,301734.4375,285629.1875,-0.151123046875,0.9208984375,-0.284912109375,-5.523681163787842,1.3732908964157104,1.2207030057907104,80.0,1463991.0,1.0
