Time,FZ,C3,CZ,C4,PZ,PO7,OZ,PO8,AccX,AccY,AccZ,Gyro1,Gyro2,Gyro3,Battery,Counter,Validation
1168013.7777101,297276.0625,319894.15625,327858.0,309846.875,298703.1875,303550.90625,287932.3125,327869.875,-0.0703125,0.853515625,-0.38037109375,10.253905296325684,3.509521245956421,-1.2207030057907104,80.0,1358441.0,1.0
1168013.7807253,298455.96875,319288.15625,328793.46875,311200.59375,298898.53125,303179.4375,287716.0625,327776.8125,-0.070068359375,0.85595703125,-0.381103515625,10.925292015075684,3.479003667831421,-1.4953612089157104,80.0,1358442.0,1.0
1168013.7807538,299107.46875,318639.6875,329499.0625,312141.6875,298958.96875,302817.34375,287356.8125,327509.5,-0.06982421875,0.860595703125,-0.381591796875,11.383055686950684,3.509521245956421,-1.7395018339157104,80.0,1358443.0,1.0
1168013.7827839,298384.0,318909.4375,329099.40625,311478.625,298863.5,303015.71875,287443.28125,327512.15625,-0.070556640625,0.8642578125,-0.382080078125,11.749266624450684,3.509521245956421,-1.8615721464157104,80.0,1358444.0,1.0
1168013.7921471,297280.4375,319723.65625,328137.3125,310108.9375,298739.46875,303492.0,287837.5625,327765.90625,-0.069091796875,0.87060546875,-0.383544921875,11.962889671325684,3.509521245956421,-1.9226073026657104,80.0,1358445.0,1.0
1168013.7922013,297275.71875,319899.0,327854.96875,309840.34375,298679.3125,303557.0,287913.375,327828.40625,-0.066162109375,0.874267578125,-0.387451171875,12.115477561950684,3.570556402206421,-1.8920897245407104,80.0,1358446.0,1.0
1168013.7939859,298438.8125,319277.15625,328768.875,311172.59375,298860.90625,303179.625,287691.46875,327726.75,-0.064453125,0.8779296875,-0.388427734375,12.145995140075684,3.662109136581421,-1.8615721464157104,80.0,1358447.0,1.0
1168013.802791,299094.34375,318614.03125,329472.15625,312117.90625,298914.375,302803.375,287322.03125,327451.1875,-0.061767578125,0.878662109375,-0.389404296875,12.115477561950684,3.631591558456421,-1.8310545682907104,80.0,1358448.0,1.0
1168013.8071328,298385.25,318878.0625,329084.40625,311472.90625,298821.125,302987.5625,287402.15625,327448.5,-0.06201171875,0.88427734375,-0.3896484375,12.084959983825684,3.814697027206421,-1.7089842557907104,80.0,1358449.0,1.0
1168013.8071848,297278.5625,319695.0625,328133.0,310114.5625,298703.71875,303462.75,287799.71875,327707.34375,-0.06396484375,0.887451171875,-0.388671875,11.901854515075684,3.753661870956421,-1.5258787870407104,80.0,1358450.0,1.0
1168013.8208603,297264.28125,319893.625,327848.96875,309839.90625,298654.28125,303542.15625,287889.0625,327782.90625,-0.06689453125,0.893310546875,-0.39013671875,11.718749046325684,3.845214605331421,-1.4648436307907104,80.0,1358451.0,1.0
1168013.8209158,298416.1875,319279.5625,328750.46875,311154.71875,298837.5625,303170.03125,287671.78125,327686.4375,-0.07177734375,0.89794921875,-0.390380859375,11.505125999450684,3.875732183456421,-1.4038084745407104,80.0,1358452.0,1.0
1168013.8227344,299076.09375,318591.40625,329444.625,312095.28125,298880.375,302787.375,287292.15625,327401.125,-0.07275390625,0.900390625,-0.385986328125,10.986327171325684,3.845214605331421,-1.2512205839157104,80.0,1358453.0,1.0
1168013.8252851,298387.03125,318852.21875,329073.9375,311471.9375,298793.5,302973.96875,287378.28125,327400.21875,-0.076171875,0.904052734375,-0.387939453125,10.528563499450684,3.845214605331421,-1.1291502714157104,80.0,1358454.0,1.0
1168013.8277902,297283.9375,319693.25,328136.84375,310119.21875,298686.65625,303455.875,287786.5,327663.28125,-0.0791015625,0.90576171875,-0.386962890625,9.887694358825684,3.631591558456421,-1.2207030057907104,80.0,1358455.0,1.0
1168013.8371819,297263.375,319906.125,327848.78125,309834.53125,298644.71875,303547.875,287886.71875,327750.15625,-0.0830078125,0.90966796875,-0.385009765625,9.338377952575684,3.387450933456421,-1.2207030057907104,80.0,1358456.0,1.0
1168013.8372369,298392.3125,319265.53125,328720.25,311121.1875,298803.6875,303163.15625,287651.5,327640.1875,-0.085205078125,0.91064453125,-0.38623046875,8.544920921325684,3.173827886581421,-1.1901854276657104,80.0,1358457.0,1.0
1168013.8389784,299058.84375,318572.1875,329427.34375,312078.75,298847.40625,302778.8125,287281.1875,327365.28125,-0.0849609375,0.91162109375,-0.38525390625,7.781981945037842,2.960204839706421,-1.1901854276657104,80.0,1358458.0,1.0
1168013.8571038,298386.9375,318832.4375,329073.84375,311472.03125,298765.3125,302965.46875,287366.46875,327368.40625,-0.090087890625,0.9111328125,-0.385498046875,7.080077648162842,2.532958745956421,-1.2207030057907104,80.0,1358459.0,1.0
1168013.8571528,297287.5,319687.28125,328143.75,310126.4375,298669.375,303454.71875,287785.15625,327644.21875,-0.09619140625,0.910400390625,-0.3837890625,6.195067882537842,2.166747808456421,-1.3122557401657104,80.0,1358460.0,1.0
1168013.8571651,297245.3125,319900.3125,327843.875,309821.03125,298625.9375,303549.03125,287889.40625,327736.3125,-0.09814453125,0.912841796875,-0.383056640625,5.432128429412842,1.7089842557907104,-1.5258787870407104,80.0,1358461.0,1.0
1168013.8571773,298383.65625,319274.9375,328716.40625,311110.5625,298795.1875,303181.3125,287666.78125,327637.59375,-0.103271484375,0.91064453125,-0.380126953125,4.547118663787842,1.2207030057907104,-1.7700194120407104,80.0,1358462.0,1.0
1168013.8590328,299060.8125,318582.90625,329424.3125,312075.78125,298839.53125,302794.09375,287287.96875,327361.15625,-0.10595703125,0.9169921875,-0.3779296875,3.814697027206421,0.5187987685203552,-1.9531248807907104,80.0,1358463.0,1.0
1168013.861498,298396.15625,318832.28125,329076.53125,311481.0625,298759.78125,302972.1875,287361.46875,327361.25,-0.111083984375,0.9169921875,-0.37939453125,2.899169683456421,-0.0915527269244194,-2.166747808456421,80.0,1358464.0,1.0
1168013.8652832,297299.5,319686.8125,328155.28125,310139.9375,298670.46875,303460.34375,287783.09375,327645.75,-0.111083984375,0.92041015625,-0.378662109375,2.044677495956421,-0.6408690810203552,-2.441406011581421,80.0,1358465.0,1.0
1168013.8740335,297241.46875,319903.0,327842.625,309812.09375,298621.90625,303554.6875,287889.6875,327737.5625,-0.113037109375,0.92041015625,-0.377685546875,1.1596678495407104,-1.3427733182907104,-2.655029058456421,80.0,1358466.0,1.0
1168013.8783814,298371.9375,319278.78125,328702.8125,311087.46875,298787.75,303184.53125,287666.4375,327638.40625,-0.114013671875,0.919921875,-0.376708984375,0.2136230319738388,-1.9531248807907104,-2.777099370956421,80.0,1358467.0,1.0
1168013.8784323,299066.25,318593.46875,329428.875,312076.0625,298849.90625,302805.25,287299.15625,327373.40625,-0.116455078125,0.920654296875,-0.3779296875,-0.7629393935203552,-2.716064214706421,-2.929687261581421,80.0,1358468.0,1.0
1168013.8871848,298410.375,318835.9375,329089.5,311495.1875,298773.5625,302978.28125,287368.875,327369.75,-0.11767578125,0.919189453125,-0.37939453125,-1.5869139432907104,-3.387450933456421,-3.082275152206421,80.0,1358469.0,1.0
1168013.8872393,297305.125,319693.71875,328164.21875,310148.4375,298684.40625,303470.46875,287793.375,327651.46875,-0.120849609375,0.916259765625,-0.38037109375,-2.441406011581421,-4.089354991912842,-3.234863042831421,80.0,1358470.0,1.0
1168013.8889916,297234.3125,319921.53125,327837.15625,309805.28125,298635.25,303571.40625,287904.59375,327747.65625,-0.12109375,0.914306640625,-0.380615234375,-3.234863042831421,-4.852294445037842,-3.448486089706421,80.0,1358471.0,1.0
1168013.8927656,298356.09375,319296.5625,328685.0,311068.71875,298791.96875,303199.5625,287673.9375,327641.71875,-0.119384765625,0.912109375,-0.378173828125,-3.906249761581421,-5.584716320037842,-3.540038824081421,80.0,1358472.0,1.0
1168013.9014913,299066.53125,318609.1875,329424.75,312075.34375,298858.125,302818.59375,287308.625,327379.21875,-0.119384765625,0.910888671875,-0.37939453125,-4.577636241912842,-6.195067882537842,-3.723144292831421,80.0,1358473.0,1.0
1168013.9058096,298421.5625,318835.125,329095.21875,311510.03125,298779.53125,302989.8125,287374.4375,327375.65625,-0.119140625,0.912841796875,-0.382568359375,-5.279540538787842,-6.805419445037842,-3.845214605331421,80.0,1358474.0,1.0
1168013.9058577,297306.28125,319678.875,328159.46875,310153.8125,298674.84375,303477.0625,287793.03125,327651.28125,-0.118408203125,0.911376953125,-0.38232421875,-6.011962413787842,-7.354735851287842,-3.753661870956421,80.0,1358475.0,1.0
1168013.9164889,297213.65625,319913.65625,327813.90625,309791.25,298617.34375,303577.75,287906.40625,327746.15625,-0.115234375,0.910888671875,-0.382080078125,-6.561278820037842,-7.904052257537842,-3.784179449081421,80.0,1358476.0,1.0
1168013.9194896,298331.96875,319299.96875,328659.25,311050.09375,298780.78125,303207.78125,287680.46875,327644.21875,-0.1123046875,0.906982421875,-0.37841796875,-7.293700695037842,-8.483885765075684,-3.723144292831421,80.0,1358477.0,1.0
1168013.9195254,299067.6875,318615.28125,329418.6875,312078.90625,298859.28125,302825.375,287319.09375,327386.28125,-0.110107421875,0.90283203125,-0.375732421875,-7.598876476287842,-8.819579124450684,-3.723144292831421,80.0,1358478.0,1.0
1168013.9214005,298426.125,318825.21875,329087.0625,311517.09375,298773.90625,302979.6875,287370.21875,327369.3125,-0.110595703125,0.899169921875,-0.372314453125,-7.995604991912842,-9.124754905700684,-3.753661870956421,80.0,1358479.0,1.0
1168013.9301645,297300.21875,319659.09375,328142.9375,310147.8125,298664.84375,303463.125,287784.625,327644.75,-0.1083984375,0.895263671875,-0.37109375,-8.300780296325684,-9.429930686950684,-3.723144292831421,80.0,1358480.0,1.0
1168013.9332037,297197.40625,319891.46875,327781.90625,309763.71875,298599.5625,303566.9375,287895.5,327736.21875,-0.108154296875,0.888916015625,-0.371337890625,-8.575438499450684,-9.735106468200684,-3.753661870956421,80.0,1358481.0,1.0
1168013.9332234,298320.78125,319287.1875,328625.46875,311021.0625,298756.90625,303199.5625,287668.125,327629.03125,-0.1044921875,0.885498046875,-0.371337890625,-8.758543968200684,-9.948729515075684,-3.784179449081421,80.0,1358482.0,1.0
1168013.9351884,299072.875,318617.0625,329406.0,312074.28125,298842.9375,302820.90625,287312.09375,327373.78125,-0.105712890625,0.884765625,-0.369873046875,-8.819579124450684,-10.192870140075684,-3.845214605331421,80.0,1358483.0,1.0
1168013.9489766,298427.4375,318806.6875,329077.0625,311516.09375,298751.09375,302968.15625,287355.03125,327347.03125,-0.105224609375,0.88671875,-0.366455078125,-8.819579124450684,-10.284422874450684,-4.058837413787842,80.0,1358484.0,1.0
1168013.9521181,297277.84375,319606.96875,328105.21875,310124.5625,298621.90625,303444.53125,287756.46875,327605.96875,-0.102294921875,0.88818359375,-0.3662109375,-8.911131858825684,-10.345458030700684,-4.119872570037842,80.0,1358485.0,1.0
1168013.9521538,297173.78125,319852.6875,327742.3125,309733.9375,298559.0625,303561.28125,287876.53125,327703.21875,-0.10302734375,0.8935546875,-0.362060546875,-9.033202171325684,-10.498045921325684,-4.180907726287842,80.0,1358486.0,1.0
1168013.9537802,298310.34375,319282.78125,328597.125,310995.65625,298727.875,303202.3125,287657.3125,327606.125,-0.10302734375,0.894775390625,-0.361328125,-9.002684593200684,-10.498045921325684,-4.302978038787842,80.0,1358487.0,1.0
1168013.9614249,299073.78125,318613.65625,329392.125,312063.71875,298821.5625,302816.1875,287299.6875,327349.28125,-0.10546875,0.89501953125,-0.35791015625,-9.094237327575684,-10.467528343200684,-4.394530773162842,80.0,1358488.0,1.0
1168013.9639808,298452.03125,318805.53125,329091.28125,311535.84375,298751.28125,302972.8125,287358.59375,327338.71875,-0.1044921875,0.895751953125,-0.354736328125,-9.277342796325684,-10.467528343200684,-4.425048351287842,80.0,1358489.0,1.0
1168013.9689182,297297.53125,319598.75,328116.75,310141.8125,298620.75,303453.46875,287764.40625,327601.21875,-0.1005859375,0.898681640625,-0.35107421875,-9.399413108825684,-10.528563499450684,-4.486083507537842,80.0,1358490.0,1.0
1168013.9714719,297156.25,319834.78125,327708.15625,309707.9375,298528.21875,303553.59375,287867.40625,327675.59375,-0.0986328125,0.9013671875,-0.3505859375,-9.460448265075684,-10.375975608825684,-4.608153820037842,80.0,1358491.0,1.0
1168013.9751834,298293.96875,319283.40625,328562.6875,310973.21875,298705.40625,303202.59375,287662.5,327585.3125,-0.09765625,0.90625,-0.35009765625,-9.582518577575684,-10.192870140075684,-4.577636241912842,80.0,1358492.0,1.0
1168013.9895563,299082.0,318621.8125,329383.0,312071.3125,298810.65625,302818.6875,287311.46875,327337.5625,-0.0927734375,0.91357421875,-0.348876953125,-9.796141624450684,-10.040282249450684,-4.577636241912842,80.0,1358493.0,1.0
1168013.9895887,298462.21875,318795.4375,329085.71875,311548.8125,298731.0,302958.59375,287354.75,327314.5,-0.0888671875,0.919921875,-0.344970703125,-10.162352561950684,-9.887694358825684,-4.669188976287842,80.0,1358494.0,1.0
1168013.9914762,297293.0625,319580.875,328104.03125,310142.90625,298596.15625,303431.75,287757.34375,327577.625,-0.08642578125,0.923583984375,-0.34375,-10.498045921325684,-9.643553733825684,-4.516601085662842,80.0,1358495.0,1.0
1168013.9940733,297149.8125,319825.84375,327694.1875,309698.90625,298510.34375,303550.46875,287871.09375,327670.0625,-0.084228515625,0.92431640625,-0.341064453125,-11.108397483825684,-9.216307640075684,-4.302978038787842,80.0,1358496.0,1.0
1168013.9964758,298295.84375,319292.09375,328555.46875,310962.21875,298691.5625,303205.09375,287666.59375,327586.125,-0.08349609375,0.92333984375,-0.338623046875,-11.688231468200684,-8.941649436950684,-4.211425304412842,80.0,1358497.0,1.0
1168014.0057424,299096.03125,318647.46875,329397.40625,312079.4375,298816.5625,302823.59375,287324.28125,327352.03125,-0.0830078125,0.91845703125,-0.3330078125,-12.084959983825684,-8.422850608825684,-4.028319835662842,80.0,1358498.0,1.0
1168014.0057722,298483.5,318800.09375,329102.0,311565.375,298734.3125,302957.625,287361.1875,327324.9375,-0.082275390625,0.91357421875,-0.33349609375,-12.512206077575684,-8.117674827575684,-3.906249761581421,80.0,1358499.0,1.0
1168014.008297,297300.21875,319557.1875,328093.9375,310137.0,298576.5,303427.0,287751.625,327570.09375,-0.078857421875,0.910888671875,-0.3310546875,-12.847899436950684,-7.568358898162842,-4.058837413787842,80.0,1358500.0,1.0
1168014.0083336,297147.15625,319816.71875,327677.5625,309682.1875,298487.34375,303551.71875,287872.25,327667.90625,-0.079345703125,0.91015625,-0.3291015625,-13.061522483825684,-7.080077648162842,-4.089354991912842,80.0,1358501.0,1.0
1168014.0245172,298289.84375,319304.875,328546.34375,310949.25,298677.96875,303212.96875,287676.25,327593.25,-0.078369140625,0.9111328125,-0.3251953125,-13.275145530700684,-6.652831554412842,-3.997802495956421,80.0,1358502.0,1.0
1168014.0245493,299107.75,318661.9375,329403.9375,312086.5,298809.65625,302826.28125,287332.59375,327358.375,-0.07958984375,0.911865234375,-0.325927734375,-13.488768577575684,-6.134032726287842,-3.875732183456421,80.0,1358503.0,1.0
1168014.0264746,298498.71875,318797.5,329110.3125,311578.5,298725.09375,302946.875,287354.40625,327320.125,-0.080322265625,0.909912109375,-0.3203125,-13.763426780700684,-5.584716320037842,-3.692626714706421,80.0,1358504.0,1.0
1168014.030225,297300.5625,319552.53125,328095.09375,310139.9375,298565.5,303414.125,287739.90625,327563.03125,-0.08056640625,0.905517578125,-0.318115234375,-13.916014671325684,-5.157470226287842,-3.601073980331421,80.0,1358505.0,1.0
1168014.0364577,297123.90625,319807.96875,327650.3125,309651.78125,298466.625,303544.03125,287859.71875,327650.84375,-0.080322265625,0.904052734375,-0.31640625,-14.221190452575684,-4.760741710662842,-3.417968511581421,80.0,1358506.0,1.0
1168014.0408201,298271.09375,319300.21875,328512.90625,310915.8125,298658.125,303207.96875,287669.75,327575.03125,-0.076416015625,0.897216796875,-0.31494140625,-14.282225608825684,-4.241942882537842,-3.326415777206421,80.0,1358507.0,1.0
1168014.0408529,299114.09375,318668.3125,329398.65625,312085.4375,298806.53125,302830.5625,287335.96875,327354.1875,-0.077392578125,0.8916015625,-0.312744140625,-14.221190452575684,-3.814697027206421,-3.265380620956421,80.0,1358508.0,1.0
1168014.0427484,298505.875,318789.90625,329110.5,311587.0,298719.09375,302943.3125,287350.71875,327312.625,-0.077880859375,0.884765625,-0.310302734375,-14.129637718200684,-3.173827886581421,-3.143310308456421,80.0,1358509.0,1.0
1168014.0545243,297285.09375,319518.28125,328069.4375,310129.03125,298537.78125,303399.28125,287720.4375,327540.6875,-0.0751953125,0.8818359375,-0.30859375,-13.885497093200684,-2.655029058456421,-2.990722417831421,80.0,1358510.0,1.0
1168014.054561,297085.53125,319766.5625,327601.75,309621.21875,298426.46875,303522.03125,287837.09375,327625.1875,-0.075927734375,0.880859375,-0.303955078125,-13.519286155700684,-2.014159917831421,-2.990722417831421,80.0,1358511.0,1.0
1168014.057066,298233.875,319272.25,328465.875,310885.15625,298622.71875,303193.84375,287655.6875,327553.75,-0.075927734375,0.883544921875,-0.30078125,-13.153075218200684,-1.4953612089157104,-2.929687261581421,80.0,1358512.0,1.0
1168014.0571026,299091.65625,318642.8125,329366.28125,312075.78125,298776.84375,302811.96875,287322.03125,327328.53125,-0.073486328125,0.881103515625,-0.298828125,-12.786864280700684,-0.9765624403953552,-2.929687261581421,80.0,1358513.0,1.0
1168014.0588245,298498.1875,318764.6875,329095.21875,311594.15625,298692.90625,302923.625,287333.75,327282.125,-0.0732421875,0.882568359375,-0.298583984375,-12.512206077575684,-0.4882812201976776,-2.868652105331421,80.0,1358514.0,1.0
1168014.0652471,297265.4375,319478.78125,328049.9375,310124.5625,298508.0,303375.6875,287699.40625,327507.0625,-0.07275390625,0.883544921875,-0.292724609375,-12.298583030700684,-0.03051757626235485,-2.777099370956421,80.0,1358515.0,1.0
1168014.0677305,297052.65625,319730.1875,327563.40625,309592.34375,298385.625,303503.34375,287808.84375,327584.3125,-0.075439453125,0.8837890625,-0.290283203125,-11.993407249450684,0.4272460639476776,-2.685546636581421,80.0,1358516.0,1.0
1168014.0764488,298218.96875,319265.90625,328439.5,310865.46875,298594.1875,303188.1875,287639.875,327527.1875,-0.07666015625,0.885498046875,-0.2880859375,-11.779784202575684,0.7934569716453552,-2.532958745956421,80.0,1358517.0,1.0
1168014.0808173,299092.375,318636.125,329350.03125,312062.8125,298746.375,302797.3125,287297.28125,327296.6875,-0.08056640625,0.8857421875,-0.28662109375,-11.535643577575684,1.2817381620407104,-2.410888433456421,80.0,1358518.0,1.0
1168014.0808504,298493.875,318730.0,329073.84375,311579.40625,298652.5,302892.71875,287288.40625,327235.53125,-0.080322265625,0.88623046875,-0.283447265625,-11.352538108825684,1.5869139432907104,-2.349853277206421,80.0,1358519.0,1.0
1168014.0889195,297265.875,319454.375,328024.90625,310110.25,298465.1875,303354.21875,287656.9375,327459.875,-0.082763671875,0.889892578125,-0.28466796875,-11.016844749450684,1.8310545682907104,-2.319335699081421,80.0,1358520.0,1.0
1168014.0933155,297046.125,319726.15625,327536.125,309574.71875,298347.53125,303494.3125,287783.65625,327549.53125,-0.085205078125,0.89306640625,-0.281982421875,-10.833739280700684,2.166747808456421,-2.258300542831421,80.0,1358521.0,1.0
1168014.0933489,298187.5625,319250.0625,328394.78125,310830.625,298544.84375,303171.9375,287609.3125,327487.75,-0.08740234375,0.898193359375,-0.27978515625,-10.864256858825684,2.563476324081421,-2.166747808456421,80.0,1358522.0,1.0
1168014.1014411,299064.375,318605.71875,329309.875,312034.46875,298696.125,302772.90625,287255.0625,327249.5,-0.087646484375,0.904296875,-0.2822265625,-10.894774436950684,2.777099370956421,-2.166747808456421,80.0,1358523.0,1.0
1168014.104577,298492.0,318707.46875,329056.84375,311579.5625,298614.75,302872.15625,287253.8125,327193.78125,-0.088623046875,0.90673828125,-0.277587890625,-11.047362327575684,2.868652105331421,-1.9226073026657104,80.0,1358524.0,1.0
1168014.1046097,297257.84375,319434.4375,328016.59375,310117.25,298438.1875,303337.6875,287633.875,327430.8125,-0.089599609375,0.910888671875,-0.27978515625,-11.352538108825684,2.960204839706421,-1.8310545682907104,80.0,1358525.0,1.0
1168014.1064989,297017.40625,319716.6875,327515.84375,309554.5,298321.40625,303481.4375,287761.28125,327526.28125,-0.093017578125,0.913330078125,-0.27978515625,-11.505125999450684,3.021239995956421,-1.6174315214157104,80.0,1358526.0,1.0
1168014.1201514,298162.53125,319250.875,328374.9375,310802.1875,298524.46875,303163.78125,287589.53125,327466.03125,-0.093017578125,0.9140625,-0.278564453125,-11.779784202575684,3.082275152206421,-1.4648436307907104,80.0,1358527.0,1.0
1168014.1232313,299060.09375,318593.65625,329295.40625,312015.53125,298675.28125,302761.1875,287228.59375,327217.75,-0.097412109375,0.91064453125,-0.27685546875,-12.054442405700684,3.173827886581421,-1.3427733182907104,80.0,1358528.0,1.0
1168014.1232521,298504.0,318687.53125,329055.34375,311575.09375,298595.09375,302855.5,287220.8125,327156.0625,-0.099853515625,0.91162109375,-0.278076171875,-12.268065452575684,3.112792730331421,-1.2207030057907104,80.0,1358529.0,1.0
1168014.1251094,297273.21875,319435.9375,328025.375,310118.3125,298424.0625,303327.9375,287611.625,327404.34375,-0.10205078125,0.909912109375,-0.277099609375,-12.512206077575684,3.051757574081421,-1.1291502714157104,80.0,1358530.0,1.0
1168014.1288662,297023.59375,319731.0,327522.4375,309550.5,298310.0625,303484.125,287756.90625,327509.3125,-0.104248046875,0.91015625,-0.27783203125,-12.664793968200684,2.929687261581421,-1.0681151151657104,80.0,1358531.0,1.0
1168014.1376186,298164.6875,319258.375,328372.1875,310785.90625,298506.5625,303168.71875,287587.9375,327447.78125,-0.105712890625,0.9130859375,-0.28369140625,-12.817381858825684,2.716064214706421,-1.0375975370407104,80.0,1358532.0,1.0
1168014.1420286,299069.46875,318592.9375,329297.8125,312010.96875,298660.4375,302758.875,287226.28125,327200.3125,-0.107177734375,0.914306640625,-0.285400390625,-13.061522483825684,2.563476324081421,-0.8544921278953552,80.0,1358533.0,1.0
1168014.142049,298525.25,318684.5625,329072.59375,311591.75,298585.53125,302853.28125,287222.53125,327140.0625,-0.1064453125,0.915283203125,-0.284423828125,-13.244627952575684,2.471923589706421,-0.7019042372703552,80.0,1358534.0,1.0
1168014.1475986,297296.1875,319448.03125,328052.8125,310145.9375,298424.0625,303339.03125,287629.3125,327397.90625,-0.107666015625,0.916748046875,-0.286376953125,-13.580321311950684,2.227782964706421,-0.5187987685203552,80.0,1358535.0,1.0
1168014.15699,297024.125,319762.09375,327538.0,309559.4375,298320.6875,303503.53125,287784.34375,327519.59375,-0.10546875,0.914794921875,-0.289794921875,-13.885497093200684,1.9531248807907104,-0.3356933295726776,80.0,1358536.0,1.0
1168014.1570023,298150.5625,319286.0,328369.40625,310770.71875,298516.9375,303185.78125,287609.65625,327455.9375,-0.10546875,0.910888671875,-0.290771484375,-14.160155296325684,1.7395018339157104,-0.3967284858226776,80.0,1358537.0,1.0
1168014.1594298,299068.84375,318607.40625,329297.90625,312000.3125,298668.0625,302768.53125,287237.90625,327199.4375,-0.105712890625,0.907958984375,-0.293212890625,-14.251708030700684,1.5563963651657104,-0.1525878757238388,80.0,1358538.0,1.0
1168014.1594395,298519.1875,318670.53125,329066.0625,311580.75,298579.71875,302843.09375,287216.25,327124.15625,-0.104248046875,0.90478515625,-0.295166015625,-14.343260765075684,1.3732908964157104,0.03051757626235485,80.0,1358539.0,1.0
1168014.1726789,297279.1875,319434.78125,328047.1875,310137.09375,298420.375,303327.65625,287631.125,327390.5625,-0.10400390625,0.904052734375,-0.29638671875,-14.495848655700684,1.1901854276657104,0.3051757514476776,80.0,1358540.0,1.0
1168014.1751653,296999.625,319761.84375,327524.96875,309537.625,298314.0,303503.90625,287796.15625,327515.03125,-0.1025390625,0.902099609375,-0.297607421875,-14.617918968200684,1.0375975370407104,0.5187987685203552,80.0,1358541.0,1.0
1168014.1776922,298125.71875,319301.65625,328351.53125,310744.96875,298511.6875,303197.5,287625.3125,327455.03125,-0.101318359375,0.900634765625,-0.301025390625,-14.556883811950684,0.9155272841453552,0.6408690810203552,80.0,1358542.0,1.0
1168014.1801576,299055.625,318623.59375,329289.84375,311985.5625,298668.84375,302773.4375,287245.78125,327193.96875,-0.0966796875,0.900390625,-0.30029296875,-14.556883811950684,0.9155272841453552,0.8239745497703552,80.0,1358543.0,1.0
1168014.2053492,298530.53125,318680.46875,329081.71875,311594.6875,298593.84375,302848.1875,287223.875,327123.25,-0.095458984375,0.903564453125,-0.302978515625,-14.465331077575684,0.8850097060203552,0.8850097060203552,80.0,1358544.0,1.0
1168014.2083795,297294.21875,319445.4375,328073.8125,310160.25,298441.75,303340.53125,287645.5,327401.75,-0.0927734375,0.906494140625,-0.304931640625,-14.465331077575684,0.7629393935203552,1.1901854276657104,80.0,1358545.0,1.0
1168014.2084278,297004.53125,319784.90625,327548.1875,309553.0,298339.75,303524.375,287822.0,327543.65625,-0.091796875,0.91015625,-0.310302734375,-14.587401390075684,0.7324218153953552,1.5563963651657104,80.0,1358546.0,1.0
1168014.2102674,298124.53125,319325.4375,328364.5625,310747.1875,298534.21875,303210.5625,287647.90625,327485.25,-0.090576171875,0.907958984375,-0.3134765625,-14.709471702575684,0.7019042372703552,1.8920897245407104,80.0,1358547.0,1.0
1168014.2127916,299065.28125,318633.78125,329299.6875,311986.28125,298682.875,302776.84375,287254.1875,327209.25,-0.088623046875,0.90771484375,-0.3173828125,-14.923094749450684,0.7629393935203552,2.197265386581421,80.0,1358548.0,1.0
1168014.2152888,298554.15625,318681.34375,329099.15625,311606.5,298600.625,302843.4375,287220.90625,327124.9375,-0.085205078125,0.9072265625,-0.320068359375,-15.136717796325684,0.7629393935203552,2.593993902206421,80.0,1358549.0,1.0
1168014.2177821,297311.5625,319447.5625,328089.90625,310174.28125,298448.1875,303331.78125,287646.3125,327403.625,-0.08251953125,0.906005859375,-0.321533203125,-15.136717796325684,0.8850097060203552,2.990722417831421,80.0,1358550.0,1.0
1168014.2202867,297006.78125,319805.03125,327555.8125,309554.0625,298348.15625,303520.25,287832.71875,327552.84375,-0.081298828125,0.907958984375,-0.32421875,-15.136717796325684,0.8850097060203552,3.234863042831421,80.0,1358551.0,1.0
1168014.222736,298110.78125,319342.875,328356.8125,310726.90625,298533.9375,303201.96875,287652.03125,327486.0625,-0.077880859375,0.9150390625,-0.32958984375,-15.136717796325684,1.0070799589157104,3.509521245956421,80.0,1358552.0,1.0
1168014.225288,299061.96875,318636.1875,329297.34375,311977.4375,298680.21875,302764.9375,287250.34375,327200.75,-0.077880859375,0.9248046875,-0.327880859375,-15.319823265075684,1.2207030057907104,3.936767339706421,80.0,1358553.0,1.0
1168014.2277828,298549.9375,318659.09375,329102.1875,311613.0,298597.0625,302819.21875,287210.625,327112.0625,-0.0771484375,0.92822265625,-0.329833984375,-15.655516624450684,1.2817381620407104,4.272460460662842,80.0,1358554.0,1.0
1168014.2308776,297301.28125,319424.78125,328092.25,310178.03125,298447.125,303314.78125,287643.0,327396.375,-0.07470703125,0.928955078125,-0.335693359375,-16.143796920776367,1.4953612089157104,4.699706554412842,80.0,1358555.0,1.0
1168014.2309262,296974.78125,319778.375,327536.03125,309534.03125,298339.125,303505.3125,287831.28125,327542.46875,-0.074951171875,0.93359375,-0.337890625,-16.571043014526367,1.7395018339157104,5.096435070037842,80.0,1358556.0,1.0
1168014.2327921,298081.90625,319329.65625,328337.5625,310704.65625,298532.875,303192.65625,287656.15625,327483.1875,-0.0771484375,0.93798828125,-0.336181640625,-17.150876998901367,1.9226073026657104,5.371093273162842,80.0,1358557.0,1.0
1168014.2415435,299043.75,318619.75,329282.78125,311960.53125,298679.03125,302746.875,287241.75,327193.25,-0.078125,0.94189453125,-0.33837890625,-17.669675827026367,2.014159917831421,5.676269054412842,80.0,1358558.0,1.0
1168014.2458462,298561.125,318652.84375,329101.375,311612.9375,298598.03125,302808.5625,287193.46875,327099.8125,-0.077392578125,0.946044921875,-0.34228515625,-18.249509811401367,2.197265386581421,5.828856945037842,80.0,1358559.0,1.0
1168014.2458973,297305.75,319413.40625,328087.875,310177.5,298438.8125,303303.96875,287624.40625,327380.46875,-0.075927734375,0.955078125,-0.34375,-18.646238327026367,2.410888433456421,5.767821788787842,80.0,1358560.0,1.0
1168014.2590382,296972.4375,319798.65625,327539.53125,309532.25,298342.96875,303516.6875,287841.21875,327550.53125,-0.07568359375,0.9716796875,-0.338134765625,-18.981931686401367,2.532958745956421,5.737304210662842,80.0,1358561.0,1.0
1168014.2664685,298075.53125,319355.40625,328334.53125,310690.15625,298536.0,303211.71875,287674.9375,327491.0625,-0.07861328125,0.992919921875,-0.336181640625,-19.683835983276367,2.471923589706421,5.767821788787842,80.0,1358562.0,1.0
1168014.2665182,299048.84375,318637.1875,329294.0625,311964.125,298686.375,302760.21875,287260.4375,327195.75,-0.080810546875,1.010009765625,-0.333984375,-20.812986373901367,2.441406011581421,6.011962413787842,80.0,1358563.0,1.0
1168014.2665317,298554.15625,318634.59375,329114.15625,311618.1875,298602.25,302797.21875,287197.5,327089.53125,-0.08056640625,1.018798828125,-0.33447265625,-21.972654342651367,2.380370855331421,6.378173351287842,80.0,1358564.0,1.0
1168014.2695849,297289.9375,319388.375,328096.625,310179.90625,298443.90625,303286.90625,287629.78125,327375.5625,-0.0791015625,1.01904296875,-0.327392578125,-23.315427780151367,2.197265386581421,6.683349132537842,80.0,1358565.0,1.0
1168014.2696429,296935.4375,319766.5625,327527.5625,309517.5,298339.75,303498.875,287847.21875,327551.6875,-0.07568359375,1.014892578125,-0.326171875,-24.627683639526367,1.9836424589157104,6.988524913787842,80.0,1358566.0,1.0
1168014.2713305,298038.4375,319328.46875,328312.375,310666.1875,298523.46875,303193.03125,287677.25,327495.71875,-0.06884765625,1.001953125,-0.325927734375,-25.695798873901367,1.8615721464157104,7.293700695037842,80.0,1358567.0,1.0
1168014.2852845,299028.28125,318606.0625,329279.03125,311947.75,298671.4375,302736.15625,287257.3125,327204.96875,-0.06298828125,0.982666015625,-0.32080078125,-26.367185592651367,1.8920897245407104,7.568358898162842,80.0,1358568.0,1.0
1168014.3002218,298558.78125,318595.53125,329106.84375,311615.34375,298581.59375,302777.0,287185.78125,327094.46875,-0.05859375,0.958984375,-0.31689453125,-26.824949264526367,1.8920897245407104,7.781981945037842,80.0,1358569.0,1.0
1168014.3002715,297295.75,319357.8125,328093.9375,310183.3125,298425.21875,303284.5,287624.125,327386.8125,-0.0546875,0.937744140625,-0.314208984375,-26.550291061401367,2.105712652206421,7.904052257537842,80.0,1358570.0,1.0
1168014.300285,296926.40625,319750.40625,327509.5625,309499.625,298317.84375,303503.34375,287845.59375,327562.875,-0.05322265625,0.925048828125,-0.309814453125,-25.939939498901367,2.349853277206421,7.751464366912842,80.0,1358571.0,1.0
1168014.3039678,298018.9375,319301.46875,328269.0,310624.71875,298486.8125,303186.40625,287655.15625,327483.375,-0.052001953125,0.920654296875,-0.305908203125,-24.902341842651367,2.624511480331421,7.446288585662842,80.0,1358572.0,1.0
1168014.3040228,299020.40625,318563.4375,329227.96875,311907.96875,298621.1875,302716.75,287209.46875,327163.03125,-0.052734375,0.919677734375,-0.30322265625,-24.017332077026367,2.868652105331421,7.202147960662842,80.0,1358573.0,1.0
1168014.3040407,298559.3125,318541.78125,329061.40625,311592.53125,298523.125,302747.34375,287123.46875,327035.0,-0.05322265625,0.91455078125,-0.298095703125,-23.223875045776367,2.990722417831421,7.141112804412842,80.0,1358574.0,1.0
1168014.3065009,297296.53125,319318.75,328060.40625,310171.96875,298376.9375,303263.21875,287579.0,327339.0,-0.0537109375,0.905517578125,-0.299072265625,-22.369382858276367,3.082275152206421,7.171630382537842,80.0,1358575.0,1.0
1168014.3091439,296916.28125,319740.46875,327487.75,309488.25,298287.71875,303500.125,287827.28125,327545.59375,-0.05419921875,0.89599609375,-0.296875,-21.301267623901367,3.204345464706421,7.019042491912842,80.0,1358576.0,1.0
1168014.3115385,298019.03125,319328.125,328270.53125,310627.46875,298482.25,303205.53125,287663.75,327497.40625,-0.05517578125,0.890869140625,-0.298095703125,-19.927976608276367,3.448486089706421,6.805419445037842,80.0,1358577.0,1.0
1168014.3252453,299027.90625,318589.875,329237.09375,311915.125,298620.46875,302728.375,287213.9375,327172.875,-0.05517578125,0.886962890625,-0.298583984375,-18.554685592651367,3.417968511581421,6.408690929412842,80.0,1358578.0,1.0
1168014.3296524,298582.03125,318572.375,329089.75,311617.03125,298537.15625,302760.46875,287132.21875,327047.34375,-0.0556640625,0.885986328125,-0.29638671875,-16.937253952026367,3.509521245956421,6.042479991912842,80.0,1358579.0,1.0
1168014.329702,297321.40625,319361.21875,328106.5625,310215.9375,298408.59375,303286.0,287609.375,327370.46875,-0.05810546875,0.885498046875,-0.2958984375,-15.319823265075684,3.570556402206421,5.645751476287842,80.0,1358580.0,1.0
1168014.3383836,296934.28125,319805.03125,327539.25,309533.40625,298333.84375,303535.625,287880.125,327594.15625,-0.060302734375,0.886474609375,-0.29248046875,-13.824461936950684,3.662109136581421,5.340575695037842,80.0,1358581.0,1.0
1168014.338438,298029.59375,319404.84375,328316.375,310656.90625,298526.59375,303236.65625,287717.125,327540.875,-0.063232421875,0.884521484375,-0.292236328125,-12.329100608825684,3.509521245956421,5.157470226287842,80.0,1358582.0,1.0
1168014.3521796,299054.28125,318675.28125,329309.0625,311966.0,298688.53125,302764.40625,287283.3125,327235.90625,-0.06689453125,0.884521484375,-0.28759765625,-11.047362327575684,3.326415777206421,4.699706554412842,80.0,1358583.0,1.0
1168014.3522295,298612.53125,318630.65625,329160.21875,311668.90625,298600.09375,302778.1875,287186.9375,327100.90625,-0.072998046875,0.882080078125,-0.290283203125,-9.704588890075684,3.204345464706421,4.302978038787842,80.0,1358584.0,1.0
1168014.3552291,297334.625,319389.1875,328152.875,310244.375,298455.625,303285.8125,287640.59375,327405.0625,-0.078369140625,0.88232421875,-0.2880859375,-8.270262718200684,3.051757574081421,3.906249761581421,80.0,1358585.0,1.0
1168014.3552855,296943.375,319837.125,327574.75,309552.375,298382.65625,303540.8125,287917.125,327633.9375,-0.086181640625,0.88232421875,-0.29150390625,-6.896972179412842,2.593993902206421,3.326415777206421,80.0,1358586.0,1.0
1168014.355304,298023.5,319425.9375,328331.40625,310656.53125,298570.59375,303238.34375,287750.90625,327577.96875,-0.09033203125,0.8837890625,-0.29248046875,-5.371093273162842,2.258300542831421,2.716064214706421,80.0,1358587.0,1.0
1168014.3577224,299076.46875,318705.5,329341.25,311989.15625,298741.1875,302773.96875,287320.4375,327276.84375,-0.096435546875,0.89013671875,-0.292236328125,-3.845214605331421,1.7700194120407104,2.044677495956421,80.0,1358588.0,1.0
1168014.3614571,298645.34375,318647.65625,329200.625,311708.3125,298648.75,302779.25,287211.15625,327129.78125,-0.105224609375,0.902587890625,-0.296630859375,-2.532958745956421,1.1596678495407104,1.4648436307907104,80.0,1358589.0,1.0
1168014.3701951,297354.125,319389.71875,328182.53125,310269.9375,298494.25,303277.78125,287651.59375,327416.3125,-0.111083984375,0.915283203125,-0.29541015625,-1.5258787870407104,0.6103515028953552,0.7629393935203552,80.0,1358590.0,1.0
1168014.374562,296930.6875,319818.78125,327562.875,309528.125,298389.90625,303518.28125,287903.71875,327614.53125,-0.115234375,0.92529296875,-0.296875,-0.7629393935203552,-0.1525878757238388,0.1831054538488388,80.0,1358591.0,1.0
1168014.3746092,298017.625,319436.5625,328318.53125,310630.78125,298578.1875,303232.71875,287744.21875,327561.625,-0.118408203125,0.93212890625,-0.293701171875,-0.2136230319738388,-0.9460448622703552,-0.2441406100988388,80.0,1358592.0,1.0
1168014.3763606,299077.8125,318722.46875,329342.78125,311978.5,298761.3125,302771.90625,287320.78125,327267.8125,-0.118896484375,0.93505859375,-0.29052734375,-0.03051757626235485,-1.4038084745407104,-0.4577636420726776,80.0,1358593.0,1.0
1168014.3846532,298656.875,318644.96875,329210.625,311706.34375,298667.5,302763.875,287197.5,327109.46875,-0.12060546875,0.938232421875,-0.29296875,0.2441406100988388,-2.227782964706421,-0.9460448622703552,80.0,1358594.0,1.0
1168014.3847023,297361.0,319363.71875,328180.65625,310259.3125,298497.1875,303251.5,287621.28125,327380.125,-0.123291015625,0.937255859375,-0.292236328125,0.5798339247703552,-2.960204839706421,-1.4038084745407104,80.0,1358595.0,1.0
1168014.3865419,296908.875,319788.375,327534.53125,309492.8125,298376.65625,303493.15625,287863.5625,327567.59375,-0.125,0.9365234375,-0.289794921875,0.8239745497703552,-3.814697027206421,-1.8920897245407104,80.0,1358596.0,1.0
1168014.3953105,297977.125,319409.9375,328270.4375,310575.53125,298557.53125,303207.96875,287704.875,327511.53125,-0.126708984375,0.932861328125,-0.294921875,1.0681151151657104,-4.577636241912842,-2.502441167831421,80.0,1358597.0,1.0
1168014.399093,299054.375,318697.8125,329303.71875,311939.34375,298741.625,302750.09375,287285.46875,327220.875,-0.12744140625,0.934326171875,-0.29052734375,1.2512205839157104,-5.493163585662842,-2.960204839706421,80.0,1358598.0,1.0
1168014.4027902,298650.0625,318612.5,329183.46875,311693.125,298648.75,302744.03125,287159.03125,327059.6875,-0.125732421875,0.928955078125,-0.293701171875,1.3122557401657104,-6.439208507537842,-3.662109136581421,80.0,1358599.0,1.0
1168014.4121454,297356.625,319330.1875,328146.5,310244.1875,298466.34375,303231.375,287566.75,327316.90625,-0.119140625,0.92724609375,-0.29345703125,1.3732908964157104,-7.141112804412842,-3.997802495956421,80.0,1358600.0,1.0
1168014.4121983,296883.84375,319749.84375,327483.03125,309456.4375,298335.625,303475.90625,287804.90625,327503.0625,-0.109619140625,0.926513671875,-0.29638671875,1.4648436307907104,-7.507323741912842,-4.394530773162842,80.0,1358601.0,1.0
1168014.4140341,297950.90625,319382.3125,328219.5625,310541.65625,298518.75,303201.53125,287658.84375,327460.03125,-0.10009765625,0.92822265625,-0.29931640625,1.5869139432907104,-7.873534679412842,-4.577636241912842,80.0,1358602.0,1.0
1168014.4252876,299045.625,318692.09375,329273.65625,311929.25,298711.6875,302746.875,287251.125,327179.65625,-0.091796875,0.928466796875,-0.299560546875,1.4343260526657104,-8.087157249450684,-4.638671398162842,80.0,1358603.0,1.0
1168014.4283852,298656.6875,318604.375,329170.3125,311699.90625,298626.125,302735.71875,287123.0,327023.375,-0.086669921875,0.92822265625,-0.296630859375,1.4648436307907104,-7.934569835662842,-4.577636241912842,80.0,1358604.0,1.0
1168014.4284396,297349.5625,319289.3125,328120.75,310238.03125,298431.46875,303215.71875,287515.15625,327268.8125,-0.082275390625,0.92724609375,-0.298828125,1.3122557401657104,-7.781981945037842,-4.547118663787842,80.0,1358605.0,1.0
1168014.4371815,296874.09375,319722.21875,327450.03125,309438.71875,298304.53125,303477.0625,287766.65625,327460.9375,-0.081787109375,0.927978515625,-0.2998046875,1.1596678495407104,-7.568358898162842,-4.516601085662842,80.0,1358606.0,1.0
1168014.4372313,297945.46875,319381.9375,328194.15625,310527.78125,298501.75,303217.0,287640.5,327434.5625,-0.080810546875,0.928466796875,-0.296875,0.8850097060203552,-7.324218273162842,-4.364013195037842,80.0,1358607.0,1.0
1168014.43898,299053.3125,318704.40625,329268.9375,311931.40625,298708.375,302764.125,287246.9375,327168.5,-0.07763671875,0.92919921875,-0.294677734375,0.5798339247703552,-7.110595226287842,-4.241942882537842,80.0,1358608.0,1.0
1168014.4428084,298671.8125,318606.15625,329181.40625,311714.03125,298628.53125,302746.71875,287117.46875,327013.71875,-0.06884765625,0.929931640625,-0.29638671875,0.1831054538488388,-6.774901866912842,-4.058837413787842,80.0,1358609.0,1.0
1168014.4465387,297358.5,319282.25,328125.78125,310245.53125,298428.875,303217.96875,287505.0625,327254.6875,-0.063720703125,0.930419921875,-0.29638671875,-0.2136230319738388,-6.103515148162842,-3.662109136581421,80.0,1358610.0,1.0
1168014.460889,296869.28125,319715.96875,327441.8125,309433.4375,298291.90625,303472.59375,287752.4375,327442.25,-0.060546875,0.93212890625,-0.299072265625,-0.7019042372703552,-5.523681163787842,-3.326415777206421,80.0,1358611.0,1.0
1168014.460942,297934.375,319389.53125,328183.34375,310512.15625,298492.90625,303219.84375,287636.9375,327424.71875,-0.056884765625,0.934814453125,-0.30126953125,-0.9765624403953552,-4.882812023162842,-2.929687261581421,80.0,1358612.0,1.0
1168014.4627838,299052.84375,318718.53125,329277.59375,311937.46875,298716.3125,302770.65625,287260.4375,327175.03125,-0.0595703125,0.937744140625,-0.300048828125,-1.2512205839157104,-4.119872570037842,-2.685546636581421,80.0,1358613.0,1.0
1168014.4658783,298705.6875,318628.34375,329211.34375,311747.9375,298640.15625,302755.8125,287136.96875,327022.03125,-0.06298828125,0.94189453125,-0.298095703125,-1.7089842557907104,-3.479003667831421,-2.288818120956421,80.0,1358614.0,1.0
1168014.4659272,297386.03125,319296.03125,328160.71875,310282.09375,298442.65625,303228.875,287523.90625,327264.78125,-0.06494140625,0.945556640625,-0.29638671875,-2.349853277206421,-2.777099370956421,-1.9531248807907104,80.0,1358615.0,1.0
1168014.4677334,296859.15625,319707.21875,327443.0625,309427.09375,298289.0625,303475.8125,287759.3125,327442.15625,-0.067626953125,0.9462890625,-0.295654296875,-2.868652105331421,-2.166747808456421,-1.4343260526657104,80.0,1358616.0,1.0
1168014.476568,297899.40625,319373.8125,328159.5625,310478.53125,298473.75,303210.46875,287635.59375,327413.46875,-0.071533203125,0.948974609375,-0.29248046875,-3.387450933456421,-1.5563963651657104,-1.0986326932907104,80.0,1358617.0,1.0
1168014.4807345,299048.375,318723.8125,329277.15625,311929.4375,298712.5625,302766.71875,287268.03125,327175.1875,-0.0751953125,0.948486328125,-0.289306640625,-3.936767339706421,-0.9765624403953552,-0.8544921278953552,80.0,1358618.0,1.0
1168014.4807914,298714.8125,318628.0625,329225.9375,311756.5,298642.375,302735.0,287129.8125,327014.53125,-0.0791015625,0.947265625,-0.291748046875,-4.455565929412842,-0.4882812201976776,-0.6408690810203552,80.0,1358619.0,1.0
1168014.4878074,297381.84375,319275.09375,328164.125,310277.375,298436.03125,303191.9375,287501.21875,327242.15625,-0.080810546875,0.94384765625,-0.28857421875,-4.699706554412842,-0.1220703050494194,-0.5187987685203552,80.0,1358620.0,1.0
1168014.4971791,296851.03125,319690.40625,327434.9375,309411.5625,298277.78125,303447.03125,287739.5625,327418.75,-0.078857421875,0.941162109375,-0.28515625,-5.065917491912842,0.3051757514476776,-0.2136230319738388,80.0,1358621.0,1.0
1168014.4972296,297913.28125,319395.90625,328164.65625,310476.75,298479.9375,303212.6875,287641.21875,327412.03125,-0.07958984375,0.94189453125,-0.283935546875,-5.279540538787842,0.7019042372703552,-0.0610351525247097,80.0,1358622.0,1.0
1168014.4996275,299070.1875,318764.3125,329303.09375,311951.15625,298733.40625,302777.5625,287289.5,327190.3125,-0.08154296875,0.94140625,-0.28076171875,-5.523681163787842,1.2512205839157104,0.0,80.0,1358623.0,1.0
1168014.4996783,298726.15625,318646.84375,329263.125,311788.875,298672.34375,302739.71875,287153.84375,327036.78125,-0.080810546875,0.93896484375,-0.278564453125,-5.706786632537842,1.6479490995407104,0.2136230319738388,80.0,1358624.0,1.0
1168014.507785,297387.5625,319267.9375,328188.96875,310297.03125,298455.78125,303190.0625,287510.875,327251.1875,-0.08349609375,0.93408203125,-0.278564453125,-5.798339366912842,1.9836424589157104,0.2746581733226776,80.0,1358625.0,1.0
1168014.510308,296851.3125,319702.03125,327442.34375,309407.6875,298285.75,303453.90625,287746.53125,327419.09375,-0.084228515625,0.9306640625,-0.27392578125,-5.706786632537842,2.227782964706421,0.2136230319738388,80.0,1358626.0,1.0
1168014.5140431,297900.84375,319417.09375,328173.78125,310475.65625,298495.40625,303223.59375,287660.78125,327426.0625,-0.085205078125,0.929443359375,-0.274169921875,-5.340575695037842,2.532958745956421,0.1525878757238388,80.0,1358627.0,1.0
1168014.5233388,299081.65625,318801.96875,329340.1875,311981.625,298773.0,302794.4375,287327.9375,327225.4375,-0.08544921875,0.93212890625,-0.274169921875,-5.157470226287842,2.746581792831421,0.0915527269244194,80.0,1358628.0,1.0
1168014.5233886,298746.8125,318663.375,329310.5,311836.53125,298718.375,302744.1875,287188.1875,327073.625,-0.085205078125,0.9345703125,-0.271728515625,-5.004882335662842,3.021239995956421,0.03051757626235485,80.0,1358629.0,1.0
1168014.5252844,297406.875,319279.75,328230.71875,310332.53125,298495.3125,303191.3125,287536.0625,327277.75,-0.083984375,0.9384765625,-0.267822265625,-4.882812023162842,3.356933355331421,-0.03051757626235485,80.0,1358630.0,1.0
1168014.5365394,296841.8125,319709.4375,327461.03125,309412.625,298315.4375,303453.1875,287768.0,327439.46875,-0.08642578125,0.941162109375,-0.268310546875,-4.730224132537842,3.601073980331421,-0.1220703050494194,80.0,1358631.0,1.0
1168014.5402169,297878.6875,319425.5,328173.15625,310455.09375,298517.5,303220.03125,287683.59375,327448.4375,-0.087646484375,0.943359375,-0.2666015625,-4.638671398162842,3.814697027206421,-0.1831054538488388,80.0,1358632.0,1.0
1168014.5402667,299073.0625,318800.1875,329349.03125,311972.0625,298799.125,302794.90625,287358.40625,327257.375,-0.089599609375,0.943603515625,-0.265625,-4.364013195037842,4.058837413787842,-0.1831054538488388,80.0,1358633.0,1.0
1168014.54028,298773.90625,318677.5,329346.53125,311862.625,298753.625,302753.59375,287220.09375,327111.0,-0.08837890625,0.943359375,-0.262939453125,-4.180907726287842,4.089354991912842,-0.3662109076976776,80.0,1358634.0,1.0
1168014.5427856,297434.15625,319294.15625,328264.25,310376.25,298522.75,303195.875,287551.53125,327308.15625,-0.09033203125,0.943603515625,-0.264404296875,-4.058837413787842,4.272460460662842,-0.6103515028953552,80.0,1358635.0,1.0
1168014.5489931,296825.1875,319695.59375,327463.34375,309415.9375,298329.09375,303440.9375,287766.90625,327457.625,-0.093017578125,0.9462890625,-0.26025390625,-3.814697027206421,4.333495616912842,-0.7934569716453552,80.0,1358636.0,1.0
1168014.5552077,297866.15625,319431.5625,328172.53125,310446.34375,298532.15625,303225.75,287690.5625,327464.59375,-0.09375,0.9482421875,-0.2578125,-3.601073980331421,4.302978038787842,-1.1291502714157104,80.0,1358637.0,1.0
1168014.5590351,299076.09375,318819.21875,329364.6875,311990.5,298821.46875,302798.28125,287373.625,327283.03125,-0.095703125,0.948486328125,-0.25830078125,-3.448486089706421,4.425048351287842,-1.4038084745407104,80.0,1358638.0,1.0
1168014.5683792,298777.5625,318679.03125,329363.15625,311884.375,298769.15625,302740.90625,287221.4375,327126.375,-0.09619140625,0.949951171875,-0.260009765625,-3.265380620956421,4.425048351287842,-1.6784666776657104,80.0,1358639.0,1.0
1168014.5684295,297447.28125,319274.125,328266.9375,310375.34375,298516.40625,303172.1875,287529.46875,327293.65625,-0.097412109375,0.953125,-0.25537109375,-3.112792730331421,4.394530773162842,-1.8920897245407104,80.0,1358640.0,1.0
1168014.5702414,296828.125,319689.78125,327453.15625,309399.9375,298314.4375,303431.5625,287742.15625,327438.6875,-0.09765625,0.95556640625,-0.2529296875,-3.051757574081421,4.364013195037842,-2.136230230331421,80.0,1358641.0,1.0
1168014.5741405,297835.65625,319411.1875,328144.8125,310421.40625,298515.875,303209.75,287672.78125,327457.8125,-0.097900390625,0.95556640625,-0.250244140625,-3.051757574081421,4.333495616912842,-2.532958745956421,80.0,1358642.0,1.0
1168014.5833642,299064.375,318810.28125,329352.53125,311984.5,298809.84375,302785.96875,287367.1875,327284.375,-0.098876953125,0.95849609375,-0.251708984375,-2.990722417831421,4.333495616912842,-2.746581792831421,80.0,1358643.0,1.0
1168014.5834159,298781.6875,318650.78125,329364.6875,311901.96875,298764.0625,302719.875,287211.25,327124.40625,-0.09912109375,0.95947265625,-0.252197265625,-2.838134527206421,4.302978038787842,-3.051757574081421,80.0,1358644.0,1.0
1168014.5867216,297427.0,319221.46875,328252.0,310366.59375,298507.84375,303148.3125,287512.125,327281.9375,-0.1015625,0.958984375,-0.254638671875,-2.716064214706421,4.272460460662842,-3.173827886581421,80.0,1358645.0,1.0
1168014.5946328,296795.78125,319631.9375,327402.90625,309347.875,298276.34375,303398.03125,287704.875,327396.21875,-0.101318359375,0.958740234375,-0.253173828125,-2.593993902206421,4.272460460662842,-3.387450933456421,80.0,1358646.0,1.0
1168014.5946876,297824.21875,319395.28125,328104.03125,310374.625,298482.09375,303197.3125,287652.40625,327425.96875,-0.103271484375,0.958740234375,-0.254150390625,-2.563476324081421,4.211425304412842,-3.479003667831421,80.0,1358647.0,1.0
1168014.5965232,299049.625,318794.375,329331.0625,311954.28125,298795.71875,302782.09375,287364.6875,327274.875,-0.103515625,0.95654296875,-0.251953125,-2.441406011581421,4.272460460662842,-3.601073980331421,80.0,1358648.0,1.0
1168014.5991351,298774.09375,318627.1875,329349.21875,311875.25,298746.71875,302711.125,287203.125,327109.40625,-0.10498046875,0.958984375,-0.250732421875,-2.288818120956421,4.180907726287842,-3.692626714706421,80.0,1358649.0,1.0
1168014.607819,297424.5625,319191.15625,328226.4375,310343.53125,298468.84375,303124.90625,287478.9375,327241.09375,-0.105712890625,0.96142578125,-0.25048828125,-2.136230230331421,4.119872570037842,-3.753661870956421,80.0,1358650.0,1.0
1168014.6121358,296781.03125,319603.3125,327371.96875,309321.25,298239.25,303387.03125,287677.25,327359.28125,-0.106201171875,0.9619140625,-0.247314453125,-2.075195074081421,4.119872570037842,-3.814697027206421,80.0,1358651.0,1.0
1168014.6121926,297808.125,319383.71875,328081.4375,310359.875,298459.1875,303197.5,287647.21875,327410.875,-0.109375,0.9580078125,-0.24951171875,-2.044677495956421,3.997802495956421,-3.784179449081421,80.0,1358652.0,1.0
1168014.6177905,299052.125,318810.0,329339.375,311976.1875,298795.375,302792.5625,287387.3125,327289.375,-0.10986328125,0.954833984375,-0.2490234375,-2.075195074081421,3.845214605331421,-3.753661870956421,80.0,1358653.0,1.0
1168014.6321831,298808.0625,318649.53125,329386.59375,311932.75,298762.5625,302724.34375,287232.28125,327134.6875,-0.10986328125,0.951416015625,-0.24609375,-2.014159917831421,3.692626714706421,-3.936767339706421,80.0,1358654.0,1.0
1168014.6322441,297435.9375,319195.1875,328252.0,310373.46875,298481.53125,303129.09375,287491.71875,327256.65625,-0.112060546875,0.9501953125,-0.2451171875,-1.8310545682907104,3.601073980331421,-3.906249761581421,80.0,1358655.0,1.0
1168014.6389729,296783.78125,319608.6875,327383.59375,309328.125,298245.25,303389.0,287682.0,327370.5625,-0.1123046875,0.9482421875,-0.24462890625,-1.7395018339157104,3.387450933456421,-3.967284917831421,80.0,1358656.0,1.0
1168014.6390161,297794.625,319402.875,328079.8125,310350.0625,298459.09375,303210.5625,287655.34375,327420.96875,-0.114013671875,0.946044921875,-0.242919921875,-1.5869139432907104,3.265380620956421,-4.028319835662842,80.0,1358657.0,1.0
1168014.6390277,299054.375,318840.125,329361.09375,311988.25,298817.09375,302816.71875,287422.0,327322.34375,-0.11328125,0.945068359375,-0.23974609375,-1.3732908964157104,3.143310308456421,-3.997802495956421,80.0,1358658.0,1.0
1168014.6423514,298825.65625,318680.71875,329433.875,311972.53125,298804.03125,302750.46875,287278.84375,327183.78125,-0.11474609375,0.9453125,-0.24072265625,-1.2512205839157104,3.082275152206421,-4.089354991912842,80.0,1358659.0,1.0
1168014.6423994,297461.6875,319216.71875,328302.78125,310423.625,298526.78125,303150.5625,287532.75,327302.875,-0.114990234375,0.948486328125,-0.23779296875,-1.2512205839157104,2.929687261581421,-3.967284917831421,80.0,1358660.0,1.0
1168014.6577855,296786.5625,319626.28125,327403.0,309352.8125,298278.9375,303409.5625,287717.3125,327404.15625,-0.11328125,0.945068359375,-0.238525390625,-1.0986326932907104,2.868652105331421,-3.753661870956421,80.0,1358661.0,1.0
1168014.6627202,297785.96875,319429.0625,328079.46875,310346.5625,298480.375,303228.96875,287692.96875,327445.28125,-0.114013671875,0.93994140625,-0.23828125,-1.1901854276657104,2.685546636581421,-3.601073980331421,80.0,1358662.0,1.0
1168014.6627684,299083.0625,318923.46875,329406.0,312026.6875,298873.3125,302859.34375,287497.28125,327381.0,-0.11279296875,0.933349609375,-0.23828125,-1.1291502714157104,2.563476324081421,-3.479003667831421,80.0,1358663.0,1.0
1168014.6627818,298856.53125,318757.625,329503.625,312033.0625,298882.28125,302784.0,287364.15625,327260.125,-0.109130859375,0.92822265625,-0.237548828125,-0.8850097060203552,2.471923589706421,-3.356933355331421,80.0,1358664.0,1.0
1168014.6671875,297473.03125,319265.34375,328358.40625,310465.5625,298595.71875,303164.6875,287598.9375,327366.4375,-0.108154296875,0.923583984375,-0.23583984375,-0.6103515028953552,2.532958745956421,-3.082275152206421,80.0,1358665.0,1.0
1168014.6672386,296780.125,319661.96875,327444.03125,309375.0625,298341.71875,303419.125,287774.78125,327464.34375,-0.10498046875,0.922607421875,-0.23828125,-0.3356933295726776,2.563476324081421,-2.929687261581421,80.0,1358666.0,1.0
1168014.6727443,297785.78125,319475.03125,328123.0,310378.21875,298552.1875,303254.28125,287766.375,327525.3125,-0.102294921875,0.922607421875,-0.238525390625,0.1525878757238388,2.563476324081421,-2.746581792831421,80.0,1358667.0,1.0
1168014.6790472,299079.21875,318952.625,329448.53125,312063.8125,298942.34375,302879.46875,287566.5625,327462.90625,-0.1015625,0.92333984375,-0.239501953125,0.4577636420726776,2.655029058456421,-2.441406011581421,80.0,1358668.0,1.0
1168014.6877599,298867.0625,318779.4375,329555.46875,312083.75,298945.3125,302796.5,287416.53125,327328.96875,-0.09814453125,0.92138671875,-0.241455078125,0.7629393935203552,2.777099370956421,-2.227782964706421,80.0,1358669.0,1.0
1168014.7027185,297482.59375,319276.71875,328400.53125,310490.96875,298648.46875,303166.46875,287633.71875,327419.1875,-0.095458984375,0.91943359375,-0.2431640625,1.0070799589157104,2.868652105331421,-2.014159917831421,80.0,1358670.0,1.0
1168014.7027681,296774.21875,319666.875,327453.15625,309369.25,298369.25,303416.8125,287790.71875,327495.1875,-0.09375,0.91259765625,-0.243408203125,1.2207030057907104,3.173827886581421,-1.6479490995407104,80.0,1358671.0,1.0
1168014.7027823,297758.40625,319480.46875,328117.90625,310354.6875,298582.40625,303257.21875,287786.59375,327561.53125,-0.09130859375,0.90625,-0.241455078125,1.4953612089157104,3.265380620956421,-1.2207030057907104,80.0,1358672.0,1.0
1168014.7064229,299064.46875,318956.09375,329448.0,312049.84375,298977.84375,302882.875,287592.75,327507.53125,-0.09130859375,0.89990234375,-0.244140625,1.9226073026657104,3.540038824081421,-0.9155272841453552,80.0,1358673.0,1.0
1168014.7064778,298878.15625,318779.15625,329564.25,312079.28125,298974.09375,302795.6875,287432.8125,327365.625,-0.08984375,0.895751953125,-0.248046875,2.471923589706421,3.662109136581421,-0.4577636420726776,80.0,1358674.0,1.0
1168014.7064964,297480.625,319260.8125,328406.78125,310490.875,298664.375,303153.875,287631.03125,327440.71875,-0.090087890625,0.892333984375,-0.24853515625,3.112792730331421,3.784179449081421,-0.3051757514476776,80.0,1358675.0,1.0
1168014.7091334,296763.84375,319652.40625,327448.4375,309357.625,298377.28125,303405.1875,287780.5,327509.3125,-0.08837890625,0.889892578125,-0.244873046875,3.753661870956421,3.997802495956421,-0.0915527269244194,80.0,1358676.0,1.0
1168014.7115605,297741.875,319477.0,328100.90625,310338.78125,298585.96875,303254.625,287777.65625,327574.75,-0.087890625,0.89013671875,-0.249755859375,4.394530773162842,4.211425304412842,0.1831054538488388,80.0,1358677.0,1.0
1168014.7178249,299046.0625,318954.75,329432.90625,312039.65625,298983.84375,302886.625,287584.625,327521.03125,-0.08984375,0.891357421875,-0.24853515625,5.035399913787842,4.394530773162842,0.4577636420726776,80.0,1358678.0,1.0
1168014.7271814,298878.59375,318774.5,329559.15625,312085.625,298985.96875,302789.53125,287422.0,327375.09375,-0.090576171875,0.895263671875,-0.251708984375,5.615233898162842,4.547118663787842,0.8544921278953552,80.0,1358679.0,1.0
1168014.7272386,297512.90625,319267.0625,328408.46875,310507.0625,298672.4375,303151.90625,287612.6875,327436.53125,-0.093505859375,0.89990234375,-0.253662109375,6.072997570037842,4.577636241912842,1.1901854276657104,80.0,1358680.0,1.0
1168014.7333367,296771.1875,319665.0,327450.65625,309364.6875,298390.25,303408.6875,287766.375,327509.75,-0.095947265625,0.904296875,-0.2578125,6.408690929412842,4.547118663787842,1.3732908964157104,80.0,1358681.0,1.0
1168014.7333871,297727.75,319481.625,328082.3125,310324.125,298585.4375,303254.0,287757.90625,327568.5,-0.096923828125,0.908935546875,-0.2578125,6.774901866912842,4.577636241912842,1.6479490995407104,80.0,1358682.0,1.0
1168014.7465588,299031.75,318946.53125,329407.59375,312016.78125,298971.84375,302872.5,287559.59375,327508.40625,-0.100341796875,0.907958984375,-0.26123046875,7.019042491912842,4.455565929412842,1.9836424589157104,80.0,1358683.0,1.0
1168014.750219,298876.46875,318748.78125,329545.5625,312076.5,298969.0,302774.25,287392.125,327357.59375,-0.104248046875,0.910400390625,-0.261962890625,7.202147960662842,4.211425304412842,2.258300542831421,80.0,1358684.0,1.0
1168014.7502689,297524.34375,319244.4375,328419.90625,310539.6875,298670.09375,303140.53125,287591.5,327430.09375,-0.110595703125,0.913330078125,-0.2666015625,7.385253429412842,4.058837413787842,2.532958745956421,80.0,1358685.0,1.0
1168014.7502827,296776.03125,319648.8125,327446.375,309372.46875,298376.59375,303397.59375,287738.40625,327490.25,-0.112060546875,0.919921875,-0.2666015625,7.629394054412842,3.662109136581421,2.624511480331421,80.0,1358686.0,1.0
1168014.7528097,297698.78125,319460.8125,328045.65625,310273.34375,298551.09375,303235.75,287714.4375,327528.71875,-0.115966796875,0.92724609375,-0.26953125,7.751464366912842,3.356933355331421,2.777099370956421,80.0,1358687.0,1.0
1168014.7552733,299035.25,318930.4375,329385.6875,311984.6875,298945.75,302871.53125,287529.28125,327474.8125,-0.11865234375,0.93408203125,-0.270263671875,7.781981945037842,2.899169683456421,2.899169683456421,80.0,1358688.0,1.0
1168014.7590395,298903.53125,318736.25,329548.40625,312092.3125,298951.125,302776.21875,287364.59375,327327.28125,-0.1220703125,0.94091796875,-0.270751953125,7.629394054412842,2.380370855331421,3.112792730331421,80.0,1358689.0,1.0
1168014.7727771,297529.28125,319223.53125,328423.125,310528.0625,298653.84375,303131.78125,287561.1875,327394.78125,-0.1220703125,0.945068359375,-0.2734375,7.232665538787842,1.7700194120407104,3.265380620956421,80.0,1358690.0,1.0
1168014.7758811,296779.78125,319640.0625,327447.15625,309364.0625,298370.78125,303398.75,287720.78125,327466.84375,-0.12109375,0.943603515625,-0.2744140625,6.805419445037842,1.2817381620407104,3.356933355331421,80.0,1358691.0,1.0
1168014.7759439,297694.21875,319464.375,328033.3125,310266.0,298543.25,303249.15625,287705.3125,327512.78125,-0.121337890625,0.946044921875,-0.274658203125,6.622313976287842,0.5493163466453552,3.479003667831421,80.0,1358692.0,1.0
1168014.777808,298997.59375,318918.1875,329347.875,311947.5625,298918.65625,302862.9375,287501.75,327447.09375,-0.12158203125,0.948486328125,-0.275634765625,6.408690929412842,-0.0610351525247097,3.631591558456421,80.0,1358693.0,1.0
1168014.780262,298876.09375,318712.1875,329521.875,312050.75,298927.25,302752.78125,287334.46875,327299.375,-0.123291015625,0.9521484375,-0.27734375,6.134032726287842,-0.7019042372703552,3.631591558456421,80.0,1358694.0,1.0
1168014.8026389,297540.1875,319217.09375,328429.3125,310536.65625,298652.03125,303124.8125,287551.4375,327389.9375,-0.12451171875,0.959228515625,-0.275390625,5.706786632537842,-1.3122557401657104,3.692626714706421,80.0,1358695.0,1.0
1168014.8026839,296773.4375,319642.84375,327451.65625,309355.21875,298371.3125,303401.625,287722.21875,327472.21875,-0.122802734375,0.96484375,-0.274169921875,5.187987804412842,-2.014159917831421,3.814697027206421,80.0,1358696.0,1.0
1168014.8026961,297685.28125,319477.25,328027.15625,310239.1875,298544.40625,303258.46875,287716.6875,327523.0625,-0.118408203125,0.96533203125,-0.27490234375,4.547118663787842,-2.624511480331421,3.967284917831421,80.0,1358697.0,1.0
1168014.8051958,298999.125,318928.84375,329349.65625,311954.09375,298926.78125,302876.6875,287525.96875,327467.375,-0.1162109375,0.96435546875,-0.275390625,3.875732183456421,-3.326415777206421,4.241942882537842,80.0,1358698.0,1.0
1168014.8077119,298888.78125,318709.34375,329529.375,312068.90625,298934.5625,302761.28125,287353.40625,327314.75,-0.11865234375,0.9599609375,-0.270751953125,3.295898199081421,-3.906249761581421,4.394530773162842,80.0,1358699.0,1.0
1168014.8101868,297568.875,319224.78125,328456.03125,310577.15625,298669.75,303136.59375,287577.03125,327411.6875,-0.119873046875,0.95849609375,-0.272705078125,2.685546636581421,-4.516601085662842,4.516601085662842,80.0,1358700.0,1.0
1168014.8126724,296776.46875,319656.5,327467.5625,309375.4375,298388.03125,303403.40625,287749.03125,327496.625,-0.1181640625,0.961181640625,-0.272216796875,2.136230230331421,-5.126952648162842,4.425048351287842,80.0,1358701.0,1.0
1168014.8151908,297693.0625,319504.34375,328046.8125,310275.5625,298571.65625,303276.625,287757.96875,327565.71875,-0.11962890625,0.96142578125,-0.269775390625,1.5869139432907104,-5.676269054412842,4.516601085662842,80.0,1358702.0,1.0
1168014.8190153,299021.03125,318951.625,329367.375,311985.03125,298942.625,302890.5625,287552.875,327497.40625,-0.120361328125,0.9599609375,-0.269287109375,1.0375975370407104,-6.286620616912842,4.577636241912842,80.0,1358703.0,1.0
1168014.844664,298886.75,318732.40625,329547.96875,312071.75,298947.34375,302765.46875,287370.5,327336.03125,-0.11572265625,0.960693359375,-0.27001953125,0.4577636420726776,-6.896972179412842,4.547118663787842,80.0,1358704.0,1.0
1168014.8447154,297555.65625,319238.71875,328484.90625,310586.96875,298697.09375,303143.21875,287611.0,327451.46875,-0.1123046875,0.9599609375,-0.26953125,-0.0915527269244194,-7.446288585662842,4.669188976287842,80.0,1358705.0,1.0
1168014.8465419,296767.78125,319683.59375,327515.3125,309406.1875,298445.6875,303431.28125,287825.46875,327579.21875,-0.10693359375,0.95654296875,-0.269287109375,-0.6408690810203552,-7.904052257537842,4.791259288787842,80.0,1358706.0,1.0
1168014.8491332,297664.90625,319534.375,328079.625,310278.34375,298630.59375,303301.65625,287842.5625,327660.75,-0.103759765625,0.9541015625,-0.268310546875,-1.2207030057907104,-8.209227561950684,4.943847179412842,80.0,1358707.0,1.0
1168014.8515562,298993.65625,318981.75,329392.65625,311978.0625,299003.6875,302908.0,287628.875,327590.65625,-0.101318359375,0.950927734375,-0.26708984375,-1.4038084745407104,-8.453368186950684,5.035399913787842,80.0,1358708.0,1.0
1168014.8541337,298910.4375,318756.8125,329600.0,312149.90625,299023.09375,302783.8125,287452.3125,327438.84375,-0.098876953125,0.951904296875,-0.266845703125,-1.7700194120407104,-8.880614280700684,5.249022960662842,80.0,1358709.0,1.0
1168014.8565107,297568.4375,319244.53125,328525.34375,310643.21875,298754.59375,303144.03125,287673.75,327530.78125,-0.09716796875,0.94921875,-0.269287109375,-1.9836424589157104,-9.216307640075684,5.462646007537842,80.0,1358710.0,1.0
1168014.8591337,296769.40625,319692.8125,327534.0,309416.03125,298484.3125,303436.84375,287871.0,327639.5,-0.095703125,0.94873046875,-0.26416015625,-2.349853277206421,-9.368895530700684,5.645751476287842,80.0,1358711.0,1.0
1168014.861559,297640.03125,319527.40625,328054.4375,310237.75,298633.96875,303295.46875,287850.4375,327680.0,-0.092529296875,0.948486328125,-0.263916015625,-2.593993902206421,-9.521483421325684,5.798339366912842,80.0,1358712.0,1.0
1168014.864134,298974.1875,318959.59375,329359.5,311956.0625,298992.15625,302895.5625,287619.40625,327586.5625,-0.0888671875,0.947509765625,-0.263916015625,-2.685546636581421,-9.613036155700684,5.828856945037842,80.0,1358713.0,1.0
1168014.8671612,298908.1875,318713.625,329574.4375,312137.84375,299002.53125,302760.375,287422.15625,327415.15625,-0.087646484375,0.9443359375,-0.261474609375,-2.807616949081421,-9.674071311950684,6.042479991912842,80.0,1358714.0,1.0
1168014.8672135,297554.40625,319181.40625,328489.3125,310597.53125,298721.59375,303106.9375,287626.71875,327486.34375,-0.08740234375,0.94287109375,-0.260986328125,-2.807616949081421,-9.765624046325684,6.103515148162842,80.0,1358715.0,1.0
1168014.8727635,296747.40625,319635.25,327485.53125,309369.78125,298450.15625,303405.375,287831.21875,327590.84375,-0.085205078125,0.9423828125,-0.257568359375,-2.868652105331421,-9.765624046325684,6.103515148162842,80.0,1358716.0,1.0
1168014.8771829,297616.09375,319490.3125,327994.96875,310171.15625,298599.90625,303278.84375,287815.46875,327631.53125,-0.083984375,0.942626953125,-0.25439453125,-2.868652105331421,-9.826659202575684,6.195067882537842,80.0,1358717.0,1.0
1168014.8772315,298956.375,318926.25,329290.65625,311868.8125,298943.78125,302870.25,287567.53125,327522.1875,-0.084716796875,0.942626953125,-0.2509765625,-2.960204839706421,-9.857176780700684,6.439208507537842,80.0,1358718.0,1.0
1168014.8802121,298888.25,318668.21875,329509.34375,312052.625,298942.875,302718.71875,287357.53125,327334.4375,-0.082763671875,0.941650390625,-0.252685546875,-2.838134527206421,-9.826659202575684,6.439208507537842,80.0,1358719.0,1.0
1168014.8946306,297571.1875,319166.03125,328472.84375,310589.40625,298692.53125,303094.125,287598.03125,327443.15625,-0.0810546875,0.94384765625,-0.249267578125,-2.899169683456421,-9.796141624450684,6.408690929412842,80.0,1358720.0,1.0
1168014.894681,296755.0,319628.1875,327479.28125,309376.15625,298424.875,303406.78125,287822.34375,327570.5625,-0.08203125,0.944580078125,-0.249755859375,-2.929687261581421,-9.826659202575684,6.378173351287842,80.0,1358721.0,1.0
1168014.8965593,297583.90625,319462.84375,327955.90625,310137.875,298553.34375,303258.46875,287794.8125,327596.21875,-0.081787109375,0.94482421875,-0.24853515625,-2.868652105331421,-9.826659202575684,6.347655773162842,80.0,1358722.0,1.0
1168014.8991332,298951.65625,318925.6875,329276.625,311862.09375,298918.3125,302867.9375,287569.40625,327505.5625,-0.082275390625,0.945556640625,-0.243408203125,-2.746581792831421,-9.704588890075684,6.347655773162842,80.0,1358723.0,1.0
1168014.9041303,298917.9375,318680.5625,329526.34375,312084.375,298934.21875,302728.375,287372.46875,327333.1875,-0.082763671875,0.94580078125,-0.242431640625,-2.716064214706421,-9.735106468200684,6.286620616912842,80.0,1358724.0,1.0
1168014.9108802,297597.03125,319154.6875,328486.53125,310624.34375,298675.46875,303092.625,287609.3125,327433.03125,-0.082763671875,0.9453125,-0.24560546875,-2.655029058456421,-9.674071311950684,6.164550304412842,80.0,1358725.0,1.0
1168014.91094,296768.40625,319618.4375,327485.09375,309428.4375,298406.8125,303408.9375,287839.625,327562.40625,-0.08154296875,0.942626953125,-0.2421875,-2.471923589706421,-9.613036155700684,5.950927257537842,80.0,1358726.0,1.0
1168014.9128113,297575.5,319456.6875,327933.90625,310132.625,298514.96875,303256.3125,287795.53125,327577.0,-0.08056640625,0.942138671875,-0.239013671875,-2.441406011581421,-9.521483421325684,5.584716320037842,80.0,1358727.0,1.0
1168014.9190422,298914.625,318896.28125,329225.84375,311797.09375,298856.96875,302841.28125,287537.15625,327453.59375,-0.080078125,0.942138671875,-0.238037109375,-2.349853277206421,-9.429930686950684,5.340575695037842,80.0,1358728.0,1.0
1168014.9278108,298915.09375,318656.21875,329498.53125,312043.6875,298886.5625,302701.8125,287342.25,327283.09375,-0.078857421875,0.939453125,-0.237060546875,-2.136230230331421,-9.399413108825684,5.126952648162842,80.0,1358729.0,1.0
1168014.9308342,297612.96875,319144.3125,328492.0625,310639.65625,298656.5,303086.0,287602.0625,327412.5625,-0.07861328125,0.935546875,-0.238525390625,-1.8310545682907104,-9.246825218200684,4.821776866912842,80.0,1358730.0,1.0
1168014.9308851,296755.0,319605.90625,327479.28125,309393.65625,298391.34375,303400.625,287837.375,327550.15625,-0.0791015625,0.93359375,-0.239501953125,-1.4648436307907104,-9.063719749450684,4.455565929412842,80.0,1358731.0,1.0
1168014.9327373,297553.6875,319448.8125,327914.5,310097.65625,298500.5,303254.34375,287794.0,327564.90625,-0.07861328125,0.93310546875,-0.23876953125,-1.1291502714157104,-8.850096702575684,4.180907726287842,80.0,1358732.0,1.0
1168014.9446112,298929.21875,318912.5625,329223.25,311796.03125,298859.5625,302859.625,287548.40625,327459.96875,-0.078125,0.930419921875,-0.234619140625,-0.6713866591453552,-8.636473655700684,3.784179449081421,80.0,1358733.0,1.0
1168014.9446633,298928.75,318655.4375,329494.9375,312047.1875,298882.28125,302709.6875,287337.15625,327277.75,-0.076416015625,0.927490234375,-0.23486328125,-0.3967284858226776,-8.514403343200684,3.509521245956421,80.0,1358734.0,1.0
1168014.9465109,297616.71875,319122.03125,328478.03125,310627.21875,298631.375,303075.46875,287575.15625,327380.5625,-0.07666015625,0.928466796875,-0.233642578125,-0.1220703050494194,-8.361815452575684,3.112792730331421,80.0,1358735.0,1.0
1168014.9527016,296755.90625,319605.8125,327473.0,309394.5625,298378.5625,303409.84375,287828.875,327534.0,-0.07568359375,0.927001953125,-0.237548828125,0.4272460639476776,-8.117674827575684,2.838134527206421,80.0,1358736.0,1.0
1168014.9570712,297539.46875,319456.5,327893.03125,310071.5625,298482.625,303264.46875,287785.53125,327545.25,-0.072998046875,0.9248046875,-0.239501953125,0.9460448622703552,-7.812499523162842,2.502441167831421,80.0,1358737.0,1.0
1168014.9571072,298915.25,318903.09375,329190.53125,311768.21875,298823.78125,302854.625,287523.375,327421.15625,-0.073486328125,0.92529296875,-0.238525390625,1.5258787870407104,-7.629394054412842,2.136230230331421,80.0,1358738.0,1.0
1168014.962811,298944.03125,318646.125,329492.96875,312056.65625,298858.5625,302710.5,287321.125,327244.125,-0.0703125,0.925537109375,-0.23828125,2.014159917831421,-7.232665538787842,1.7395018339157104,80.0,1358739.0,1.0
1168014.9777477,297649.625,319123.75,328497.6875,310659.65625,298620.125,303078.84375,287568.0,327360.28125,-0.068115234375,0.9267578125,-0.239501953125,2.471923589706421,-6.835937023162842,1.5563963651657104,80.0,1358740.0,1.0
1168014.9777997,296761.1875,319597.59375,327471.3125,309385.71875,298351.28125,303400.4375,287811.09375,327503.125,-0.066162109375,0.92626953125,-0.23974609375,2.868652105331421,-6.408690929412842,1.3427733182907104,80.0,1358741.0,1.0
1168014.9778141,297531.25,319459.1875,327888.84375,310066.0,298463.21875,303269.1875,287779.25,327529.25,-0.063720703125,0.925537109375,-0.241943359375,3.326415777206421,-5.828856945037842,1.1596678495407104,80.0,1358742.0,1.0
1168014.9802597,298901.9375,318897.53125,329176.3125,311760.0,298802.5,302850.78125,287508.96875,327398.34375,-0.06298828125,0.92236328125,-0.24365234375,3.845214605331421,-5.401610851287842,0.9765624403953552,80.0,1358743.0,1.0
1168014.982807,298937.875,318628.59375,329474.65625,312046.375,298833.53125,302693.3125,287292.15625,327205.9375,-0.063232421875,0.92333984375,-0.24169921875,4.333495616912842,-4.760741710662842,0.7019042372703552,80.0,1358744.0,1.0
1168014.9853057,297675.1875,319121.40625,328519.6875,310734.0625,298620.5625,303081.25,287567.8125,327344.8125,-0.063232421875,0.9287109375,-0.241455078125,4.882812023162842,-4.302978038787842,0.4882812201976776,80.0,1358745.0,1.0
1168014.9941353,296747.5,319590.96875,327479.71875,309428.28125,298347.6875,303392.3125,287812.4375,327486.59375,-0.0615234375,0.93310546875,-0.246826171875,5.187987804412842,-3.814697027206421,0.3662109076976776,80.0,1358746.0,1.0
1168014.9971826,297501.03125,319449.28125,327860.6875,310026.75,298449.90625,303256.78125,287772.71875,327501.25,-0.062744140625,0.93798828125,-0.245361328125,5.401610851287842,-3.234863042831421,0.3662109076976776,80.0,1358747.0,1.0
1168014.9972361,298865.28125,318882.59375,329129.8125,311706.1875,298775.4375,302835.5625,287488.40625,327355.71875,-0.06103515625,0.9404296875,-0.246337890625,5.462646007537842,-2.716064214706421,0.4272460639476776,80.0,1358748.0,1.0
1168015.0027812,298929.125,318609.75,329443.09375,312022.84375,298804.3125,302673.125,287263.5625,327156.34375,-0.06201171875,0.93798828125,-0.24951171875,5.584716320037842,-2.166747808456421,0.4577636420726776,80.0,1358749.0,1.0
1168015.0094678,297664.53125,319109.78125,328501.0,310691.3125,298603.0625,303064.0,287541.15625,327301.78125,-0.059326171875,0.935791015625,-0.25244140625,5.828856945037842,-1.6784666776657104,0.6713866591453552,80.0,1358750.0,1.0
1168015.0095193,296765.8125,319608.875,327489.375,309425.125,298358.4375,303401.34375,287817.71875,327476.84375,-0.05908203125,0.93359375,-0.252685546875,6.134032726287842,-0.9765624403953552,0.8239745497703552,80.0,1358751.0,1.0
1168015.0152611,297505.5,319476.28125,327868.90625,310046.53125,298459.1875,303271.0,287785.34375,327501.625,-0.0634765625,0.934326171875,-0.251220703125,6.256103038787842,-0.5187987685203552,0.8544921278953552,80.0,1358752.0,1.0
1168015.0196499,298858.40625,318887.0,329124.34375,311693.65625,298768.4375,302834.3125,287482.53125,327343.1875,-0.06494140625,0.93603515625,-0.25439453125,6.469726085662842,0.0610351525247097,0.9460448622703552,80.0,1358753.0,1.0
1168015.0197007,298927.875,318595.0625,329440.6875,312012.9375,298791.4375,302663.28125,287245.40625,327136.84375,-0.06494140625,0.938232421875,-0.254150390625,6.591796398162842,0.6713866591453552,0.9765624403953552,80.0,1358754.0,1.0
1168015.0278099,297674.5625,319093.6875,328514.0625,310691.21875,298595.28125,303049.96875,287523.75,327285.53125,-0.0673828125,0.9404296875,-0.255615234375,6.652831554412842,1.0986326932907104,0.9765624403953552,80.0,1358755.0,1.0
1168015.0309013,296772.25,319630.3125,327517.96875,309440.0625,298372.375,303408.75,287821.46875,327483.125,-0.06787109375,0.93994140625,-0.25634765625,6.713866710662842,1.3732908964157104,0.9765624403953552,80.0,1358756.0,1.0
1168015.0309506,297505.9375,319505.59375,327882.3125,310065.46875,298473.9375,303288.0625,287794.09375,327510.125,-0.0712890625,0.93994140625,-0.259033203125,6.744384288787842,1.7395018339157104,1.1291502714157104,80.0,1358757.0,1.0
1168015.0328074,298855.1875,318912.65625,329127.03125,311709.40625,298783.125,302852.375,287493.96875,327350.625,-0.0732421875,0.941162109375,-0.261962890625,6.744384288787842,2.136230230331421,1.3732908964157104,80.0,1358758.0,1.0
1168015.0471436,298935.90625,318608.21875,329451.59375,312040.28125,298804.65625,302670.53125,287249.96875,327137.8125,-0.073974609375,0.943603515625,-0.260986328125,6.683349132537842,2.441406011581421,1.5563963651657104,80.0,1358759.0,1.0
1168015.0471931,297680.46875,319097.8125,328526.75,310708.03125,298599.03125,303045.6875,287515.96875,327273.46875,-0.07421875,0.946044921875,-0.2607421875,6.622313976287842,2.838134527206421,1.7700194120407104,80.0,1358760.0,1.0
1168015.0491058,296771.0,319641.21875,327531.21875,309436.9375,298374.34375,303401.25,287819.6875,327475.5,-0.07177734375,0.946044921875,-0.26220703125,6.622313976287842,3.295898199081421,1.9226073026657104,80.0,1358761.0,1.0
1168015.0515152,297481.625,319521.40625,327880.4375,310026.5625,298470.90625,303276.875,287794.90625,327507.25,-0.07421875,0.9462890625,-0.263671875,6.713866710662842,3.509521245956421,2.166747808456421,80.0,1358762.0,1.0
1168015.0552645,298856.59375,318923.8125,329128.90625,311692.21875,298782.125,302848.8125,287500.5,327356.25,-0.0732421875,0.94482421875,-0.267333984375,6.652831554412842,3.906249761581421,2.380370855331421,80.0,1358763.0,1.0
1168015.0696395,298949.78125,318607.9375,329463.9375,312062.1875,298804.65625,302665.34375,287256.59375,327146.0625,-0.072998046875,0.94775390625,-0.26513671875,6.652831554412842,4.180907726287842,2.624511480331421,80.0,1358764.0,1.0
1168015.0696889,297686.1875,319099.40625,328545.90625,310721.375,298607.4375,303032.09375,287525.25,327285.875,-0.072021484375,0.9482421875,-0.266357421875,6.561278820037842,4.425048351287842,2.899169683456421,80.0,1358765.0,1.0
1168015.071579,296793.0,319675.5625,327568.6875,309476.09375,298407.25,303411.0,287849.96875,327511.1875,-0.071533203125,0.947265625,-0.267578125,6.439208507537842,4.760741710662842,3.143310308456421,80.0,1358766.0,1.0
1168015.0740822,297494.5,319567.90625,327912.90625,310055.90625,298510.34375,303304.78125,287834.96875,327554.90625,-0.072021484375,0.94482421875,-0.27294921875,6.439208507537842,4.974364757537842,3.387450933456421,80.0,1358767.0,1.0
1168015.0777119,298819.21875,318925.0625,329115.25,311664.34375,298781.59375,302844.0625,287504.59375,327366.71875,-0.07177734375,0.94189453125,-0.270263671875,6.378173351287842,5.218505382537842,3.570556402206421,80.0,1358768.0,1.0
1168015.0921752,298929.375,318599.71875,329456.875,312028.03125,298804.75,302656.59375,287251.125,327147.03125,-0.06982421875,0.940673828125,-0.27001953125,6.378173351287842,5.401610851287842,3.753661870956421,80.0,1358769.0,1.0
1168015.0922507,297726.0625,319119.53125,328591.40625,310772.3125,298638.1875,303049.71875,287543.125,327310.5625,-0.0703125,0.938232421875,-0.27099609375,6.347655773162842,5.615233898162842,3.936767339706421,80.0,1358770.0,1.0
1168015.0946122,296819.125,319704.96875,327613.90625,309519.5625,298436.125,303425.03125,287868.65625,327534.625,-0.070556640625,0.93896484375,-0.26953125,6.378173351287842,5.798339366912842,4.211425304412842,80.0,1358771.0,1.0
1168015.0946689,297479.1875,319580.25,327916.03125,310048.21875,298515.4375,303302.5625,287835.40625,327558.46875,-0.069091796875,0.9384765625,-0.270751953125,6.378173351287842,5.981444835662842,4.394530773162842,80.0,1358772.0,1.0
1168015.0965598,298812.875,318939.28125,329113.1875,311646.375,298792.0625,302855.15625,287512.03125,327379.3125,-0.070556640625,0.93896484375,-0.270751953125,6.500243663787842,6.134032726287842,4.547118663787842,80.0,1358773.0,1.0
1168015.1108798,298955.5,318609.03125,329477.0625,312037.96875,298821.46875,302670.0,287265.15625,327165.71875,-0.07177734375,0.939208984375,-0.271484375,6.530761241912842,6.195067882537842,4.699706554412842,80.0,1358774.0,1.0
1168015.1109295,297749.46875,319124.46875,328618.03125,310783.78125,298652.21875,303051.125,287552.0,327321.90625,-0.072265625,0.937744140625,-0.271728515625,6.469726085662842,6.256103038787842,4.852294445037842,80.0,1358775.0,1.0
1168015.1137967,296838.5,319724.5625,327647.34375,309537.0,298466.25,303437.5625,287890.46875,327557.5,-0.071533203125,0.9365234375,-0.273681640625,6.347655773162842,6.408690929412842,5.035399913787842,80.0,1358776.0,1.0
1168015.1138459,297465.15625,319600.71875,327929.34375,310038.28125,298541.53125,303315.25,287855.875,327580.9375,-0.071533203125,0.93505859375,-0.2763671875,6.378173351287842,6.317138195037842,5.096435070037842,80.0,1358777.0,1.0
1168015.1138599,298799.5625,318942.6875,329111.46875,311635.53125,298805.375,302862.5,287520.78125,327394.34375,-0.072509765625,0.9345703125,-0.275390625,6.500243663787842,6.317138195037842,5.157470226287842,80.0,1358778.0,1.0
1168015.1215755,298942.15625,318592.40625,329466.875,312037.0625,298816.5625,302666.25,287251.9375,327161.6875,-0.073486328125,0.937255859375,-0.27392578125,6.500243663787842,6.317138195037842,5.218505382537842,80.0,1358779.0,1.0
1168015.1278124,297737.59375,319112.65625,328619.75,310782.78125,298652.03125,303045.78125,287535.625,327314.03125,-0.072998046875,0.93701171875,-0.2763671875,6.652831554412842,6.256103038787842,5.310058116912842,80.0,1358780.0,1.0
1168015.1371755,296830.5625,319734.21875,327656.84375,309544.3125,298478.0625,303442.90625,287887.8125,327561.78125,-0.075927734375,0.93994140625,-0.276123046875,6.713866710662842,6.164550304412842,5.157470226287842,80.0,1358781.0,1.0
1168015.1372259,297461.78125,319615.3125,327927.09375,310036.59375,298547.4375,303323.8125,287856.59375,327586.90625,-0.076171875,0.942626953125,-0.276611328125,6.774901866912842,6.134032726287842,5.126952648162842,80.0,1358782.0,1.0
1168015.1459048,298780.78125,318936.15625,329087.875,311609.25,298794.90625,302861.5,287511.5,327388.15625,-0.076416015625,0.945556640625,-0.275146484375,6.591796398162842,5.920409679412842,4.974364757537842,80.0,1358783.0,1.0
1168015.1459576,298950.40625,318579.25,329453.03125,312038.9375,298807.15625,302661.21875,287236.65625,327151.78125,-0.074951171875,0.944091796875,-0.2744140625,6.408690929412842,5.615233898162842,5.004882335662842,80.0,1358784.0,1.0
1168015.1527432,297768.25,319112.21875,328627.0625,310818.625,298656.25,303042.0,287525.15625,327311.71875,-0.075927734375,0.941162109375,-0.274658203125,6.164550304412842,5.493163585662842,5.035399913787842,80.0,1358785.0,1.0
1168015.152799,296841.8125,319739.125,327666.21875,309556.125,298485.5625,303434.875,287879.5,327562.40625,-0.07421875,0.938232421875,-0.276123046875,6.103515148162842,5.279540538787842,5.004882335662842,80.0,1358786.0,1.0
1168015.1528159,297436.28125,319605.65625,327907.4375,310002.4375,298540.03125,303312.5625,287839.78125,327576.375,-0.07568359375,0.931640625,-0.2783203125,6.103515148162842,4.882812023162842,4.913329601287842,80.0,1358787.0,1.0
1168015.1552654,298773.1875,318929.09375,329073.03125,311608.0,298788.375,302858.1875,287502.28125,327384.0625,-0.074951171875,0.92822265625,-0.277099609375,6.195067882537842,4.699706554412842,4.699706554412842,80.0,1358788.0,1.0
1168015.1591368,298966.3125,318568.25,329458.75,312082.59375,298809.40625,302660.4375,287234.78125,327151.78125,-0.07470703125,0.927734375,-0.278564453125,6.256103038787842,4.516601085662842,4.516601085662842,80.0,1358789.0,1.0
1168015.1727536,297769.6875,319093.875,328635.65625,310822.84375,298652.9375,303030.3125,287517.03125,327300.375,-0.073974609375,0.92919921875,-0.277099609375,6.408690929412842,4.241942882537842,4.425048351287842,80.0,1358790.0,1.0
1168015.180251,296842.625,319745.125,327684.09375,309557.5625,298493.96875,303436.9375,287888.34375,327565.625,-0.07470703125,0.9306640625,-0.28076171875,6.500243663787842,3.906249761581421,4.180907726287842,80.0,1358791.0,1.0
1168015.1803065,297445.5,319631.84375,327923.875,310025.40625,298557.71875,303330.25,287866.0,327599.6875,-0.07421875,0.931396484375,-0.279296875,6.469726085662842,3.692626714706421,4.058837413787842,80.0,1358792.0,1.0
1168015.1803247,298759.96875,318933.3125,329064.0,311615.875,298786.40625,302866.25,287513.90625,327395.125,-0.073486328125,0.93310546875,-0.2783203125,6.286620616912842,3.479003667831421,3.997802495956421,80.0,1358793.0,1.0
1168015.1834098,298915.0,318526.0625,329407.5,311981.28125,298767.125,302625.5625,287204.90625,327121.28125,-0.0751953125,0.93359375,-0.277099609375,6.225585460662842,3.173827886581421,3.967284917831421,80.0,1358794.0,1.0
1168015.1834649,297793.46875,319081.1875,328633.34375,310817.21875,298642.21875,303018.40625,287511.9375,327293.125,-0.075439453125,0.931884765625,-0.279296875,6.072997570037842,2.807616949081421,3.692626714706421,80.0,1358795.0,1.0
1168015.1852835,296897.25,319770.6875,327718.0,309650.0,298510.5,303452.125,287912.9375,327581.1875,-0.077392578125,0.92822265625,-0.2802734375,5.859374523162842,2.441406011581421,3.540038824081421,80.0,1358796.0,1.0
1168015.1990796,297416.0,319625.3125,327900.375,310018.0,298539.5625,303320.875,287860.34375,327578.15625,-0.0751953125,0.925537109375,-0.28271484375,5.920409679412842,2.166747808456421,3.326415777206421,80.0,1358797.0,1.0
1168015.2021807,298727.59375,318907.71875,329015.0,311529.34375,298756.90625,302854.625,287499.0625,327359.03125,-0.07470703125,0.927490234375,-0.2841796875,6.042479991912842,1.8615721464157104,3.021239995956421,80.0,1358798.0,1.0
1168015.2022374,298937.6875,318517.03125,329403.125,311998.53125,298763.53125,302635.46875,287210.8125,327104.65625,-0.073486328125,0.9296875,-0.283203125,6.134032726287842,1.6479490995407104,2.838134527206421,80.0,1358799.0,1.0
1168015.2041329,297815.1875,319073.3125,328643.71875,310863.0625,298638.1875,303020.5625,287509.6875,327271.21875,-0.072021484375,0.935791015625,-0.281982421875,6.011962413787842,1.3732908964157104,2.624511480331421,80.0,1358800.0,1.0
1168015.2128136,296868.5625,319756.46875,327701.25,309599.3125,298492.28125,303435.0625,287895.5,327547.84375,-0.070068359375,0.942626953125,-0.282470703125,5.920409679412842,1.1291502714157104,2.502441167831421,80.0,1358801.0,1.0
1168015.2196568,297446.21875,319660.0,327919.59375,310037.3125,298557.0,303347.53125,287883.78125,327589.6875,-0.070068359375,0.942138671875,-0.28173828125,5.493163585662842,0.9460448622703552,2.349853277206421,80.0,1358802.0,1.0
1168015.2197057,298734.75,318931.15625,329029.40625,311605.78125,298768.09375,302875.4375,287524.71875,327375.375,-0.06689453125,0.943115234375,-0.28271484375,5.187987804412842,0.6408690810203552,2.288818120956421,80.0,1358803.0,1.0
1168015.2221424,298924.90625,318514.875,329399.0,312005.96875,298757.625,302632.4375,287216.4375,327106.875,-0.066162109375,0.939208984375,-0.288330078125,4.852294445037842,0.5187987685203552,2.227782964706421,80.0,1358804.0,1.0
1168015.2221891,297850.6875,319091.65625,328680.0,310941.21875,298657.40625,303034.3125,287535.4375,327294.375,-0.06298828125,0.934814453125,-0.286376953125,4.699706554412842,0.3051757514476776,2.166747808456421,80.0,1358805.0,1.0
1168015.2303429,296917.375,319791.4375,327752.21875,309707.65625,298528.65625,303462.3125,287939.9375,327586.1875,-0.061767578125,0.9345703125,-0.287109375,4.669188976287842,0.3051757514476776,2.166747808456421,80.0,1358806.0,1.0
1168015.2328157,297466.5,319688.25,327940.6875,310098.09375,298576.6875,303360.46875,287920.6875,327613.90625,-0.0625,0.93505859375,-0.29052734375,4.486083507537842,0.1831054538488388,1.9836424589157104,80.0,1358807.0,1.0
1168015.2415594,298729.8125,318946.90625,329031.90625,311592.8125,298775.59375,302881.4375,287553.0625,327390.03125,-0.061279296875,0.937744140625,-0.291015625,4.364013195037842,0.1831054538488388,1.9531248807907104,80.0,1358808.0,1.0
1168015.2446553,298906.21875,318496.90625,329390.96875,311955.90625,298746.375,302611.53125,287216.71875,327101.625,-0.063232421875,0.94091796875,-0.2919921875,4.211425304412842,0.0915527269244194,1.8310545682907104,80.0,1358809.0,1.0
1168015.2447181,297854.09375,319071.53125,328686.8125,310894.8125,298655.96875,303017.34375,287534.03125,327295.96875,-0.06201171875,0.94140625,-0.291259765625,3.906249761581421,-0.03051757626235485,1.8920897245407104,80.0,1358810.0,1.0
1168015.2465588,296968.25,319811.09375,327796.125,309752.8125,298553.25,303476.53125,287964.5,327615.6875,-0.065185546875,0.936767578125,-0.29345703125,3.814697027206421,-0.1831054538488388,1.8615721464157104,80.0,1358811.0,1.0
1168015.2602746,297502.28125,319727.25,327985.9375,310161.59375,298610.46875,303394.8125,287958.875,327657.1875,-0.06884765625,0.932861328125,-0.29296875,3.570556402206421,-0.3356933295726776,1.7395018339157104,80.0,1358812.0,1.0
1168015.2633996,298746.8125,318982.84375,329069.28125,311639.75,298814.5,302920.15625,287593.65625,327436.875,-0.06884765625,0.930419921875,-0.294921875,3.509521245956421,-0.4882812201976776,1.7700194120407104,80.0,1358813.0,1.0
1168015.2634533,298968.71875,318547.40625,329460.53125,312105.46875,298808.9375,302675.96875,287282.875,327167.3125,-0.06982421875,0.926513671875,-0.293701171875,3.448486089706421,-0.6408690810203552,1.6174315214157104,80.0,1358814.0,1.0
1168015.2652646,297926.3125,319130.96875,328771.1875,311045.8125,298725.0,303084.40625,287609.84375,327361.34375,-0.0703125,0.9228515625,-0.2900390625,3.417968511581421,-0.7934569716453552,1.5258787870407104,80.0,1358815.0,1.0
1168015.2678075,296988.4375,319830.5,327832.6875,309809.21875,298578.375,303498.875,288000.09375,327636.96875,-0.072021484375,0.92138671875,-0.29052734375,3.479003667831421,-0.9460448622703552,1.4648436307907104,80.0,1358816.0,1.0
1168015.2741311,297410.8125,319682.4375,327930.3125,310043.5625,298571.3125,303355.5625,287933.9375,327616.96875,-0.073486328125,0.919189453125,-0.2919921875,3.387450933456421,-1.2512205839157104,1.3732908964157104,80.0,1358817.0,1.0
1168015.2833579,298649.625,318917.03125,328979.34375,311460.21875,298751.03125,302866.40625,287553.6875,327379.125,-0.07373046875,0.917236328125,-0.295654296875,3.448486089706421,-1.4343260526657104,1.3427733182907104,80.0,1358818.0,1.0
1168015.2834103,298958.53125,318522.75,329438.53125,312052.71875,298793.5625,302667.125,287282.78125,327156.25,-0.074462890625,0.916259765625,-0.29638671875,3.601073980331421,-1.7089842557907104,1.2512205839157104,80.0,1358819.0,1.0
1168015.2854441,297871.625,319059.0,328710.84375,310949.96875,298672.0625,303028.25,287552.96875,327298.84375,-0.0732421875,0.915771484375,-0.29736328125,3.723144292831421,-1.9226073026657104,1.1596678495407104,80.0,1358820.0,1.0
1168015.291524,296924.0625,319790.96875,327791.5625,309716.4375,298555.03125,303473.125,287971.9375,327602.5625,-0.070556640625,0.9189453125,-0.296142578125,3.967284917831421,-2.136230230331421,1.1596678495407104,80.0,1358821.0,1.0
1168015.3009079,297451.3125,319733.3125,327965.03125,310086.3125,298619.84375,303412.6875,287981.59375,327658.625,-0.073974609375,0.9208984375,-0.29833984375,4.089354991912842,-2.258300542831421,1.0681151151657104,80.0,1358822.0,1.0
1168015.300958,298710.59375,318960.5625,329007.78125,311569.03125,298779.90625,302911.5625,287581.21875,327401.21875,-0.071533203125,0.920654296875,-0.299072265625,4.241942882537842,-2.563476324081421,1.0375975370407104,80.0,1358823.0,1.0
1168015.3034045,299016.375,318550.28125,329466.96875,312125.40625,298813.25,302696.46875,287298.34375,327164.65625,-0.072021484375,0.919921875,-0.29931640625,4.211425304412842,-2.593993902206421,1.1596678495407104,80.0,1358824.0,1.0
1168015.3034567,297965.40625,319103.34375,328787.28125,311113.21875,298718.84375,303078.3125,287600.4375,327344.71875,-0.07275390625,0.9169921875,-0.29931640625,4.302978038787842,-2.716064214706421,1.1901854276657104,80.0,1358825.0,1.0
1168015.3141568,296985.6875,319824.78125,327854.5,309869.75,298592.40625,303510.6875,288010.5625,327648.6875,-0.07080078125,0.91552734375,-0.30224609375,4.333495616912842,-2.868652105331421,1.2207030057907104,80.0,1358826.0,1.0
1168015.3171785,297455.5,319736.71875,327969.5,310125.375,298618.78125,303419.03125,287986.15625,327670.78125,-0.068115234375,0.914794921875,-0.302978515625,4.425048351287842,-2.929687261581421,1.3732908964157104,80.0,1358827.0,1.0
1168015.3172279,298724.71875,318980.0625,329025.375,311607.75,298798.84375,302937.9375,287606.96875,327433.3125,-0.068603515625,0.914306640625,-0.30078125,4.486083507537842,-2.990722417831421,1.2817381620407104,80.0,1358828.0,1.0
1168015.319133,298913.03125,318489.84375,329400.96875,312009.96875,298762.625,302643.96875,287247.46875,327118.0625,-0.067138671875,0.915283203125,-0.30126953125,4.516601085662842,-3.082275152206421,1.2207030057907104,80.0,1358829.0,1.0
1168015.3315707,297826.90625,319017.4375,328693.40625,310864.9375,298653.21875,303005.71875,287530.53125,327269.6875,-0.067626953125,0.911376953125,-0.303955078125,4.547118663787842,-3.082275152206421,1.1901854276657104,80.0,1358830.0,1.0
1168015.3346519,296890.28125,319773.375,327785.75,309637.65625,298556.375,303470.1875,287976.59375,327599.34375,-0.068603515625,0.9091796875,-0.3046875,4.608153820037842,-3.234863042831421,1.4648436307907104,80.0,1358831.0,1.0
1168015.3347081,297395.15625,319722.0625,327925.5,309984.8125,298602.78125,303410.0,287984.625,327655.40625,-0.0693359375,0.905517578125,-0.301025390625,4.821776866912842,-3.295898199081421,1.4953612089157104,80.0,1358832.0,1.0
1168015.3365591,298713.1875,319003.125,329008.84375,311558.65625,298801.53125,302951.4375,287627.0,327446.71875,-0.070068359375,0.910400390625,-0.300048828125,5.035399913787842,-3.387450933456421,1.4343260526657104,80.0,1358833.0,1.0
1168015.3402619,298995.8125,318549.125,329453.1875,312104.03125,298809.21875,302692.34375,287303.0,327170.375,-0.068359375,0.912353515625,-0.2998046875,5.340575695037842,-3.387450933456421,1.4038084745407104,80.0,1358834.0,1.0
1168015.3491374,298056.3125,319146.1875,328855.5,311160.0,298770.6875,303118.5625,287648.375,327394.15625,-0.06787109375,0.9169921875,-0.30078125,5.401610851287842,-3.479003667831421,1.3732908964157104,80.0,1358835.0,1.0
1168015.353363,297033.6875,319868.6875,327912.90625,309898.375,298639.25,303544.75,288058.21875,327690.90625,-0.068603515625,0.91552734375,-0.298095703125,5.249022960662842,-3.601073980331421,1.3427733182907104,80.0,1358836.0,1.0
1168015.3534175,297427.78125,319779.4375,327983.625,310120.28125,298650.0625,303446.125,288032.46875,327712.71875,-0.070068359375,0.914306640625,-0.29931640625,5.157470226287842,-3.692626714706421,1.2207030057907104,80.0,1358837.0,1.0
1168015.3646608,298678.96875,319017.34375,329018.5,311574.46875,298820.3125,302951.8125,287646.65625,327470.15625,-0.06982421875,0.912841796875,-0.30322265625,5.432128429412842,-3.753661870956421,1.1291502714157104,80.0,1358838.0,1.0
1168015.3647114,298969.96875,318547.875,329458.8125,312044.9375,298825.21875,302684.9375,287319.4375,327189.59375,-0.07177734375,0.9140625,-0.300537109375,5.706786632537842,-3.936767339706421,1.1291502714157104,80.0,1358839.0,1.0
1168015.3671782,297957.96875,319090.5625,328818.9375,311049.5625,298747.0,303062.03125,287621.8125,327368.5,-0.0703125,0.919677734375,-0.30126953125,6.072997570037842,-3.967284917831421,0.9765624403953552,80.0,1358840.0,1.0
1168015.3672287,296975.84375,319857.59375,327903.9375,309797.25,298653.21875,303527.21875,288070.71875,327701.25,-0.0693359375,0.928955078125,-0.298583984375,6.195067882537842,-3.997802495956421,0.7019042372703552,80.0,1358841.0,1.0
1168015.3752121,297391.6875,319798.125,327977.71875,310021.84375,298676.0,303452.46875,288062.6875,327732.5625,-0.067626953125,0.9326171875,-0.301025390625,5.859374523162842,-4.089354991912842,0.5493163466453552,80.0,1358842.0,1.0
1168015.3782793,298729.65625,319070.8125,329048.625,311591.5625,298872.875,303000.1875,287708.28125,327519.15625,-0.0654296875,0.93017578125,-0.302734375,5.737304210662842,-4.211425304412842,0.7019042372703552,80.0,1358843.0,1.0
1168015.3783089,299019.25,318572.46875,329493.4375,312142.65625,298864.28125,302719.25,287362.625,327220.53125,-0.06640625,0.922119140625,-0.303955078125,5.615233898162842,-4.272460460662842,0.9460448622703552,80.0,1358844.0,1.0
1168015.3890868,297952.4375,319085.28125,328827.625,311046.71875,298760.84375,303066.59375,287635.9375,327367.34375,-0.072265625,0.91748046875,-0.30419921875,5.889892101287842,-4.272460460662842,1.0681151151657104,80.0,1358845.0,1.0
1168015.3921805,297010.53125,319873.875,327938.90625,309831.65625,298683.5,303549.125,288104.96875,327718.25,-0.0712890625,0.918212890625,-0.302734375,6.164550304412842,-4.241942882537842,0.6713866591453552,80.0,1358846.0,1.0
1168015.3922342,297442.1875,319826.65625,328021.34375,310087.1875,298713.90625,303489.59375,288109.625,327764.375,-0.064208984375,0.921142578125,-0.3037109375,6.286620616912842,-4.241942882537842,0.4577636420726776,80.0,1358847.0,1.0
1168015.4003062,298727.59375,319093.78125,329071.875,311605.78125,298901.5625,303027.8125,287744.21875,327546.59375,-0.061767578125,0.91748046875,-0.306884765625,6.225585460662842,-4.272460460662842,0.5798339247703552,80.0,1358848.0,1.0
1168015.4034038,299073.40625,318614.21875,329541.625,312164.03125,298909.09375,302762.15625,287410.1875,327269.6875,-0.06298828125,0.90869140625,-0.308349609375,6.256103038787842,-4.211425304412842,0.8239745497703552,80.0,1358849.0,1.0
1168015.4034598,298031.75,319114.4375,328893.6875,311145.875,298806.8125,303105.21875,287675.8125,327416.875,-0.06494140625,0.899658203125,-0.308349609375,6.469726085662842,-4.119872570037842,0.8239745497703552,80.0,1358850.0,1.0
1168015.4052331,297019.21875,319859.65625,327951.4375,309857.6875,298681.8125,303538.21875,288096.46875,327716.90625,-0.0654296875,0.89697265625,-0.304443359375,6.988524913787842,-3.997802495956421,0.7629393935203552,80.0,1358851.0,1.0
1168015.4141376,297410.09375,319807.53125,327996.3125,310040.0,298690.65625,303468.21875,288089.9375,327743.90625,-0.065673828125,0.900390625,-0.3046875,7.415771007537842,-3.967284917831421,0.7019042372703552,80.0,1358852.0,1.0
1168015.4178099,298644.8125,319051.59375,329012.34375,311477.90625,298859.125,302992.125,287713.0,327505.03125,-0.066650390625,0.903564453125,-0.304443359375,7.781981945037842,-3.936767339706421,0.4577636420726776,80.0,1358853.0,1.0
1168015.4246305,298995.625,318562.8125,329478.84375,312018.21875,298864.375,302719.34375,287372.375,327217.65625,-0.064208984375,0.90283203125,-0.306396484375,7.965087413787842,-3.875732183456421,0.5187987685203552,80.0,1358854.0,1.0
1168015.424691,298016.53125,319087.96875,328862.65625,311086.9375,298779.34375,303081.90625,287649.0,327375.03125,-0.062255859375,0.900146484375,-0.3076171875,8.117674827575684,-3.631591558456421,0.3967284858226776,80.0,1358855.0,1.0
1168015.4264066,297046.03125,319866.0,327958.5,309870.125,298682.875,303551.28125,288100.15625,327709.40625,-0.06298828125,0.899169921875,-0.3076171875,8.270262718200684,-3.540038824081421,0.3967284858226776,80.0,1358856.0,1.0
1168015.4328312,297408.40625,319817.625,327994.34375,310037.75,298692.28125,303486.90625,288096.03125,327746.0625,-0.063232421875,0.89501953125,-0.308349609375,8.514403343200684,-3.387450933456421,0.3967284858226776,80.0,1358857.0,1.0
1168015.4364812,298707.125,319084.03125,329031.90625,311537.375,298872.78125,303030.125,287728.03125,327526.03125,-0.064697265625,0.89501953125,-0.307861328125,8.850096702575684,-3.265380620956421,0.4272460639476776,80.0,1358858.0,1.0
1168015.4453379,299033.46875,318563.59375,329488.34375,312095.90625,298856.875,302729.0,287359.0625,327213.09375,-0.065185546875,0.897216796875,-0.308837890625,9.094237327575684,-3.021239995956421,0.3662109076976776,80.0,1358859.0,1.0
1168015.4577511,298028.25,319065.28125,328861.0625,311084.34375,298759.5,303064.46875,287615.8125,327346.9375,-0.0673828125,0.89990234375,-0.3134765625,9.429930686950684,-2.899169683456421,0.2746581733226776,80.0,1358860.0,1.0
1168015.4578024,297037.53125,319854.1875,327955.90625,309820.125,298677.15625,303542.59375,288078.40625,327689.46875,-0.068115234375,0.90380859375,-0.3154296875,9.582518577575684,-2.716064214706421,0.1525878757238388,80.0,1358861.0,1.0
1168015.4578163,297471.78125,319870.09375,328038.78125,310114.46875,298733.21875,303534.8125,288127.9375,327776.53125,-0.067138671875,0.915283203125,-0.315673828125,9.735106468200684,-2.685546636581421,0.0915527269244194,80.0,1358862.0,1.0
1168015.4608683,298664.75,319079.21875,329004.0,311480.4375,298859.65625,303022.25,287708.1875,327499.65625,-0.06640625,0.923095703125,-0.318603515625,9.674071311950684,-2.532958745956421,0.2746581733226776,80.0,1358863.0,1.0
1168015.4609222,299025.0625,318552.96875,329467.9375,312046.71875,298844.96875,302721.125,287338.9375,327181.8125,-0.0654296875,0.924072265625,-0.31591796875,9.399413108825684,-2.349853277206421,0.3967284858226776,80.0,1358864.0,1.0
1168015.4877677,298123.75,319106.03125,328927.21875,311212.84375,298807.25,303114.625,287652.125,327375.46875,-0.0654296875,0.9248046875,-0.320068359375,9.094237327575684,-2.227782964706421,0.7324218153953552,80.0,1358865.0,1.0
1168015.4903109,297129.875,319897.28125,328022.5,309947.625,298717.125,303586.5,288109.25,327712.25,-0.065185546875,0.921875,-0.3173828125,8.819579124450684,-1.9531248807907104,0.8850097060203552,80.0,1358866.0,1.0
1168015.495332,297418.125,319852.0625,328012.03125,310057.59375,298709.4375,303521.875,288102.90625,327740.96875,-0.065673828125,0.91748046875,-0.3173828125,8.697508811950684,-1.7395018339157104,1.0375975370407104,80.0,1358867.0,1.0
1168015.4977779,298637.375,319088.59375,328983.09375,311452.625,298854.5625,303033.6875,287710.78125,327493.3125,-0.062744140625,0.910400390625,-0.321533203125,8.544920921325684,-1.5563963651657104,1.2207030057907104,80.0,1358868.0,1.0
1168015.5002959,299073.78125,318591.3125,329497.375,312094.375,298870.1875,302752.96875,287367.8125,327206.65625,-0.061767578125,0.9091796875,-0.32421875,8.605956077575684,-1.1901854276657104,1.3427733182907104,80.0,1358869.0,1.0
1168015.5028135,298120.59375,319097.8125,328922.375,311183.59375,298795.09375,303096.71875,287634.25,327352.3125,-0.058837890625,0.9111328125,-0.326416015625,8.453368186950684,-0.9765624403953552,1.4343260526657104,80.0,1358870.0,1.0
1168015.5078311,297110.75,319902.75,328023.75,309939.0625,298720.625,303581.9375,288103.1875,327704.84375,-0.05859375,0.919677734375,-0.326416015625,8.483885765075684,-0.7324218153953552,1.6479490995407104,80.0,1358871.0,1.0
1168015.5103121,297441.03125,319879.21875,328012.65625,310053.84375,298718.84375,303530.09375,288102.03125,327744.0,-0.06201171875,0.92626953125,-0.324462890625,8.392333030700684,-0.4577636420726776,1.8310545682907104,80.0,1358872.0,1.0
1168015.5128103,298736.25,319147.625,329030.75,311547.65625,298891.75,303076.09375,287739.46875,327527.375,-0.0625,0.928955078125,-0.32470703125,7.965087413787842,-0.2441406100988388,2.227782964706421,80.0,1358873.0,1.0
1168015.5153086,299050.25,318585.5,329488.875,312105.28125,298859.125,302748.65625,287346.0,327193.78125,-0.06298828125,0.926513671875,-0.329345703125,7.629394054412842,-0.0915527269244194,2.563476324081421,80.0,1358874.0,1.0
1168015.5178289,298078.84375,319077.78125,328907.1875,311146.65625,298783.90625,303087.0625,287606.09375,327337.65625,-0.064697265625,0.923583984375,-0.330322265625,7.263183116912842,0.0,2.716064214706421,80.0,1358875.0,1.0
1168015.5203321,297139.09375,319920.90625,328045.40625,309951.3125,298734.5625,303600.09375,288101.5625,327715.21875,-0.0654296875,0.922607421875,-0.330322265625,7.019042491912842,0.1831054538488388,2.777099370956421,80.0,1358876.0,1.0
1168015.5228221,297486.34375,319926.6875,328059.34375,310170.0625,298748.15625,303571.21875,288120.96875,327774.21875,-0.066650390625,0.92529296875,-0.331787109375,6.835937023162842,0.2441406100988388,2.807616949081421,80.0,1358877.0,1.0
1168015.5259082,298659.90625,319131.34375,328996.25,311506.875,298862.875,303065.0,287705.21875,327507.25,-0.06884765625,0.9248046875,-0.331298828125,6.530761241912842,0.2746581733226776,2.899169683456421,80.0,1358878.0,1.0
1168015.5259658,299037.5625,318574.6875,329472.59375,312050.03125,298847.40625,302749.28125,287321.0625,327183.78125,-0.067626953125,0.927734375,-0.332275390625,6.286620616912842,0.3662109076976776,2.990722417831421,80.0,1358879.0,1.0
1168015.5277869,298126.59375,319083.875,328931.59375,311185.125,298791.6875,303105.84375,287595.53125,327341.65625,-0.063232421875,0.931884765625,-0.330810546875,5.981444835662842,0.4577636420726776,2.899169683456421,80.0,1358880.0,1.0
1168015.5319688,297132.84375,319904.09375,328042.25,309960.96875,298718.65625,303597.15625,288069.21875,327694.75,-0.060546875,0.934814453125,-0.331298828125,5.645751476287842,0.4882812201976776,2.960204839706421,80.0,1358881.0,1.0
1168015.5320181,297457.21875,319912.3125,328029.9375,310077.53125,298729.8125,303570.3125,288092.90625,327751.15625,-0.058837890625,0.939208984375,-0.3271484375,5.340575695037842,0.6408690810203552,3.051757574081421,80.0,1358882.0,1.0
1168015.5390904,298675.03125,319141.625,328982.75,311433.84375,298863.125,303084.40625,287702.375,327503.9375,-0.058349609375,0.939453125,-0.32958984375,5.126952648162842,0.6713866591453552,3.173827886581421,80.0,1358883.0,1.0
1168015.5534184,299106.0625,318599.90625,329501.125,312131.21875,298862.59375,302782.03125,287336.53125,327199.5,-0.05615234375,0.94287109375,-0.33056640625,4.608153820037842,0.8544921278953552,3.326415777206421,80.0,1358884.0,1.0
1168015.553472,298160.125,319078.84375,328943.65625,311240.625,298780.25,303100.65625,287579.875,327326.125,-0.054443359375,0.943115234375,-0.33203125,3.997802495956421,1.0070799589157104,3.601073980331421,80.0,1358885.0,1.0
1168015.5558562,297164.3125,319911.6875,328061.3125,310014.6875,298720.625,303601.875,288066.25,327687.40625,-0.052978515625,0.94091796875,-0.333251953125,3.662109136581421,1.3122557401657104,3.662109136581421,80.0,1358886.0,1.0
1168015.5558968,297452.375,319923.3125,328026.4375,310090.78125,298726.53125,303581.84375,288095.03125,327747.5,-0.054443359375,0.935791015625,-0.33203125,3.112792730331421,1.3427733182907104,3.814697027206421,80.0,1358887.0,1.0
1168015.5646588,298645.96875,319141.625,328955.03125,311406.75,298839.53125,303086.28125,287692.4375,327481.59375,-0.0537109375,0.929443359375,-0.33544921875,2.777099370956421,1.4648436307907104,3.845214605331421,80.0,1358888.0,1.0
1168015.5647084,299077.625,318590.96875,329468.21875,312075.0625,298832.8125,302776.5625,287320.25,327166.78125,-0.0546875,0.92333984375,-0.335693359375,2.685546636581421,1.7089842557907104,3.784179449081421,80.0,1358889.0,1.0
1168015.5789938,298222.625,319099.5,328973.71875,311328.34375,298793.75,303130.15625,287597.5,327334.4375,-0.0556640625,0.923583984375,-0.33203125,2.624511480331421,1.7395018339157104,3.662109136581421,80.0,1358890.0,1.0
1168015.5790425,297175.21875,319895.59375,328051.5625,309983.65625,298703.0,303596.0625,288050.96875,327665.5,-0.055908203125,0.921875,-0.335205078125,2.502441167831421,2.044677495956421,3.723144292831421,80.0,1358891.0,1.0
1168015.5790565,297451.84375,319917.3125,328002.84375,310035.0625,298704.0,303581.59375,288079.03125,327721.21875,-0.0546875,0.922607421875,-0.337646484375,2.349853277206421,2.227782964706421,3.723144292831421,80.0,1358892.0,1.0
1168015.5821796,298603.21875,319138.3125,328921.84375,311361.34375,298824.6875,303099.9375,287685.65625,327469.6875,-0.054931640625,0.9248046875,-0.338134765625,2.166747808456421,2.319335699081421,3.723144292831421,80.0,1358893.0,1.0
1168015.5822353,299060.8125,318573.96875,329453.71875,312037.15625,298827.28125,302789.96875,287318.375,327166.34375,-0.0546875,0.923583984375,-0.33251953125,2.014159917831421,2.410888433456421,3.753661870956421,80.0,1358894.0,1.0
1168015.5841347,298189.90625,319065.1875,328948.21875,311220.15625,298773.8125,303129.53125,287577.65625,327312.625,-0.05224609375,0.923095703125,-0.33447265625,1.7700194120407104,2.532958745956421,3.784179449081421,80.0,1358895.0,1.0
1168015.5928092,297193.71875,319914.0,328072.46875,309986.15625,298717.21875,303633.71875,288068.65625,327678.1875,-0.0517578125,0.921630859375,-0.335693359375,1.6479490995407104,2.593993902206421,3.845214605331421,80.0,1358896.0,1.0
1168015.6002412,297469.53125,319948.53125,328030.375,310086.125,298723.375,303624.9375,288113.1875,327753.65625,-0.050537109375,0.9169921875,-0.334228515625,1.5869139432907104,2.716064214706421,3.845214605331421,80.0,1358897.0,1.0
1168015.600292,298671.96875,319178.1875,328970.125,311444.84375,298853.46875,303148.15625,287738.40625,327520.5625,-0.051025390625,0.913818359375,-0.33251953125,1.5869139432907104,2.899169683456421,3.753661870956421,80.0,1358898.0,1.0
1168015.6003058,299154.34375,318610.53125,329516.0625,312219.375,298851.59375,302829.6875,287365.5,327208.625,-0.051025390625,0.91357421875,-0.33251953125,1.5258787870407104,3.021239995956421,3.631591558456421,80.0,1358899.0,1.0
1168015.6028065,298251.0625,319075.90625,328992.9375,311349.90625,298777.21875,303141.0,287599.1875,327326.21875,-0.052490234375,0.91162109375,-0.333251953125,1.6479490995407104,3.143310308456421,3.540038824081421,80.0,1358900.0,1.0
1168015.609075,297218.65625,319913.65625,328092.875,310031.9375,298711.3125,303636.03125,288075.8125,327674.96875,-0.0537109375,0.9091796875,-0.33203125,1.5869139432907104,3.112792730331421,3.387450933456421,80.0,1358901.0,1.0
1168015.6233467,297400.96875,319911.9375,327975.3125,309977.5,298678.15625,303596.25,288076.0,327702.34375,-0.05419921875,0.91015625,-0.331787109375,1.7089842557907104,3.234863042831421,3.265380620956421,80.0,1358902.0,1.0
1168015.6233963,298640.78125,319155.75,328915.40625,311333.71875,298818.15625,303139.5625,287710.40625,327476.5,-0.0556640625,0.908447265625,-0.33056640625,1.8310545682907104,3.265380620956421,3.051757574081421,80.0,1358903.0,1.0
1168015.6259041,299137.0625,318588.5625,329471.25,312084.5625,298824.78125,302826.46875,287344.46875,327173.5,-0.054931640625,0.905517578125,-0.330322265625,1.8005369901657104,3.295898199081421,2.929687261581421,80.0,1358904.0,1.0
1168015.6259539,298261.5,319049.625,328970.125,311288.8125,298756.03125,303138.65625,287575.6875,327288.65625,-0.0537109375,0.905517578125,-0.330078125,1.8005369901657104,3.265380620956421,2.716064214706421,80.0,1358905.0,1.0
1168015.6277207,297265.0625,319933.84375,328114.15625,310096.5,298722.9375,303665.28125,288088.4375,327670.25,-0.050048828125,0.905029296875,-0.32958984375,1.9531248807907104,3.356933355331421,2.593993902206421,80.0,1358906.0,1.0
1168015.644093,297476.34375,319960.3125,328015.53125,310074.6875,298702.125,303638.625,288111.75,327718.6875,-0.052001953125,0.9052734375,-0.328857421875,2.014159917831421,3.387450933456421,2.441406011581421,80.0,1358907.0,1.0
1168015.6477412,298692.53125,319199.28125,328954.5625,311455.40625,298834.625,303177.28125,287743.9375,327495.1875,-0.051513671875,0.906982421875,-0.330078125,2.166747808456421,3.601073980331421,2.227782964706421,80.0,1358908.0,1.0
1168015.6477911,299148.53125,318600.0,329491.1875,312129.0625,298826.03125,302841.46875,287352.78125,327170.90625,-0.05078125,0.908935546875,-0.32958984375,2.288818120956421,3.784179449081421,1.9836424589157104,80.0,1358909.0,1.0
1168015.6478045,298278.0625,319043.8125,328983.8125,311315.03125,298751.03125,303134.1875,287564.875,327276.3125,-0.048828125,0.908935546875,-0.330810546875,2.197265386581421,3.936767339706421,1.9531248807907104,80.0,1358910.0,1.0
1168015.65086,297279.8125,319922.0625,328120.9375,310107.5,298709.25,303655.0,288064.90625,327648.4375,-0.048095703125,0.911865234375,-0.3330078125,2.288818120956421,3.906249761581421,1.7700194120407104,80.0,1358911.0,1.0
1168015.6509119,297484.375,319975.15625,328029.03125,310103.75,298704.15625,303656.15625,288111.9375,327717.53125,-0.048095703125,0.91162109375,-0.330322265625,2.288818120956421,4.058837413787842,1.8005369901657104,80.0,1358912.0,1.0
1168015.6528058,298661.34375,319201.25,328937.0625,311399.5,298824.34375,303184.25,287738.03125,327486.6875,-0.049072265625,0.912109375,-0.330322265625,2.288818120956421,4.211425304412842,1.7700194120407104,80.0,1358913.0,1.0
1168015.6641391,299158.8125,318600.4375,329492.09375,312134.53125,298823.78125,302853.90625,287353.15625,327171.8125,-0.0498046875,0.91259765625,-0.328857421875,2.105712652206421,4.241942882537842,1.5563963651657104,80.0,1358914.0,1.0
1168015.6671344,298307.8125,319041.9375,328999.46875,311358.03125,298745.28125,303146.71875,287560.9375,327266.3125,-0.05224609375,0.910400390625,-0.327880859375,2.075195074081421,4.272460460662842,1.3427733182907104,80.0,1358915.0,1.0
1168015.6671861,297250.78125,319910.4375,328113.875,310068.78125,298690.03125,303646.9375,288050.96875,327627.59375,-0.052490234375,0.90869140625,-0.3291015625,1.9226073026657104,4.302978038787842,1.2512205839157104,80.0,1358916.0,1.0
1168015.6753115,297425.1875,319961.9375,327994.25,309978.84375,298675.8125,303639.0625,288092.625,327692.25,-0.052734375,0.90771484375,-0.326904296875,1.9836424589157104,4.302978038787842,1.1291502714157104,80.0,1358917.0,1.0
1168015.6778086,298654.46875,319213.6875,328935.34375,311387.625,298824.875,303192.5,287752.0,327492.9375,-0.053466796875,0.90869140625,-0.3291015625,2.014159917831421,4.425048351287842,0.9765624403953552,80.0,1358918.0,1.0
1168015.6815834,299201.90625,318612.78125,329514.71875,312196.9375,298830.84375,302865.4375,287372.09375,327183.875,-0.055908203125,0.909423828125,-0.332275390625,1.9226073026657104,4.455565929412842,0.7934569716453552,80.0,1358919.0,1.0
1168015.6858674,298359.875,319072.25,329046.46875,311452.4375,298773.09375,303171.46875,287591.78125,327294.28125,-0.055419921875,0.9091796875,-0.331787109375,1.9531248807907104,4.394530773162842,0.7019042372703552,80.0,1358920.0,1.0
1168015.6859188,297317.65625,319959.6875,328169.5,310164.1875,298730.375,303684.84375,288088.34375,327660.9375,-0.054931640625,0.91064453125,-0.329345703125,1.8615721464157104,4.425048351287842,0.7629393935203552,80.0,1358921.0,1.0
1168015.6991071,297441.46875,319991.0,328011.875,310010.5625,298689.40625,303652.125,288104.875,327699.46875,-0.05419921875,0.91064453125,-0.327392578125,1.7700194120407104,4.516601085662842,0.7019042372703552,80.0,1358922.0,1.0
1168015.7021429,298640.875,319224.84375,328919.875,311345.25,298813.15625,303189.09375,287745.03125,327480.0625,-0.052490234375,0.908935546875,-0.32666015625,1.6479490995407104,4.516601085662842,0.4882812201976776,80.0,1358923.0,1.0
1168015.7021983,299195.8125,318628.6875,329516.6875,312187.28125,298830.5,302870.71875,287380.5,327185.21875,-0.056884765625,0.9072265625,-0.328857421875,1.6174315214157104,4.394530773162842,0.3662109076976776,80.0,1358924.0,1.0
1168015.7041231,298364.875,319071.78125,329054.875,311413.5625,298773.0,303165.84375,287597.125,327291.6875,-0.05712890625,0.906982421875,-0.329833984375,1.6784666776657104,4.333495616912842,0.3051757514476776,80.0,1358925.0,1.0
1168015.706583,297333.5625,319960.5,328185.75,310159.625,298736.53125,303683.25,288103.625,327666.40625,-0.0576171875,0.908935546875,-0.328369140625,1.6174315214157104,4.241942882537842,0.2136230319738388,80.0,1358926.0,1.0
1168015.715338,297479.46875,320030.875,328042.53125,310066.90625,298717.03125,303683.875,288152.71875,327731.21875,-0.06103515625,0.9091796875,-0.3271484375,1.5869139432907104,4.211425304412842,0.2136230319738388,80.0,1358927.0,1.0
1168015.7196581,298695.0625,319282.15625,328968.6875,311463.625,298857.6875,303240.3125,287817.96875,327533.625,-0.059326171875,0.911865234375,-0.326171875,1.5258787870407104,4.180907726287842,0.0915527269244194,80.0,1358928.0,1.0
1168015.719721,299189.1875,318637.53125,329525.78125,312182.8125,298845.6875,302879.90625,287416.53125,327206.84375,-0.060302734375,0.912841796875,-0.326904296875,1.3122557401657104,4.028319835662842,-0.03051757626235485,80.0,1358929.0,1.0
1168015.7252327,298397.84375,319083.78125,329087.625,311464.875,298796.71875,303177.5625,287633.53125,327318.59375,-0.060302734375,0.9150390625,-0.328369140625,1.1901854276657104,3.875732183456421,-0.0915527269244194,80.0,1358930.0,1.0
1168015.7346565,297336.78125,319966.5,328198.90625,310186.34375,298740.28125,303680.28125,288118.125,327671.75,-0.060302734375,0.91845703125,-0.325927734375,1.0070799589157104,3.814697027206421,-0.1220703050494194,80.0,1358931.0,1.0
1168015.7347136,297487.15625,320056.0625,328056.03125,310106.6875,298731.875,303701.75,288179.96875,327749.53125,-0.06005859375,0.919921875,-0.3271484375,0.7934569716453552,3.753661870956421,-0.1525878757238388,80.0,1358932.0,1.0
1168015.7365592,298674.21875,319295.65625,328952.6875,311422.65625,298856.59375,303246.75,287830.3125,327539.15625,-0.06103515625,0.92138671875,-0.32470703125,0.5187987685203552,3.692626714706421,-0.0915527269244194,80.0,1358933.0,1.0
1168015.7401857,299206.46875,318651.9375,329536.4375,312195.40625,298859.125,302891.90625,287435.3125,327223.28125,-0.059326171875,0.921875,-0.32763671875,0.2746581733226776,3.662109136581421,-0.0610351525247097,80.0,1358934.0,1.0
1168015.7465853,298384.71875,319069.90625,329085.5625,311441.09375,298800.375,303170.40625,287627.53125,327317.09375,-0.05859375,0.923095703125,-0.3310546875,-0.0610351525247097,3.509521245956421,-0.03051757626235485,80.0,1358935.0,1.0
1168015.7558263,297364.59375,319978.90625,328220.28125,310207.8125,298764.59375,303700.125,288126.53125,327685.875,-0.05810546875,0.92626953125,-0.328125,-0.3356933295726776,3.509521245956421,-0.03051757626235485,80.0,1358936.0,1.0
1168015.7558691,297537.59375,320111.25,328098.59375,310165.25,298779.71875,303751.09375,288214.6875,327789.96875,-0.060302734375,0.925537109375,-0.328125,-0.6103515028953552,3.479003667831421,0.0610351525247097,80.0,1358937.0,1.0
1168015.7576744,298686.09375,319343.0625,328986.03125,311458.53125,298905.25,303288.0625,287868.84375,327583.6875,-0.060546875,0.9248046875,-0.32861328125,-0.7629393935203552,3.479003667831421,0.1831054538488388,80.0,1358938.0,1.0
1168015.7601965,299245.09375,318695.375,329584.1875,312254.875,298912.03125,302935.71875,287478.84375,327273.625,-0.06201171875,0.92626953125,-0.329345703125,-1.1291502714157104,3.356933355331421,0.3051757514476776,80.0,1358939.0,1.0
1168015.7771493,298468.21875,319125.53125,329168.96875,311580.75,298868.21875,303224.84375,287682.0625,327379.21875,-0.06103515625,0.9287109375,-0.330810546875,-1.3427733182907104,3.295898199081421,0.3967284858226776,80.0,1358940.0,1.0
1168015.7772012,297370.5625,320006.1875,328262.28125,310252.40625,298804.46875,303718.03125,288153.78125,327720.5625,-0.0615234375,0.928466796875,-0.33203125,-1.6174315214157104,3.173827886581421,0.4577636420726776,80.0,1358941.0,1.0
1168015.7796526,297499.3125,320109.53125,328094.65625,310080.3125,298791.25,303747.53125,288222.4375,327804.25,-0.060791015625,0.927001953125,-0.3291015625,-1.8310545682907104,3.143310308456421,0.5493163466453552,80.0,1358942.0,1.0
1168015.7797028,298695.21875,319366.3125,329002.3125,311435.375,298927.875,303309.625,287898.875,327621.0625,-0.06201171875,0.92529296875,-0.329345703125,-2.014159917831421,3.021239995956421,0.6103515028953552,80.0,1358943.0,1.0
1168015.7815863,299225.84375,318693.25,329588.46875,312225.71875,298915.34375,302929.0,287492.25,327292.9375,-0.06005859375,0.923583984375,-0.329833984375,-2.166747808456421,2.990722417831421,0.7019042372703552,80.0,1358944.0,1.0
1168015.7841393,298452.5625,319112.5625,329173.09375,311505.0,298876.8125,303214.03125,287695.3125,327398.90625,-0.05810546875,0.92578125,-0.33154296875,-2.410888433456421,2.899169683456421,0.7629393935203552,80.0,1358945.0,1.0
1168015.7953363,297431.46875,320041.21875,328322.8125,310286.125,298857.15625,303757.625,288214.125,327784.40625,-0.0595703125,0.924072265625,-0.328125,-2.593993902206421,2.838134527206421,1.0070799589157104,80.0,1358946.0,1.0
1168015.7983733,297515.15625,320142.53125,328139.1875,310136.46875,298834.6875,303777.84375,288279.5,327862.09375,-0.060791015625,0.92333984375,-0.328125,-2.777099370956421,2.807616949081421,1.0681151151657104,80.0,1358947.0,1.0
1168015.7984213,298668.125,319375.40625,329017.78125,311406.5625,298961.3125,303321.3125,287943.6875,327666.40625,-0.060546875,0.924072265625,-0.326416015625,-2.777099370956421,2.655029058456421,1.1291502714157104,80.0,1358948.0,1.0
1168015.8003319,299256.96875,318727.84375,329644.78125,312275.625,298982.5,302970.5,287564.3125,327369.75,-0.060302734375,0.92333984375,-0.3291015625,-2.990722417831421,2.655029058456421,1.1901854276657104,80.0,1358949.0,1.0
1168015.8096367,298500.0625,319139.03125,329235.3125,311599.5,298934.3125,303243.375,287753.34375,327461.84375,-0.059814453125,0.92236328125,-0.328369140625,-3.112792730331421,2.563476324081421,1.3122557401657104,80.0,1358950.0,1.0
1168015.8096867,297455.96875,320064.03125,328364.84375,310325.1875,298904.34375,303774.15625,288261.625,327834.5625,-0.061279296875,0.92431640625,-0.325439453125,-3.234863042831421,2.471923589706421,1.4343260526657104,80.0,1358951.0,1.0
1168015.8116073,297485.09375,320168.5625,328146.6875,310104.09375,298877.78125,303794.1875,288326.34375,327912.90625,-0.0625,0.92236328125,-0.326904296875,-3.387450933456421,2.441406011581421,1.5258787870407104,80.0,1358952.0,1.0
1168015.8152592,298667.15625,319414.125,329029.6875,311422.5,299007.34375,303352.625,287998.5625,327728.34375,-0.062255859375,0.922119140625,-0.324951171875,-3.479003667831421,2.227782964706421,1.5258787870407104,80.0,1358953.0,1.0
1168015.8296699,299265.90625,318749.84375,329661.78125,312310.3125,299025.0625,302992.75,287609.9375,327422.40625,-0.062744140625,0.92236328125,-0.322998046875,-3.662109136581421,2.166747808456421,1.5563963651657104,80.0,1358954.0,1.0
1168015.8297227,298519.28125,319155.375,329268.84375,311615.4375,298986.78125,303266.0625,287804.65625,327517.0,-0.0625,0.923583984375,-0.32421875,-3.662109136581421,2.044677495956421,1.6174315214157104,80.0,1358955.0,1.0
1168015.8315147,297482.0625,320087.71875,328406.0625,310388.78125,298950.5625,303790.875,288309.875,327889.03125,-0.062255859375,0.923583984375,-0.3232421875,-3.845214605331421,1.8920897245407104,1.6479490995407104,80.0,1358956.0,1.0
1168015.8341337,297520.59375,320213.25,328185.125,310157.5625,298918.21875,303812.78125,288372.65625,327965.1875,-0.0615234375,0.92236328125,-0.32470703125,-3.936767339706421,1.6479490995407104,1.7089842557907104,80.0,1358957.0,1.0
