Time,FZ,C3,CZ,C4,PZ,PO7,OZ,PO8,AccX,AccY,AccZ,Gyro1,Gyro2,Gyro3,Battery,Counter,Validation
559514.5966127,308944.84375,300230.53125,319574.96875,312225.8125,334456.84375,300212.375,298294.25,299304.71875,0.06884765625,0.8046875,-0.586669921875,12.939452171325684,-9.094237327575684,-20.965574264526367,100.0,195288.0,1.0
559514.5966252,309017.34375,301293.75,320611.65625,312680.09375,340202.25,301757.59375,300018.8125,299889.4375,0.0625,0.81005859375,-0.5849609375,12.237547874450684,-8.880614280700684,-20.965574264526367,100.0,195289.0,1.0
559514.5992509,309258.125,300521.375,319947.8125,312072.125,338294.21875,300450.46875,299138.96875,299331.53125,0.05517578125,0.813720703125,-0.584716796875,11.413573265075684,-8.880614280700684,-21.026609420776367,100.0,195290.0,1.0
559514.601779,309286.75,299062.0625,318549.3125,311261.375,331613.0,298160.40625,296958.84375,298428.34375,0.051513671875,0.816650390625,-0.583740234375,10.467528343200684,-9.246825218200684,-21.148679733276367,100.0,195291.0,1.0
559514.6042168,309039.78125,298890.84375,318270.15625,311284.53125,329149.46875,297926.5,296381.03125,298335.375,0.047119140625,0.822509765625,-0.585205078125,9.277342796325684,-9.796141624450684,-21.301267623901367,100.0,195292.0,1.0
559514.606696,308873.3125,300312.25,319553.78125,312129.25,334314.875,300099.53125,298250.15625,299172.75,0.045166015625,0.822509765625,-0.587646484375,8.087157249450684,-10.498045921325684,-21.301267623901367,100.0,195293.0,1.0
559514.6091081,308979.71875,301368.9375,320633.375,312619.03125,340143.84375,301731.03125,300040.4375,299764.1875,0.042236328125,0.82861328125,-0.592529296875,6.652831554412842,-11.138915061950684,-21.575925827026367,100.0,195294.0,1.0
559514.6143041,309237.46875,300558.90625,319984.90625,312047.90625,338314.84375,300489.1875,299179.53125,299250.4375,0.039794921875,0.83251953125,-0.597412109375,4.791259288787842,-12.115477561950684,-21.453855514526367,100.0,195295.0,1.0
559514.6167606,309252.5,299011.28125,318556.71875,311242.59375,331644.5625,298208.75,296907.0,298388.84375,0.038818359375,0.839111328125,-0.59716796875,2.868652105331421,-13.275145530700684,-21.209714889526367,100.0,195296.0,1.0
559514.6190429,309012.0625,298771.125,318257.03125,311249.9375,329203.5625,297978.53125,296229.5625,298341.34375,0.038330078125,0.84423828125,-0.59912109375,0.5798339247703552,-14.282225608825684,-20.935056686401367,100.0,195297.0,1.0
559514.6217408,308852.9375,300172.78125,319527.5,312076.0625,334400.8125,300147.71875,298046.59375,299190.4375,0.037841796875,0.837158203125,-0.602294921875,-1.5869139432907104,-15.228270530700684,-20.782468795776367,100.0,195298.0,1.0
559514.6241193,308965.3125,301263.09375,320594.65625,312574.0625,340265.90625,301778.6875,299874.9375,299762.46875,0.033935546875,0.83837890625,-0.6025390625,-3.631591558456421,-16.174314498901367,-20.629880905151367,100.0,195299.0,1.0
559514.6266017,309224.59375,300504.375,319929.84375,312018.21875,338472.5625,300534.40625,299085.5625,299195.5625,0.029541015625,0.82763671875,-0.606689453125,-5.676269054412842,-16.876218795776367,-20.629880905151367,100.0,195300.0,1.0
559514.6292063,309246.875,299009.40625,318474.28125,311215.4375,331802.1875,298234.15625,296894.21875,298288.15625,0.030517578125,0.81591796875,-0.60986328125,-7.293700695037842,-17.333982467651367,-20.690916061401367,100.0,195301.0,1.0
559514.6317666,309012.34375,298822.4375,318144.375,311218.0,329295.03125,297968.4375,296251.65625,298219.59375,0.0380859375,0.80712890625,-0.6123046875,-8.514403343200684,-17.547605514526367,-20.660398483276367,100.0,195302.0,1.0
559514.6317819,308871.53125,300307.40625,319445.6875,312062.90625,334483.21875,300161.84375,298078.21875,299108.90625,0.03466796875,0.80078125,-0.617919921875,-9.460448265075684,-17.272947311401367,-20.324705123901367,100.0,195303.0,1.0
559514.6367344,308985.53125,301435.71875,320544.0625,312568.0625,340393.65625,301822.59375,299857.78125,299733.0625,0.033935546875,0.792724609375,-0.620361328125,-10.131834983825684,-17.120359420776367,-20.080564498901367,100.0,195304.0,1.0
559514.6392885,309245.4375,300673.8125,319881.71875,312022.15625,338640.9375,300595.84375,299021.46875,299234.53125,0.03759765625,0.78662109375,-0.6220703125,-10.437010765075684,-16.784666061401367,-19.775388717651367,100.0,195305.0,1.0
559514.6393055,309270.03125,299133.21875,318415.46875,311224.4375,331935.5,298292.09375,296768.3125,298362.375,0.04150390625,0.78125,-0.627197265625,-10.040282249450684,-15.808104515075684,-19.561765670776367,100.0,195306.0,1.0
559514.6429229,309041.84375,298893.71875,318115.21875,311237.875,329393.125,298034.78125,296105.5625,298309.4375,0.044189453125,0.778564453125,-0.630126953125,-9.521483421325684,-14.587401390075684,-19.317625045776367,100.0,195307.0,1.0
559514.6605557,308891.125,300322.96875,319427.375,312068.1875,334550.90625,300193.5,297919.875,299154.59375,0.041259765625,0.774169921875,-0.6298828125,-8.636473655700684,-13.183592796325684,-18.920896530151367,100.0,195308.0,1.0
559514.6605824,309007.4375,301442.15625,320548.09375,312586.46875,340493.34375,301855.75,299760.6875,299758.0,0.040283203125,0.77490234375,-0.626220703125,-8.026122093200684,-12.115477561950684,-18.310544967651367,100.0,195309.0,1.0
559514.6654821,309268.3125,300665.75,319925.53125,312053.25,338821.0,300648.21875,299006.09375,299232.75,0.040283203125,0.771240234375,-0.62451171875,-7.629394054412842,-10.833739280700684,-17.578123092651367,100.0,195310.0,1.0
559514.6655175,309296.5625,299116.25,318496.28125,311261.1875,332176.71875,298355.46875,296828.78125,298351.71875,0.042236328125,0.765380859375,-0.622802734375,-6.896972179412842,-9.582518577575684,-16.937253952026367,100.0,195311.0,1.0
559514.6679336,309066.0,298859.125,318183.96875,311249.40625,329603.65625,298073.84375,296184.15625,298294.40625,0.036865234375,0.76953125,-0.619873046875,-6.561278820037842,-8.483885765075684,-16.235349655151367,100.0,195312.0,1.0
559514.6705453,308927.59375,300291.0625,319495.21875,312078.28125,334724.4375,300238.46875,298014.46875,299184.5625,0.029296875,0.774169921875,-0.615234375,-6.561278820037842,-7.720946788787842,-15.594481468200684,100.0,195313.0,1.0
559514.6730483,309042.28125,301412.3125,320637.65625,312591.75,340693.0,301912.71875,299844.71875,299824.875,0.025634765625,0.77783203125,-0.612548828125,-6.835937023162842,-7.232665538787842,-14.831542015075684,100.0,195314.0,1.0
559514.6754254,309291.75,300632.40625,320021.125,312044.3125,339039.9375,300698.125,299058.40625,299323.40625,0.02294921875,0.780029296875,-0.608154296875,-7.476806163787842,-6.683349132537842,-13.732909202575684,100.0,195315.0,1.0
559514.7105949,309311.40625,299059.5625,318541.53125,311234.90625,332285.59375,298372.90625,296808.75,298451.3125,0.01806640625,0.779541015625,-0.604248046875,-8.209227561950684,-6.530761241912842,-12.969969749450684,100.0,195316.0,1.0
559514.7106355,309086.5625,298771.21875,318160.65625,311233.46875,329491.5625,298041.9375,296041.1875,298401.53125,0.011962890625,0.779052734375,-0.604248046875,-8.880614280700684,-6.500243663787842,-12.390135765075684,100.0,195317.0,1.0
559514.7155249,308953.96875,300188.78125,319459.375,312090.625,334460.15625,300164.375,297774.25,299263.9375,0.008056640625,0.7783203125,-0.604736328125,-9.460448265075684,-6.652831554412842,-11.688231468200684,100.0,195318.0,1.0
559514.715562,309082.4375,301352.59375,320627.65625,312635.28125,340416.46875,301863.0,299638.8125,299887.90625,0.005615234375,0.7822265625,-0.60205078125,-9.918211936950684,-6.835937023162842,-11.169432640075684,100.0,195319.0,1.0
559514.7180371,309342.0,300597.71875,320015.21875,312113.875,338774.78125,300684.1875,298908.28125,299381.15625,0.003173828125,0.780517578125,-0.60400390625,-10.314940452575684,-7.110595226287842,-10.864256858825684,100.0,195320.0,1.0
559514.7205368,309364.96875,299024.5,318549.75,311318.34375,332058.0625,298367.625,296703.5,298491.5625,0.004150390625,0.77783203125,-0.60546875,-10.437010765075684,-7.568358898162842,-10.375975608825684,100.0,195321.0,1.0
559514.722942,309140.375,298757.46875,318202.3125,311316.28125,329313.90625,298043.4375,296011.125,298415.65625,0.00390625,0.77685546875,-0.60791015625,-10.467528343200684,-7.781981945037842,-9.796141624450684,100.0,195322.0,1.0
559514.7254104,309015.375,300214.4375,319523.21875,312159.46875,334306.375,300190.65625,297800.4375,299284.15625,0.002685546875,0.77294921875,-0.603515625,-10.101317405700684,-8.209227561950684,-9.246825218200684,100.0,195323.0,1.0
559514.7280214,309134.125,301368.9375,320678.625,312692.34375,340255.34375,301878.125,299633.5625,299911.4375,0.001953125,0.7724609375,-0.602783203125,-9.521483421325684,-8.666991233825684,-8.789061546325684,100.0,195324.0,1.0
559514.7304345,309370.5,300589.21875,320044.375,312155.0,338618.21875,300666.46875,298865.8125,299391.15625,0.004638671875,0.77001953125,-0.605224609375,-8.850096702575684,-9.063719749450684,-8.300780296325684,100.0,195325.0,1.0
559514.7355207,309382.125,298997.59375,318556.0,311350.6875,331855.5625,298325.09375,296637.4375,298489.59375,0.004150390625,0.770263671875,-0.608642578125,-7.934569835662842,-9.490965843200684,-7.965087413787842,100.0,195326.0,1.0
559514.7394128,309172.28125,298719.90625,318208.46875,311359.625,329071.25,297991.40625,295930.75,298406.875,0.00537109375,0.769775390625,-0.609375,-6.835937023162842,-9.948729515075684,-7.476806163787842,100.0,195327.0,1.0
559514.7394588,309058.75,300160.6875,319525.625,312212.65625,334051.125,300129.40625,297709.4375,299265.03125,0.0087890625,0.77001953125,-0.60986328125,-5.767821788787842,-10.314940452575684,-6.988524913787842,100.0,195328.0,1.0
559514.7394694,309177.46875,301317.25,320685.84375,312753.5,340030.75,301812.75,299548.15625,299889.71875,0.010009765625,0.7705078125,-0.611083984375,-4.760741710662842,-10.528563499450684,-6.439208507537842,100.0,195329.0,1.0
559514.7443438,309409.21875,300539.59375,320041.0625,312205.0625,338386.65625,300597.53125,298780.25,299370.25,0.011474609375,0.77099609375,-0.615234375,-3.448486089706421,-10.772704124450684,-5.950927257537842,100.0,195330.0,1.0
559514.746864,309419.0625,298937.25,318522.125,311377.4375,331514.65625,298236.125,296507.875,298462.21875,0.012451171875,0.77685546875,-0.615234375,-2.197265386581421,-10.955809593200684,-5.462646007537842,100.0,195331.0,1.0
559514.7469018,309200.90625,298643.375,318134.09375,311362.40625,328554.46875,297877.15625,295764.65625,298377.5625,0.013671875,0.783447265625,-0.617919921875,-1.0986326932907104,-10.986327171325684,-4.730224132537842,100.0,195332.0,1.0
559514.7482819,309097.1875,300104.71875,319458.5625,312221.34375,333456.65625,300051.875,297560.65625,299258.75,0.014404296875,0.791259765625,-0.619140625,-0.2441406100988388,-11.108397483825684,-4.089354991912842,100.0,195333.0,1.0
559514.8193209,309232.5625,301273.71875,320655.5625,312773.6875,339495.5625,301801.3125,299441.6875,299902.40625,0.0185546875,0.79052734375,-0.61767578125,0.5187987685203552,-11.108397483825684,-3.570556402206421,100.0,195334.0,1.0
559514.8218414,309462.875,300512.4375,320042.125,312236.8125,337973.875,300639.5625,298728.125,299400.1875,0.0166015625,0.79345703125,-0.618408203125,1.0986326932907104,-10.833739280700684,-3.051757574081421,100.0,195335.0,1.0
559514.8241775,309457.78125,298921.34375,318543.03125,311401.75,331174.71875,298296.84375,296503.78125,298497.625,0.013916015625,0.796875,-0.61962890625,1.2817381620407104,-10.772704124450684,-2.471923589706421,100.0,195336.0,1.0
559514.8266841,309234.6875,298645.96875,318182.71875,311384.9375,328299.21875,297938.75,295783.40625,298412.4375,0.01513671875,0.798095703125,-0.62158203125,1.3427733182907104,-10.772704124450684,-2.105712652206421,100.0,195337.0,1.0
559514.8291509,309123.3125,300120.28125,319507.46875,312238.0625,333245.40625,300069.15625,297568.96875,299285.3125,0.0146484375,0.79638671875,-0.625,1.2512205839157104,-10.375975608825684,-1.6479490995407104,100.0,195338.0,1.0
559514.8317667,309247.9375,301315.5625,320700.875,312789.875,339289.9375,301780.65625,299440.15625,299933.78125,0.0146484375,0.798583984375,-0.62744140625,1.0986326932907104,-9.979247093200684,-1.2512205839157104,100.0,195339.0,1.0
559514.8342723,309469.5625,300553.375,320078.59375,312257.28125,337744.09375,300602.71875,298711.9375,299431.9375,0.017333984375,0.79833984375,-0.63525390625,0.7934569716453552,-9.643553733825684,-0.8239745497703552,100.0,195340.0,1.0
559514.8367626,309457.0625,298924.65625,318539.8125,311415.0625,330883.25,298237.03125,296467.46875,298516.0625,0.01904296875,0.796630859375,-0.6337890625,0.4272460639476776,-9.033202171325684,-0.6103515028953552,100.0,195341.0,1.0
559514.8391428,309234.34375,298597.5,318129.34375,311384.75,327900.1875,297843.90625,295720.46875,298413.5,0.01904296875,0.7958984375,-0.6376953125,0.1220703050494194,-8.392333030700684,-0.1831054538488388,100.0,195342.0,1.0
559514.8417844,309131.53125,300051.53125,319447.40625,312238.59375,332790.9375,299970.09375,297504.15625,299287.28125,0.021728515625,0.79345703125,-0.6396484375,-0.1220703050494194,-7.629394054412842,0.1831054538488388,100.0,195343.0,1.0
559514.8441579,309248.375,301253.78125,320651.25,312784.59375,338876.875,301700.5625,299390.8125,299938.53125,0.0205078125,0.7880859375,-0.642333984375,-0.03051757626235485,-6.835937023162842,0.4577636420726776,100.0,195344.0,1.0
559514.8466853,309468.15625,300493.03125,320034.625,312244.59375,337379.75,300532.8125,298666.96875,299437.21875,0.017578125,0.785888671875,-0.6455078125,-0.0610351525247097,-5.920409679412842,0.7629393935203552,100.0,195345.0,1.0
559514.8491147,309461.625,298865.09375,318514.4375,311412.21875,330570.0625,298171.46875,296428.65625,298527.3125,0.014892578125,0.784423828125,-0.650634765625,0.0915527269244194,-5.187987804412842,0.8850097060203552,100.0,195346.0,1.0
559514.8516579,309236.9375,298538.125,318120.6875,311384.5,327619.46875,297790.59375,295686.6875,298427.0,0.01416015625,0.78076171875,-0.653076171875,0.1220703050494194,-4.699706554412842,1.0681151151657104,100.0,195347.0,1.0
559514.8567972,309128.125,299984.375,319444.96875,312234.9375,332544.1875,299927.15625,297477.875,299291.75,0.010009765625,0.773193359375,-0.6533203125,0.5493163466453552,-3.967284917831421,1.0681151151657104,100.0,195348.0,1.0
559514.8592619,309258.84375,301196.3125,320669.84375,312802.65625,338691.25,301691.6875,299390.90625,299956.9375,0.008544921875,0.771484375,-0.653564453125,1.3122557401657104,-3.326415777206421,1.1291502714157104,100.0,195349.0,1.0
559514.8641552,309493.09375,300465.75,320077.71875,312282.59375,337245.0,300557.125,298698.96875,299478.4375,0.0048828125,0.77197265625,-0.6552734375,1.8005369901657104,-2.929687261581421,1.0375975370407104,100.0,195350.0,1.0
559514.8666644,309460.90625,298821.1875,318520.5,311424.625,330349.9375,298160.3125,296429.46875,298543.0625,-0.001220703125,0.769775390625,-0.65966796875,2.563476324081421,-2.624511480331421,1.0986326932907104,100.0,195351.0,1.0
559514.8742437,309226.21875,298497.71875,318106.65625,311374.46875,327314.40625,297734.28125,295661.46875,298424.59375,-0.00439453125,0.76708984375,-0.6669921875,3.417968511581421,-2.319335699081421,0.9460448622703552,100.0,195352.0,1.0
559514.8742904,309135.71875,299986.875,319448.90625,312236.0,332209.6875,299855.625,297454.4375,299298.90625,-0.005859375,0.76611328125,-0.6689453125,3.845214605331421,-2.197265386581421,0.8239745497703552,100.0,195353.0,1.0
559514.8767384,309268.5,301242.4375,320696.21875,312812.78125,338377.34375,301628.65625,299379.09375,299975.71875,-0.01220703125,0.765625,-0.67236328125,4.760741710662842,-2.075195074081421,0.5798339247703552,100.0,195354.0,1.0
559514.8818407,309466.09375,300490.15625,320082.625,312269.625,336929.21875,300492.5,298674.65625,299485.75,-0.01611328125,0.76708984375,-0.678466796875,5.645751476287842,-2.044677495956421,0.3967284858226776,100.0,195355.0,1.0
559514.8818811,309447.125,298832.8125,318518.90625,311418.28125,330030.9375,298103.34375,296407.75,298558.0625,-0.015625,0.766357421875,-0.6845703125,6.561278820037842,-2.166747808456421,0.0915527269244194,100.0,195356.0,1.0
559514.903367,309236.65625,298505.59375,318109.25,311386.0,326985.5625,297682.78125,295641.09375,298443.71875,-0.017333984375,0.769287109375,-0.684814453125,7.537841320037842,-2.227782964706421,-0.3051757514476776,100.0,195357.0,1.0
559514.903402,309147.25,300005.40625,319463.40625,312239.03125,331900.71875,299811.84375,297438.0625,299300.5,-0.01806640625,0.77099609375,-0.69091796875,8.605956077575684,-2.502441167831421,-0.7019042372703552,100.0,195358.0,1.0
559514.9034128,309274.5,301271.65625,320721.875,312814.28125,338127.8125,301598.09375,299382.5,299966.15625,-0.01953125,0.775146484375,-0.69775390625,9.765624046325684,-2.655029058456421,-1.1901854276657104,100.0,195359.0,1.0
559514.9119724,309474.21875,300515.90625,320107.03125,312279.28125,336729.59375,300463.6875,298700.3125,299473.0625,-0.018310546875,0.78076171875,-0.701416015625,10.803221702575684,-2.777099370956421,-1.5258787870407104,100.0,195360.0,1.0
559514.912009,309446.6875,298830.0625,318525.6875,311418.46875,329810.65625,298055.53125,296433.84375,298536.53125,-0.017822265625,0.7841796875,-0.702880859375,11.871336936950684,-2.899169683456421,-2.166747808456421,100.0,195361.0,1.0
559514.912019,309232.09375,298484.0625,318104.6875,311370.625,326735.65625,297617.59375,295657.09375,298410.375,-0.01318359375,0.787353515625,-0.704833984375,12.969969749450684,-3.112792730331421,-2.868652105331421,100.0,195362.0,1.0
559514.9143397,309152.0,300001.90625,319482.09375,312224.90625,331696.0625,299763.375,297462.9375,299280.40625,-0.006103515625,0.790283203125,-0.705322265625,13.854979515075684,-3.295898199081421,-3.204345464706421,100.0,195363.0,1.0
559514.9192716,309283.78125,301294.75,320766.40625,312801.15625,338026.25,301577.25,299429.625,299966.40625,-0.00390625,0.793701171875,-0.7041015625,14.770506858825684,-3.326415777206421,-3.509521245956421,100.0,195364.0,1.0
559514.9216343,309457.6875,300516.1875,320125.71875,312249.40625,336672.625,300444.03125,298747.8125,299473.0625,-0.000732421875,0.791748046875,-0.709716796875,15.991209983825684,-3.570556402206421,-4.241942882537842,100.0,195365.0,1.0
559514.9243009,309408.78125,298778.5625,318498.78125,311371.71875,329729.28125,298018.78125,296459.875,298528.9375,0.000732421875,0.78955078125,-0.712158203125,17.028806686401367,-3.540038824081421,-4.791259288787842,100.0,195366.0,1.0
559514.9267007,309194.03125,298412.6875,318067.21875,311323.53125,326630.15625,297572.1875,295673.4375,298399.28125,0.003173828125,0.788330078125,-0.71484375,18.310544967651367,-3.601073980331421,-5.279540538787842,100.0,195367.0,1.0
559514.9291669,309120.4375,299941.75,319462.59375,312185.5625,331612.1875,299719.03125,297479.1875,299263.3125,0.007080078125,0.7861328125,-0.71728515625,19.561765670776367,-3.570556402206421,-5.523681163787842,100.0,195368.0,1.0
559514.9366571,309246.0625,301246.71875,320762.21875,312767.0,338013.75,301554.46875,299457.875,299936.375,0.009765625,0.784423828125,-0.721923828125,21.057126998901367,-3.295898199081421,-5.706786632537842,100.0,195369.0,1.0
559514.9443167,309407.0625,300441.34375,320112.65625,312216.4375,336711.53125,300433.3125,298781.0625,299432.3125,0.009033203125,0.78076171875,-0.724609375,22.766111373901367,-3.051757574081421,-6.042479991912842,100.0,195370.0,1.0
559514.9492586,309357.1875,298654.0,318461.5,311342.125,329750.03125,297998.9375,296493.3125,298468.40625,0.002685546875,0.777587890625,-0.722900390625,24.719236373901367,-2.746581792831421,-6.408690929412842,100.0,195371.0,1.0
559514.9516491,309130.28125,298255.25,318005.25,311277.65625,326619.4375,297536.875,295685.78125,298317.9375,0.0048828125,0.77978515625,-0.728271484375,27.099607467651367,-2.441406011581421,-6.866454601287842,100.0,195372.0,1.0
559514.9541517,309069.5625,299839.625,319432.0,312142.03125,331683.90625,299705.96875,297511.9375,299187.21875,0.006103515625,0.782470703125,-0.731689453125,29.235837936401367,-2.227782964706421,-7.049560070037842,100.0,195373.0,1.0
559514.9567514,309208.78125,301218.1875,320775.875,312735.25,338274.34375,301575.21875,299566.5,299855.5625,0.01123046875,0.787353515625,-0.72802734375,31.372068405151367,-1.5869139432907104,-7.141112804412842,100.0,195374.0,1.0
559514.9593212,309351.65625,300402.1875,320112.3125,312182.71875,337062.90625,300445.625,298978.5625,299312.3125,0.005615234375,0.78662109375,-0.72119140625,33.172603607177734,-1.0070799589157104,-7.080077648162842,100.0,195375.0,1.0
559514.9617859,309267.59375,298569.15625,318416.875,311286.21875,330069.9375,297973.625,296750.90625,298310.40625,0.001220703125,0.779296875,-0.723876953125,34.698482513427734,-0.3662109076976776,-7.141112804412842,100.0,195376.0,1.0
559514.96666,309063.21875,298182.03125,317965.75,311239.125,326914.21875,297497.1875,296009.96875,298164.6875,-0.000732421875,0.777099609375,-0.72705078125,36.468502044677734,0.4882812201976776,-7.598876476287842,100.0,195377.0,1.0
559514.9767128,309038.4375,299821.40625,319431.375,312130.3125,332014.25,299685.15625,297905.6875,299067.875,-0.00390625,0.776123046875,-0.724609375,37.780757904052734,1.3122557401657104,-8.056639671325684,100.0,195378.0,1.0
559514.9767524,309188.65625,301247.71875,320806.1875,312739.1875,338649.40625,301587.53125,299970.96875,299793.59375,-0.007568359375,0.77099609375,-0.72314453125,38.909908294677734,2.197265386581421,-8.270262718200684,100.0,195379.0,1.0
559514.9794105,309314.4375,300433.9375,320133.59375,312180.46875,337483.0,300464.78125,299311.15625,299296.40625,-0.012451171875,0.765625,-0.71826171875,39.489742279052734,2.960204839706421,-8.453368186950684,100.0,195380.0,1.0
559514.9794462,309219.3125,298578.46875,318405.875,311277.1875,330492.65625,297972.5625,296996.6875,298316.3125,-0.0185546875,0.75341796875,-0.71630859375,40.130611419677734,3.540038824081421,-9.094237327575684,100.0,195381.0,1.0
559514.9817341,309013.40625,298198.125,317950.28125,311224.90625,327332.09375,297476.6875,296201.5625,298144.375,-0.016357421875,0.74853515625,-0.71484375,40.649410247802734,4.150390148162842,-9.735106468200684,100.0,195382.0,1.0
559514.9842652,309014.65625,299907.84375,319462.15625,312131.5,332487.21875,299689.4375,298120.15625,299020.3125,-0.0234375,0.740234375,-0.715576171875,41.198726654052734,4.669188976287842,-10.223387718200684,100.0,195383.0,1.0
559514.9868125,309178.09375,301385.46875,320861.4375,312729.09375,339225.125,301615.25,300226.21875,299709.1875,-0.013916015625,0.737548828125,-0.711181640625,41.259761810302734,4.852294445037842,-11.077879905700684,100.0,195384.0,1.0
559514.9891906,309298.4375,300555.34375,320157.8125,312162.6875,338101.0,300497.59375,299597.0625,299208.0625,-0.01318359375,0.7412109375,-0.702392578125,40.954586029052734,5.249022960662842,-11.108397483825684,100.0,195385.0,1.0
559514.9968748,309175.4375,298618.5,318377.0,311242.78125,331037.03125,297966.46875,297250.3125,298212.53125,-0.01953125,0.735107421875,-0.7001953125,39.947505950927734,5.523681163787842,-11.016844749450684,100.0,195386.0,1.0
559514.9969132,308963.4375,298183.8125,317892.78125,311172.96875,327763.21875,297439.40625,296394.6875,298047.90625,-0.02734375,0.720703125,-0.70556640625,39.062496185302734,5.645751476287842,-11.444090843200684,100.0,195387.0,1.0
559514.9991479,308983.90625,299903.375,319444.09375,312069.96875,332921.125,299669.9375,298235.59375,298938.15625,-0.0380859375,0.70703125,-0.70947265625,38.940425872802734,5.920409679412842,-12.420653343200684,100.0,195388.0,1.0
559514.9991924,309164.78125,301418.125,320919.9375,312693.9375,339777.65625,301655.59375,300313.40625,299675.75,-0.0478515625,0.699951171875,-0.71435546875,39.093013763427734,5.676269054412842,-13.854979515075684,100.0,195389.0,1.0
559515.0019222,309261.0625,300550.6875,320217.71875,312099.46875,338708.15625,300539.96875,299616.5625,299189.375,-0.04345703125,0.700927734375,-0.71533203125,39.428707122802734,4.943847179412842,-15.014647483825684,100.0,195390.0,1.0
559515.0042363,309129.1875,298548.78125,318391.9375,311103.9375,331585.375,297977.03125,297167.0,298209.03125,-0.04248046875,0.705078125,-0.714111328125,39.367671966552734,4.272460460662842,-15.777586936950684,100.0,195391.0,1.0
559515.0130338,308940.46875,298108.90625,317911.8125,310953.28125,328267.65625,297441.90625,296218.65625,298070.71875,-0.032958984375,0.71484375,-0.70703125,39.154048919677734,3.204345464706421,-15.960692405700684,100.0,195392.0,1.0
559515.0179143,308991.34375,299889.15625,319503.90625,311859.25,333459.78125,299697.84375,297999.1875,298988.40625,-0.0341796875,0.71240234375,-0.705078125,38.543697357177734,2.136230230331421,-15.441893577575684,100.0,195393.0,1.0
559515.0230762,309188.125,301485.15625,321024.625,312531.59375,340442.84375,301741.21875,300075.9375,299736.09375,-0.040771484375,0.7041015625,-0.70263671875,37.872310638427734,0.8239745497703552,-15.319823265075684,100.0,195394.0,1.0
559515.0231181,309262.0625,300593.59375,320295.6875,311989.15625,339423.25,300648.9375,299407.53125,299260.46875,-0.034912109375,0.702880859375,-0.702392578125,37.963863372802734,-0.7629393935203552,-15.747069358825684,100.0,195395.0,1.0
559515.0280542,309109.8125,298484.6875,318399.8125,311097.0625,332190.21875,298045.875,297013.65625,298240.15625,-0.027587890625,0.704345703125,-0.7021484375,37.689205169677734,-1.8310545682907104,-15.960692405700684,100.0,195396.0,1.0
559515.0304341,308916.9375,297994.90625,317903.59375,311082.125,328786.21875,297486.34375,296160.1875,298024.75,-0.0283203125,0.706787109375,-0.703857421875,37.078853607177734,-2.777099370956421,-15.808104515075684,100.0,195397.0,1.0
559515.0354806,308994.46875,299851.15625,319578.1875,312021.25,334101.28125,299805.84375,298069.125,298899.875,-0.016845703125,0.713134765625,-0.70654296875,36.407466888427734,-4.089354991912842,-15.380858421325684,100.0,195398.0,1.0
559515.0405617,309205.1875,301508.875,321184.125,312673.28125,341326.0,301921.84375,300251.71875,299647.6875,-0.008544921875,0.717529296875,-0.7060546875,35.308834075927734,-4.791259288787842,-14.739989280700684,100.0,195399.0,1.0
559515.0406038,309260.28125,300533.78125,320449.5625,312089.90625,340416.09375,300823.28125,299689.15625,299171.59375,-0.00439453125,0.714111328125,-0.7119140625,34.027095794677734,-4.486083507537842,-13.916014671325684,100.0,195400.0,1.0
559515.0429778,309068.21875,298268.5,318487.6875,311100.625,333129.0,298181.3125,297313.4375,298187.46875,-0.01318359375,0.7119140625,-0.710205078125,32.806392669677734,-4.119872570037842,-13.244627952575684,100.0,195401.0,1.0
559515.0455227,308898.71875,297671.96875,317980.75,311016.3125,329678.9375,297640.9375,296396.3125,298073.3125,0.00341796875,0.71435546875,-0.715576171875,31.646726608276367,-3.723144292831421,-13.183592796325684,100.0,195402.0,1.0
559515.047923,309030.21875,299561.75,319733.40625,311937.375,335120.96875,300008.09375,298294.9375,299052.0625,0.005126953125,0.708984375,-0.716064453125,30.883787155151367,-1.9836424589157104,-12.908934593200684,100.0,195403.0,1.0
559515.0505532,309274.40625,301332.65625,321423.71875,312536.5,342558.90625,302180.59375,300763.84375,299756.75,0.000732421875,0.707275390625,-0.712158203125,30.151365280151367,0.0915527269244194,-12.817381858825684,100.0,195404.0,1.0
559515.0505944,309302.90625,300354.0,320672.09375,311903.5,341725.1875,301091.34375,300443.125,299206.09375,0.004638671875,0.717041015625,-0.714111328125,29.144285202026367,1.4648436307907104,-12.512206077575684,100.0,195405.0,1.0
559515.0531034,309076.4375,297980.34375,318615.5625,310970.34375,334340.8125,298402.15625,297964.25,298222.34375,0.009521484375,0.71435546875,-0.71630859375,27.862546920776367,3.601073980331421,-11.871336936950684,100.0,195406.0,1.0
559515.0555379,308909.0,297428.15625,318075.25,311000.65625,330833.375,297805.4375,296942.65625,298059.46875,-0.000732421875,0.70068359375,-0.717041015625,27.130125045776367,6.591796398162842,-11.383055686950684,100.0,195407.0,1.0
559515.0580484,309067.34375,299551.46875,319894.4375,312025.0,336366.15625,300179.75,298825.3125,298971.21875,0.0048828125,0.71044921875,-0.70751953125,26.947019577026367,9.094237327575684,-11.260985374450684,100.0,195408.0,1.0
559515.0604255,309331.96875,301560.90625,321683.0,312744.09375,344072.65625,302409.5625,301031.625,299779.03125,0.01611328125,0.714111328125,-0.710693359375,26.123044967651367,11.199950218200684,-10.559081077575684,100.0,195409.0,1.0
559515.0630896,309345.3125,300663.0625,320910.09375,312171.625,343460.21875,301339.78125,300388.0625,299299.15625,0.0068359375,0.709228515625,-0.708984375,25.329587936401367,14.434813499450684,-9.399413108825684,100.0,195410.0,1.0
559515.065561,309096.3125,298272.25,318694.5,311162.9375,335980.96875,298575.96875,297771.65625,298254.375,-0.00732421875,0.7021484375,-0.709228515625,24.749753952026367,17.364500045776367,-9.063719749450684,100.0,195411.0,1.0
559515.0656023,308943.78125,297846.3125,318155.0,311109.375,332463.0,297961.65625,296756.34375,298099.0625,-0.02197265625,0.6953125,-0.703857421875,24.749753952026367,19.104001998901367,-8.972167015075684,100.0,195412.0,1.0
559515.0718915,309182.125,300271.03125,320180.96875,312167.96875,338385.40625,300478.375,298761.5625,299092.1875,-0.040283203125,0.70263671875,-0.7080078125,24.841306686401367,20.751951217651367,-9.826659202575684,100.0,195413.0,1.0
559515.0768041,309506.5,302536.40625,322144.875,312943.125,346630.34375,302870.53125,301168.21875,299956.9375,-0.04345703125,0.707275390625,-0.712890625,24.932859420776367,21.820066452026367,-11.138915061950684,100.0,195414.0,1.0
559515.0768467,309511.15625,301702.15625,321416.59375,312366.625,346344.40625,301852.1875,300637.6875,299519.1875,-0.02294921875,0.724853515625,-0.712646484375,24.780271530151367,22.094724655151367,-11.230467796325684,100.0,195415.0,1.0
559515.079324,309238.46875,299315.8125,319269.03125,311321.0,339093.15625,299094.34375,298109.78125,298504.53125,-0.033447265625,0.736572265625,-0.712890625,23.101804733276367,22.552488327026367,-10.406493186950684,100.0,195416.0,1.0
559515.0829638,309107.125,298935.09375,318786.125,311173.9375,335806.375,298522.21875,297164.75,298363.4375,-0.042724609375,0.728759765625,-0.715576171875,21.667478561401367,22.216794967651367,-10.101317405700684,100.0,195417.0,1.0
559515.1105616,309390.8125,301470.15625,320881.75,312129.4375,342104.1875,301152.3125,299241.9375,299402.0,-0.038818359375,0.724853515625,-0.7216796875,21.209714889526367,21.209714889526367,-9.826659202575684,100.0,195418.0,1.0
559515.1106031,309755.125,303894.34375,322972.25,312919.34375,350930.0,303727.9375,301756.6875,300303.65625,-0.049560546875,0.71728515625,-0.730224609375,20.690916061401367,20.660398483276367,-10.223387718200684,100.0,195419.0,1.0
559515.1607737,309791.71875,303187.40625,322353.3125,312454.875,351260.4375,302878.59375,301321.03125,299877.625,-0.05615234375,0.7119140625,-0.7353515625,20.996091842651367,19.378660202026367,-10.925292015075684,100.0,195420.0,1.0
559515.1608096,309545.5625,300842.78125,320266.53125,311514.03125,344558.25,300218.0,298925.625,298824.15625,-0.020263671875,0.722900390625,-0.734375,21.209714889526367,17.913816452026367,-10.223387718200684,100.0,195421.0,1.0
559515.16082,309478.0625,300579.21875,319925.4375,311520.9375,341993.40625,299825.875,298143.125,298670.1875,-0.033447265625,0.7099609375,-0.73779296875,20.538328170776367,17.486570358276367,-9.002684593200684,100.0,195422.0,1.0
559515.1631416,309858.59375,303446.59375,322334.625,312658.28125,349489.375,302783.375,300476.125,299760.40625,-0.048583984375,0.69873046875,-0.73828125,20.690916061401367,16.693113327026367,-8.575438499450684,100.0,195423.0,1.0
559515.1631792,310292.65625,306171.15625,324718.65625,313511.75,359676.34375,305679.6875,303197.75,300779.65625,-0.045166015625,0.68896484375,-0.740966796875,21.453855514526367,15.258788108825684,-8.666991233825684,100.0,195424.0,1.0
559515.1655846,310218.34375,305209.40625,323948.21875,312836.90625,360511.03125,304762.84375,302824.5,300285.34375,-0.056640625,0.675537109375,-0.751953125,22.155759811401367,15.014647483825684,-8.575438499450684,100.0,195425.0,1.0
559515.168,309761.9375,302163.21875,321344.0625,311648.5,353230.34375,301696.71875,300096.59375,299094.59375,-0.065185546875,0.67041015625,-0.759521484375,22.949216842651367,14.465331077575684,-9.887694358825684,100.0,195426.0,1.0
559515.1705512,309570.6875,301347.5,320609.9375,311603.375,349936.15625,300948.09375,299106.0625,298797.34375,-0.050048828125,0.676025390625,-0.757080078125,23.742673873901367,12.969969749450684,-10.101317405700684,100.0,195427.0,1.0
559515.1729323,309959.0625,304054.71875,322929.53125,312781.46875,357186.53125,303814.3125,301359.03125,299849.375,-0.043212890625,0.6787109375,-0.7548828125,23.559568405151367,12.512206077575684,-9.765624046325684,100.0,195428.0,1.0
559515.1780422,310406.5625,306769.125,325291.75,313658.28125,367369.1875,306695.1875,304106.75,300796.75,-0.053955078125,0.671630859375,-0.7548828125,22.460935592651367,12.298583030700684,-9.094237327575684,100.0,195429.0,1.0
559515.1830158,310241.78125,305581.25,324319.90625,312942.84375,367837.9375,305594.40625,303493.78125,300214.59375,-0.066162109375,0.6572265625,-0.7470703125,21.942136764526367,11.230467796325684,-8.911131858825684,100.0,195430.0,1.0
559515.185536,309687.1875,302185.9375,321428.90625,311667.71875,359797.3125,302247.28125,300525.5625,298899.25,-0.065185546875,0.65283203125,-0.74658203125,21.667478561401367,9.674071311950684,-9.185790061950684,100.0,195431.0,1.0
559515.187949,309486.65625,301256.375,320582.5,311529.96875,355916.0625,301354.1875,299518.21875,298591.6875,-0.0361328125,0.654296875,-0.75146484375,21.179197311401367,9.490965843200684,-9.643553733825684,100.0,195432.0,1.0
559515.1905185,309957.03125,304160.40625,323025.28125,312746.875,363061.28125,304269.21875,302030.28125,299676.5625,-0.054443359375,0.6494140625,-0.748291015625,20.446775436401367,9.796141624450684,-9.124754905700684,100.0,195433.0,1.0
559515.1930253,310414.875,306995.9375,325489.0625,313653.375,373253.3125,307190.40625,304786.53125,300713.6875,-0.056884765625,0.649169921875,-0.74365234375,19.134519577026367,8.880614280700684,-9.399413108825684,100.0,195434.0,1.0
559515.2003959,310169.09375,305613.28125,324384.71875,312906.03125,373318.3125,305953.65625,303985.875,300211.125,-0.052978515625,0.643798828125,-0.751708984375,18.157957077026367,8.392333030700684,-9.399413108825684,100.0,195435.0,1.0
559515.2030976,309513.84375,301834.5,321198.34375,311570.5625,364395.59375,302319.15625,300681.84375,298890.84375,-0.045654296875,0.646484375,-0.75439453125,17.150876998901367,9.033202171325684,-9.674071311950684,100.0,195436.0,1.0
559515.2054063,309312.75,300701.15625,320229.0625,311450.90625,359775.5625,301252.0,299279.78125,298619.0625,-0.05810546875,0.6474609375,-0.7568359375,16.235349655151367,8.911131858825684,-10.437010765075684,100.0,195437.0,1.0
559515.2079097,309847.21875,303672.6875,322775.75,312696.625,366695.0625,304182.9375,301505.28125,299789.5625,-0.055419921875,0.657958984375,-0.763916015625,15.686034202575684,8.178709983825684,-11.169432640075684,100.0,195438.0,1.0
559515.2155015,310331.09375,306595.59375,325303.46875,313583.90625,376835.0625,307126.21875,304230.6875,300796.90625,-0.043212890625,0.666259765625,-0.77197265625,14.465331077575684,8.209227561950684,-11.444090843200684,100.0,195439.0,1.0
559515.2194359,310049.8125,305099.625,324085.28125,312789.875,376542.0625,305787.15625,303406.09375,300176.625,-0.036865234375,0.67626953125,-0.7724609375,13.366698265075684,8.636473655700684,-11.108397483825684,100.0,195440.0,1.0
559515.219476,309347.625,301122.0,320753.53125,311413.625,367058.65625,302015.4375,300092.125,298806.4375,-0.031494140625,0.68310546875,-0.774169921875,12.207030296325684,8.483885765075684,-10.467528343200684,100.0,195441.0,1.0
559515.219486,309158.96875,299959.34375,319766.5625,311242.25,362065.71875,300905.53125,298660.28125,298557.4375,-0.0390625,0.68701171875,-0.78125,11.383055686950684,8.514403343200684,-10.284422874450684,100.0,195442.0,1.0
559515.2219886,309759.78125,303121.21875,322443.6875,312543.90625,368985.75,303921.6875,300918.0625,299844.28125,-0.00830078125,0.694091796875,-0.78759765625,11.383055686950684,9.185790061950684,-10.070799827575684,100.0,195443.0,1.0
559515.2220253,310313.5625,306279.625,325117.40625,313543.84375,379320.125,306994.34375,303972.21875,300892.59375,-0.009033203125,0.694580078125,-0.78857421875,11.413573265075684,10.681151390075684,-8.636473655700684,100.0,195444.0,1.0
559515.2232796,309992.25,304746.125,323837.0,312793.1875,378910.90625,305629.09375,303403.40625,300198.0625,-0.0263671875,0.68798828125,-0.787841796875,11.260985374450684,11.810301780700684,-7.934569835662842,100.0,195445.0,1.0
559515.233111,309220.84375,300537.625,320331.4375,311440.0,368940.15625,301695.46875,299860.8125,298787.125,-0.044677734375,0.68310546875,-0.79248046875,12.054442405700684,12.084959983825684,-8.148192405700684,100.0,195446.0,1.0
559515.233152,309028.34375,299296.84375,319296.03125,311314.65625,363557.84375,300488.28125,298278.9375,298464.125,-0.0322265625,0.68896484375,-0.7978515625,13.610838890075684,12.603758811950684,-8.819579124450684,100.0,195447.0,1.0
559515.2355678,309654.28125,302588.90625,322046.71875,312580.5,370422.4375,303520.875,300749.8125,299600.28125,-0.030517578125,0.696044921875,-0.79736328125,14.434813499450684,13.214110374450684,-8.636473655700684,100.0,195448.0,1.0
559515.2380138,310214.0625,305886.40625,324815.75,313507.71875,380872.5,306650.46875,303742.0625,300673.09375,-0.03125,0.695068359375,-0.7880859375,14.770506858825684,13.122557640075684,-8.300780296325684,100.0,195449.0,1.0
559515.2455749,309868.78125,304327.15625,323525.5,312695.03125,380390.40625,305265.75,302928.375,300055.03125,-0.028076171875,0.694580078125,-0.7802734375,15.167235374450684,12.359618186950684,-8.209227561950684,100.0,195450.0,1.0
559515.2456158,309062.9375,299998.0625,319906.125,311251.09375,370068.71875,301245.375,299403.59375,298593.75,-0.013671875,0.690185546875,-0.78076171875,15.686034202575684,12.145995140075684,-8.056639671325684,100.0,195451.0,1.0
559515.2480461,308857.59375,298700.5,318782.375,311079.625,364305.8125,299975.53125,297832.8125,298270.53125,-0.01171875,0.68603515625,-0.77783203125,16.082761764526367,12.145995140075684,-7.293700695037842,100.0,195452.0,1.0
559515.2505885,309509.8125,302042.96875,321541.46875,312372.875,370940.71875,303017.53125,300193.25,299473.96875,-0.01708984375,0.68212890625,-0.77197265625,16.540525436401367,11.627196311950684,-6.958007335662842,100.0,195453.0,1.0
559515.2530429,310065.5625,305368.375,324306.65625,313345.71875,381179.0625,306149.09375,303200.28125,300522.4375,-0.01416015625,0.68017578125,-0.77392578125,16.937253952026367,10.894774436950684,-6.469726085662842,100.0,195454.0,1.0
559515.2581104,309671.90625,303689.5,322896.28125,312503.59375,380252.46875,304663.5,302348.75,299821.3125,-0.019287109375,0.67529296875,-0.77197265625,17.425535202026367,10.681151390075684,-6.225585460662842,100.0,195455.0,1.0
559515.25815,308822.8125,299201.71875,319144.9375,311021.0625,369346.84375,300496.5,298784.8125,298313.8125,-0.009765625,0.67041015625,-0.771240234375,17.730710983276367,10.375975608825684,-6.011962413787842,100.0,195456.0,1.0
559515.2605245,308638.71875,297905.59375,318039.9375,310867.90625,363246.625,299192.59375,297365.21875,297957.96875,-0.01318359375,0.6669921875,-0.76806640625,17.852781295776367,10.253905296325684,-5.340575695037842,100.0,195457.0,1.0
559515.2630195,309376.3125,301471.21875,321005.5,312261.84375,370026.1875,302375.03125,299989.84375,299172.75,-0.022705078125,0.657470703125,-0.76806640625,17.395017623901367,10.253905296325684,-5.554198741912842,100.0,195458.0,1.0
559515.2630599,310044.28125,305170.0,324087.71875,313346.34375,380880.09375,305778.6875,303198.46875,300345.84375,-0.02783203125,0.650634765625,-0.763916015625,17.608640670776367,9.979247093200684,-6.195067882537842,100.0,195459.0,1.0
559515.2655796,309695.5,303715.78125,322861.40625,312563.9375,380518.96875,304480.03125,302402.84375,299759.96875,-0.021240234375,0.653564453125,-0.761962890625,16.723630905151367,9.887694358825684,-6.866454601287842,100.0,195460.0,1.0
559515.2705593,308820.84375,299209.21875,319076.25,311055.03125,369765.0,300309.375,298759.15625,298317.46875,-0.017822265625,0.6474609375,-0.76025390625,16.326902389526367,10.437010765075684,-7.781981945037842,100.0,195461.0,1.0
559515.2706012,308619.9375,297846.125,317910.03125,310870.75,363646.28125,298931.15625,297153.21875,297988.1875,-0.022216796875,0.652587890625,-0.758544921875,15.228270530700684,10.314940452575684,-8.239745140075684,100.0,195462.0,1.0
559515.2731554,309364.34375,301440.8125,320899.09375,312250.125,370475.8125,302088.5,299657.15625,299215.3125,-0.015869140625,0.6533203125,-0.763671875,13.488768577575684,10.314940452575684,-8.148192405700684,100.0,195463.0,1.0
559515.2779286,310001.90625,305089.25,323940.90625,313306.5625,381256.9375,305439.46875,302871.78125,300357.21875,-0.0302734375,0.64453125,-0.75537109375,11.871336936950684,10.833739280700684,-8.056639671325684,100.0,195464.0,1.0
559515.2843355,309573.71875,303380.875,322509.59375,312485.09375,380433.6875,303951.03125,302086.15625,299706.0625,-0.052978515625,0.6318359375,-0.74560546875,10.620116233825684,10.375975608825684,-8.941649436950684,100.0,195465.0,1.0
559515.2843762,308645.6875,298588.5625,318527.5625,310861.71875,369005.875,299574.90625,298432.625,298158.78125,-0.053466796875,0.633544921875,-0.742431640625,9.887694358825684,9.338377952575684,-10.803221702575684,100.0,195466.0,1.0
559515.2866882,308441.46875,297111.28125,317325.75,310502.125,362380.0,298129.1875,296804.09375,297816.625,-0.046142578125,0.637939453125,-0.740966796875,9.155272483825684,8.575438499450684,-12.329100608825684,100.0,195467.0,1.0
559515.3103754,309238.1875,300764.46875,320408.78125,311912.0,369004.96875,301364.375,299275.03125,299123.21875,-0.0380859375,0.647216796875,-0.73876953125,7.751464366912842,7.812499523162842,-12.725829124450684,100.0,195468.0,1.0
559515.3203904,309912.84375,304492.09375,323527.75,313035.125,379709.03125,304807.8125,302585.5,300299.8125,-0.035400390625,0.6484375,-0.7392578125,5.767821788787842,6.317138195037842,-13.031004905700684,100.0,195469.0,1.0
559515.3204033,309484.9375,302773.15625,322107.34375,312268.28125,378752.375,303374.59375,301778.15625,299666.8125,-0.02490234375,0.65087890625,-0.740478515625,4.028319835662842,5.157470226287842,-13.031004905700684,100.0,195470.0,1.0
559515.3355515,308546.53125,297903.53125,318098.0625,310768.75,367062.59375,299021.90625,297901.65625,298132.78125,-0.020751953125,0.646240234375,-0.738525390625,2.868652105331421,4.547118663787842,-12.817381858825684,100.0,195471.0,1.0
559515.3355654,308367.28125,296414.28125,316880.4375,310601.1875,360170.03125,297609.125,296221.34375,297754.125,-0.019287109375,0.648193359375,-0.73876953125,1.7395018339157104,4.302978038787842,-12.664793968200684,100.0,195472.0,1.0
559515.3355681,309179.90625,300116.15625,319962.28125,312011.9375,366639.96875,300866.75,298724.8125,299036.84375,-0.0185546875,0.649658203125,-0.7421875,0.6103515028953552,3.967284917831421,-12.512206077575684,100.0,195473.0,1.0
559515.3391135,309874.125,303921.5,323130.15625,313116.125,377348.96875,304357.28125,302111.46875,300262.09375,-0.01611328125,0.645751953125,-0.741455078125,-0.3662109076976776,4.272460460662842,-12.329100608825684,100.0,195474.0,1.0
559515.3391305,309444.0,302243.96875,321740.5,312299.03125,376410.0,302952.25,301477.65625,299618.53125,-0.017578125,0.646240234375,-0.7412109375,-0.9155272841453552,5.035399913787842,-12.359618186950684,100.0,195475.0,1.0
559515.3391337,308489.84375,297337.84375,317713.15625,310780.375,364638.34375,298569.625,297736.34375,298063.03125,-0.021728515625,0.645263671875,-0.740478515625,-1.7089842557907104,5.523681163787842,-12.512206077575684,100.0,195476.0,1.0
559515.3415743,308296.375,295789.9375,316478.8125,310635.8125,357603.6875,297109.0625,295956.4375,297733.46875,-0.01708984375,0.648193359375,-0.73876953125,-2.319335699081421,6.072997570037842,-12.634276390075684,100.0,195477.0,1.0
559515.3567745,309098.25,299464.65625,319534.5625,312066.125,363915.5625,300332.71875,298341.96875,299013.5,0.021728515625,0.65625,-0.743896484375,-3.387450933456421,7.537841320037842,-12.359618186950684,100.0,195478.0,1.0
559515.3567963,309785.625,303282.53125,322675.6875,313190.59375,374479.625,303803.6875,301635.65625,300182.25,0.02734375,0.656494140625,-0.741455078125,-4.272460460662842,10.131834983825684,-11.230467796325684,100.0,195479.0,1.0
559515.3617438,309372.21875,301647.8125,321319.03125,312367.15625,373485.25,302422.59375,300958.84375,299550.59375,-0.00537109375,0.6513671875,-0.73681640625,-5.401610851287842,12.268065452575684,-10.711668968200684,100.0,195480.0,1.0
559515.3667766,308434.15625,296785.84375,317341.3125,310818.0,361696.03125,298078.5,297289.03125,298025.75,-0.03125,0.64501953125,-0.73583984375,-6.042479991912842,13.763426780700684,-11.383055686950684,100.0,195481.0,1.0
559515.3691975,308221.0,295215.6875,316046.96875,310584.03125,354425.8125,296566.1875,295594.15625,297658.71875,-0.033447265625,0.651123046875,-0.73046875,-6.134032726287842,14.862059593200684,-11.993407249450684,100.0,195482.0,1.0
559515.3716679,308945.46875,298720.8125,318896.8125,311852.625,360102.90625,299589.84375,297958.25,298881.09375,-0.01708984375,0.659912109375,-0.72607421875,-7.171630382537842,15.991209983825684,-12.481688499450684,100.0,195483.0,1.0
559515.3741355,309532.96875,302236.90625,321759.90625,312825.28125,369708.40625,302782.1875,301007.03125,299995.125,-0.03955078125,0.6611328125,-0.71240234375,-8.605956077575684,16.540525436401367,-12.481688499450684,100.0,195484.0,1.0
559515.3767537,309172.375,300474.34375,320313.3125,312119.25,367905.625,301298.65625,300265.75,299417.53125,-0.046875,0.66650390625,-0.704345703125,-10.528563499450684,15.594481468200684,-12.969969749450684,100.0,195485.0,1.0
559515.3816486,308486.90625,296018.46875,316673.8125,310869.0625,356216.5625,297227.0625,296901.71875,298066.78125,-0.053955078125,0.671875,-0.69580078125,-12.237547874450684,14.282225608825684,-13.214110374450684,100.0,195486.0,1.0
559515.3866671,308369.25,294770.4375,315613.09375,310768.65625,349215.09375,295901.0,295350.4375,297794.0,-0.04296875,0.68017578125,-0.698974609375,-14.038084983825684,12.969969749450684,-13.549803733825684,100.0,195487.0,1.0
559515.3891709,309097.5625,298346.90625,318515.0625,312097.4375,354851.21875,298951.75,297625.5625,299048.28125,-0.04931640625,0.69091796875,-0.695556640625,-15.777586936950684,11.627196311950684,-13.305663108825684,100.0,195488.0,1.0
559515.3917626,309731.96875,302070.15625,321544.0625,313134.71875,364713.625,302280.34375,300700.34375,300206.125,-0.056396484375,0.69921875,-0.698486328125,-17.730710983276367,9.704588890075684,-12.786864280700684,100.0,195489.0,1.0
559515.3942743,309436.3125,300800.3125,320478.6875,312449.875,363978.5,301135.59375,300152.65625,299677.4375,-0.046875,0.704833984375,-0.703369140625,-19.531248092651367,7.843017101287842,-12.420653343200684,100.0,195490.0,1.0
559515.3968146,308659.375,296509.9375,316951.96875,311073.8125,353098.65625,297186.03125,296819.28125,298264.28125,-0.0341796875,0.71240234375,-0.70654296875,-21.026609420776367,6.744384288787842,-11.566161155700684,100.0,195491.0,1.0
559515.3991493,308464.09375,295161.3125,315827.03125,310877.5625,346356.65625,295842.6875,295278.4375,297924.625,-0.02734375,0.722412109375,-0.71142578125,-22.857664108276367,6.134032726287842,-10.833739280700684,100.0,195492.0,1.0
559515.4268242,309124.09375,298578.71875,318610.71875,312124.59375,352018.8125,298853.9375,297558.0625,299118.03125,-0.0234375,0.730224609375,-0.712158203125,-24.932859420776367,5.493163585662842,-9.704588890075684,100.0,195493.0,1.0
559515.426864,309742.34375,302239.9375,321606.5625,313144.46875,362008.0625,302217.78125,300627.65625,300282.65625,-0.02099609375,0.736572265625,-0.720458984375,-26.977537155151367,5.706786632537842,-8.666991233825684,100.0,195494.0,1.0
559515.4294092,309480.84375,301011.59375,320616.375,312475.875,361606.0,301179.75,300146.75,299794.40625,-0.0166015625,0.746337890625,-0.721923828125,-29.449460983276367,6.408690929412842,-7.537841320037842,100.0,195495.0,1.0
559515.4307822,308744.9375,296748.21875,317163.9375,311121.375,351069.84375,297336.59375,296877.75,298448.65625,-0.01171875,0.7529296875,-0.723876953125,-32.196041107177734,7.415771007537842,-6.134032726287842,100.0,195496.0,1.0
559515.4380071,308532.125,295306.0625,315981.0,310902.3125,344394.4375,295985.3125,295292.9375,298064.0,-0.006591796875,0.760009765625,-0.725341796875,-35.064693450927734,8.911131858825684,-5.157470226287842,100.0,195497.0,1.0
559515.4493788,309150.125,298590.25,318643.34375,312112.09375,349891.90625,298922.78125,297490.75,299181.59375,-0.001220703125,0.763427734375,-0.725341796875,-38.665767669677734,10.589598655700684,-3.906249761581421,100.0,195498.0,1.0
559515.4494198,309760.6875,302231.71875,321595.84375,313125.0625,359803.28125,302269.71875,300548.53125,300306.6875,0.005126953125,0.771728515625,-0.72314453125,-41.809078216552734,12.634276390075684,-2.746581792831421,100.0,195499.0,1.0
559515.4494299,309560.15625,301161.53125,320715.1875,312521.75,359663.53125,301348.5625,300185.65625,299862.625,0.009521484375,0.771728515625,-0.725341796875,-44.982906341552734,14.801024436950684,-1.6174315214157104,100.0,195500.0,1.0
559515.4519278,308885.65625,297078.125,317383.625,311226.78125,349490.28125,297636.375,297090.5625,298559.59375,0.01416015625,0.7734375,-0.72705078125,-47.698970794677734,17.181394577026367,-1.0681151151657104,100.0,195501.0,1.0
559515.4566658,308652.40625,295685.34375,316172.0625,310979.9375,342941.65625,296296.78125,295538.09375,298164.5,0.0166015625,0.778076171875,-0.726806640625,-49.743648529052734,19.714353561401367,-0.3051757514476776,100.0,195502.0,1.0
559515.4617624,309220.75,298960.6875,318716.3125,312132.5625,348358.5625,299180.15625,297701.8125,299222.90625,0.017333984375,0.782958984375,-0.72998046875,-51.727291107177734,22.247312545776367,0.7934569716453552,100.0,195503.0,1.0
559515.4644399,309825.15625,302650.59375,321616.21875,313129.96875,358247.15625,302530.96875,300773.84375,300362.125,0.019775390625,0.78662109375,-0.73291015625,-53.314205169677734,24.475095748901367,1.8920897245407104,100.0,195504.0,1.0
559515.4666535,309639.4375,301691.875,320766.78125,312494.5625,358242.875,301652.1875,300475.0625,299918.3125,0.021484375,0.7900390625,-0.734375,-54.534908294677734,26.489255905151367,3.173827886581421,100.0,195505.0,1.0
559515.4717902,308974.78125,297731.96875,317467.46875,311158.5625,348238.84375,297959.5,297461.59375,298566.65625,0.025146484375,0.788818359375,-0.7314453125,-55.603023529052734,28.228757858276367,4.791259288787842,100.0,195506.0,1.0
559515.4767643,308745.65625,296397.28125,316230.09375,310824.625,341701.40625,296613.28125,295904.9375,298201.0,0.029296875,0.787353515625,-0.727294921875,-56.488033294677734,29.541013717651367,5.676269054412842,100.0,195507.0,1.0
559515.4816545,309276.46875,299591.53125,318665.78125,311889.65625,346927.0,299442.3125,297805.09375,299323.9375,0.026611328125,0.789794921875,-0.71533203125,-56.823726654052734,30.578611373901367,6.256103038787842,100.0,195508.0,1.0
559515.4833664,309858.3125,303203.03125,321511.4375,312940.4375,356691.75,302770.40625,300709.3125,300447.59375,0.0244140625,0.793212890625,-0.7099609375,-57.067867279052734,31.372068405151367,6.805419445037842,100.0,195509.0,1.0
559515.4871135,309745.65625,302349.90625,320853.3125,312548.46875,356952.28125,302005.96875,300662.34375,300048.65625,0.024658203125,0.794921875,-0.716064453125,-57.861324310302734,31.646726608276367,7.293700695037842,100.0,195510.0,1.0
559515.5021699,309208.78125,298572.46875,317833.15625,311366.15625,347380.625,298476.96875,298050.78125,298876.46875,0.02294921875,0.788330078125,-0.712646484375,-58.441158294677734,31.677244186401367,7.781981945037842,100.0,195511.0,1.0
559515.5305222,309004.21875,297212.59375,316706.09375,311154.1875,341062.4375,297159.46875,296632.53125,298574.71875,0.02587890625,0.783447265625,-0.713134765625,-58.746334075927734,31.524656295776367,7.232665538787842,100.0,195512.0,1.0
559515.5330547,309491.125,300200.46875,319141.34375,312306.53125,346346.375,299965.0625,298649.71875,299623.4375,0.02587890625,0.783935546875,-0.7109375,-58.563228607177734,31.616209030151367,6.500243663787842,100.0,195513.0,1.0
559515.5455677,310037.65625,303629.96875,321987.0,313321.3125,356236.9375,303309.875,301599.6875,300779.03125,0.021484375,0.7822265625,-0.70361328125,-58.227535247802734,31.188962936401367,5.554198741912842,100.0,195514.0,1.0
559515.5456087,309886.125,302686.1875,321270.03125,312765.375,356667.78125,302542.78125,301301.09375,300430.34375,0.023193359375,0.778564453125,-0.70263671875,-58.135982513427734,30.609128952026367,4.425048351287842,100.0,195515.0,1.0
559515.5479951,309252.75,298762.0,318113.0,311463.78125,347142.90625,298907.84375,298272.34375,299150.3125,0.022216796875,0.774658203125,-0.69873046875,-57.586666107177734,30.090330123901367,3.448486089706421,100.0,195516.0,1.0
559515.5504445,308995.71875,297249.875,316889.0,311209.96875,340829.59375,297503.0,296663.625,298732.6875,0.0224609375,0.7724609375,-0.6943359375,-56.762691497802734,29.174802780151367,2.380370855331421,100.0,195517.0,1.0
559515.5529143,309455.28125,300094.90625,319258.375,312333.8125,346135.03125,300267.8125,298691.90625,299711.59375,0.020751953125,0.771484375,-0.68798828125,-55.725093841552734,28.076169967651367,1.3732908964157104,100.0,195518.0,1.0
559515.5580037,310026.65625,303483.875,322117.34375,313389.875,356175.6875,303633.4375,301778.59375,300782.78125,0.02099609375,0.770751953125,-0.6767578125,-54.321285247802734,26.702878952026367,0.4577636420726776,100.0,195519.0,1.0
559515.5653964,309945.9375,302607.75,321489.09375,312914.96875,356857.15625,302904.78125,301677.125,300381.09375,0.02294921875,0.770751953125,-0.6689453125,-52.734371185302734,24.871824264526367,-0.6103515028953552,100.0,195520.0,1.0
559515.5679468,309357.1875,298700.40625,318388.625,311656.90625,347499.28125,299244.375,298764.6875,299057.25,0.0244140625,0.77294921875,-0.659912109375,-50.964351654052734,23.193357467651367,-1.2512205839157104,100.0,195521.0,1.0
559515.5705199,309092.53125,297154.3125,317207.84375,311376.0,341278.78125,297805.1875,297223.40625,298633.53125,0.02294921875,0.76953125,-0.65087890625,-49.041744232177734,21.423337936401367,-1.5258787870407104,100.0,195522.0,1.0
559515.57303,309576.25,300054.125,319675.1875,312499.21875,346782.9375,300614.25,299288.96875,299725.1875,0.031494140625,0.7724609375,-0.64990234375,-46.661373138427734,19.256589889526367,-1.6174315214157104,100.0,195523.0,1.0
559515.5754089,310096.40625,303471.71875,322530.40625,313492.875,357016.75,303986.78125,302334.8125,300844.75,0.070068359375,0.780517578125,-0.646240234375,-44.158931732177734,17.791746139526367,-1.2817381620407104,100.0,195524.0,1.0
559515.5780016,309979.46875,302597.3125,321845.8125,312990.40625,357842.0625,303264.28125,302172.0,300468.4375,0.083984375,0.789306640625,-0.638671875,-42.022701263427734,17.974851608276367,0.7629393935203552,100.0,195525.0,1.0
559515.5805193,309394.75,298708.8125,318640.9375,311739.875,348471.75,299623.28125,299179.09375,299177.5625,0.070556640625,0.784423828125,-0.62939453125,-40.679927825927734,18.676755905151367,3.112792730331421,100.0,195526.0,1.0
559515.5829222,309119.375,297140.15625,317210.875,311411.125,341917.25,298129.28125,297465.78125,298725.53125,0.053955078125,0.76708984375,-0.635986328125,-38.909908294677734,19.165037155151367,4.302978038787842,100.0,195527.0,1.0
559515.5879287,309564.15625,300018.0,319464.46875,312480.4375,347037.75,300846.34375,299377.75,299731.1875,0.05615234375,0.7587890625,-0.640380859375,-36.224361419677734,21.301267623901367,4.241942882537842,100.0,195528.0,1.0
559515.5904061,310104.0,303497.375,322282.84375,313498.875,357118.40625,304215.46875,302404.46875,300845.375,0.0498046875,0.76025390625,-0.639404296875,-33.966060638427734,24.353025436401367,3.631591558456421,100.0,195529.0,1.0
559515.5930068,310007.4375,302684.9375,321675.6875,313012.875,357965.625,303491.375,302310.65625,300456.53125,0.028564453125,0.764892578125,-0.6376953125,-33.233638763427734,26.855466842651367,3.112792730331421,100.0,195530.0,1.0
559515.5954443,309428.0,298835.78125,318597.125,311766.78125,348678.75,299795.8125,299396.09375,299140.46875,0.02197265625,0.766357421875,-0.632568359375,-33.508296966552734,28.900144577026367,2.532958745956421,100.0,195531.0,1.0
559515.5979454,309146.375,297281.875,317292.6875,311456.90625,342232.40625,298239.6875,297751.96875,298669.75,0.014892578125,0.759521484375,-0.62890625,-34.545894622802734,31.463621139526367,1.7395018339157104,100.0,195532.0,1.0
559515.597981,309563.28125,300139.0625,319528.84375,312526.40625,347305.96875,300901.875,299683.8125,299654.28125,0.0087890625,0.760498046875,-0.616943359375,-35.919185638427734,33.905025482177734,0.4882812201976776,100.0,195533.0,1.0
559515.6154264,310091.03125,303611.8125,322301.34375,313546.1875,357304.09375,304250.8125,302728.5625,300757.40625,-0.000732421875,0.761474609375,-0.604736328125,-38.024898529052734,35.614009857177734,-0.8544921278953552,100.0,195534.0,1.0
559515.6180894,309994.9375,302826.1875,321675.875,313059.625,358127.8125,303533.65625,302664.4375,300376.0625,0.000244140625,0.755126953125,-0.60302734375,-40.161128997802734,37.170406341552734,-2.716064214706421,100.0,195535.0,1.0
559515.6181299,309398.75,298959.0625,318570.84375,311797.8125,348790.84375,299821.9375,299725.8125,299048.84375,0.001708984375,0.754638671875,-0.590576171875,-41.961666107177734,38.848873138427734,-4.333495616912842,100.0,195536.0,1.0
559515.6206044,309106.3125,297379.96875,317230.46875,311444.21875,342218.09375,298246.125,298064.0,298579.1875,0.002685546875,0.755126953125,-0.583740234375,-44.128414154052734,39.825435638427734,-5.340575695037842,100.0,195537.0,1.0
559515.6280909,309494.15625,300192.96875,319406.875,312448.6875,347138.34375,300885.4375,299971.5,299558.0,0.0068359375,0.74609375,-0.58251953125,-45.928951263427734,40.405269622802734,-6.195067882537842,100.0,195538.0,1.0
559515.6281329,310021.03125,303665.28125,322188.96875,313460.96875,357115.96875,304266.53125,302956.28125,300672.65625,0.011962890625,0.746337890625,-0.58544921875,-46.478267669677734,40.893550872802734,-7.110595226287842,100.0,195539.0,1.0
559515.6305788,309965.875,302947.4375,321644.9375,313029.65625,358035.96875,303601.875,302934.625,300332.0,0.0166015625,0.746337890625,-0.587646484375,-46.874996185302734,41.107173919677734,-7.781981945037842,100.0,195540.0,1.0
559515.6344921,309430.3125,299178.46875,318645.21875,311888.46875,348777.4375,299920.90625,300165.4375,299056.625,0.01513671875,0.739990234375,-0.599609375,-46.813961029052734,40.893550872802734,-8.148192405700684,100.0,195541.0,1.0
559515.6345288,309171.5,297608.03125,317361.09375,311626.96875,342197.53125,298344.3125,298445.96875,298636.125,0.016357421875,0.738037109375,-0.60009765625,-45.562740325927734,40.435787200927734,-8.544920921325684,100.0,195542.0,1.0
559515.634539,309580.875,300349.53125,319546.28125,312633.5,347075.9375,300994.6875,300213.28125,299660.28125,0.015380859375,0.7373046875,-0.59423828125,-44.067378997802734,39.825435638427734,-8.575438499450684,100.0,195543.0,1.0
559515.6368866,310099.90625,303742.6875,322299.75,313627.71875,357013.0625,304375.15625,303104.15625,300805.6875,0.0146484375,0.735107421875,-0.595703125,-42.114253997802734,38.696285247802734,-8.514403343200684,100.0,195544.0,1.0
559515.6369219,310029.09375,302980.59375,321753.5625,313161.46875,357969.09375,303701.46875,303030.5625,300463.875,0.010986328125,0.7333984375,-0.596923828125,-39.154048919677734,37.261959075927734,-8.178709983825684,100.0,195545.0,1.0
559515.6415341,309474.3125,299162.75,318742.875,311917.71875,348742.21875,299974.375,300092.75,299176.15625,0.011474609375,0.734130859375,-0.5986328125,-35.705562591552734,35.736080169677734,-8.178709983825684,100.0,195546.0,1.0
559515.6415712,309182.84375,297512.71875,317405.25,311563.03125,342094.71875,298330.8125,298298.15625,298705.40625,0.010986328125,0.739501953125,-0.5986328125,-31.951902389526367,33.782955169677734,-8.239745140075684,100.0,195547.0,1.0
559515.6530514,309566.5,300180.71875,319539.03125,312570.46875,346868.34375,300930.40625,300056.4375,299673.96875,0.0107421875,0.74365234375,-0.601318359375,-28.076169967651367,31.677244186401367,-8.148192405700684,100.0,195548.0,1.0
559515.660659,310108.5625,303578.28125,322322.0,313594.1875,356836.9375,304343.96875,303017.34375,300820.4375,0.006591796875,0.754150390625,-0.595703125,-24.688718795776367,29.205320358276367,-7.629394054412842,100.0,195549.0,1.0
559515.6630401,310089.6875,302906.5625,321847.625,313110.125,357934.5,303738.9375,303026.90625,300536.125,0.005859375,0.754150390625,-0.601318359375,-21.423337936401367,26.519773483276367,-7.141112804412842,100.0,195550.0,1.0
559515.6680315,309555.3125,299144.6875,318845.3125,311821.875,348746.96875,300018.375,300166.96875,299267.6875,0.004150390625,0.753662109375,-0.59912109375,-17.822263717651367,24.047849655151367,-6.896972179412842,100.0,195551.0,1.0
559515.6705557,309254.90625,297484.3125,317460.59375,311431.0625,341997.71875,298329.71875,298401.0,298771.21875,-0.00146484375,0.7587890625,-0.599365234375,-14.038084983825684,21.270750045776367,-6.866454601287842,100.0,195552.0,1.0
559515.6729156,309624.0625,300128.875,319549.40625,312466.5,346635.25,300889.625,300078.4375,299727.0625,-0.00048828125,0.766357421875,-0.60009765625,-10.894774436950684,18.585203170776367,-6.988524913787842,100.0,195553.0,1.0
559515.675538,310135.9375,303516.40625,322300.625,313511.84375,356533.0625,304270.65625,302965.5625,300838.65625,0.00146484375,0.77197265625,-0.601318359375,-8.178709983825684,15.960692405700684,-6.958007335662842,100.0,195554.0,1.0
559515.680402,310104.1875,302862.5,321830.4375,313119.6875,357652.78125,303659.8125,302923.5625,300529.59375,0.001220703125,0.782470703125,-0.60205078125,-6.164550304412842,13.671874046325684,-6.774901866912842,100.0,195555.0,1.0
559515.6829344,309568.09375,299108.65625,318829.78125,311901.09375,348475.875,299928.96875,299992.0625,299229.15625,0.0029296875,0.78759765625,-0.601806640625,-4.791259288787842,11.627196311950684,-6.652831554412842,100.0,195556.0,1.0
559515.6880337,309262.5,297430.46875,317416.5,311559.09375,341648.03125,298209.3125,298145.375,298719.09375,0.001953125,0.797119140625,-0.60205078125,-3.906249761581421,9.735106468200684,-6.683349132537842,100.0,195557.0,1.0
559515.6906189,309605.90625,300036.96875,319447.3125,312591.21875,346149.59375,300725.5625,299729.21875,299661.4375,0.00537109375,0.80078125,-0.600830078125,-3.326415777206421,8.270262718200684,-6.988524913787842,100.0,195558.0,1.0
559515.6906574,310107.84375,303430.21875,322181.0,313621.625,356005.5625,304107.125,302587.65625,300775.90625,0.006103515625,0.807373046875,-0.60107421875,-3.051757574081421,7.232665538787842,-7.415771007537842,100.0,195559.0,1.0
559515.6930435,310087.8125,302826.46875,321751.59375,313200.4375,357216.5625,303538.84375,302595.96875,300476.03125,0.00830078125,0.8095703125,-0.608642578125,-3.417968511581421,6.469726085662842,-8.056639671325684,100.0,195560.0,1.0
559515.6953848,309566.125,299111.40625,318789.8125,311935.40625,348140.6875,299841.59375,299708.65625,299194.28125,0.012451171875,0.814208984375,-0.608154296875,-3.784179449081421,6.195067882537842,-8.575438499450684,100.0,195561.0,1.0
559515.7004943,309263.84375,297428.25,317380.75,311541.84375,341321.15625,298123.46875,297875.8125,298698.96875,0.016845703125,0.821533203125,-0.609619140625,-4.974364757537842,6.164550304412842,-8.880614280700684,100.0,195562.0,1.0
559515.7055717,309583.75,299998.34375,319377.28125,312488.84375,345758.15625,300610.3125,299491.3125,299618.34375,0.01904296875,0.8212890625,-0.61328125,-6.500243663787842,6.439208507537842,-9.124754905700684,100.0,195563.0,1.0
559515.7130289,310095.0625,303411.53125,322127.625,313510.3125,355631.90625,304011.09375,302393.90625,300749.875,0.021728515625,0.82080078125,-0.613037109375,-7.629394054412842,7.049560070037842,-9.368895530700684,100.0,195564.0,1.0
559515.7242675,310086.46875,302826.90625,321732.90625,313127.3125,356952.375,303472.15625,302418.59375,300469.40625,0.023193359375,0.822509765625,-0.610595703125,-8.880614280700684,8.056639671325684,-9.826659202575684,100.0,195565.0,1.0
559515.7243072,309575.875,299101.3125,318803.46875,311924.5,347972.40625,299789.125,299571.6875,299201.71875,0.021484375,0.82373046875,-0.610107421875,-10.131834983825684,9.399413108825684,-10.223387718200684,100.0,195566.0,1.0
559515.7243172,309266.53125,297378.625,317386.375,311545.25,341134.5625,298040.6875,297742.3125,298692.46875,0.020263671875,0.823974609375,-0.61279296875,-11.199950218200684,10.711668968200684,-10.803221702575684,100.0,195567.0,1.0
559515.7268751,309608.96875,299968.84375,319405.8125,312515.84375,345545.03125,300538.25,299340.84375,299643.3125,0.021240234375,0.825927734375,-0.617431640625,-12.054442405700684,12.237547874450684,-11.505125999450684,100.0,195568.0,1.0
559515.7293515,310132.09375,303424.3125,322193.34375,313559.9375,355460.53125,303976.75,302252.09375,300805.9375,0.019287109375,0.8291015625,-0.616943359375,-12.969969749450684,13.793944358825684,-12.023924827575684,100.0,195569.0,1.0
559515.7317199,310135.03125,302889.5625,321848.25,313209.5625,356895.40625,303504.0625,302328.09375,300562.9375,0.0166015625,0.832275390625,-0.615966796875,-13.641356468200684,14.923094749450684,-12.542723655700684,100.0,195570.0,1.0
559515.7317567,309647.21875,299201.1875,318953.0625,312030.09375,347986.1875,299871.65625,299523.3125,299331.09375,0.015380859375,0.8369140625,-0.614501953125,-14.404295921325684,15.960692405700684,-12.786864280700684,100.0,195571.0,1.0
559515.7368147,309350.21875,297490.1875,317517.53125,311651.71875,341079.9375,298127.75,297703.71875,298822.8125,0.01513671875,0.837158203125,-0.611328125,-15.258788108825684,16.571043014526367,-13.122557640075684,100.0,195572.0,1.0
559515.7393009,309684.6875,300062.96875,319482.875,312616.15625,345343.21875,300607.71875,299278.59375,299750.40625,0.01025390625,0.838134765625,-0.609375,-15.716551780700684,17.059324264526367,-13.214110374450684,100.0,195573.0,1.0
559515.7416731,310188.0625,303512.125,322229.28125,313649.34375,355163.0625,304038.90625,302164.5625,300891.5,0.006591796875,0.837890625,-0.60400390625,-16.265867233276367,17.181394577026367,-13.275145530700684,100.0,195574.0,1.0
559515.752996,310179.03125,303001.96875,321886.3125,313284.5625,356631.5,303571.03125,302277.40625,300623.1875,0.0009765625,0.835205078125,-0.602294921875,-16.693113327026367,16.937253952026367,-13.122557640075684,100.0,195575.0,1.0
559515.7530368,309673.15625,299318.65625,318992.5,312072.3125,347774.65625,299919.21875,299507.84375,299353.0,-0.0009765625,0.83544921875,-0.596435546875,-16.693113327026367,16.510007858276367,-13.183592796325684,100.0,195576.0,1.0
559515.7555512,309355.59375,297567.34375,317539.09375,311656.1875,340846.3125,298124.53125,297678.21875,298800.0,-0.008544921875,0.834716796875,-0.598876953125,-16.937253952026367,15.838622093200684,-13.244627952575684,100.0,195577.0,1.0
559515.7580251,309639.09375,300044.375,319454.53125,312565.375,345039.0625,300546.40625,299222.28125,299669.0625,-0.0107421875,0.8310546875,-0.60009765625,-16.845701217651367,14.862059593200684,-13.244627952575684,100.0,195578.0,1.0
559515.7605436,310110.34375,303431.28125,322181.09375,313554.21875,354873.9375,303974.0,302107.1875,300783.0625,-0.01171875,0.828125,-0.599853515625,-16.693113327026367,13.519286155700684,-13.397215843200684,100.0,195579.0,1.0
559515.7630504,310121.15625,302932.21875,321873.90625,313206.15625,356457.5,303547.78125,302246.5625,300529.0625,-0.0107421875,0.8232421875,-0.602783203125,-16.479490280151367,12.023924827575684,-13.610838890075684,100.0,195580.0,1.0
559515.7654689,309620.75,299258.21875,318995.53125,312011.21875,347673.09375,299903.28125,299475.40625,299239.1875,-0.011474609375,0.819580078125,-0.60009765625,-16.052244186401367,10.559081077575684,-13.702391624450684,100.0,195581.0,1.0
559515.7655075,309259.90625,297455.96875,317497.5,311560.625,340717.9375,298076.53125,297612.96875,298672.4375,-0.012939453125,0.818115234375,-0.598388671875,-15.991209983825684,8.789061546325684,-13.702391624450684,100.0,195582.0,1.0
559515.7681535,309573.8125,299932.34375,319401.15625,312495.0,344870.34375,300495.875,299143.59375,299577.3125,-0.013916015625,0.810791015625,-0.599853515625,-15.991209983825684,7.049560070037842,-13.763426780700684,100.0,195583.0,1.0
559515.7729479,310068.25,303341.25,322116.375,313521.125,354684.65625,303923.65625,302012.21875,300706.53125,-0.015380859375,0.802001953125,-0.5986328125,-15.655516624450684,5.310058116912842,-13.793944358825684,100.0,195584.0,1.0
559515.7768677,310069.6875,302869.90625,321806.40625,313177.71875,356315.625,303492.90625,302154.65625,300457.15625,-0.016845703125,0.794677734375,-0.60009765625,-15.319823265075684,3.753661870956421,-13.916014671325684,100.0,195585.0,1.0
559515.7769085,309582.21875,299232.46875,318953.6875,311981.0,347605.5,299852.34375,299412.375,299198.78125,-0.016357421875,0.785888671875,-0.6015625,-14.892577171325684,2.288818120956421,-14.190672874450684,100.0,195586.0,1.0
559515.7769185,309262.5,297462.21875,317473.375,311548.8125,340651.59375,298019.5625,297552.15625,298643.28125,-0.014892578125,0.78125,-0.602783203125,-14.251708030700684,1.0681151151657104,-14.556883811950684,100.0,195587.0,1.0
559515.7793241,309523.3125,299906.4375,319320.78125,312432.875,344720.59375,300405.21875,299030.3125,299510.15625,-0.012939453125,0.779052734375,-0.60595703125,-13.732909202575684,0.3051757514476776,-15.106200218200684,100.0,195588.0,1.0
559515.7819329,310010.75,303353.96875,322039.375,313440.75,354562.875,303871.53125,301891.53125,300639.5625,-0.01416015625,0.7783203125,-0.60791015625,-13.031004905700684,-0.3051757514476776,-15.502928733825684,100.0,195589.0,1.0
559515.789347,310047.6875,302961.46875,321787.875,313134.90625,356342.0625,303521.59375,302065.875,300420.5,-0.012451171875,0.779296875,-0.609130859375,-12.451170921325684,-0.4882812201976776,-15.899657249450684,100.0,195590.0,1.0
559515.7893878,309563.375,299337.15625,318943.59375,311945.875,347705.4375,299895.6875,299314.71875,299161.40625,-0.009521484375,0.77978515625,-0.610107421875,-11.962889671325684,-0.3051757514476776,-16.235349655151367,100.0,195591.0,1.0
559515.7918038,309241.75,297552.78125,317449.6875,311523.59375,340735.90625,298056.5,297434.78125,298611.53125,-0.008544921875,0.77978515625,-0.60546875,-11.352538108825684,0.1220703050494194,-16.479490280151367,100.0,195592.0,1.0
559515.7967783,309480.3125,299988.78125,319283.40625,312394.15625,344792.9375,300438.75,298914.0,299487.09375,-0.012451171875,0.77734375,-0.599609375,-10.803221702575684,0.8544921278953552,-16.387937545776367,100.0,195593.0,1.0
559515.8016457,309950.84375,303432.0,322009.78125,313404.90625,354692.53125,303909.25,301810.4375,300627.59375,-0.015380859375,0.771484375,-0.59716796875,-10.498045921325684,1.6784666776657104,-16.143796920776367,100.0,195594.0,1.0
559515.8041732,310000.46875,303036.375,321786.8125,313106.65625,356540.1875,303553.96875,302008.46875,300406.9375,-0.020263671875,0.766845703125,-0.598876953125,-10.101317405700684,2.441406011581421,-15.686034202575684,100.0,195595.0,1.0
559515.8068054,309617.375,299439.09375,319018.78125,312010.96875,347931.84375,299936.09375,299300.15625,299186.34375,-0.024658203125,0.763916015625,-0.59912109375,-9.582518577575684,3.112792730331421,-15.655516624450684,100.0,195596.0,1.0
559515.8091523,309267.59375,297605.34375,317496.875,311560.625,340846.15625,298030.65625,297397.84375,298615.375,-0.0283203125,0.7666015625,-0.599365234375,-9.094237327575684,3.662109136581421,-15.716551780700684,100.0,195597.0,1.0
559515.8117664,309450.875,299974.71875,319264.1875,312337.40625,344762.1875,300351.03125,298837.46875,299450.8125,-0.029296875,0.771728515625,-0.598876953125,-8.728026390075684,3.906249761581421,-15.686034202575684,100.0,195598.0,1.0
559515.8167398,309997.53125,303466.4375,322032.6875,313399.0,354645.84375,303854.90625,301754.03125,300617.03125,-0.031005859375,0.77587890625,-0.5986328125,-8.483885765075684,3.967284917831421,-15.716551780700684,100.0,195599.0,1.0
559515.8218114,310098.5625,303110.15625,321855.21875,313175.3125,356540.75,303543.3125,301983.96875,300427.40625,-0.031494140625,0.78076171875,-0.5966796875,-8.544920921325684,3.875732183456421,-15.563963890075684,100.0,195600.0,1.0
559515.8218524,309596.71875,299410.65625,319007.78125,311986.46875,347902.3125,299883.90625,299248.125,299167.21875,-0.032958984375,0.783935546875,-0.596923828125,-8.575438499450684,3.387450933456421,-15.258788108825684,100.0,195601.0,1.0
559515.8243371,309199.28125,297510.6875,317420.09375,311456.1875,340705.78125,297924.90625,297296.625,298552.53125,-0.034423828125,0.79150390625,-0.59521484375,-8.605956077575684,2.838134527206421,-14.801024436950684,100.0,195602.0,1.0
559515.8319072,309444.8125,299893.46875,319199.1875,312294.5625,344534.71875,300232.40625,298711.6875,299393.6875,-0.034423828125,0.79736328125,-0.595703125,-8.666991233825684,2.136230230331421,-14.190672874450684,100.0,195603.0,1.0
559515.8342325,309948.34375,303366.75,321950.59375,313358.96875,354392.65625,303726.15625,301603.625,300545.25,-0.03515625,0.8056640625,-0.59521484375,-8.666991233825684,1.4953612089157104,-13.610838890075684,100.0,195604.0,1.0
559515.834272,310077.625,303043.53125,321815.78125,313207.59375,356345.84375,303446.21875,301857.5625,300379.28125,-0.035888671875,0.810302734375,-0.597900390625,-8.636473655700684,0.5798339247703552,-13.061522483825684,100.0,195605.0,1.0
559515.8367448,309473.5,299308.90625,318926.40625,311896.96875,347703.5625,299761.21875,299106.21875,299089.96875,-0.034912109375,0.81201171875,-0.599609375,-8.361815452575684,-0.2746581733226776,-12.512206077575684,100.0,195606.0,1.0
559515.8871413,309076.71875,297344.90625,317319.875,311354.375,340466.53125,297787.9375,297156.0,298476.09375,-0.034423828125,0.808349609375,-0.5986328125,-7.843017101287842,-0.8850097060203552,-11.962889671325684,100.0,195607.0,1.0
559515.901846,309427.09375,299787.59375,319147.78125,312337.75,344206.96875,300111.15625,298561.75,299338.96875,-0.03369140625,0.810791015625,-0.602294921875,-7.263183116912842,-1.4648436307907104,-11.291502952575684,100.0,195608.0,1.0
559515.9018868,309910.71875,303307.5625,321899.75,313334.90625,354053.4375,303629.34375,301443.34375,300481.5625,-0.0322265625,0.81005859375,-0.6044921875,-6.652831554412842,-1.9531248807907104,-10.742186546325684,100.0,195609.0,1.0
559515.9018971,309879.78125,302938.84375,321679.0,312928.1875,356047.9375,303323.8125,301668.71875,300256.625,-0.03076171875,0.812744140625,-0.607666015625,-5.798339366912842,-2.380370855331421,-10.070799827575684,100.0,195610.0,1.0
559515.9094898,309460.0,299287.28125,318889.84375,311824.375,347462.8125,299689.34375,298966.03125,299014.84375,-0.027587890625,0.81640625,-0.60986328125,-4.943847179412842,-2.563476324081421,-9.399413108825684,100.0,195611.0,1.0
559515.9095325,309142.78125,297365.3125,317325.125,311399.25,340172.375,297722.84375,297019.03125,298429.59375,-0.0302734375,0.82275390625,-0.615478515625,-4.333495616912842,-2.655029058456421,-8.850096702575684,100.0,195612.0,1.0
559515.9095419,309377.84375,299724.21875,319077.0625,312211.5,343860.9375,300011.9375,298411.1875,299272.4375,-0.02978515625,0.826416015625,-0.61572265625,-3.936767339706421,-2.777099370956421,-8.178709983825684,100.0,195613.0,1.0
559515.909551,309796.4375,303208.5,321785.65625,313170.65625,353672.28125,303482.25,301267.46875,300392.34375,-0.030517578125,0.826904296875,-0.617919921875,-3.570556402206421,-2.838134527206421,-7.598876476287842,100.0,195614.0,1.0
559515.9118879,309833.1875,302895.75,321644.84375,312921.03125,355761.90625,303237.375,301561.4375,300230.96875,-0.031494140625,0.830322265625,-0.618896484375,-3.356933355331421,-2.838134527206421,-7.110595226287842,100.0,195615.0,1.0
559515.9119238,309385.96875,299209.3125,318852.125,311807.46875,347208.09375,299594.9375,298865.90625,298992.875,-0.03173828125,0.830322265625,-0.6162109375,-3.265380620956421,-2.807616949081421,-6.530761241912842,100.0,195616.0,1.0
559515.9193151,308967.5625,297196.3125,317199.875,311225.15625,339851.6875,297556.53125,296877.6875,298350.90625,-0.03271484375,0.82666015625,-0.616455078125,-3.356933355331421,-2.593993902206421,-5.950927257537842,100.0,195617.0,1.0
559515.9266559,309235.9375,299548.4375,318939.46875,312028.59375,343457.5625,299813.4375,298243.46875,299174.53125,-0.030517578125,0.8193359375,-0.616455078125,-3.326415777206421,-2.502441167831421,-5.432128429412842,100.0,195618.0,1.0
559515.9291472,309799.5,303139.125,321776.96875,313199.90625,353368.03125,303397.9375,301197.71875,300384.84375,-0.029052734375,0.81298828125,-0.61962890625,-3.173827886581421,-2.288818120956421,-4.974364757537842,100.0,195619.0,1.0
559515.9341785,309841.78125,302828.25,321652.71875,312907.625,355522.65625,303165.03125,301501.34375,300209.34375,-0.032470703125,0.80517578125,-0.617919921875,-3.051757574081421,-2.105712652206421,-4.608153820037842,100.0,195620.0,1.0
559515.9366489,309370.875,299138.15625,318840.0625,311706.71875,346956.125,299492.28125,298784.1875,298942.09375,-0.03369140625,0.79931640625,-0.62109375,-2.807616949081421,-1.9836424589157104,-4.272460460662842,100.0,195621.0,1.0
559515.9393038,309013.34375,297165.90625,317228.5,311255.3125,339565.75,297466.25,296809.625,298330.90625,-0.0322265625,0.79541015625,-0.62548828125,-2.349853277206421,-1.9836424589157104,-4.089354991912842,100.0,195622.0,1.0
559515.9416831,309241.75,299494.25,318945.46875,312075.78125,343109.75,299702.125,298167.28125,299149.0625,-0.0341796875,0.790283203125,-0.625244140625,-1.7089842557907104,-1.8920897245407104,-3.936767339706421,100.0,195623.0,1.0
559515.9442521,309708.125,303022.34375,321712.96875,313108.71875,352992.1875,303245.3125,301093.03125,300317.53125,-0.03515625,0.786865234375,-0.626708984375,-1.3122557401657104,-1.9531248807907104,-3.784179449081421,100.0,195624.0,1.0
559515.9467842,309728.0625,302702.96875,321576.625,312826.8125,355183.90625,303017.96875,301397.28125,300130.5625,-0.03564453125,0.785400390625,-0.624755859375,-0.4272460639476776,-1.9531248807907104,-3.723144292831421,100.0,195625.0,1.0
559515.9491579,309344.03125,299083.53125,318816.71875,311721.28125,346662.4375,299386.96875,298717.40625,298899.78125,-0.033935546875,0.783203125,-0.62158203125,0.3662109076976776,-2.075195074081421,-3.662109136581421,100.0,195626.0,1.0
559515.9533585,308931.34375,297048.34375,317151.25,311187.625,339196.59375,297317.03125,296709.84375,298262.6875,-0.03173828125,0.7822265625,-0.620361328125,1.3427733182907104,-2.197265386581421,-3.601073980331421,100.0,195627.0,1.0
559515.9605709,309126.96875,299313.375,318831.8125,311975.90625,342663.15625,299531.375,298043.625,299069.84375,-0.033935546875,0.779296875,-0.620361328125,2.319335699081421,-2.227782964706421,-3.662109136581421,100.0,195628.0,1.0
559515.9628913,309703.1875,302900.84375,321662.4375,313108.4375,352533.15625,303107.1875,300979.5,300264.3125,-0.03369140625,0.778564453125,-0.622802734375,3.143310308456421,-2.410888433456421,-3.631591558456421,100.0,195629.0,1.0
559515.9656112,309708.125,302631.625,321537.09375,312800.0625,354734.53125,302874.46875,301271.21875,300058.59375,-0.033447265625,0.776123046875,-0.620849609375,4.028319835662842,-2.593993902206421,-3.601073980331421,100.0,195630.0,1.0
559515.9680483,309156.75,298900.0625,318670.34375,311544.09375,346165.40625,299175.34375,298536.8125,298757.8125,-0.032958984375,0.773193359375,-0.620361328125,4.882812023162842,-2.716064214706421,-3.692626714706421,100.0,195631.0,1.0
559515.9703971,308846.0625,296900.28125,317038.59375,311056.8125,338670.15625,297122.8125,296542.84375,298146.4375,-0.0341796875,0.7734375,-0.621826171875,5.615233898162842,-2.838134527206421,-3.784179449081421,100.0,195632.0,1.0
559515.9729839,309116.59375,299218.71875,318762.0,311940.34375,342094.8125,299351.375,297884.5625,298982.65625,-0.0341796875,0.773681640625,-0.621826171875,6.286620616912842,-2.899169683456421,-3.875732183456421,100.0,195633.0,1.0
559515.9730293,309593.65625,302785.0625,321549.875,312993.375,351931.4375,302895.75,300794.6875,300145.3125,-0.02978515625,0.77392578125,-0.621337890625,6.988524913787842,-2.868652105331421,-3.784179449081421,100.0,195634.0,1.0
559515.9754069,309595.8125,302531.9375,321437.40625,312669.0,354206.15625,302700.40625,301121.375,299965.6875,-0.027587890625,0.7685546875,-0.620849609375,7.965087413787842,-2.777099370956421,-3.814697027206421,100.0,195635.0,1.0
559515.9781156,309100.0625,298836.65625,318611.96875,311488.375,345672.53125,299034.96875,298419.21875,298709.8125,-0.028076171875,0.768310546875,-0.6240234375,8.636473655700684,-2.532958745956421,-3.723144292831421,100.0,195636.0,1.0
559515.978155,308751.46875,296773.96875,316943.0,311014.15625,338101.4375,296936.5,296400.78125,298085.46875,-0.02783203125,0.76708984375,-0.622314453125,9.460448265075684,-2.441406011581421,-3.723144292831421,100.0,195637.0,1.0
559515.9829527,309009.75,299049.71875,318647.125,311868.71875,341451.25,299136.4375,297725.0625,298913.375,-0.030517578125,0.7666015625,-0.622314453125,10.040282249450684,-2.258300542831421,-3.692626714706421,100.0,195638.0,1.0
559515.9855169,309548.875,302642.8125,321473.875,312895.1875,351305.25,302706.125,300656.28125,300095.875,-0.02880859375,0.7666015625,-0.625732421875,10.650633811950684,-2.075195074081421,-3.631591558456421,100.0,195639.0,1.0
559515.9904665,309630.0625,302460.78125,321441.4375,312679.375,353653.96875,302576.21875,301041.28125,299968.375,-0.02685546875,0.766357421875,-0.626220703125,11.383055686950684,-2.044677495956421,-3.662109136581421,100.0,195640.0,1.0
559515.9929676,309139.21875,298775.5,318625.125,311530.03125,345132.9375,298926.15625,298358.96875,298724.65625,-0.027099609375,0.7666015625,-0.627197265625,12.176512718200684,-1.8920897245407104,-3.448486089706421,100.0,195641.0,1.0
559515.9930026,308734.03125,296690.28125,316906.90625,310987.875,337471.3125,296795.15625,296304.75,298071.15625,-0.025634765625,0.766845703125,-0.627685546875,12.847899436950684,-1.7089842557907104,-3.356933355331421,100.0,195642.0,1.0
559515.9955954,308987.125,298940.125,318578.4375,311769.21875,340707.75,298946.09375,297580.0625,298855.25,-0.02490234375,0.7646484375,-0.62646484375,13.427733421325684,-1.6784666776657104,-3.234863042831421,100.0,195643.0,1.0
559515.9956364,309506.0625,302524.53125,321416.59375,312844.34375,350541.0,302513.34375,300498.125,300032.21875,-0.0224609375,0.764404296875,-0.629150390625,14.068602561950684,-1.5258787870407104,-3.173827886581421,100.0,195644.0,1.0
559515.998036,309538.6875,302317.09375,321375.46875,312641.375,352931.75,302399.1875,300888.125,299901.78125,-0.0224609375,0.763916015625,-0.633056640625,14.678954124450684,-1.4648436307907104,-3.051757574081421,100.0,195645.0,1.0
559516.0030494,309079.21875,298623.15625,318556.375,311511.71875,344403.84375,298755.3125,298208.125,298652.21875,-0.018798828125,0.763671875,-0.633544921875,15.228270530700684,-1.3427733182907104,-3.051757574081421,100.0,195646.0,1.0
559516.0079263,308692.0,296521.90625,316821.5,310907.0625,336656.28125,296602.46875,296125.125,297985.78125,-0.0185546875,0.766357421875,-0.634765625,15.716551780700684,-1.3732908964157104,-2.838134527206421,100.0,195647.0,1.0
559516.0079335,308965.125,298789.90625,318521.40625,311762.9375,339811.875,298768.0,297400.25,298796.25,-0.01708984375,0.770751953125,-0.63525390625,16.387937545776367,-1.0986326932907104,-2.563476324081421,100.0,195648.0,1.0
559516.0129266,309458.5,302367.53125,321361.5,312836.71875,349588.1875,302354.21875,300321.09375,299967.21875,-0.017822265625,0.7744140625,-0.6376953125,16.845701217651367,-0.9155272841453552,-2.319335699081421,100.0,195649.0,1.0
559516.0230015,309508.5625,302212.21875,321323.6875,312572.875,351955.0625,302234.9375,300709.03125,299799.3125,-0.017822265625,0.77685546875,-0.642578125,17.364500045776367,-0.7934569716453552,-2.014159917831421,100.0,195650.0,1.0
559516.0253145,308977.84375,298525.875,318470.09375,311346.9375,343428.84375,298593.40625,298058.8125,298548.25,-0.017333984375,0.778564453125,-0.6435546875,17.944334030151367,-0.4882812201976776,-1.5563963651657104,100.0,195651.0,1.0
559516.0278674,308608.6875,296398.09375,316732.09375,310816.3125,335655.28125,296453.71875,296017.84375,297904.40625,-0.017822265625,0.78173828125,-0.64306640625,18.493650436401367,-0.1525878757238388,-1.2817381620407104,100.0,195652.0,1.0
559516.0304591,308929.1875,298650.0,318428.25,311710.8125,338750.09375,298594.5625,297284.125,298722.21875,-0.021240234375,0.78173828125,-0.642822265625,19.256589889526367,0.3051757514476776,-1.0375975370407104,100.0,195653.0,1.0
559516.0329562,309522.6875,302305.46875,321304.28125,312841.125,348509.125,302173.15625,300189.65625,299926.4375,-0.02001953125,0.7861328125,-0.646484375,19.805906295776367,0.6408690810203552,-0.7629393935203552,100.0,195654.0,1.0
559516.036586,309503.71875,302126.3125,321232.03125,312583.625,350892.8125,302054.34375,300571.625,299790.71875,-0.021484375,0.789794921875,-0.645263671875,20.446775436401367,1.0375975370407104,-0.5187987685203552,100.0,195655.0,1.0
559516.069285,308949.9375,298396.25,318327.5625,311327.1875,342331.65625,298388.28125,297895.21875,298518.1875,-0.0224609375,0.791259765625,-0.645263671875,20.996091842651367,1.5563963651657104,-0.3356933295726776,100.0,195656.0,1.0
559516.0693264,308626.90625,296267.1875,316603.8125,310839.75,334544.21875,296243.5,295860.9375,297885.375,-0.02197265625,0.794921875,-0.64306640625,21.423337936401367,1.9531248807907104,-0.0610351525247097,100.0,195657.0,1.0
559516.071797,308946.1875,298518.90625,318319.0625,311738.28125,337621.3125,298370.9375,297115.0625,298703.90625,-0.0244140625,0.79638671875,-0.639404296875,21.606443405151367,2.227782964706421,0.1220703050494194,100.0,195658.0,1.0
559516.0718378,309416.90625,302122.5625,321164.53125,312747.9375,347396.09375,301930.15625,300000.03125,299874.40625,-0.02587890625,0.79736328125,-0.6328125,21.820066452026367,2.624511480331421,0.3356933295726776,100.0,195659.0,1.0
559516.0743163,309444.8125,302004.34375,321149.0,312494.9375,349875.8125,301860.40625,300424.53125,299750.59375,-0.029296875,0.794677734375,-0.627197265625,21.881101608276367,2.746581792831421,0.7019042372703552,100.0,195660.0,1.0
559516.0767915,308936.53125,298313.1875,318287.34375,311337.03125,341380.96875,298238.96875,297796.40625,298517.75,-0.029541015625,0.79443359375,-0.623046875,21.789548873901367,2.990722417831421,0.8850097060203552,100.0,195661.0,1.0
559516.0791815,308588.03125,296168.75,316538.09375,310832.40625,333544.5625,296068.90625,295750.6875,297874.03125,-0.030029296875,0.790771484375,-0.62255859375,21.575925827026367,2.990722417831421,1.0681151151657104,100.0,195662.0,1.0
559516.0816593,308946.625,298446.59375,318270.78125,311694.28125,336546.46875,298175.9375,296988.625,298675.03125,-0.03076171875,0.787109375,-0.6162109375,21.240232467651367,2.929687261581421,1.0070799589157104,100.0,195663.0,1.0
559516.0841411,309489.96875,302119.875,321205.84375,312788.4375,346383.46875,301787.53125,299932.71875,299893.71875,-0.0283203125,0.78271484375,-0.619384765625,20.996091842651367,2.746581792831421,1.0986326932907104,100.0,195664.0,1.0
559516.0866461,309540.5625,302032.25,321249.65625,312618.5625,348995.3125,301799.0,300438.21875,299827.5625,-0.028564453125,0.7802734375,-0.618408203125,20.599363327026367,2.563476324081421,1.1901854276657104,100.0,195665.0,1.0
559516.0893484,309058.03125,298356.5625,318385.9375,311463.4375,340520.78125,298203.5,297819.75,298595.0,-0.023681640625,0.782470703125,-0.620849609375,20.172117233276367,2.349853277206421,1.2817381620407104,100.0,195666.0,1.0
559516.0893877,308682.625,296174.40625,316591.71875,310915.09375,332629.375,296009.875,295748.28125,297930.09375,-0.020751953125,0.7861328125,-0.62548828125,19.744871139526367,2.197265386581421,1.3122557401657104,100.0,195667.0,1.0
559516.0916586,308922.03125,298362.625,318246.65625,311701.0,335549.84375,298046.84375,296927.5625,298677.25,-0.021484375,0.79248046875,-0.62744140625,19.287107467651367,2.014159917831421,1.5869139432907104,100.0,195668.0,1.0
559516.0943005,309433.4375,302014.375,321150.25,312721.5625,345351.71875,301615.71875,299817.90625,299848.125,-0.01904296875,0.794677734375,-0.632080078125,19.042966842651367,1.8310545682907104,1.7395018339157104,100.0,195669.0,1.0
559516.0992037,309531.96875,301989.34375,321209.0625,312563.9375,347981.53125,301624.5625,300303.84375,299768.90625,-0.01953125,0.79736328125,-0.6328125,18.920896530151367,1.8615721464157104,2.044677495956421,100.0,195670.0,1.0
559516.1056,309008.9375,298286.09375,318315.0625,311384.3125,339546.96875,298029.5,297704.5,298536.09375,-0.019287109375,0.79931640625,-0.630615234375,18.890378952026367,1.9836424589157104,2.197265386581421,100.0,195671.0,1.0
559516.1056373,308649.4375,296104.5625,316524.5,310892.5,331632.03125,295840.8125,295653.15625,297878.84375,-0.020263671875,0.797607421875,-0.629150390625,18.890378952026367,2.105712652206421,2.380370855331421,100.0,195672.0,1.0
559516.1080803,308912.03125,298298.53125,318187.75,311670.875,334523.90625,297881.4375,296828.59375,298630.40625,-0.023193359375,0.795166015625,-0.6298828125,18.951414108276367,2.349853277206421,2.471923589706421,100.0,195673.0,1.0
559516.1103903,309485.65625,302015.09375,321158.0,312759.3125,344367.875,301489.375,299743.15625,299829.53125,-0.021484375,0.79296875,-0.6337890625,19.134519577026367,2.807616949081421,2.441406011581421,100.0,195674.0,1.0
559516.1166528,309525.09375,301988.875,321229.71875,312591.9375,347092.125,301529.25,300259.59375,299750.125,-0.0185546875,0.794189453125,-0.64111328125,19.561765670776367,3.295898199081421,2.471923589706421,100.0,195675.0,1.0
559516.123052,308996.875,298309.71875,318341.875,311394.15625,338712.71875,297954.21875,297676.6875,298514.28125,-0.01708984375,0.79541015625,-0.651611328125,20.050046920776367,3.662109136581421,2.349853277206421,100.0,195676.0,1.0
559516.1230911,308625.21875,296118.25,316522.96875,310850.09375,330798.15625,295761.6875,295615.34375,297855.25,-0.014892578125,0.805419921875,-0.658203125,20.660398483276367,3.936767339706421,2.197265386581421,100.0,195677.0,1.0
559516.1255879,308906.125,298269.1875,318167.625,311636.0,333646.21875,297779.875,296772.53125,298614.125,-0.01806640625,0.816650390625,-0.65625,21.484373092651367,4.028319835662842,2.136230230331421,100.0,195678.0,1.0
559516.1379376,309470.09375,302009.28125,321147.46875,312728.0,343509.3125,301392.71875,299678.53125,299817.65625,-0.0166015625,0.82568359375,-0.64111328125,21.911619186401367,4.150390148162842,2.136230230331421,100.0,195679.0,1.0
559516.1404541,309512.9375,302005.0625,321235.875,312559.84375,346334.40625,301462.375,300210.21875,299747.8125,-0.015380859375,0.8310546875,-0.626953125,21.759031295776367,4.272460460662842,2.532958745956421,100.0,195680.0,1.0
559516.1404889,308942.875,298295.03125,318329.625,311356.5,338028.03125,297903.875,297643.09375,298514.09375,-0.0126953125,0.833984375,-0.62158203125,21.514890670776367,4.394530773162842,2.685546636581421,100.0,195681.0,1.0
559516.1430471,308586.6875,296103.0625,316505.71875,310820.78125,330114.8125,295703.03125,295577.59375,297849.53125,-0.015625,0.84130859375,-0.621826171875,20.843503952026367,4.425048351287842,2.593993902206421,100.0,195682.0,1.0
559516.1467617,308908.09375,298312.46875,318194.4375,311677.3125,332988.15625,297747.96875,296747.5,298628.8125,-0.01904296875,0.848876953125,-0.626953125,19.683835983276367,4.364013195037842,2.777099370956421,100.0,195683.0,1.0
559516.1605496,309465.09375,302047.90625,321197.09375,312790.40625,342932.1875,301393.0,299680.40625,299859.3125,-0.019287109375,0.852294921875,-0.630859375,17.852781295776367,3.936767339706421,2.807616949081421,100.0,195684.0,1.0
559516.1645156,309480.65625,302064.25,321277.03125,312542.9375,345846.78125,301484.71875,300224.34375,299778.46875,-0.02197265625,0.85205078125,-0.634033203125,16.113279342651367,3.387450933456421,3.112792730331421,100.0,195685.0,1.0
559516.1645572,308992.40625,298422.4375,318414.21875,311403.8125,337646.0,297976.84375,297705.9375,298571.3125,-0.021728515625,0.848876953125,-0.6376953125,14.556883811950684,2.990722417831421,3.173827886581421,100.0,195686.0,1.0
559516.1645678,308614.40625,296221.25,316564.5625,310833.125,329737.15625,295762.3125,295633.125,297881.96875,-0.0185546875,0.8447265625,-0.639404296875,13.458250999450684,2.624511480331421,2.990722417831421,100.0,195687.0,1.0
559516.175567,308886.1875,298387.9375,318217.78125,311661.75,332606.5,297804.375,296807.5625,298645.6875,-0.0166015625,0.83544921875,-0.641845703125,12.573241233825684,2.410888433456421,2.685546636581421,100.0,195688.0,1.0
559516.1756029,309445.34375,302110.03125,321203.6875,312741.96875,342582.0625,301447.25,299740.125,299851.25,-0.01708984375,0.8310546875,-0.640869140625,12.237547874450684,2.563476324081421,2.502441167831421,100.0,195689.0,1.0
559516.1779647,309544.3125,302200.4375,321352.5625,312606.40625,345643.0,301604.4375,300330.21875,299809.6875,-0.015380859375,0.828125,-0.638916015625,12.298583030700684,2.655029058456421,2.380370855331421,100.0,195690.0,1.0
559516.1805322,309048.09375,298598.40625,318502.0,311460.03125,337551.0625,298119.71875,297824.75,298615.375,-0.0126953125,0.825439453125,-0.639404296875,12.695311546325684,2.868652105331421,2.349853277206421,100.0,195691.0,1.0
559516.186785,308619.9375,296356.25,316615.59375,310854.5625,329678.6875,295884.09375,295737.28125,297919.34375,-0.01025390625,0.827392578125,-0.643798828125,13.244627952575684,3.204345464706421,2.258300542831421,100.0,195692.0,1.0
559516.1893079,308898.0,298513.46875,318252.90625,311647.09375,332544.0,297897.8125,296891.0,298680.65625,-0.00732421875,0.828369140625,-0.64111328125,13.793944358825684,3.509521245956421,2.319335699081421,100.0,195693.0,1.0
559516.1893506,309465.5625,302224.375,321246.0,312742.3125,342557.125,301536.5,299812.625,299890.25,-0.00537109375,0.83056640625,-0.641845703125,13.824461936950684,3.662109136581421,2.319335699081421,100.0,195694.0,1.0
559516.2104307,309549.875,302324.4375,321404.6875,312606.875,345713.71875,301711.375,300409.0625,299855.0,-0.00341796875,0.83642578125,-0.636962890625,13.732909202575684,3.936767339706421,2.197265386581421,100.0,195695.0,1.0
559516.2364205,309028.15625,298721.96875,318563.25,311459.59375,337732.5625,298247.03125,297922.84375,298644.1875,-0.003662109375,0.84912109375,-0.63037109375,13.000487327575684,4.028319835662842,2.136230230331421,100.0,195696.0,1.0
559516.2364602,308625.125,296456.3125,316695.0,310896.34375,329919.625,296028.40625,295843.15625,297968.78125,-0.003173828125,0.859130859375,-0.627685546875,10.925292015075684,4.211425304412842,2.502441167831421,100.0,195697.0,1.0
559516.2364691,308937.6875,298596.0625,318324.09375,311692.21875,332743.09375,298036.3125,296934.71875,298746.09375,-0.00390625,0.860107421875,-0.623046875,7.934569835662842,4.333495616912842,3.173827886581421,100.0,195698.0,1.0
559516.2364788,309522.3125,302330.96875,321320.75,312829.75,342754.625,301711.28125,299818.28125,300004.15625,-0.0029296875,0.867919921875,-0.613037109375,3.997802495956421,4.394530773162842,3.814697027206421,100.0,195699.0,1.0
559516.272011,309608.6875,302468.1875,321489.96875,312685.09375,345979.1875,301934.0,300467.09375,299950.3125,-0.00244140625,0.860595703125,-0.611083984375,-0.8544921278953552,4.455565929412842,4.150390148162842,100.0,195700.0,1.0
559516.2720482,309108.46875,298894.78125,318664.46875,311568.75,338041.4375,298484.6875,297996.25,298749.9375,-0.004638671875,0.853271484375,-0.606201171875,-5.706786632537842,4.791259288787842,4.241942882537842,100.0,195701.0,1.0
559516.2732684,308671.25,296629.3125,316767.34375,310964.53125,330182.5,296245.28125,295877.5625,298061.0625,-0.004150390625,0.846435546875,-0.6083984375,-10.742186546325684,5.371093273162842,4.028319835662842,100.0,195702.0,1.0
559516.2805256,308928.5625,298713.03125,318355.09375,311650.03125,332992.8125,298249.71875,297025.90625,298812.4375,-0.005615234375,0.83984375,-0.608642578125,-15.441893577575684,6.011962413787842,3.662109136581421,100.0,195703.0,1.0
559516.2829583,309534.65625,302445.40625,321377.34375,312794.875,343068.4375,301950.96875,300004.5,300050.90625,-0.006591796875,0.834228515625,-0.611572265625,-19.927976608276367,6.835937023162842,3.509521245956421,100.0,195704.0,1.0
559516.2853986,309606.625,302601.5,321588.78125,312690.28125,346457.5,302209.53125,300684.0,300023.8125,-0.001953125,0.82861328125,-0.610595703125,-24.047849655151367,7.934569835662842,3.295898199081421,100.0,195705.0,1.0
559516.2881039,309122.3125,299040.6875,318800.71875,311559.625,338671.5,298791.25,298239.6875,298837.90625,-0.001953125,0.81689453125,-0.618408203125,-27.282712936401367,9.155272483825684,3.234863042831421,100.0,195706.0,1.0
559516.2881441,308717.21875,296766.90625,316918.6875,310955.6875,330878.0,296561.625,296148.1875,298149.5,-0.00341796875,0.8095703125,-0.6220703125,-29.479978561401367,10.559081077575684,2.960204839706421,100.0,195707.0,1.0
559516.2904334,308970.25,298809.65625,318479.75,311727.625,333673.46875,298539.75,297269.1875,298904.96875,-0.003173828125,0.80517578125,-0.6259765625,-31.097410202026367,11.962889671325684,2.685546636581421,100.0,195708.0,1.0
559516.293014,309598.59375,302564.84375,321507.78125,312914.78125,343779.0625,302257.375,300239.8125,300162.03125,-0.002685546875,0.79833984375,-0.62890625,-32.104488372802734,13.275145530700684,2.655029058456421,100.0,195709.0,1.0
559516.2955544,309700.40625,302761.375,321749.34375,312818.59375,347274.59375,302556.09375,300964.1875,300162.40625,-0.004638671875,0.7900390625,-0.6318359375,-32.043453216552734,14.434813499450684,2.593993902206421,100.0,195710.0,1.0
559516.297927,309198.65625,299200.8125,318965.65625,311671.65625,339573.15625,299140.46875,298551.28125,298969.15625,-0.0087890625,0.785888671875,-0.633544921875,-31.311033248901367,15.533446311950684,2.349853277206421,100.0,195711.0,1.0
559516.300392,308817.15625,296919.78125,317080.34375,311071.03125,331757.40625,296872.3125,296443.34375,298270.09375,-0.010986328125,0.781005859375,-0.63330078125,-29.937742233276367,16.174314498901367,2.227782964706421,100.0,195712.0,1.0
559516.3030232,309086.65625,298963.8125,318633.875,311859.0625,334493.34375,298822.625,297487.34375,299018.625,-0.0146484375,0.777587890625,-0.6328125,-28.045652389526367,16.357419967651367,2.044677495956421,100.0,195713.0,1.0
559516.3055127,309680.03125,302710.0625,321633.84375,313029.84375,344562.25,302511.84375,300410.6875,300250.375,-0.013671875,0.77001953125,-0.63916015625,-25.939939498901367,16.357419967651367,1.7089842557907104,100.0,195714.0,1.0
559516.3079236,309740.375,302902.28125,321872.8125,312895.5625,348104.65625,302802.9375,301123.53125,300223.8125,-0.01708984375,0.768798828125,-0.63720703125,-23.040769577026367,16.143796920776367,1.1901854276657104,100.0,195715.0,1.0
559516.3103914,309219.6875,299357.03125,319095.40625,311724.5,340452.21875,299384.5625,298712.125,299012.96875,-0.02099609375,0.76708984375,-0.63232421875,-20.202634811401367,15.319823265075684,0.8850097060203552,100.0,195716.0,1.0
559516.3130509,308808.75,297046.65625,317184.15625,311124.5,332627.0625,297100.84375,296612.21875,298297.8125,-0.02001953125,0.767578125,-0.629150390625,-17.791746139526367,14.251708030700684,0.7629393935203552,100.0,195717.0,1.0
559516.3154044,309080.375,299077.4375,318709.25,311856.375,335283.875,299012.53125,297656.125,299021.75,-0.01806640625,0.76708984375,-0.623046875,-15.075682640075684,13.031004905700684,0.7324218153953552,100.0,195718.0,1.0
559516.3180882,309651.96875,302829.75,321691.34375,312971.03125,345352.875,302698.96875,300550.0625,300257.78125,-0.01806640625,0.769775390625,-0.619384765625,-12.847899436950684,11.413573265075684,0.7324218153953552,100.0,195719.0,1.0
559516.3181294,309748.4375,303101.46875,321978.3125,312882.3125,349014.5625,303045.78125,301247.53125,300287.9375,-0.01806640625,0.77001953125,-0.614013671875,-10.742186546325684,9.857176780700684,0.7629393935203552,100.0,195720.0,1.0
559516.3291207,309284.6875,299649.5625,319260.09375,311728.25,341488.8125,299657.875,298849.0,299107.3125,-0.018310546875,0.771240234375,-0.609619140625,-9.063719749450684,8.056639671325684,0.8544921278953552,100.0,195721.0,1.0
559516.3291329,308891.28125,297380.5,317362.5,311135.40625,333713.15625,297363.15625,296689.8125,298393.75,-0.0166015625,0.773193359375,-0.609375,-8.087157249450684,6.317138195037842,0.7324218153953552,100.0,195722.0,1.0
559516.3291351,309116.78125,299363.8125,318843.1875,311876.40625,336383.3125,299261.09375,297708.96875,299093.71875,-0.016845703125,0.777099609375,-0.6083984375,-7.232665538787842,4.577636241912842,0.7934569716453552,100.0,195723.0,1.0
559516.3317305,309698.0,303079.375,321816.40625,313004.90625,346521.71875,302969.875,300652.0,300327.53125,-0.015380859375,0.78271484375,-0.60791015625,-7.476806163787842,2.868652105331421,0.7324218153953552,100.0,195724.0,1.0
559516.3317437,309828.8125,303392.21875,322146.5,312954.03125,350350.125,303360.84375,301404.53125,300358.8125,-0.0146484375,0.78515625,-0.609130859375,-7.781981945037842,1.1596678495407104,0.6103515028953552,100.0,195725.0,1.0
559516.3342795,309359.875,299974.8125,319462.0625,311814.375,343000.21875,300006.03125,299021.90625,299166.125,-0.012451171875,0.78759765625,-0.609130859375,-8.209227561950684,-0.0915527269244194,0.4882812201976776,100.0,195726.0,1.0
559516.3342932,308960.21875,297671.96875,317555.8125,311187.09375,335282.71875,297699.6875,296930.96875,298413.25,-0.01123046875,0.788818359375,-0.614013671875,-9.185790061950684,-1.1596678495407104,0.3967284858226776,100.0,195727.0,1.0
559516.3367729,309204.3125,299597.6875,319006.71875,311931.125,337864.78125,299560.15625,297950.03125,299100.0625,-0.0107421875,0.79052734375,-0.615478515625,-9.948729515075684,-1.8310545682907104,0.4272460639476776,100.0,195728.0,1.0
559516.3390444,309731.96875,303239.15625,321922.4375,313055.5,347892.65625,303222.25,300855.9375,300324.3125,-0.009521484375,0.7958984375,-0.619384765625,-10.894774436950684,-2.197265386581421,0.2746581733226776,100.0,195729.0,1.0
559516.3441971,309819.15625,303507.75,322220.625,312943.3125,351698.1875,303593.21875,301645.125,300353.0,-0.0078125,0.79541015625,-0.62255859375,-11.871336936950684,-2.227782964706421,-0.03051757626235485,100.0,195730.0,1.0
559516.3467204,309382.125,300079.875,319544.40625,311804.96875,344328.90625,300221.59375,299307.125,299169.25,-0.00634765625,0.796142578125,-0.626708984375,-12.115477561950684,-1.9226073026657104,-0.1831054538488388,100.0,195731.0,1.0
559516.3492468,308964.0625,297717.46875,317598.0,311173.5,336478.25,297860.6875,297165.375,298417.71875,-0.003173828125,0.799560546875,-0.634033203125,-12.390135765075684,-1.3427733182907104,-0.3662109076976776,100.0,195732.0,1.0
559516.3517458,309174.96875,299539.125,318971.65625,311898.84375,338834.84375,299640.15625,298100.40625,299097.46875,-0.005126953125,0.8017578125,-0.640625,-12.695311546325684,-0.5187987685203552,-0.7629393935203552,100.0,195733.0,1.0
559516.3567879,309711.0625,303116.125,321845.71875,313047.90625,348659.5,303246.9375,300946.59375,300316.625,-0.005615234375,0.802734375,-0.6396484375,-12.451170921325684,0.4272460639476776,-0.8239745497703552,100.0,195734.0,1.0
559516.3568044,309830.40625,303418.34375,322176.8125,312971.71875,352421.65625,303633.0,301713.34375,300361.5,-0.0048828125,0.80517578125,-0.639404296875,-12.390135765075684,1.4953612089157104,-0.9765624403953552,100.0,195735.0,1.0
559516.3590799,309365.5,299972.75,319504.53125,311825.53125,345056.875,300263.5,299341.09375,299165.96875,-0.005126953125,0.804443359375,-0.638916015625,-12.145995140075684,2.502441167831421,-1.0986326932907104,100.0,195736.0,1.0
559516.3616098,308953.34375,297574.40625,317539.1875,311181.625,337124.59375,297867.75,297158.0625,298396.59375,-0.008544921875,0.8046875,-0.634765625,-11.688231468200684,3.570556402206421,-1.1596678495407104,100.0,195737.0,1.0
559516.3904724,309133.84375,299344.0625,318846.40625,311868.8125,339293.0625,299585.71875,298027.34375,299053.9375,-0.01025390625,0.80615234375,-0.629638671875,-11.413573265075684,4.302978038787842,-1.4343260526657104,100.0,195738.0,1.0
559516.3905123,309656.96875,302909.78125,321686.40625,313006.59375,348985.5,303169.78125,300828.46875,300280.15625,-0.01171875,0.809326171875,-0.62744140625,-11.230467796325684,4.882812023162842,-1.6479490995407104,100.0,195739.0,1.0
559516.3931112,309777.3125,303229.21875,322033.3125,312953.5,352731.90625,303565.125,301581.03125,300328.5,-0.015380859375,0.809814453125,-0.62451171875,-11.169432640075684,5.310058116912842,-1.6479490995407104,100.0,195740.0,1.0
559516.3931504,309314.625,299836.875,319392.40625,311812.9375,345402.875,300211.21875,299154.6875,299160.0625,-0.017822265625,0.809814453125,-0.62451171875,-11.505125999450684,5.310058116912842,-1.7700194120407104,100.0,195741.0,1.0
559516.3956699,308908.0,297445.75,317424.8125,311179.9375,337407.03125,297795.78125,296838.96875,298426.90625,-0.020751953125,0.809326171875,-0.617431640625,-11.718749046325684,5.035399913787842,-1.8920897245407104,100.0,195742.0,1.0
559516.397921,309096.84375,299193.40625,318716.3125,311858.15625,339461.6875,299491.40625,297645.9375,299099.875,-0.02294921875,0.808837890625,-0.621337890625,-11.993407249450684,4.486083507537842,-2.014159917831421,100.0,195743.0,1.0
559516.4004035,309587.6875,302735.4375,321527.71875,312941.96875,349083.46875,303068.9375,300413.8125,300337.8125,-0.020751953125,0.808837890625,-0.618408203125,-12.298583030700684,3.845214605331421,-2.136230230331421,100.0,195744.0,1.0
559516.402919,309728.21875,303106.9375,321911.4375,312887.25,352868.15625,303507.90625,301072.46875,300431.96875,-0.01904296875,0.80419921875,-0.613525390625,-12.481688499450684,2.838134527206421,-2.014159917831421,100.0,195745.0,1.0
559516.4053973,309319.5625,299779.90625,319335.09375,311787.90625,345579.4375,300183.125,298587.21875,299296.84375,-0.0146484375,0.8017578125,-0.609619140625,-13.092040061950684,1.9531248807907104,-1.8310545682907104,100.0,195746.0,1.0
559516.4104068,308914.1875,297399.90625,317376.71875,311137.5625,337529.78125,297749.46875,296421.96875,298513.28125,-0.01025390625,0.79248046875,-0.609619140625,-13.092040061950684,1.0070799589157104,-1.4648436307907104,100.0,195747.0,1.0
559516.4130677,309077.34375,299135.09375,318642.8125,311814.53125,339483.0625,299423.71875,297346.875,299131.96875,-0.010009765625,0.787353515625,-0.61279296875,-13.275145530700684,0.2441406100988388,-1.5258787870407104,100.0,195748.0,1.0
559516.4131087,309608.59375,302707.90625,321484.1875,312976.46875,349077.59375,303028.34375,300212.28125,300343.25,-0.009033203125,0.780517578125,-0.612548828125,-12.756346702575684,-0.7324218153953552,-1.2817381620407104,100.0,195749.0,1.0
559516.415553,309746.03125,303101.28125,321887.3125,312939.5625,352895.875,303478.5,301045.90625,300379.21875,-0.00927734375,0.7724609375,-0.61474609375,-12.359618186950684,-1.5563963651657104,-1.2512205839157104,100.0,195750.0,1.0
559516.4379927,309336.4375,299792.78125,319321.25,311803.625,345642.75,300159.0,298782.3125,299187.59375,-0.010986328125,0.763427734375,-0.61962890625,-11.840819358825684,-2.258300542831421,-1.1596678495407104,100.0,195751.0,1.0
559516.4380332,308918.375,297382.8125,317334.25,311120.5625,337549.71875,297707.09375,296599.0,298388.90625,-0.0107421875,0.759765625,-0.61962890625,-10.864256858825684,-2.960204839706421,-0.8544921278953552,100.0,195752.0,1.0
559516.4405197,309073.78125,299055.53125,318567.28125,311795.84375,339408.65625,299344.21875,297459.53125,299011.5625,-0.01123046875,0.75244140625,-0.619873046875,-10.162352561950684,-3.509521245956421,-0.8239745497703552,100.0,195753.0,1.0
559516.4405564,309572.03125,302592.46875,321393.34375,312930.34375,348967.78125,302931.875,300311.15625,300226.5,-0.010009765625,0.74658203125,-0.618408203125,-8.758543968200684,-3.723144292831421,-0.5493163466453552,100.0,195754.0,1.0
559516.4455513,309746.03125,303026.28125,321845.1875,312931.21875,352843.59375,303420.125,301163.5,300312.78125,-0.013427734375,0.74365234375,-0.61328125,-7.385253429412842,-3.875732183456421,-0.3356933295726776,100.0,195755.0,1.0
559516.4480251,309371.6875,299753.09375,319323.84375,311842.25,345620.03125,300129.40625,298872.15625,299168.0,-0.015625,0.740478515625,-0.613037109375,-6.134032726287842,-3.906249761581421,-0.2746581733226776,100.0,195756.0,1.0
559516.4504062,308972.46875,297345.375,317352.40625,311196.375,337487.75,297663.375,296661.84375,298386.6875,-0.01708984375,0.7373046875,-0.61376953125,-4.821776866912842,-3.875732183456421,-0.1220703050494194,100.0,195757.0,1.0
559516.4580271,309111.6875,298995.46875,318562.25,311838.3125,339270.71875,299262.4375,297477.59375,298994.5625,-0.01953125,0.7333984375,-0.61181640625,-3.631591558456421,-3.723144292831421,-0.3051757514476776,100.0,195758.0,1.0
559516.463043,309604.21875,302543.9375,321385.28125,312953.3125,348808.65625,302841.9375,300317.96875,300211.75,-0.020263671875,0.731689453125,-0.61279296875,-2.624511480331421,-3.692626714706421,-0.4577636420726776,100.0,195759.0,1.0
559516.4655658,309740.9375,302977.375,321816.9375,312914.5,352692.65625,303311.03125,301162.15625,300283.09375,-0.02099609375,0.735107421875,-0.61328125,-1.6784666776657104,-3.631591558456421,-0.7324218153953552,100.0,195760.0,1.0
559516.467983,309329.28125,299668.96875,319251.59375,311784.125,345411.71875,299952.46875,298832.90625,299095.5,-0.02001953125,0.738037109375,-0.610595703125,-1.1901854276657104,-3.570556402206421,-0.7324218153953552,100.0,195761.0,1.0
559516.4680204,308903.1875,297212.78125,317236.96875,311099.28125,337157.21875,297418.5,296584.96875,298281.1875,-0.019287109375,0.73876953125,-0.60791015625,-0.6103515028953552,-3.356933355331421,-0.6103515028953552,100.0,195762.0,1.0
559516.4771098,309043.5625,298836.9375,318438.0625,311754.90625,338854.15625,299005.1875,297388.625,298890.125,-0.01953125,0.7412109375,-0.607177734375,-0.0610351525247097,-3.173827886581421,-0.7019042372703552,100.0,195763.0,1.0
559516.4841428,309550.125,302385.84375,321274.4375,312886.34375,348384.5,302606.0625,300237.0625,300116.0,-0.021240234375,0.743896484375,-0.60791015625,0.5493163466453552,-3.051757574081421,-0.7934569716453552,100.0,195764.0,1.0
559516.4867927,309694.15625,302843.25,321734.59375,312862.125,352315.0,303116.75,301103.59375,300203.34375,-0.02392578125,0.745849609375,-0.608154296875,1.2207030057907104,-2.899169683456421,-0.8850097060203552,100.0,195765.0,1.0
559516.4893382,309268.84375,299529.03125,319164.25,311724.25,345031.03125,299777.125,298767.65625,299021.21875,-0.021484375,0.751953125,-0.61279296875,1.8310545682907104,-2.929687261581421,-0.7629393935203552,100.0,195766.0,1.0
559516.4893785,308837.28125,297048.4375,317122.4375,311029.625,336703.65625,297233.59375,296489.03125,298201.0625,-0.021484375,0.75390625,-0.613525390625,2.288818120956421,-3.021239995956421,-0.7934569716453552,100.0,195767.0,1.0
559516.4917048,308989.09375,298685.65625,318318.625,311684.71875,338327.03125,298813.59375,297276.25,298814.84375,-0.02001953125,0.758056640625,-0.615478515625,2.868652105331421,-3.143310308456421,-0.6713866591453552,100.0,195768.0,1.0
559516.4941371,309496.65625,302264.09375,321163.1875,312822.5,347830.34375,302422.6875,300112.0625,300042.59375,-0.019287109375,0.763671875,-0.615234375,3.417968511581421,-3.356933355331421,-0.6408690810203552,100.0,195769.0,1.0
559516.5067825,309643.03125,302746.78125,321638.65625,312813.5625,351791.71875,302951.625,300982.78125,300136.8125,-0.019287109375,0.769287109375,-0.614501953125,3.875732183456421,-3.570556402206421,-0.5493163466453552,100.0,195770.0,1.0
559516.5092954,309243.28125,299451.78125,319094.21875,311693.65625,344530.4375,299630.59375,298666.53125,298969.875,-0.02197265625,0.774169921875,-0.61328125,4.394530773162842,-3.784179449081421,-0.3967284858226776,100.0,195771.0,1.0
559516.5117398,308825.21875,296962.6875,317058.96875,311009.0625,336158.1875,297078.5625,296385.3125,298154.5,-0.0224609375,0.778076171875,-0.614990234375,4.730224132537842,-4.058837413787842,-0.2746581733226776,100.0,195772.0,1.0
559516.5117782,308976.125,298580.6875,318241.90625,311665.59375,337712.0,298639.25,297150.4375,298765.0625,-0.02294921875,0.781982421875,-0.61328125,5.157470226287842,-4.302978038787842,-0.1831054538488388,100.0,195773.0,1.0
559516.5141713,309479.9375,302169.03125,321093.65625,312799.71875,347213.4375,302258.09375,299986.625,300002.34375,-0.0244140625,0.787109375,-0.613525390625,5.523681163787842,-4.364013195037842,-0.1220703050494194,100.0,195774.0,1.0
559516.5166754,309633.90625,302676.15625,321589.125,312802.65625,351217.8125,302808.21875,300873.4375,300104.71875,-0.027587890625,0.79296875,-0.615478515625,5.828856945037842,-4.486083507537842,0.03051757626235485,100.0,195775.0,1.0
559516.5218072,309225.3125,299394.65625,319043.53125,311684.625,343976.5625,299495.40625,298569.6875,298938.25,-0.027587890625,0.799072265625,-0.6171875,6.103515148162842,-4.638671398162842,0.0610351525247097,100.0,195776.0,1.0
559516.5242031,308794.625,296893.75,316988.53125,310987.0625,335566.65625,296926.3125,296274.53125,298116.75,-0.026611328125,0.801513671875,-0.61767578125,6.256103038787842,-4.791259288787842,0.1831054538488388,100.0,195777.0,1.0
559516.528097,308946.625,298498.8125,318166.28125,311637.34375,337066.28125,298473.0625,297034.59375,298724.71875,-0.022705078125,0.80322265625,-0.615966796875,6.072997570037842,-4.943847179412842,0.1220703050494194,100.0,195778.0,1.0
559516.5281445,309458.21875,302090.1875,321029.28125,312774.59375,346546.375,302095.1875,299878.875,299965.875,-0.026123046875,0.809814453125,-0.6162109375,5.981444835662842,-4.882812023162842,0.2136230319738388,100.0,195779.0,1.0
559516.5604428,309619.6875,302631.375,321549.8125,312782.625,350611.09375,302685.71875,300791.375,300084.0,-0.027099609375,0.814697265625,-0.61572265625,5.645751476287842,-4.791259288787842,0.2136230319738388,100.0,195780.0,1.0
559516.5630905,309216.625,299361.3125,319014.3125,311665.78125,343411.5,299393.84375,298496.75,298917.21875,-0.023681640625,0.8203125,-0.615234375,5.126952648162842,-4.821776866912842,0.2746581733226776,100.0,195781.0,1.0
559516.5631326,308788.28125,296848.96875,316953.375,310968.125,334980.34375,296821.875,296202.75,298091.09375,-0.0234375,0.825927734375,-0.615478515625,4.638671398162842,-4.760741710662842,0.4272460639476776,100.0,195782.0,1.0
559516.5655951,308933.84375,298428.96875,318115.9375,311612.9375,336422.90625,298350.65625,296945.71875,298694.0625,-0.0205078125,0.831787109375,-0.61474609375,4.180907726287842,-4.791259288787842,0.4882812201976776,100.0,195783.0,1.0
559516.5680545,309459.8125,302028.59375,320992.625,312770.9375,345904.0,301983.625,299793.59375,299943.53125,-0.022216796875,0.835693359375,-0.6171875,3.601073980331421,-4.608153820037842,0.5493163466453552,100.0,195784.0,1.0
559516.575572,309616.28125,302583.53125,321523.875,312781.75,350020.09375,302589.34375,300721.09375,300060.125,-0.017822265625,0.839599609375,-0.61572265625,2.746581792831421,-4.486083507537842,0.7934569716453552,100.0,195785.0,1.0
559516.5756101,309205.71875,299333.9375,318993.84375,311663.09375,342880.25,299318.125,298442.21875,298901.5,-0.0166015625,0.84130859375,-0.617431640625,1.9226073026657104,-4.364013195037842,0.9765624403953552,100.0,195786.0,1.0
559516.5756196,308778.90625,296827.4375,316931.375,310963.375,334461.15625,296757.96875,296155.34375,298084.40625,-0.014892578125,0.84228515625,-0.617431640625,1.3122557401657104,-4.180907726287842,1.1901854276657104,100.0,195787.0,1.0
559516.5756287,308925.71875,298393.375,318083.3125,311602.8125,335871.46875,298280.8125,296901.46875,298678.6875,-0.011474609375,0.844482421875,-0.61328125,0.7629393935203552,-3.997802495956421,1.4038084745407104,100.0,195788.0,1.0
559516.5780667,309444.4375,301983.15625,320956.21875,312751.25,345340.5625,301915.84375,299758.46875,299922.53125,-0.010986328125,0.848876953125,-0.613525390625,0.03051757626235485,-3.753661870956421,1.5869139432907104,100.0,195789.0,1.0
559516.5780963,309614.78125,302585.9375,321526.375,312777.28125,349551.4375,302574.0625,300722.8125,300068.59375,-0.012451171875,0.84912109375,-0.613525390625,-0.6713866591453552,-3.540038824081421,1.8310545682907104,100.0,195790.0,1.0
559516.5804077,309214.75,299369.09375,319023.59375,311668.625,342518.875,299339.5,298470.71875,298918.21875,-0.0126953125,0.84814453125,-0.61279296875,-1.3732908964157104,-3.234863042831421,2.166747808456421,100.0,195791.0,1.0
559516.5819549,308789.71875,296853.0,316955.0,310968.3125,334121.59375,296774.75,296186.03125,298091.28125,-0.011962890625,0.847412109375,-0.61279296875,-1.8920897245407104,-3.112792730331421,2.349853277206421,100.0,195792.0,1.0
559516.6120889,308933.5625,298393.21875,318088.0625,311604.34375,335499.0,298280.375,296916.46875,298690.21875,-0.01171875,0.845458984375,-0.612548828125,-2.502441167831421,-2.899169683456421,2.502441167831421,100.0,195793.0,1.0
559516.630341,309450.25,301979.875,320953.375,312753.84375,344980.15625,301914.875,299767.125,299940.21875,-0.009765625,0.845703125,-0.610107421875,-3.173827886581421,-2.655029058456421,2.685546636581421,100.0,195794.0,1.0
559516.6303569,309630.59375,302610.53125,321546.65625,312795.875,349283.9375,302605.8125,300759.8125,300094.625,-0.007080078125,0.845458984375,-0.61376953125,-3.845214605331421,-2.288818120956421,2.838134527206421,100.0,195795.0,1.0
559516.6342876,309243.0,299425.6875,319071.78125,311700.8125,342347.46875,299404.125,298538.0625,298963.8125,-0.009033203125,0.845703125,-0.61328125,-4.516601085662842,-2.075195074081421,3.143310308456421,100.0,195796.0,1.0
559516.6343031,308808.125,296891.1875,316987.0,310987.4375,333950.8125,296821.625,296234.5625,298127.9375,-0.009033203125,0.8466796875,-0.60888671875,-5.249022960662842,-1.8615721464157104,3.265380620956421,100.0,195797.0,1.0
559516.6343057,308946.1875,298410.71875,318096.71875,311615.59375,335293.09375,298305.5,296941.6875,298711.15625,-0.01220703125,0.842041015625,-0.61328125,-5.828856945037842,-1.6174315214157104,3.479003667831421,100.0,195798.0,1.0
559516.6366216,309462.875,302006.875,320965.15625,312770.46875,344795.15625,301953.125,299805.40625,299967.9375,-0.011962890625,0.836669921875,-0.61376953125,-6.408690929412842,-1.2207030057907104,3.662109136581421,100.0,195799.0,1.0
559516.6366372,309641.0625,302658.71875,321571.0,312813.84375,349174.3125,302669.53125,300825.625,300127.34375,-0.013671875,0.829833984375,-0.613037109375,-6.744384288787842,-0.9460448622703552,3.784179449081421,100.0,195800.0,1.0
559516.6391842,309256.78125,299485.125,319101.375,311711.0,342286.5,299473.25,298614.65625,298987.125,-0.015869140625,0.825439453125,-0.614013671875,-7.110595226287842,-0.7324218153953552,3.723144292831421,100.0,195801.0,1.0
559516.6417338,308831.46875,296957.25,317023.375,311003.0,333898.59375,296895.375,296329.25,298155.75,-0.015625,0.822509765625,-0.61181640625,-7.293700695037842,-0.3662109076976776,3.845214605331421,100.0,195802.0,1.0
559516.6441758,308949.75,298439.0,318104.78125,311611.0625,335187.59375,298354.75,297026.4375,298725.0,-0.0166015625,0.820068359375,-0.60986328125,-7.507323741912842,-0.03051757626235485,3.936767339706421,100.0,195803.0,1.0
559516.6465918,309454.46875,302011.875,320954.0,312762.34375,344668.21875,301997.21875,299883.625,299978.75,-0.01611328125,0.816162109375,-0.61279296875,-7.659911632537842,0.1831054538488388,3.906249761581421,100.0,195804.0,1.0
559516.6492357,309634.0,302679.28125,321572.5,312805.15625,349107.09375,302726.125,300914.125,300133.15625,-0.0166015625,0.811279296875,-0.611572265625,-7.659911632537842,0.2441406100988388,3.875732183456421,100.0,195805.0,1.0
