Time,FZ,C3,CZ,C4,PZ,PO7,OZ,PO8,AccX,AccY,AccZ,Gyro1,Gyro2,Gyro3,Battery,Counter,Validation
473745.4852944,267838.71875,268455.5625,282979.71875,273804.78125,278638.75,265941.78125,244838.609375,251521.328125,0.01904296875,0.893310546875,-0.524169921875,-2.471923589706421,8.758543968200684,10.192870140075684,80.0,1064998.0,1.0
473745.4877892,267430.21875,268528.15625,283159.0625,274088.09375,278839.46875,266002.3125,245172.984375,251697.28125,0.017822265625,0.886962890625,-0.5263671875,-3.784179449081421,8.087157249450684,10.833739280700684,80.0,1064999.0,1.0
473745.4902944,267403.40625,268764.375,284326.71875,276011.0625,280576.375,266074.1875,246548.34375,252194.203125,0.015869140625,0.8828125,-0.5234375,-5.279540538787842,7.263183116912842,11.291502952575684,80.0,1065000.0,1.0
473745.4927963,267792.96875,268838.21875,284869.5,276913.8125,281457.28125,266052.65625,247075.921875,252322.953125,0.0166015625,0.87890625,-0.528564453125,-6.469726085662842,6.317138195037842,11.810301780700684,80.0,1065001.0,1.0
473745.4953589,268103.71875,268658.5,284052.78125,275551.96875,280260.125,265973.96875,246019.9375,251905.328125,0.01708984375,0.875732421875,-0.530517578125,-7.629394054412842,5.462646007537842,12.298583030700684,80.0,1065002.0,1.0
473745.4988984,267866.53125,268473.875,283027.71875,273854.46875,278691.9375,265954.3125,244892.96875,251535.546875,0.0185546875,0.872314453125,-0.530029296875,-8.605956077575684,4.791259288787842,12.786864280700684,80.0,1065003.0,1.0
473745.4989103,267439.15625,268536.09375,283177.03125,274102.59375,278864.9375,266011.0,245209.828125,251703.546875,0.01904296875,0.871826171875,-0.531982421875,-9.613036155700684,3.875732183456421,13.275145530700684,80.0,1065004.0,1.0
473745.5252427,267390.53125,268764.625,284317.25,276000.78125,280571.96875,266081.34375,246574.0,252200.015625,0.019775390625,0.872802734375,-0.534912109375,-10.528563499450684,3.082275152206421,13.671874046325684,80.0,1065005.0,1.0
473745.5303198,267789.125,268849.3125,284873.96875,276929.0,281471.6875,266075.28125,247123.9375,252341.90625,0.020751953125,0.870361328125,-0.53662109375,-11.444090843200684,2.197265386581421,14.068602561950684,80.0,1065006.0,1.0
473745.530337,268112.59375,268675.65625,284081.125,275597.65625,280301.15625,265991.84375,246084.3125,251922.046875,0.022705078125,0.868896484375,-0.534912109375,-12.298583030700684,1.3732908964157104,14.465331077575684,80.0,1065007.0,1.0
473745.532856,267882.625,268488.4375,283064.125,273905.625,278744.25,265958.59375,244961.09375,251547.703125,0.025634765625,0.869384765625,-0.53173828125,-12.939452171325684,0.5187987685203552,14.892577171325684,80.0,1065008.0,1.0
473745.5378398,267443.28125,268537.0,283188.84375,274122.15625,278893.8125,266011.34375,245261.5,251707.390625,0.026611328125,0.870849609375,-0.526611328125,-13.641356468200684,-0.1831054538488388,15.228270530700684,80.0,1065009.0,1.0
473745.5401005,267367.46875,268751.21875,284290.34375,275981.84375,280557.3125,266077.9375,246601.890625,252190.359375,0.02783203125,0.872314453125,-0.528076171875,-14.465331077575684,-0.8239745497703552,15.594481468200684,80.0,1065010.0,1.0
473745.5427163,267763.53125,268846.15625,284854.75,276919.8125,281459.34375,266076.875,247159.96875,252335.734375,0.028076171875,0.8740234375,-0.523193359375,-15.197752952575684,-1.3732908964157104,15.991209983825684,80.0,1065011.0,1.0
473745.5442035,268116.15625,268694.28125,284110.90625,275633.21875,280338.53125,266003.125,246151.546875,251936.265625,0.029296875,0.875,-0.516845703125,-15.991209983825684,-1.8920897245407104,16.296384811401367,80.0,1065012.0,1.0
473745.5515502,267904.1875,268514.28125,283116.0625,273951.125,278805.9375,265978.53125,245040.578125,251568.53125,0.03076171875,0.877685546875,-0.513671875,-17.089841842651367,-2.563476324081421,16.510007858276367,80.0,1065013.0,1.0
473745.5856784,267443.71875,268549.34375,283205.1875,274125.03125,278915.53125,266026.28125,245314.34375,251716.421875,0.02880859375,0.8828125,-0.511962890625,-18.096921920776367,-3.112792730331421,16.723630905151367,80.0,1065014.0,1.0
473745.5978668,267344.125,268749.875,284266.90625,275950.71875,280538.1875,266089.5625,246630.328125,252186.78125,0.025634765625,0.8876953125,-0.507568359375,-19.073484420776367,-3.509521245956421,16.967771530151367,80.0,1065015.0,1.0
473745.6004403,267750.5625,268852.34375,284842.875,276904.78125,281447.1875,266086.25,247192.25,252334.75,0.02197265625,0.895751953125,-0.506591796875,-20.202634811401367,-4.119872570037842,17.028806686401367,80.0,1065016.0,1.0
473745.6004834,268142.8125,268718.125,284143.96875,275661.40625,280369.84375,266014.75,246208.234375,251941.90625,0.02197265625,0.89990234375,-0.50146484375,-21.331785202026367,-4.547118663787842,17.028806686401367,80.0,1065017.0,1.0
473745.6078419,267944.0625,268531.0,283155.75,273981.09375,278845.8125,265981.40625,245096.28125,251563.171875,0.023193359375,0.9033203125,-0.501220703125,-22.491453170776367,-5.004882335662842,16.967771530151367,80.0,1065018.0,1.0
473745.6105607,267470.8125,268559.1875,283217.34375,274130.375,278935.125,266031.625,245359.3125,251709.0,0.02392578125,0.908447265625,-0.49365234375,-23.315427780151367,-5.371093273162842,16.845701217651367,80.0,1065019.0,1.0
473745.612885,267330.625,268741.03125,284231.15625,275917.8125,280513.78125,266079.5625,246641.59375,252170.0625,0.019287109375,0.912841796875,-0.490478515625,-24.230955123901367,-5.584716320037842,16.571043014526367,80.0,1065020.0,1.0
473745.6153051,267732.78125,268842.0625,284810.0625,276884.65625,281426.34375,266079.65625,247200.734375,252324.921875,0.015869140625,0.919921875,-0.48828125,-25.329587936401367,-5.950927257537842,16.326902389526367,80.0,1065021.0,1.0
473745.6177644,268154.25,268720.46875,284156.9375,275681.59375,280387.28125,266012.25,246242.828125,251944.21875,0.012451171875,0.92578125,-0.484375,-26.489255905151367,-6.378173351287842,16.113279342651367,80.0,1065022.0,1.0
473745.6203528,267979.625,268545.59375,283199.5625,274021.3125,278891.3125,265987.46875,245152.875,251582.484375,0.002685546875,0.93408203125,-0.483154296875,-28.167722702026367,-7.141112804412842,16.326902389526367,80.0,1065023.0,1.0
473745.6227672,267482.96875,268553.4375,283227.625,274129.0625,278944.875,266030.75,245387.125,251712.125,-0.002197265625,0.94140625,-0.47705078125,-29.876707077026367,-8.117674827575684,16.601560592651367,80.0,1065024.0,1.0
473745.6303843,267332.15625,268740.65625,284220.875,275904.5,280503.5,266097.09375,246665.8125,252179.90625,-0.006591796875,0.94580078125,-0.467041015625,-31.768796920776367,-9.216307640075684,16.754148483276367,80.0,1065025.0,1.0
473745.6353467,267731.71875,268844.8125,284806.21875,276888.6875,281421.53125,266096.0,247233.015625,252336.09375,-0.010009765625,0.94921875,-0.45849609375,-33.386226654052734,-10.101317405700684,16.906736373901367,80.0,1065026.0,1.0
473745.6403599,268175.875,268729.21875,284189.3125,275715.125,280416.59375,266022.6875,246290.390625,251954.15625,-0.0107421875,0.95361328125,-0.45361328125,-34.820552825927734,-10.986327171325684,16.998289108276367,80.0,1065027.0,1.0
473745.6428952,268031.59375,268569.0,283256.15625,274064.6875,278942.375,266002.59375,245209.015625,251595.359375,-0.010498046875,0.95654296875,-0.446533203125,-36.437984466552734,-11.871336936950684,16.754148483276367,80.0,1065028.0,1.0
473745.6453736,267515.34375,268564.625,283248.28125,274135.5,278965.96875,266043.875,245423.328125,251716.953125,-0.01171875,0.960205078125,-0.4443359375,-37.902828216552734,-12.664793968200684,16.693113327026367,80.0,1065029.0,1.0
473745.6479044,267315.78125,268723.3125,284181.34375,275860.59375,280469.625,266090.90625,246666.4375,252165.0625,-0.01025390625,0.9619140625,-0.43359375,-39.428707122802734,-13.519286155700684,16.571043014526367,80.0,1065030.0,1.0
473745.6502818,267702.03125,268820.5,284761.96875,276842.90625,281375.3125,266072.59375,247225.421875,252317.140625,-0.008544921875,0.96533203125,-0.428955078125,-40.924068450927734,-14.221190452575684,16.387937545776367,80.0,1065031.0,1.0
473745.6503217,268190.1875,268736.46875,284204.78125,275717.625,280423.9375,266012.0625,246311.859375,251957.90625,-0.009033203125,0.9697265625,-0.426513671875,-42.327877044677734,-15.136717796325684,16.418455123901367,80.0,1065032.0,1.0
473745.6527752,268050.09375,268568.84375,283277.875,274063.0625,278956.3125,265983.4375,245207.953125,251584.8125,-0.00634765625,0.97021484375,-0.426025390625,-43.701168060302734,-15.808104515075684,16.326902389526367,80.0,1065033.0,1.0
473745.6641971,267514.90625,268556.03125,283242.03125,274107.78125,278952.09375,266023.21875,245397.40625,251705.0625,-0.0029296875,0.972412109375,-0.428955078125,-44.738765716552734,-16.326902389526367,16.143796920776367,80.0,1065034.0,1.0
473745.664237,267288.78125,268702.3125,284141.90625,275815.875,280424.375,266073.03125,246627.109375,252158.09375,0.001708984375,0.974853515625,-0.424560546875,-45.715328216552734,-16.906736373901367,16.235349655151367,80.0,1065035.0,1.0
473745.6642467,267672.875,268802.375,284723.78125,276811.625,281339.625,266049.15625,247191.890625,252312.9375,0.003662109375,0.97705078125,-0.42529296875,-46.905513763427734,-17.730710983276367,16.448972702026367,80.0,1065036.0,1.0
473745.6664692,268198.5,268740.9375,284215.78125,275727.46875,280435.375,266007.125,246299.609375,251967.203125,0.005126953125,0.979248046875,-0.426513671875,-48.034664154052734,-18.341062545776367,16.662595748901367,80.0,1065037.0,1.0
473745.669072,268078.53125,268581.15625,283308.8125,274072.71875,278980.375,265978.53125,245194.453125,251592.40625,0.010009765625,0.978759765625,-0.42333984375,-49.041744232177734,-18.798826217651367,16.876218795776367,80.0,1065038.0,1.0
473745.6715885,267517.21875,268548.71875,283230.0625,274074.5,278935.375,266009.71875,245353.859375,251692.015625,0.015869140625,0.978759765625,-0.417724609375,-50.109859466552734,-19.226072311401367,17.181394577026367,80.0,1065039.0,1.0
473745.6741259,267251.25,268676.75,284083.1875,275752.21875,280369.46875,266062.84375,246570.515625,252136.265625,0.019775390625,0.977783203125,-0.416748046875,-50.994869232177734,-19.561765670776367,17.517087936401367,80.0,1065040.0,1.0
473745.6790308,267644.8125,268789.65625,284683.8125,276773.25,281297.25,266059.4375,247151.390625,252303.46875,0.020751953125,0.976318359375,-0.412353515625,-51.666255950927734,-19.897459030151367,17.944334030151367,80.0,1065041.0,1.0
473745.6790716,268210.3125,268751.3125,284228.28125,275723.96875,280434.21875,266018.21875,246271.359375,251960.671875,0.0205078125,0.97607421875,-0.408447265625,-52.459712982177734,-20.019529342651367,18.249509811401367,80.0,1065042.0,1.0
473745.6814728,268120.53125,268607.28125,283353.78125,274092.03125,279011.84375,265999.53125,245178.890625,251596.515625,0.021728515625,0.972412109375,-0.40380859375,-53.100582122802734,-20.446775436401367,18.798826217651367,80.0,1065043.0,1.0
473745.6840789,267533.5,268559.875,283241.5,274067.28125,278944.0625,266030.65625,245326.859375,251692.09375,0.02197265625,0.97265625,-0.3984375,-53.771968841552734,-20.690916061401367,19.195554733276367,80.0,1065044.0,1.0
473745.6866238,267232.09375,268673.71875,284044.71875,275716.375,280335.25,266069.1875,246524.734375,252127.421875,0.0224609375,0.97314453125,-0.39501953125,-54.351802825927734,-20.843503952026367,19.531248092651367,80.0,1065045.0,1.0
473745.6888956,267618.78125,268781.09375,284635.71875,276735.875,281245.5625,266046.9375,247099.265625,252287.734375,0.02099609375,0.9697265625,-0.394775390625,-54.809566497802734,-20.965574264526367,19.866941452026367,80.0,1065046.0,1.0
473745.6916133,268209.875,268747.375,284221.40625,275711.90625,280407.21875,265995.6875,246221.640625,251948.703125,0.022216796875,0.967041015625,-0.39697265625,-55.358882904052734,-20.965574264526367,20.141599655151367,80.0,1065047.0,1.0
473745.6965981,268145.3125,268611.9375,283381.875,274100.875,279021.84375,265980.6875,245138.390625,251599.03125,0.02392578125,0.962158203125,-0.39599609375,-55.572505950927734,-21.087644577026367,20.294187545776367,80.0,1065048.0,1.0
473745.6991387,267550.03125,268561.9375,283249.53125,274064.59375,278940.21875,266015.625,245284.5625,251694.875,0.025146484375,0.958740234375,-0.396728515625,-55.511470794677734,-21.270750045776367,20.538328170776367,80.0,1065049.0,1.0
473745.7016004,267203.21875,268656.96875,284001.71875,275684.0,280290.34375,266056.21875,246471.453125,252118.21875,0.02685546875,0.955322265625,-0.395263671875,-55.419918060302734,-21.209714889526367,20.690916061401367,80.0,1065050.0,1.0
473745.7040366,267591.625,268777.40625,284607.09375,276725.875,281222.34375,266057.21875,247073.515625,252292.90625,0.0283203125,0.953369140625,-0.39306640625,-55.328365325927734,-21.118162155151367,20.812986373901367,80.0,1065051.0,1.0
473745.7040761,268246.0625,268782.6875,284266.1875,275758.125,280451.03125,266030.46875,246241.484375,251977.84375,0.027099609375,0.947021484375,-0.386962890625,-55.053707122802734,-20.996091842651367,20.721433639526367,80.0,1065052.0,1.0
473745.7064732,268205.03125,268641.78125,283439.28125,274137.46875,279060.28125,265991.84375,245135.4375,251608.40625,0.02490234375,0.943603515625,-0.38525390625,-54.748531341552734,-20.904539108276367,20.446775436401367,80.0,1065053.0,1.0
473745.7115037,267572.125,268562.75,283257.0625,274058.96875,278936.46875,266008.65625,245253.984375,251688.34375,0.02685546875,0.94091796875,-0.389404296875,-54.290767669677734,-20.874021530151367,20.233152389526367,80.0,1065054.0,1.0
473745.7115452,267183.65625,268641.25,283962.9375,275662.5625,280257.625,266043.09375,246444.4375,252113.03125,0.030029296875,0.939208984375,-0.39013671875,-54.077144622802734,-20.812986373901367,20.080564498901367,80.0,1065055.0,1.0
473745.7140733,267564.15625,268762.65625,284571.0625,276720.5,281194.4375,266043.4375,247062.421875,252298.453125,0.03466796875,0.936767578125,-0.387939453125,-53.680416107177734,-20.477293014526367,19.897459030151367,80.0,1065056.0,1.0
473745.7191443,268268.875,268793.5,284289.71875,275792.03125,280469.78125,266022.6875,246248.375,252011.90625,0.037841796875,0.93310546875,-0.38525390625,-53.009029388427734,-20.294187545776367,19.683835983276367,80.0,1065057.0,1.0
473745.7191856,268247.5,268647.3125,283474.3125,274162.21875,279081.40625,265979.59375,245121.046875,251620.125,0.039306640625,0.925537109375,-0.38037109375,-52.368160247802734,-19.805906295776367,19.439695358276367,80.0,1065058.0,1.0
473745.7215702,267597.875,268563.1875,283269.125,274065.75,278940.3125,266010.0,245235.125,251689.328125,0.04248046875,0.917236328125,-0.380615234375,-51.452632904052734,-19.348142623901367,19.226072311401367,80.0,1065059.0,1.0
473745.7253311,267183.03125,268646.34375,283951.125,275667.46875,280251.09375,266074.71875,246453.03125,252142.796875,0.037841796875,0.909912109375,-0.376708984375,-50.384517669677734,-19.042966842651367,19.012449264526367,80.0,1065060.0,1.0
473745.7504013,267558.09375,268762.125,284555.59375,276728.375,281186.84375,266062.65625,247074.671875,252316.25,0.033935546875,0.8984375,-0.3759765625,-48.950191497802734,-18.585203170776367,18.554685592651367,80.0,1065061.0,1.0
473745.7504593,268298.5625,268799.15625,284308.125,275810.09375,280481.875,266027.71875,246246.234375,251995.8125,0.025390625,0.87890625,-0.375244140625,-47.607418060302734,-18.280027389526367,18.188474655151367,80.0,1065062.0,1.0
473745.7640279,268315.625,268677.71875,283536.90625,274204.59375,279133.0625,266002.84375,245145.625,251624.421875,0.017822265625,0.85791015625,-0.37060546875,-45.989986419677734,-18.066404342651367,17.669675827026367,80.0,1065063.0,1.0
473745.7640679,267634.71875,268566.59375,283290.59375,274080.78125,278960.59375,266012.0625,245251.046875,251704.703125,0.02685546875,0.831298828125,-0.375244140625,-43.945308685302734,-18.341062545776367,17.211912155151367,80.0,1065064.0,1.0
473745.7664649,267170.5,268612.46875,283907.5,275640.03125,280211.59375,266041.90625,246438.09375,252138.0625,0.012939453125,0.810791015625,-0.3642578125,-41.534420013427734,-18.188474655151367,16.357419967651367,80.0,1065065.0,1.0
473745.7690711,267546.71875,268747.5625,284522.96875,276719.15625,281153.5625,266043.71875,247065.828125,252309.546875,0.008544921875,0.795166015625,-0.3583984375,-38.726802825927734,-18.035886764526367,15.686034202575684,80.0,1065066.0,1.0
473745.7715589,268328.15625,268819.96875,284337.28125,275841.71875,280499.75,266036.1875,246257.5,251989.828125,-0.00244140625,0.786865234375,-0.34765625,-35.675045013427734,-18.066404342651367,14.892577171325684,80.0,1065067.0,1.0
473745.7739756,268371.96875,268714.375,283597.59375,274251.71875,279176.0625,266021.71875,245158.140625,251635.59375,0.0126953125,0.7724609375,-0.35205078125,-31.707761764526367,-18.463132858276367,13.458250999450684,80.0,1065068.0,1.0
473745.7764641,267669.3125,268589.65625,283323.03125,274106.0625,278981.0,266022.78125,245241.03125,251698.453125,0.016845703125,0.760009765625,-0.35498046875,-28.564451217651367,-18.371580123901367,12.939452171325684,80.0,1065069.0,1.0
473745.7791395,267156.09375,268619.625,283899.34375,275645.40625,280202.375,266057.5625,246427.1875,252116.875,0.018798828125,0.74951171875,-0.3583984375,-25.054929733276367,-18.371580123901367,12.084959983825684,80.0,1065070.0,1.0
473745.781524,267525.0,268751.21875,284512.34375,276732.40625,281144.71875,266056.9375,247076.828125,252306.328125,0.0205078125,0.73681640625,-0.3623046875,-21.118162155151367,-18.371580123901367,11.169432640075684,80.0,1065071.0,1.0
473745.7839541,268355.875,268842.6875,284367.3125,275882.59375,280522.625,266043.25,246293.703125,252024.515625,0.021240234375,0.7314453125,-0.36669921875,-16.937253952026367,-18.188474655151367,9.979247093200684,80.0,1065072.0,1.0
473745.7866088,268407.375,268727.4375,283631.40625,274284.15625,279205.125,266019.46875,245180.140625,251659.546875,0.025146484375,0.73193359375,-0.36962890625,-12.512206077575684,-18.035886764526367,8.819579124450684,80.0,1065073.0,1.0
473745.7890913,267688.78125,268601.09375,283341.28125,274126.53125,279003.34375,266030.46875,245255.6875,251716.421875,0.030029296875,0.73681640625,-0.3681640625,-7.873534679412842,-17.822263717651367,7.568358898162842,80.0,1065074.0,1.0
473745.7891309,267141.1875,268611.125,283885.59375,275645.84375,280201.40625,266049.4375,246428.703125,252112.9375,0.041015625,0.74609375,-0.3720703125,-3.356933355331421,-17.669675827026367,6.408690929412842,80.0,1065075.0,1.0
473745.7914613,267508.90625,268749.96875,284503.375,276741.6875,281149.03125,266051.5,247092.46875,252308.109375,0.052490234375,0.758056640625,-0.373291015625,1.1596678495407104,-17.425535202026367,5.432128429412842,80.0,1065076.0,1.0
473745.800307,268355.3125,268852.875,284378.65625,275907.8125,280550.875,266048.71875,246320.796875,252032.921875,0.0625,0.77001953125,-0.370361328125,5.371093273162842,-17.089841842651367,4.394530773162842,80.0,1065077.0,1.0
473745.8046993,268415.40625,268736.28125,283646.59375,274306.15625,279241.53125,266024.75,245205.078125,251661.875,0.0732421875,0.785888671875,-0.36669921875,9.246825218200684,-16.540525436401367,3.570556402206421,80.0,1065078.0,1.0
473745.8047409,267664.84375,268585.375,283328.65625,274120.375,279008.625,266026.71875,245261.328125,251705.59375,0.08154296875,0.80322265625,-0.35546875,12.969969749450684,-15.686034202575684,3.021239995956421,80.0,1065079.0,1.0
473745.8047508,267089.15625,268583.40625,283849.03125,275618.375,280182.15625,266047.8125,246420.03125,252098.984375,0.088134765625,0.823486328125,-0.3505859375,15.960692405700684,-14.801024436950684,2.563476324081421,80.0,1065080.0,1.0
473745.8303581,267475.65625,268739.3125,284486.65625,276732.59375,281153.5,266074.09375,247105.609375,252311.6875,0.09423828125,0.841552734375,-0.343505859375,18.493650436401367,-13.885497093200684,2.197265386581421,80.0,1065081.0,1.0
473745.8327612,268330.03125,268832.03125,284363.03125,275897.78125,280559.375,266054.25,246336.078125,252026.125,0.09814453125,0.8564453125,-0.3388671875,20.721433639526367,-12.847899436950684,2.014159917831421,80.0,1065082.0,1.0
473745.8353489,268405.75,268721.0,283638.46875,274302.6875,279252.0625,266024.21875,245230.921875,251660.625,0.1005859375,0.8623046875,-0.335205078125,22.521970748901367,-11.749266624450684,1.8310545682907104,80.0,1065083.0,1.0
473745.8378847,267683.0,268594.03125,283338.25,274131.09375,279032.65625,266041.90625,245296.453125,251721.875,0.1015625,0.872802734375,-0.3359375,24.658201217651367,-10.772704124450684,1.7700194120407104,80.0,1065084.0,1.0
473745.8402365,267111.40625,268593.59375,283859.46875,275627.78125,280193.0625,266056.40625,246425.671875,252107.390625,0.10009765625,0.891357421875,-0.332763671875,26.916501998901367,-9.948729515075684,1.5258787870407104,80.0,1065085.0,1.0
473745.842781,267490.65625,268740.40625,284494.28125,276742.0625,281156.71875,266066.59375,247090.859375,252308.921875,0.104248046875,0.91796875,-0.32861328125,29.235837936401367,-9.185790061950684,1.2817381620407104,80.0,1065086.0,1.0
473745.8452103,268329.5625,268829.90625,284362.125,275907.09375,280560.71875,266037.28125,246330.0,252014.046875,0.10986328125,0.9345703125,-0.31689453125,30.639646530151367,-8.544920921325684,1.4038084745407104,80.0,1065087.0,1.0
473745.8478768,268417.5625,268734.21875,283650.625,274325.375,279272.1875,266029.21875,245252.921875,251656.609375,0.111572265625,0.939208984375,-0.302734375,31.188962936401367,-7.629394054412842,1.5258787870407104,80.0,1065088.0,1.0
473745.8529191,267700.0625,268605.9375,283348.96875,274141.3125,279046.875,266046.75,245314.34375,251711.859375,0.119384765625,0.947998046875,-0.294921875,31.585691452026367,-6.561278820037842,1.4343260526657104,80.0,1065089.0,1.0
473745.8529593,267145.375,268618.28125,283883.96875,275633.5,280214.90625,266071.4375,246440.875,252116.875,0.126220703125,0.9580078125,-0.294189453125,31.585691452026367,-5.340575695037842,1.8005369901657104,80.0,1065090.0,1.0
473745.8553755,267517.125,268761.5,284516.53125,276741.0625,281173.4375,266077.5,247094.171875,252321.796875,0.1318359375,0.96337890625,-0.3046875,30.822751998901367,-3.692626714706421,2.502441167831421,80.0,1065091.0,1.0
473745.8603462,268365.25,268856.53125,284393.5,275918.8125,280586.65625,266054.78125,246350.484375,252039.09375,0.13037109375,0.9609375,-0.320068359375,29.327390670776367,-1.9836424589157104,3.143310308456421,80.0,1065092.0,1.0
473745.8617872,268451.875,268751.21875,283670.75,274329.15625,279287.125,266037.71875,245276.796875,251675.296875,0.123291015625,0.9443359375,-0.33984375,27.954099655151367,-0.2441406100988388,3.540038824081421,80.0,1065093.0,1.0
473745.8689342,267747.8125,268625.875,283373.46875,274149.4375,279062.0,266054.875,245334.375,251733.859375,0.111328125,0.92041015625,-0.361328125,27.130125045776367,1.1596678495407104,3.845214605331421,80.0,1065094.0,1.0
473745.8689738,267180.25,268622.46875,283901.9375,275634.125,280212.03125,266062.3125,246433.265625,252125.28125,0.1015625,0.896728515625,-0.3837890625,27.069089889526367,2.471923589706421,3.875732183456421,80.0,1065095.0,1.0
473745.8716126,267521.0625,268746.125,284516.53125,276731.5,281160.0,266053.71875,247069.484375,252321.34375,0.0927734375,0.88623046875,-0.404296875,27.648923873901367,3.417968511581421,3.723144292831421,80.0,1065096.0,1.0
473745.8753621,268389.84375,268881.3125,284425.78125,275958.59375,280630.09375,266086.34375,246387.578125,252096.046875,0.089599609375,0.88720703125,-0.424072265625,29.083250045776367,4.119872570037842,3.479003667831421,80.0,1065097.0,1.0
473745.9002838,268452.5,268770.25,283684.59375,274352.21875,279322.875,266061.6875,245301.734375,251710.96875,0.093505859375,0.892578125,-0.435546875,30.670164108276367,4.547118663787842,3.051757574081421,80.0,1065098.0,1.0
473745.9003233,267699.78125,268604.875,283350.125,274114.84375,279048.3125,266044.96875,245297.265625,251720.078125,0.10498046875,0.89794921875,-0.42724609375,31.982419967651367,4.974364757537842,2.838134527206421,80.0,1065099.0,1.0
473745.9103895,267125.8125,268600.375,283881.46875,275591.46875,280189.5,266050.5,246369.609375,252101.046875,0.115478515625,0.89794921875,-0.41455078125,32.592769622802734,5.676269054412842,3.082275152206421,80.0,1065100.0,1.0
473745.9104306,267487.375,268755.96875,284526.375,276729.1875,281175.3125,266072.5,247037.125,252317.046875,0.112548828125,0.88720703125,-0.3955078125,32.440181732177734,6.530761241912842,3.662109136581421,80.0,1065101.0,1.0
473745.9104407,268311.59375,268858.0625,284390.65625,275925.5,280609.4375,266075.4375,246326.25,252053.84375,0.093505859375,0.871337890625,-0.388916015625,31.860349655151367,7.385253429412842,4.272460460662842,80.0,1065102.0,1.0
473745.9104486,268379.90625,268742.90625,283643.28125,274325.3125,279291.78125,266051.5,245237.09375,251684.5,0.092529296875,0.8701171875,-0.406005859375,31.707761764526367,8.483885765075684,4.699706554412842,80.0,1065103.0,1.0
473745.9104564,267653.3125,268581.34375,283317.125,274092.03125,279017.375,266016.96875,245229.3125,251695.9375,0.101318359375,0.879638671875,-0.431884765625,32.318111419677734,9.124754905700684,5.065917491912842,80.0,1065104.0,1.0
473745.9104655,267133.5,268608.71875,283890.3125,275595.40625,280198.4375,266049.34375,246337.609375,252096.046875,0.101806640625,0.883544921875,-0.449951171875,32.745357513427734,9.613036155700684,5.462646007537842,80.0,1065105.0,1.0
473745.9129074,267475.65625,268734.21875,284514.5625,276714.6875,281163.78125,266047.375,246996.984375,252292.5625,0.09814453125,0.870361328125,-0.455322265625,33.020015716552734,10.131834983825684,5.767821788787842,80.0,1065106.0,1.0
473745.9129484,268263.25,268808.4375,284345.59375,275890.8125,280571.34375,266020.90625,246272.515625,252017.265625,0.09228515625,0.846923828125,-0.455322265625,33.477779388427734,10.559081077575684,5.767821788787842,80.0,1065107.0,1.0
473745.9153472,268336.8125,268699.53125,283600.28125,274293.28125,279265.21875,266012.9375,245194.453125,251663.3125,0.088134765625,0.833984375,-0.4560546875,34.515377044677734,10.894774436950684,5.371093273162842,80.0,1065108.0,1.0
473745.9294451,267659.5625,268577.0625,283313.65625,274084.15625,279024.25,266024.5625,245221.359375,251709.71875,0.09423828125,0.8466796875,-0.462646484375,36.560054779052734,11.383055686950684,4.913329601287842,80.0,1065109.0,1.0
473745.9592661,267148.34375,268600.03125,283893.1875,275580.84375,280202.03125,266044.875,246336.703125,252107.390625,0.108642578125,0.8828125,-0.471923828125,38.299556732177734,11.871336936950684,4.089354991912842,80.0,1065110.0,1.0
473745.9593055,267493.0,268733.53125,284531.46875,276714.34375,281187.65625,266055.15625,247020.046875,252315.53125,0.126220703125,0.929931640625,-0.476806640625,38.909908294677734,12.481688499450684,3.845214605331421,80.0,1065111.0,1.0
473745.9593154,268275.5625,268814.53125,284359.1875,275907.8125,280606.59375,266045.9375,246311.140625,252045.875,0.131103515625,0.957763671875,-0.466552734375,38.208003997802734,13.488768577575684,4.058837413787842,80.0,1065112.0,1.0
473745.9691343,268319.90625,268685.9375,283581.5,274287.125,279265.21875,266010.28125,245210.359375,251663.3125,0.122802734375,0.95751953125,-0.43896484375,36.132808685302734,14.404295921325684,4.882812023162842,80.0,1065113.0,1.0
473745.9715085,267618.0,268540.84375,283275.125,274050.09375,278990.28125,265989.96875,245211.875,251682.0,0.115234375,0.936279296875,-0.41015625,33.843990325927734,15.106200218200684,5.615233898162842,80.0,1065114.0,1.0
473745.9715446,267132.875,268591.4375,283886.375,275562.5,280189.3125,266044.59375,246343.765625,252094.515625,0.110595703125,0.9208984375,-0.3994140625,31.951902389526367,16.082761764526367,6.225585460662842,80.0,1065115.0,1.0
473745.9730271,267486.125,268736.8125,284535.3125,276709.78125,281190.5,266069.53125,247043.203125,252307.3125,0.095458984375,0.914306640625,-0.408935546875,30.120847702026367,16.632078170776367,6.805419445037842,80.0,1065116.0,1.0
473745.9803396,268250.0,268802.0,284339.9375,275896.8125,280596.5625,266053.625,246340.90625,252033.1875,0.0791015625,0.909423828125,-0.43310546875,28.503416061401367,16.937253952026367,7.415771007537842,80.0,1065117.0,1.0
473745.9828921,268322.4375,268699.28125,283575.0625,274294.09375,279267.09375,266031.90625,245268.65625,251674.671875,0.07421875,0.90478515625,-0.4541015625,27.343748092651367,16.693113327026367,7.476806163787842,80.0,1065118.0,1.0
473745.9852269,267650.8125,268565.0625,283281.375,274057.25,278998.59375,266016.15625,245264.8125,251694.0625,0.078857421875,0.90185546875,-0.472412109375,26.824949264526367,16.296384811401367,7.171630382537842,80.0,1065119.0,1.0
473745.9901934,267181.0625,268617.09375,283907.3125,275565.5625,280206.3125,266059.71875,246382.671875,252107.03125,0.084716796875,0.9072265625,-0.48046875,27.099607467651367,15.533446311950684,6.896972179412842,80.0,1065120.0,1.0
473745.9927356,267527.875,268768.21875,284563.8125,276721.21875,281216.34375,266081.34375,247078.34375,252334.75,0.086669921875,0.92138671875,-0.479248046875,27.313230514526367,14.953612327575684,6.530761241912842,80.0,1065121.0,1.0
473745.9950635,268243.9375,268802.09375,284335.5625,275891.71875,280595.40625,266040.9375,246353.25,252040.25,0.087646484375,0.934326171875,-0.470703125,26.885984420776367,14.648436546325684,6.347655773162842,80.0,1065122.0,1.0
473745.9976582,268288.34375,268682.65625,283550.75,274276.9375,279248.03125,266010.4375,245266.515625,251663.84375,0.087890625,0.93994140625,-0.453369140625,26.000974655151367,14.129637718200684,6.286620616912842,80.0,1065123.0,1.0
473746.000082,267645.96875,268582.6875,283290.75,274056.0,279003.875,266024.3125,245275.265625,251702.65625,0.090087890625,0.94384765625,-0.44091796875,24.719236373901367,13.702391624450684,6.195067882537842,80.0,1065124.0,1.0
473746.0028227,267181.9375,268634.625,283922.5,275555.1875,280210.59375,266056.65625,246369.4375,252107.21875,0.093505859375,0.947265625,-0.432373046875,23.071287155151367,13.336180686950684,6.378173351287842,80.0,1065125.0,1.0
473746.0079132,267518.03125,268771.15625,284572.59375,276707.28125,281215.1875,266070.53125,247052.59375,252323.765625,0.094482421875,0.954345703125,-0.4365234375,21.179197311401367,12.939452171325684,6.530761241912842,80.0,1065126.0,1.0
473746.0079262,268233.09375,268812.8125,284343.34375,275892.78125,280600.78125,266042.90625,246342.96875,252038.8125,0.097900390625,0.956298828125,-0.438232421875,19.165037155151367,12.634276390075684,6.713866710662842,80.0,1065127.0,1.0
473746.0101183,268283.25,268688.09375,283551.84375,274279.0625,279246.875,266012.6875,245255.25,251661.875,0.096435546875,0.952392578125,-0.443115234375,17.303464889526367,12.298583030700684,6.927489757537842,80.0,1065128.0,1.0
473746.0128354,267638.5625,268572.125,283272.96875,274030.15625,278973.375,266004.625,245235.65625,251683.6875,0.09716796875,0.94873046875,-0.449462890625,15.502928733825684,11.993407249450684,6.988524913787842,80.0,1065129.0,1.0
473746.0178002,267189.0,268634.8125,283916.4375,275528.28125,280188.34375,266054.15625,246331.796875,252094.875,0.102294921875,0.943603515625,-0.456298828125,14.099120140075684,11.596678733825684,7.019042491912842,80.0,1065130.0,1.0
473746.0228755,267534.65625,268786.8125,284583.75,276703.53125,281221.875,266095.5625,247040.875,252337.4375,0.103759765625,0.94091796875,-0.460693359375,12.695311546325684,11.230467796325684,7.049560070037842,80.0,1065131.0,1.0
473746.0228922,268225.15625,268809.34375,284331.71875,275883.84375,280593.8125,266054.4375,246320.34375,252044.1875,0.10400390625,0.9384765625,-0.464111328125,11.383055686950684,10.864256858825684,6.988524913787842,80.0,1065132.0,1.0
473746.0252727,268265.84375,268674.59375,283524.1875,274255.75,279222.65625,266015.53125,245213.671875,251657.5,0.102783203125,0.93505859375,-0.46728515625,10.192870140075684,10.467528343200684,6.958007335662842,80.0,1065133.0,1.0
473746.0278242,267648.65625,268579.125,283267.96875,274016.03125,278962.5625,266029.21875,245212.15625,251697.015625,0.101318359375,0.933837890625,-0.4677734375,9.155272483825684,10.101317405700684,6.927489757537842,80.0,1065134.0,1.0
473746.0351808,267204.03125,268640.1875,283918.5,275506.8125,280177.0625,266067.65625,246312.484375,252101.84375,0.102294921875,0.928466796875,-0.469970703125,8.239745140075684,9.704588890075684,6.652831554412842,80.0,1065135.0,1.0
473746.0351998,267536.28125,268783.21875,284579.75,276678.125,281202.65625,266089.84375,247021.03125,252328.40625,0.100830078125,0.928466796875,-0.47119140625,7.720946788787842,9.460448265075684,6.469726085662842,80.0,1065136.0,1.0
473746.0378817,268203.34375,268790.125,284315.0,275857.09375,280568.5,266037.0,246297.546875,252030.328125,0.099365234375,0.927734375,-0.47119140625,6.805419445037842,9.033202171325684,6.072997570037842,80.0,1065137.0,1.0
473746.037904,268241.875,268659.03125,283507.125,274234.5625,279201.8125,265999.625,245196.59375,251651.0625,0.096435546875,0.9267578125,-0.471435546875,5.950927257537842,8.544920921325684,5.432128429412842,80.0,1065138.0,1.0
473746.0402592,267629.59375,268566.0625,283251.34375,273990.1875,278938.875,266018.9375,245187.65625,251689.328125,0.095458984375,0.9248046875,-0.470703125,4.913329601287842,8.117674827575684,4.882812023162842,80.0,1065139.0,1.0
473746.0428424,267194.1875,268637.6875,283910.875,275487.78125,280161.15625,266070.34375,246296.390625,252100.78125,0.09521484375,0.924072265625,-0.469482421875,4.150390148162842,7.629394054412842,4.272460460662842,80.0,1065140.0,1.0
473746.0503255,267517.03125,268775.625,284574.90625,276667.9375,281194.875,266096.71875,247014.234375,252333.6875,0.09716796875,0.919677734375,-0.468994140625,3.356933355331421,7.141112804412842,3.692626714706421,80.0,1065141.0,1.0
473746.0750319,268173.5625,268774.71875,284302.75,275849.78125,280559.1875,266037.375,246288.15625,252027.90625,0.0986328125,0.915283203125,-0.470947265625,2.471923589706421,6.561278820037842,3.204345464706421,80.0,1065142.0,1.0
473746.0750718,268211.375,268637.40625,283486.125,274221.9375,279176.625,265992.84375,245177.1875,251637.5625,0.10009765625,0.910400390625,-0.4697265625,1.6784666776657104,6.011962413787842,2.716064214706421,80.0,1065143.0,1.0
473746.0815746,267625.3125,268567.5,283251.59375,273992.96875,278930.28125,266027.4375,245181.921875,251686.734375,0.10205078125,0.90673828125,-0.470458984375,0.9765624403953552,5.554198741912842,2.349853277206421,80.0,1065144.0,1.0
473746.0816161,267178.28125,268628.375,283900.875,275474.625,280138.375,266059.4375,246270.015625,252081.734375,0.10595703125,0.904296875,-0.4677734375,0.3967284858226776,5.126952648162842,1.8615721464157104,80.0,1065145.0,1.0
473746.0890848,267467.78125,268741.75,284542.0,276639.59375,281154.90625,266051.5,246964.25,252286.203125,0.106689453125,0.8994140625,-0.46875,-0.1220703050494194,4.608153820037842,1.4038084745407104,80.0,1065146.0,1.0
473746.0916208,268159.34375,268778.75,284312.6875,275876.875,280569.65625,266031.28125,246296.484375,252025.859375,0.10986328125,0.89501953125,-0.47119140625,-0.5493163466453552,4.119872570037842,1.0375975370407104,80.0,1065147.0,1.0
473746.0938953,268209.21875,268652.25,283506.78125,274264.21875,279202.0,266003.90625,245211.875,251651.859375,0.1142578125,0.891845703125,-0.472900390625,-0.9155272841453552,3.692626714706421,0.7934569716453552,80.0,1065148.0,1.0
473746.0964434,267606.625,268562.125,283248.21875,274009.34375,278933.875,266023.59375,245208.484375,251688.515625,0.115234375,0.888916015625,-0.47265625,-1.3427733182907104,3.265380620956421,0.4577636420726776,80.0,1065149.0,1.0
473746.1015989,267166.40625,268630.25,283903.46875,275493.21875,280151.9375,266064.09375,246316.328125,252099.4375,0.116943359375,0.8857421875,-0.475341796875,-1.5869139432907104,2.929687261581421,0.0610351525247097,80.0,1065150.0,1.0
473746.1041551,267450.09375,268740.3125,284544.34375,276658.1875,281167.78125,266048.8125,247008.328125,252303.46875,0.118408203125,0.884765625,-0.474609375,-1.7395018339157104,2.624511480331421,-0.3662109076976776,80.0,1065151.0,1.0
473746.1065404,268140.46875,268773.5625,284311.4375,275898.21875,280580.65625,266024.03125,246329.828125,252035.875,0.119140625,0.88232421875,-0.4755859375,-1.7395018339157104,2.258300542831421,-0.7324218153953552,80.0,1065152.0,1.0
473746.1089535,268210.5625,268660.1875,283514.0,274292.3125,279219.625,266004.8125,245242.90625,251665.28125,0.11962890625,0.884765625,-0.47119140625,-1.9226073026657104,1.8310545682907104,-1.1291502714157104,80.0,1065153.0,1.0
473746.1118673,267626.125,268585.0,283267.34375,274042.15625,278955.40625,266039.25,245240.84375,251707.921875,0.12109375,0.88330078125,-0.469482421875,-2.075195074081421,1.4953612089157104,-1.4343260526657104,80.0,1065154.0,1.0
473746.1139865,267170.9375,268643.40625,283911.875,275514.59375,280157.3125,266067.84375,246329.828125,252102.484375,0.12255859375,0.884521484375,-0.466552734375,-2.166747808456421,1.1901854276657104,-1.8615721464157104,80.0,1065155.0,1.0
473746.1164457,267433.1875,268737.28125,284541.5625,276676.15625,281171.625,266043.96875,247022.109375,252296.21875,0.122314453125,0.8837890625,-0.46337890625,-2.502441167831421,0.8239745497703552,-1.9531248807907104,80.0,1065156.0,1.0
473746.1191074,268123.9375,268768.75,284311.96875,275925.40625,280594.0625,266013.21875,246348.0625,252027.828125,0.121337890625,0.8818359375,-0.459228515625,-2.777099370956421,0.5187987685203552,-2.166747808456421,80.0,1065157.0,1.0
473746.1191495,268199.75,268652.875,283514.71875,274321.28125,279232.125,265988.1875,245256.21875,251658.390625,0.12109375,0.882080078125,-0.459228515625,-3.082275152206421,0.1831054538488388,-2.410888433456421,80.0,1065158.0,1.0
473746.1215855,267605.46875,268565.875,283250.34375,274049.3125,278946.375,266011.34375,245228.234375,251691.296875,0.122802734375,0.88330078125,-0.458984375,-3.540038824081421,-0.1525878757238388,-2.593993902206421,80.0,1065159.0,1.0
473746.1253274,267143.9375,268622.90625,283886.65625,275497.34375,280133.34375,266043.0,246303.625,252084.859375,0.1240234375,0.882080078125,-0.459716796875,-4.028319835662842,-0.3356933295726776,-2.655029058456421,80.0,1065160.0,1.0
473746.1503772,267434.0625,268746.3125,284545.3125,276680.90625,281180.84375,266053.1875,247027.203125,252312.671875,0.12353515625,0.880126953125,-0.462158203125,-4.272460460662842,-0.7324218153953552,-2.716064214706421,80.0,1065161.0,1.0
473746.1504176,268125.71875,268776.96875,284313.40625,275921.3125,280601.9375,266024.5,246348.59375,252043.734375,0.118896484375,0.87841796875,-0.46533203125,-4.302978038787842,-1.0681151151657104,-2.990722417831421,80.0,1065162.0,1.0
473746.152948,268191.4375,268643.125,283493.1875,274284.15625,279209.875,265983.34375,245221.265625,251650.703125,0.1201171875,0.87646484375,-0.46728515625,-4.364013195037842,-1.5869139432907104,-3.295898199081421,80.0,1065163.0,1.0
473746.15299,267582.40625,268542.1875,283206.375,273974.09375,278896.5,265993.1875,245169.328125,251667.0625,0.118408203125,0.87548828125,-0.47021484375,-4.364013195037842,-1.9836424589157104,-3.570556402206421,80.0,1065164.0,1.0
473746.1552132,267125.1875,268608.4375,283848.3125,275422.84375,280090.09375,266038.0625,246256.421875,252071.8125,0.11865234375,0.875732421875,-0.47216796875,-4.058837413787842,-2.471923589706421,-3.936767339706421,80.0,1065165.0,1.0
473746.1577516,267412.4375,268735.40625,284513.65625,276617.15625,281140.78125,266047.71875,246983.21875,252304.0,0.117431640625,0.87744140625,-0.468994140625,-3.845214605331421,-2.868652105331421,-4.333495616912842,80.0,1065166.0,1.0
473746.1601989,268112.9375,268773.03125,284298.90625,275884.28125,280578.0625,266025.75,246319.09375,252044.90625,0.114990234375,0.883544921875,-0.466064453125,-3.662109136581421,-3.173827886581421,-4.608153820037842,80.0,1065167.0,1.0
473746.1628631,268192.4375,268645.71875,283493.96875,274264.0625,279198.25,265991.9375,245205.890625,251662.234375,0.11083984375,0.88720703125,-0.465087890625,-3.692626714706421,-3.662109136581421,-5.004882335662842,80.0,1065168.0,1.0
473746.1653958,267584.09375,268541.28125,283205.65625,273951.75,278879.6875,265999.28125,245148.671875,251676.28125,0.1064453125,0.892578125,-0.4677734375,-3.662109136581421,-4.180907726287842,-5.340575695037842,80.0,1065169.0,1.0
473746.1654376,267103.90625,268583.75,283826.3125,275385.84375,280051.90625,266022.875,246220.21875,252059.03125,0.106689453125,0.8994140625,-0.46337890625,-3.784179449081421,-4.699706554412842,-5.706786632537842,80.0,1065170.0,1.0
473746.1678592,267393.75,268721.28125,284507.40625,276606.78125,281123.90625,266035.21875,246968.734375,252294.96875,0.104248046875,0.905517578125,-0.457763671875,-4.028319835662842,-5.249022960662842,-6.072997570037842,80.0,1065171.0,1.0
473746.1753451,268107.9375,268766.59375,284308.9375,275897.96875,280586.28125,266012.875,246320.53125,252039.0,0.1044921875,0.908203125,-0.447021484375,-4.547118663787842,-5.950927257537842,-6.408690929412842,80.0,1065172.0,1.0
473746.2003375,268210.03125,268652.4375,283516.15625,274291.0625,279220.5,265993.625,245219.484375,251660.8125,0.102783203125,0.907958984375,-0.447021484375,-5.096435070037842,-6.683349132537842,-6.591796398162842,80.0,1065173.0,1.0
473746.2003779,267619.59375,268562.40625,283234.4375,273985.5625,278907.6875,266012.5,245172.265625,251681.453125,0.09912109375,0.908935546875,-0.442626953125,-5.828856945037842,-7.293700695037842,-6.744384288787842,80.0,1065174.0,1.0
473746.2079361,267144.65625,268615.59375,283857.6875,275420.25,280083.71875,266046.75,246245.0625,252072.34375,0.09814453125,0.9091796875,-0.44189453125,-6.439208507537842,-7.904052257537842,-7.049560070037842,80.0,1065175.0,1.0
473746.2079778,267409.5625,268728.25,284518.59375,276622.4375,281135.6875,266043.15625,246971.234375,252291.125,0.09326171875,0.90673828125,-0.442138671875,-7.049560070037842,-8.483885765075684,-7.293700695037842,80.0,1065176.0,1.0
473746.2079886,268114.65625,268757.3125,284312.0625,275907.1875,280588.0,266001.78125,246311.234375,252024.0625,0.0869140625,0.90771484375,-0.443359375,-7.598876476287842,-9.307860374450684,-7.568358898162842,80.0,1065177.0,1.0
473746.2155404,268229.4375,268651.8125,283526.34375,274305.90625,279229.53125,265976.90625,245216.0,251651.0625,0.079345703125,0.906494140625,-0.4453125,-8.209227561950684,-10.192870140075684,-7.934569835662842,80.0,1065178.0,1.0
473746.2155828,267630.0625,268558.46875,283232.65625,273987.34375,278905.34375,265999.4375,245165.125,251671.984375,0.07080078125,0.9072265625,-0.4482421875,-8.636473655700684,-11.016844749450684,-8.270262718200684,80.0,1065179.0,1.0
473746.2155919,267144.84375,268614.59375,283853.84375,275425.90625,280081.78125,266041.90625,246250.15625,252073.0625,0.064453125,0.90625,-0.4482421875,-9.094237327575684,-12.084959983825684,-8.758543968200684,80.0,1065180.0,1.0
473746.2156012,267399.375,268724.21875,284516.96875,276643.8125,281146.0625,266029.5,246992.6875,252293.0,0.060546875,0.904541015625,-0.451416015625,-9.338377952575684,-13.092040061950684,-9.277342796325684,80.0,1065181.0,1.0
473746.2178382,268119.125,268764.625,284329.5,275955.46875,280628.03125,265996.21875,246361.921875,252033.28125,0.058349609375,0.9052734375,-0.45361328125,-9.643553733825684,-14.190672874450684,-9.735106468200684,80.0,1065182.0,1.0
473746.2203519,268234.34375,268653.3125,283537.34375,274352.84375,279270.03125,265969.3125,245268.921875,251653.75,0.056396484375,0.903564453125,-0.45361328125,-9.796141624450684,-15.380858421325684,-10.192870140075684,80.0,1065183.0,1.0
473746.2227615,267637.375,268561.5,283239.875,274034.09375,278947.0,266001.96875,245224.9375,251680.203125,0.055908203125,0.904052734375,-0.452880859375,-10.070799827575684,-16.296384811401367,-10.772704124450684,80.0,1065184.0,1.0
473746.2303665,267134.75,268603.59375,283847.21875,275464.25,280106.09375,266036.03125,246300.234375,252076.109375,0.05712890625,0.90576171875,-0.451416015625,-10.253905296325684,-17.364500045776367,-11.199950218200684,80.0,1065185.0,1.0
473746.232856,267400.1875,268729.59375,284527.53125,276707.46875,281188.0,266041.90625,247060.015625,252315.4375,0.058837890625,0.90869140625,-0.447509765625,-10.437010765075684,-18.463132858276367,-11.474608421325684,80.0,1065186.0,1.0
473746.2377976,268129.21875,268780.46875,284358.71875,276036.375,280692.15625,266016.34375,246446.140625,252061.796875,0.05908203125,0.90966796875,-0.442626953125,-10.772704124450684,-19.500730514526367,-11.932372093200684,80.0,1065187.0,1.0
473746.2402736,268257.15625,268675.125,283579.625,274439.03125,279347.90625,265994.8125,245367.625,251689.234375,0.057861328125,0.91015625,-0.44091796875,-11.077879905700684,-20.324705123901367,-12.207030296325684,80.0,1065188.0,1.0
473746.2403096,267624.59375,268549.4375,283238.71875,274074.0625,278976.4375,265991.03125,245291.8125,251683.96875,0.05908203125,0.912109375,-0.4404296875,-11.352538108825684,-21.148679733276367,-12.451170921325684,80.0,1065189.0,1.0
473746.2438761,267124.09375,268601.71875,283844.625,275506.8125,280136.3125,266041.03125,246383.109375,252087.09375,0.058837890625,0.915771484375,-0.438720703125,-11.810301780700684,-22.003171920776367,-12.634276390075684,80.0,1065190.0,1.0
473746.2778852,267393.5625,268732.0,284532.8125,276760.9375,281224.65625,266053.375,247159.25,252330.203125,0.055908203125,0.922119140625,-0.440185546875,-12.237547874450684,-22.888181686401367,-12.878417015075684,80.0,1065191.0,1.0
473746.2779264,268141.1875,268793.5,284387.4375,276110.5,280750.96875,266034.40625,246565.40625,252089.25,0.050537109375,0.92333984375,-0.4375,-12.603758811950684,-23.742673873901367,-13.183592796325684,80.0,1065192.0,1.0
473746.2855158,268254.5625,268663.0625,283587.59375,274483.90625,279383.59375,265988.09375,245454.796875,251688.96875,0.0478515625,0.9267578125,-0.43701171875,-13.153075218200684,-24.658201217651367,-13.458250999450684,80.0,1065193.0,1.0
473746.2855611,267624.34375,268536.28125,283237.28125,274106.4375,279000.5625,265984.34375,245363.25,251680.921875,0.04541015625,0.928955078125,-0.43505859375,-13.488768577575684,-25.604246139526367,-13.580321311950684,80.0,1065194.0,1.0
473746.2855704,267109.625,268575.8125,283821.46875,275512.25,280129.25,266023.40625,246427.09375,252074.3125,0.046630859375,0.927490234375,-0.43408203125,-14.007567405700684,-26.489255905151367,-13.793944358825684,80.0,1065195.0,1.0
473746.2855797,267386.6875,268715.46875,284521.90625,276775.9375,281222.875,266043.71875,247199.390625,252323.84375,0.045166015625,0.927978515625,-0.43212890625,-14.373778343200684,-27.343748092651367,-13.916014671325684,80.0,1065196.0,1.0
473746.2867337,268150.84375,268792.71875,284396.09375,276137.03125,280765.28125,266030.84375,246603.328125,252092.015625,0.04541015625,0.9287109375,-0.427734375,-14.892577171325684,-28.045652389526367,-14.038084983825684,80.0,1065197.0,1.0
473746.3305934,268285.5,268680.6875,283612.4375,274513.6875,279411.46875,265998.46875,245494.3125,251705.421875,0.043212890625,0.929443359375,-0.43017578125,-15.350340843200684,-28.717039108276367,-14.190672874450684,80.0,1065198.0,1.0
473746.335277,267654.90625,268554.0,283254.0,274116.96875,279012.8125,266000.875,245384.703125,251697.546875,0.04052734375,0.929443359375,-0.4306640625,-15.869139671325684,-29.296873092651367,-14.343260765075684,80.0,1065199.0,1.0
473746.3403079,267121.78125,268583.40625,283817.0,275503.9375,280110.90625,266034.84375,246415.5625,252081.90625,0.037109375,0.929443359375,-0.433837890625,-16.265867233276367,-29.968259811401367,-14.495848655700684,80.0,1065200.0,1.0
473746.3427513,267384.46875,268718.75,284511.0625,276759.40625,281192.1875,266049.15625,247166.765625,252323.765625,0.032958984375,0.928466796875,-0.43994140625,-16.632078170776367,-30.700681686401367,-14.648436546325684,80.0,1065201.0,1.0
473746.3454913,268155.59375,268800.21875,284402.625,276128.375,280755.53125,266034.3125,246573.546875,252092.734375,0.032958984375,0.924560546875,-0.443115234375,-16.906736373901367,-31.188962936401367,-14.923094749450684,80.0,1065202.0,1.0
473746.3479006,268300.34375,268696.3125,283628.4375,274500.53125,279410.3125,266004.8125,245466.953125,251704.890625,0.029296875,0.9208984375,-0.445068359375,-17.028806686401367,-31.738279342651367,-15.319823265075684,80.0,1065203.0,1.0
473746.3501958,267659.46875,268562.65625,283253.75,274087.28125,278994.40625,266007.21875,245344.03125,251692.640625,0.028076171875,0.914306640625,-0.449462890625,-16.876218795776367,-32.196041107177734,-15.655516624450684,80.0,1065204.0,1.0
473746.3553436,267116.59375,268587.25,283802.25,275469.71875,280083.8125,266044.78125,246370.328125,252077.4375,0.02783203125,0.91015625,-0.450927734375,-16.601560592651367,-32.653804779052734,-16.143796920776367,80.0,1065205.0,1.0
473746.3577749,267377.46875,268723.25,284499.90625,276734.5625,281172.1875,266059.875,247128.046875,252324.921875,0.029296875,0.903076171875,-0.45556640625,-16.143796920776367,-32.928462982177734,-16.510007858276367,80.0,1065206.0,1.0
473746.3603096,268136.90625,268791.71875,284385.8125,276087.40625,280728.8125,266028.78125,246521.96875,252075.921875,0.031494140625,0.897705078125,-0.452880859375,-15.624999046325684,-33.294673919677734,-16.815183639526367,80.0,1065207.0,1.0
473746.3627759,268293.71875,268695.59375,283624.34375,274459.125,279398.0625,266005.8125,245423.328125,251694.421875,0.0322265625,0.89306640625,-0.4521484375,-15.045165061950684,-33.508296966552734,-17.242429733276367,80.0,1065208.0,1.0
473746.3678636,267662.875,268569.71875,283250.15625,274046.25,278982.40625,266015.71875,245306.734375,251694.25,0.03173828125,0.89306640625,-0.452392578125,-14.404295921325684,-33.630367279052734,-17.456052780151367,80.0,1065209.0,1.0
473746.3703514,267100.9375,268577.0625,283774.71875,275415.4375,280041.25,266034.84375,246312.5625,252064.75,0.029541015625,0.89453125,-0.44873046875,-13.885497093200684,-33.721920013427734,-17.608640670776367,80.0,1065210.0,1.0
473746.3728585,267362.5625,268711.15625,284476.3125,276696.09375,281133.09375,266050.6875,247075.65625,252315.984375,0.02978515625,0.896728515625,-0.4423828125,-13.397215843200684,-33.782955169677734,-17.822263717651367,80.0,1065211.0,1.0
473746.3751977,268165.59375,268823.375,284413.8125,276096.28125,280739.625,266055.34375,246517.40625,252106.5,0.02880859375,0.898193359375,-0.4384765625,-12.969969749450684,-33.691402435302734,-18.066404342651367,80.0,1065212.0,1.0
473746.3778491,268304.4375,268704.46875,283629.625,274443.5,279394.59375,266006.5,245399.640625,251703.71875,0.02783203125,0.897705078125,-0.4345703125,-12.634276390075684,-33.538814544677734,-18.035886764526367,80.0,1065213.0,1.0
473746.3804011,267644.53125,268547.0,283216.5625,273999.21875,278947.1875,265994.8125,245254.4375,251676.546875,0.02490234375,0.899658203125,-0.431884765625,-12.298583030700684,-33.325191497802734,-18.249509811401367,80.0,1065214.0,1.0
473746.3804426,267081.1875,268551.65625,283735.28125,275373.0625,279997.28125,266020.5625,246259.734375,252048.390625,0.028076171875,0.902099609375,-0.4296875,-12.023924827575684,-33.142086029052734,-18.249509811401367,80.0,1065215.0,1.0
473746.3828918,267349.40625,268696.5,284451.25,276671.5,281099.21875,266041.90625,247035.421875,252305.4375,0.0283203125,0.90576171875,-0.4287109375,-11.749266624450684,-32.897945404052734,-18.188474655151367,80.0,1065216.0,1.0
473746.3878797,268138.34375,268796.28125,284383.59375,276061.59375,280702.59375,266032.53125,246471.171875,252079.765625,0.028564453125,0.908203125,-0.4306640625,-11.383055686950684,-32.562252044677734,-18.035886764526367,80.0,1065217.0,1.0
473746.3903713,268303.03125,268700.15625,283622.28125,274426.25,279382.15625,266008.21875,245376.390625,251695.40625,0.0263671875,0.910888671875,-0.4267578125,-11.016844749450684,-32.318111419677734,-17.913816452026367,80.0,1065218.0,1.0
473746.3904117,267655.34375,268557.03125,283216.5625,273988.40625,278937.625,266007.9375,245237.09375,251679.5,0.02392578125,0.9111328125,-0.427490234375,-10.772704124450684,-32.012935638427734,-17.822263717651367,80.0,1065219.0,1.0
473746.4016047,267083.0625,268553.09375,283726.4375,275357.6875,279973.59375,266026.625,246235.046875,252048.390625,0.0224609375,0.913818359375,-0.424560546875,-10.467528343200684,-31.677244186401367,-17.791746139526367,80.0,1065220.0,1.0
473746.4016458,267345.28125,268691.5,284442.6875,276658.90625,281074.375,266042.71875,247012.265625,252301.046875,0.02197265625,0.91943359375,-0.42236328125,-9.979247093200684,-31.127927780151367,-17.578123092651367,80.0,1065221.0,1.0
473746.401656,268140.75,268797.71875,284386.4375,276058.28125,280696.25,266031.0,246459.109375,252078.34375,0.01904296875,0.921875,-0.41943359375,-9.674071311950684,-30.792234420776367,-17.456052780151367,80.0,1065222.0,1.0
473746.4040129,268308.28125,268705.71875,283629.34375,274419.875,279382.59375,266010.28125,245371.46875,251698.625,0.015869140625,0.925048828125,-0.4150390625,-9.368895530700684,-30.426023483276367,-17.272947311401367,80.0,1065223.0,1.0
473746.4065994,267653.84375,268554.53125,283209.9375,273966.0625,278923.15625,266010.1875,245226.625,251672.078125,0.011962890625,0.93017578125,-0.41162109375,-9.185790061950684,-30.120847702026367,-17.120359420776367,80.0,1065224.0,1.0
473746.4066403,267084.3125,268553.8125,283713.3125,275333.53125,279951.84375,266038.625,246223.875,252042.65625,0.0107421875,0.934326171875,-0.405517578125,-9.185790061950684,-29.510496139526367,-16.845701217651367,80.0,1065225.0,1.0
473746.4090688,267340.1875,268687.75,284430.625,276638.25,281054.0625,266053.28125,246999.21875,252293.546875,0.0087890625,0.938720703125,-0.4033203125,-9.063719749450684,-29.144285202026367,-16.510007858276367,80.0,1065226.0,1.0
473746.4116366,268143.53125,268804.0625,284393.875,276053.625,280694.84375,266054.34375,246463.484375,252081.5625,0.005615234375,0.940673828125,-0.404052734375,-9.246825218200684,-28.747556686401367,-16.265867233276367,80.0,1065227.0,1.0
473746.4140078,268304.28125,268705.25,283627.5625,274400.40625,279373.40625,266025.1875,245367.984375,251693.078125,0.002197265625,0.9423828125,-0.400634765625,-9.399413108825684,-28.411863327026367,-15.899657249450684,80.0,1065228.0,1.0
473746.4140461,267652.40625,268551.46875,283196.15625,273937.90625,278902.3125,266020.90625,245214.65625,251668.046875,-0.000732421875,0.943603515625,-0.39990234375,-9.552000999450684,-27.954099655151367,-15.655516624450684,80.0,1065229.0,1.0
473746.4164189,267067.96875,268534.59375,283682.09375,275293.125,279908.5,266026.375,246190.890625,252023.078125,-0.004150390625,0.942138671875,-0.39501953125,-9.582518577575684,-27.587888717651367,-15.441893577575684,80.0,1065230.0,1.0
473746.421557,267333.65625,268683.1875,284418.0,276622.4375,281029.125,266050.15625,246979.90625,252287.546875,-0.007080078125,0.9384765625,-0.39306640625,-9.643553733825684,-27.191160202026367,-15.136717796325684,80.0,1065231.0,1.0
473746.429095,268134.5,268796.375,284387.59375,276043.875,280686.25,266048.28125,246455.359375,252077.078125,-0.006591796875,0.938720703125,-0.39306640625,-9.735106468200684,-26.977537155151367,-14.892577171325684,80.0,1065232.0,1.0
473746.4340566,268307.59375,268708.125,283632.90625,274393.96875,279381.4375,266023.3125,245372.359375,251697.28125,-0.012451171875,0.935302734375,-0.3935546875,-9.826659202575684,-26.580808639526367,-14.587401390075684,80.0,1065233.0,1.0
473746.4391071,267651.0625,268551.84375,283196.4375,273918.6875,278901.78125,266016.25,245203.921875,251662.5,-0.0146484375,0.932861328125,-0.39404296875,-9.704588890075684,-26.306150436401367,-14.312743186950684,80.0,1065234.0,1.0
473746.4391488,267078.0625,268545.75,283696.03125,275292.59375,279919.5,266038.6875,246188.65625,252030.0625,-0.018310546875,0.9287109375,-0.3955078125,-9.552000999450684,-25.756834030151367,-13.946532249450684,80.0,1065235.0,1.0
473746.4435725,267332.5,268681.46875,284424.4375,276622.4375,281037.34375,266046.9375,246974.453125,252283.078125,-0.02294921875,0.924072265625,-0.39453125,-9.246825218200684,-25.512693405151367,-13.824461936950684,80.0,1065236.0,1.0
473746.4688945,268120.71875,268787.6875,284385.8125,276030.65625,280685.71875,266032.09375,246438.984375,252060.640625,-0.023193359375,0.923095703125,-0.3955078125,-9.033202171325684,-25.207517623901367,-13.763426780700684,80.0,1065237.0,1.0
473746.4714362,268295.34375,268705.25,283627.03125,274371.53125,279370.8125,266009.65625,245344.03125,251679.765625,-0.021240234375,0.921630859375,-0.39453125,-8.850096702575684,-24.841306686401367,-13.488768577575684,80.0,1065238.0,1.0
473746.4740793,267643.5625,268552.65625,283182.84375,273892.65625,278880.40625,266006.4375,245169.046875,251649.984375,-0.01953125,0.917724609375,-0.389892578125,-8.575438499450684,-24.475095748901367,-13.214110374450684,80.0,1065239.0,1.0
473746.4765067,267074.03125,268548.71875,283681.125,275268.375,279894.5625,266033.875,246155.84375,252020.765625,-0.016357421875,0.912353515625,-0.388671875,-8.087157249450684,-24.017332077026367,-12.939452171325684,80.0,1065240.0,1.0
473746.4765477,267334.3125,268694.96875,284427.03125,276617.25,281032.15625,266055.34375,246961.484375,252290.765625,-0.01318359375,0.90625,-0.388916015625,-7.781981945037842,-23.468015670776367,-12.573241233825684,80.0,1065241.0,1.0
473746.4792981,268124.65625,268811.65625,284402.1875,276034.59375,280701.96875,266048.0,246435.328125,252075.125,-0.011474609375,0.901611328125,-0.388916015625,-7.446288585662842,-22.766111373901367,-12.176512718200684,80.0,1065242.0,1.0
473746.4864968,268297.5625,268723.25,283639.28125,274361.59375,279386.90625,266021.96875,245332.671875,251689.234375,-0.01171875,0.896484375,-0.392578125,-7.049560070037842,-22.033689498901367,-11.901854515075684,80.0,1065243.0,1.0
473746.4865373,267640.53125,268554.25,283179.4375,273864.3125,278876.75,266004.46875,245144.640625,251648.828125,-0.010498046875,0.88720703125,-0.393310546875,-6.591796398162842,-21.179197311401367,-11.505125999450684,80.0,1065244.0,1.0
473746.4902897,267073.75,268541.375,283675.21875,275251.65625,279886.40625,266021.90625,246136.078125,252021.203125,-0.012451171875,0.8759765625,-0.396484375,-5.981444835662842,-20.263669967651367,-11.169432640075684,80.0,1065245.0,1.0
473746.4903276,267319.71875,268669.78125,284411.84375,276598.28125,281010.25,266024.9375,246937.609375,252275.03125,-0.013427734375,0.8642578125,-0.39990234375,-5.371093273162842,-19.409177780151367,-10.620116233825684,80.0,1065246.0,1.0
473746.4903374,268116.59375,268795.03125,284397.4375,276022.34375,280690.0,266028.34375,246426.75,252070.203125,-0.012939453125,0.850830078125,-0.406982421875,-4.302978038787842,-18.463132858276367,-10.253905296325684,80.0,1065247.0,1.0
473746.4929467,268293.46875,268712.15625,283634.09375,274344.96875,279378.84375,266012.5,245322.65625,251685.75,-0.0126953125,0.83935546875,-0.41455078125,-3.173827886581421,-17.517087936401367,-9.918211936950684,80.0,1065248.0,1.0
473746.4929955,267653.46875,268556.75,283182.65625,273855.8125,278876.8125,266012.875,245140.0,251654.453125,-0.014892578125,0.829345703125,-0.416748046875,-1.7089842557907104,-16.632078170776367,-9.674071311950684,80.0,1065249.0,1.0
473746.4942491,267073.6875,268526.8125,283661.8125,275231.78125,279867.28125,266014.03125,246115.515625,252002.609375,-0.01708984375,0.818115234375,-0.42236328125,0.03051757626235485,-15.594481468200684,-9.399413108825684,80.0,1065250.0,1.0
473746.5041259,267353.25,268686.40625,284433.65625,276627.71875,281031.28125,266046.21875,246958.453125,252288.625,-0.01708984375,0.80859375,-0.425048828125,1.9531248807907104,-14.587401390075684,-9.155272483825684,80.0,1065251.0,1.0
473746.5041664,268145.40625,268812.65625,284423.90625,276065.96875,280724.4375,266055.0625,246456.78125,252088.078125,-0.01806640625,0.804931640625,-0.426513671875,3.967284917831421,-13.641356468200684,-8.880614280700684,80.0,1065252.0,1.0
473746.5065609,268293.28125,268706.25,283633.46875,274354.625,279381.71875,266016.09375,245325.0625,251680.75,-0.017822265625,0.8046875,-0.42919921875,5.981444835662842,-12.695311546325684,-8.575438499450684,80.0,1065253.0,1.0
473746.509077,267640.53125,268541.375,283164.78125,273843.40625,278853.125,265999.375,245120.953125,251634.96875,-0.016845703125,0.8046875,-0.4267578125,7.934569835662842,-11.657713890075684,-8.331297874450684,80.0,1065254.0,1.0
473746.5116424,267090.46875,268534.40625,283672.875,275249.0625,279871.125,266017.15625,246122.9375,252010.390625,-0.014892578125,0.8056640625,-0.4267578125,9.796141624450684,-10.711668968200684,-7.965087413787842,80.0,1065255.0,1.0
473746.5116833,267356.5625,268678.8125,284442.3125,276646.3125,281031.0,266034.15625,246960.6875,252288.265625,-0.013916015625,0.811279296875,-0.427001953125,11.627196311950684,-9.704588890075684,-7.568358898162842,80.0,1065256.0,1.0
473746.5140088,268124.9375,268789.9375,284415.59375,276070.96875,280709.84375,266027.15625,246446.40625,252075.03125,-0.0166015625,0.8154296875,-0.427001953125,13.275145530700684,-8.483885765075684,-7.080077648162842,80.0,1065257.0,1.0
473746.5140435,268284.25,268700.15625,283632.375,274368.125,279380.8125,266005.625,245330.796875,251682.078125,-0.016357421875,0.82275390625,-0.42626953125,14.801024436950684,-7.354735851287842,-6.683349132537842,80.0,1065258.0,1.0
473746.5253115,267649.0,268549.15625,283175.25,273864.6875,278867.625,266006.96875,245137.40625,251648.828125,-0.016357421875,0.829345703125,-0.422119140625,16.174314498901367,-6.195067882537842,-6.103515148162842,80.0,1065259.0,1.0
473746.5303941,267110.96875,268552.75,283693.71875,275279.71875,279892.03125,266038.34375,246140.46875,252026.03125,-0.0166015625,0.837158203125,-0.421142578125,17.272947311401367,-5.096435070037842,-5.615233898162842,80.0,1065260.0,1.0
473746.5304363,267361.375,268685.875,284454.03125,276673.75,281051.375,266046.84375,246971.234375,252289.609375,-0.019287109375,0.84228515625,-0.423095703125,18.341062545776367,-3.906249761581421,-4.943847179412842,80.0,1065261.0,1.0
473746.5304472,268135.46875,268807.28125,284436.15625,276114.5,280751.59375,266050.5,246480.390625,252089.328125,-0.019775390625,0.849609375,-0.426513671875,19.317625045776367,-2.838134527206421,-4.425048351287842,80.0,1065262.0,1.0
473746.5365789,268296.21875,268719.03125,283651.6875,274407.8125,279426.15625,266031.90625,245370.21875,251701.671875,-0.021728515625,0.855224609375,-0.427490234375,20.172117233276367,-1.7395018339157104,-3.784179449081421,80.0,1065263.0,1.0
473746.5427616,267656.6875,268555.40625,283182.40625,273881.75,278894.25,266020.09375,245160.375,251657.9375,-0.021484375,0.86181640625,-0.4287109375,20.965574264526367,-0.7324218153953552,-3.234863042831421,80.0,1065264.0,1.0
473746.5502758,267112.3125,268544.34375,283691.125,275275.25,279896.59375,266029.5,246140.015625,252019.859375,-0.02197265625,0.87060546875,-0.428955078125,21.789548873901367,0.3662109076976776,-2.624511480331421,80.0,1065265.0,1.0
473746.5528252,267363.71875,268678.4375,284459.75,276673.5625,281060.6875,266042.0,246971.765625,252288.890625,-0.023681640625,0.880615234375,-0.432373046875,22.460935592651367,1.4038084745407104,-1.9531248807907104,80.0,1065266.0,1.0
473746.555342,268121.15625,268794.125,284435.625,276110.65625,280759.65625,266045.84375,246482.71875,252087.546875,-0.023681640625,0.888427734375,-0.427978515625,22.857664108276367,2.532958745956421,-1.3427733182907104,80.0,1065267.0,1.0
473746.5588876,268276.125,268704.90625,283641.25,274397.53125,279425.34375,266027.4375,245371.296875,251695.5,-0.028076171875,0.896728515625,-0.4287109375,23.284910202026367,3.509521245956421,-0.8850097060203552,80.0,1065268.0,1.0
473746.575268,267652.40625,268552.03125,283178.375,273868.53125,278892.21875,266019.84375,245162.34375,251652.140625,-0.0302734375,0.90576171875,-0.428955078125,23.406980514526367,4.516601085662842,-0.4272460639476776,80.0,1065269.0,1.0
473746.5752838,267128.46875,268554.0625,283706.59375,275268.28125,279905.8125,266039.78125,246145.828125,252024.15625,-0.034423828125,0.913330078125,-0.427978515625,23.345945358276367,5.523681163787842,0.03051757626235485,80.0,1065270.0,1.0
473746.5778384,267377.75,268686.5625,284478.25,276674.28125,281071.15625,266044.78125,246977.40625,252291.21875,-0.035400390625,0.9208984375,-0.4287109375,23.223875045776367,6.347655773162842,0.6408690810203552,80.0,1065271.0,1.0
473746.5778568,268132.34375,268805.03125,284456.09375,276128.53125,280777.8125,266045.3125,246497.734375,252094.78125,-0.03759765625,0.929443359375,-0.423583984375,22.857664108276367,7.263183116912842,1.0681151151657104,80.0,1065272.0,1.0
473746.5801483,268283.25,268713.21875,283654.46875,274411.40625,279436.96875,266022.53125,245384.890625,251697.546875,-0.039794921875,0.9345703125,-0.424560546875,22.338865280151367,8.026122093200684,1.4953612089157104,80.0,1065273.0,1.0
473746.5826702,267670.125,268569.09375,283197.40625,273881.5625,278901.40625,266022.53125,245174.6875,251653.65625,-0.041748046875,0.939697265625,-0.423583984375,21.575925827026367,8.941649436950684,1.9836424589157104,80.0,1065274.0,1.0
473746.6090913,267167.1875,268587.15625,283743.15625,275296.96875,279928.0,266058.5625,246169.703125,252036.5,-0.04443359375,0.9443359375,-0.4228515625,20.874021530151367,9.735106468200684,2.380370855331421,80.0,1065275.0,1.0
473746.6091326,267401.34375,268705.0,284502.75,276696.8125,281087.40625,266052.90625,246992.15625,252293.09375,-0.04736328125,0.946044921875,-0.425048828125,19.897459030151367,10.437010765075684,2.777099370956421,80.0,1065276.0,1.0
473746.6115,268135.28125,268808.25,284463.875,276144.5625,280786.84375,266050.0625,246512.75,252092.90625,-0.05029296875,0.949462890625,-0.426025390625,18.920896530151367,11.077879905700684,3.021239995956421,80.0,1065277.0,1.0
473746.6115382,268286.125,268721.09375,283662.15625,274428.75,279448.9375,266036.46875,245406.4375,251706.40625,-0.05517578125,0.94970703125,-0.423828125,18.066404342651367,11.688231468200684,3.265380620956421,80.0,1065278.0,1.0
473746.6139833,267663.21875,268562.84375,283189.375,273874.78125,278896.40625,266024.03125,245174.15625,251651.515625,-0.058837890625,0.948974609375,-0.427978515625,17.150876998901367,12.176512718200684,3.417968511581421,80.0,1065279.0,1.0
473746.6165869,267152.34375,268569.0,283726.71875,275269.15625,279909.375,266044.15625,246145.640625,252023.890625,-0.06103515625,0.947509765625,-0.43115234375,16.113279342651367,12.664793968200684,3.509521245956421,80.0,1065280.0,1.0
473746.618934,267403.40625,268709.71875,284510.8125,276694.84375,281097.15625,266055.15625,246989.015625,252301.234375,-0.063720703125,0.94677734375,-0.431396484375,15.075682640075684,13.183592796325684,3.570556402206421,80.0,1065281.0,1.0
473746.6215392,268128.59375,268811.5625,284467.71875,276153.21875,280799.96875,266050.5,246514.8125,252100.515625,-0.0654296875,0.943359375,-0.431396484375,14.129637718200684,13.488768577575684,3.692626714706421,80.0,1065282.0,1.0
473746.6264408,268267.4375,268709.90625,283648.21875,274423.03125,279445.8125,266023.15625,245395.25,251700.40625,-0.06787109375,0.943115234375,-0.43212890625,13.153075218200684,13.732909202575684,3.692626714706421,80.0,1065283.0,1.0
473746.6288988,267664.84375,268563.71875,283185.96875,273867.4375,278895.25,266018.75,245167.625,251653.390625,-0.0712890625,0.9443359375,-0.436279296875,12.207030296325684,14.099120140075684,3.723144292831421,80.0,1065284.0,1.0
473746.6315369,267163.53125,268574.0,283730.28125,275259.15625,279908.3125,266042.46875,246141.09375,252022.640625,-0.075927734375,0.943603515625,-0.436767578125,11.322020530700684,14.343260765075684,3.631591558456421,80.0,1065285.0,1.0
473746.6315775,267428.1875,268724.40625,284534.21875,276709.59375,281117.71875,266064.625,247008.953125,252316.25,-0.078369140625,0.943359375,-0.4384765625,10.406493186950684,14.556883811950684,3.479003667831421,80.0,1065286.0,1.0
473746.6339225,268144.25,268816.21875,284484.34375,276169.6875,280820.4375,266058.71875,246535.109375,252111.6875,-0.078369140625,0.94140625,-0.439208984375,9.307860374450684,14.709471702575684,3.356933355331421,80.0,1065287.0,1.0
473746.6377811,268272.34375,268702.3125,283645.53125,274421.84375,279445.8125,266024.3125,245397.046875,251697.46875,-0.07763671875,0.93896484375,-0.439697265625,8.361815452575684,14.617918968200684,3.295898199081421,80.0,1065288.0,1.0
473746.6502565,267667.78125,268553.0,283174.8125,273847.875,278881.46875,266016.09375,245153.765625,251638.359375,-0.07861328125,0.934326171875,-0.441162109375,7.446288585662842,14.739989280700684,3.173827886581421,80.0,1065289.0,1.0
473746.6502975,267168.625,268565.4375,283719.375,275234.84375,279897.59375,266040.5,246129.28125,252008.0625,-0.07958984375,0.929443359375,-0.439697265625,6.439208507537842,14.678954124450684,3.051757574081421,80.0,1065290.0,1.0
473746.6529185,267416.375,268708.5625,284517.78125,276686.34375,281106.28125,266058.71875,246998.140625,252296.484375,-0.083251953125,0.92529296875,-0.44287109375,5.371093273162842,14.831542015075684,2.899169683456421,80.0,1065291.0,1.0
473746.6529597,268129.03125,268804.0625,284472.8125,276164.65625,280819.375,266053.625,246534.75,252101.9375,-0.08447265625,0.919921875,-0.44775390625,4.669188976287842,14.709471702575684,2.716064214706421,80.0,1065292.0,1.0
473746.6542855,268275.125,268705.34375,283649.0,274432.125,279457.625,266029.21875,245404.828125,251700.765625,-0.081787109375,0.914306640625,-0.4521484375,3.936767339706421,14.617918968200684,2.624511480331421,80.0,1065293.0,1.0
473746.6830556,267685.5,268568.65625,283186.5,273856.96875,278891.75,266031.71875,245164.578125,251649.90625,-0.0810546875,0.906982421875,-0.455078125,3.326415777206421,14.587401390075684,2.502441167831421,80.0,1065294.0,1.0
473746.6990998,267178.28125,268577.78125,283727.5,275231.34375,279899.5625,266049.96875,246135.71875,252013.609375,-0.07763671875,0.900634765625,-0.4560546875,2.807616949081421,14.465331077575684,2.380370855331421,80.0,1065295.0,1.0
473746.7014542,267423.875,268721.4375,284527.625,276691.90625,281117.28125,266066.3125,247015.390625,252306.0625,-0.073974609375,0.8955078125,-0.4599609375,2.502441167831421,14.282225608825684,2.349853277206421,80.0,1065296.0,1.0
473746.7031552,268123.84375,268803.96875,284474.15625,276174.6875,280827.40625,266050.21875,246547.078125,252103.8125,-0.071044921875,0.893798828125,-0.463134765625,2.258300542831421,14.251708030700684,2.227782964706421,80.0,1065297.0,1.0
473746.7103031,268268.96875,268700.625,283645.78125,274438.03125,279459.5,266022.53125,245411.53125,251703.71875,-0.069091796875,0.890869140625,-0.464111328125,1.9226073026657104,14.282225608825684,2.136230230331421,80.0,1065298.0,1.0
473746.7131015,267674.21875,268553.90625,283170.96875,273841.34375,278879.40625,266013.75,245150.90625,251641.578125,-0.066162109375,0.89013671875,-0.46533203125,1.5563963651657104,14.160155296325684,2.044677495956421,80.0,1065299.0,1.0
473746.7153093,267183.375,268576.4375,283724.125,275221.59375,279897.3125,266042.375,246130.890625,252012.265625,-0.064453125,0.88671875,-0.468017578125,1.3427733182907104,14.160155296325684,2.014159917831421,80.0,1065300.0,1.0
473746.7178718,267434.34375,268729.125,284540.65625,276699.0625,281134.71875,266071.5,247030.421875,252315.09375,-0.0615234375,0.8818359375,-0.467041015625,1.1291502714157104,14.099120140075684,2.044677495956421,80.0,1065301.0,1.0
473746.7202513,268118.125,268797.53125,284477.0,276176.8125,280836.09375,266044.34375,246554.6875,252101.40625,-0.062744140625,0.8818359375,-0.469970703125,1.1596678495407104,14.160155296325684,2.014159917831421,80.0,1065302.0,1.0
473746.7227764,268272.28125,268698.1875,283650.625,274445.90625,279464.15625,266023.84375,245415.90625,251704.4375,-0.061279296875,0.88037109375,-0.4736328125,1.0986326932907104,14.221190452575684,2.075195074081421,80.0,1065303.0,1.0
473746.7251935,267686.84375,268555.5,283174.09375,273845.09375,278875.84375,266019.125,245150.453125,251643.8125,-0.060546875,0.880126953125,-0.476806640625,1.0375975370407104,14.190672874450684,2.166747808456421,80.0,1065304.0,1.0
473746.7278432,267187.65625,268573.125,283721.15625,275212.03125,279885.4375,266048.96875,246128.390625,252011.90625,-0.05810546875,0.876953125,-0.478271484375,1.1596678495407104,14.221190452575684,2.197265386581421,80.0,1065305.0,1.0
473746.730235,267424.40625,268718.6875,284533.25,276691.71875,281122.65625,266076.34375,247031.3125,252314.1875,-0.054443359375,0.8740234375,-0.47998046875,1.2817381620407104,14.221190452575684,2.349853277206421,80.0,1065306.0,1.0
473746.7329101,268115.8125,268797.0,284480.59375,276195.6875,280845.65625,266061.9375,246574.265625,252115.703125,-0.054443359375,0.874755859375,-0.48095703125,1.4343260526657104,14.221190452575684,2.563476324081421,80.0,1065307.0,1.0
473746.735254,268268.6875,268695.34375,283648.84375,274457.71875,279470.21875,266040.65625,245427.53125,251712.65625,-0.0546875,0.87255859375,-0.480712890625,1.6479490995407104,14.282225608825684,2.685546636581421,80.0,1065308.0,1.0
473746.7378348,267693.34375,268560.0625,283176.15625,273844.28125,278879.0625,266041.125,245158.234375,251654.8125,-0.052734375,0.8740234375,-0.48095703125,1.8005369901657104,14.221190452575684,2.746581792831421,80.0,1065309.0,1.0
473746.7378708,267193.125,268576.15625,283718.75,275196.21875,279879.625,266059.34375,246123.390625,252017.984375,-0.053466796875,0.87744140625,-0.481689453125,1.8310545682907104,14.251708030700684,2.868652105331421,80.0,1065310.0,1.0
473746.74039,267422.09375,268718.40625,284528.15625,276677.25,281114.6875,266074.65625,247025.234375,252315.09375,-0.05419921875,0.87744140625,-0.482177734375,1.8920897245407104,14.160155296325684,2.929687261581421,80.0,1065311.0,1.0
473746.7427811,268113.5625,268799.9375,284481.21875,276193.28125,280841.0,266058.46875,246574.265625,252116.421875,-0.0546875,0.879150390625,-0.4833984375,2.014159917831421,14.129637718200684,3.112792730331421,80.0,1065312.0,1.0
473746.7428216,268281.65625,268709.1875,283656.15625,274465.5625,279465.75,266040.125,245428.328125,251717.84375,-0.053466796875,0.88134765625,-0.4833984375,2.227782964706421,14.007567405700684,3.204345464706421,80.0,1065313.0,1.0
473746.7453694,267693.0,268561.0625,283163.09375,273827.375,278851.53125,266024.84375,245134.8125,251639.53125,-0.05078125,0.88037109375,-0.48486328125,2.319335699081421,13.946532249450684,3.143310308456421,80.0,1065314.0,1.0
473746.7454103,267187.9375,268574.0,283698.90625,275168.84375,279847.15625,266043.25,246097.015625,251998.578125,-0.049560546875,0.878662109375,-0.48876953125,2.349853277206421,13.732909202575684,3.234863042831421,80.0,1065315.0,1.0
473746.7490734,267426.125,268726.8125,284527.53125,276675.28125,281108.25,266073.3125,247020.046875,252308.921875,-0.050537109375,0.88134765625,-0.48779296875,2.410888433456421,13.732909202575684,3.326415777206421,80.0,1065316.0,1.0
473746.7752994,268124.03125,268809.0625,284503.46875,276226.09375,280864.78125,266055.59375,246585.265625,252113.03125,-0.05078125,0.883056640625,-0.4892578125,2.563476324081421,13.610838890075684,3.326415777206421,80.0,1065317.0,1.0
473746.7753398,268316.96875,268728.25,283723.3125,274541.03125,279542.03125,266035.75,245467.234375,251719.015625,-0.0498046875,0.88232421875,-0.490234375,2.655029058456421,13.488768577575684,3.326415777206421,80.0,1065318.0,1.0
473746.7791575,267776.0625,268610.65625,283290.125,273950.6875,278995.03125,266040.125,245220.109375,251663.484375,-0.047119140625,0.884521484375,-0.48779296875,2.685546636581421,13.305663108825684,3.356933355331421,80.0,1065319.0,1.0
473746.7791988,267298.28125,268645.375,283869.59375,275326.375,280046.625,266069.625,246225.3125,252041.5,-0.047607421875,0.887939453125,-0.48974609375,2.746581792831421,13.092040061950684,3.509521245956421,80.0,1065320.0,1.0
473746.7792087,267535.71875,268797.0,284718.6875,276858.65625,281349.75,266090.46875,247177.9375,252359.078125,-0.044189453125,0.88916015625,-0.486572265625,2.777099370956421,13.031004905700684,3.662109136581421,80.0,1065321.0,1.0
473746.7866456,268235.0625,268876.3125,284707.3125,276433.25,281140.875,266071.59375,246766.84375,252170.96875,-0.04150390625,0.888427734375,-0.486572265625,2.746581792831421,12.908934593200684,3.692626714706421,80.0,1065322.0,1.0
473746.7866871,268413.4375,268776.0625,283904.625,274729.5,279802.375,266041.28125,245636.296875,251767.640625,-0.04052734375,0.887939453125,-0.48828125,2.746581792831421,12.786864280700684,3.875732183456421,80.0,1065323.0,1.0
473746.7866969,267860.0,268648.65625,283444.1875,274106.6875,279227.40625,266045.3125,245371.46875,251712.84375,-0.040771484375,0.890625,-0.48876953125,2.716064214706421,12.664793968200684,3.814697027206421,80.0,1065324.0,1.0
473746.7890579,267351.375,268662.4375,283977.75,275437.34375,280234.65625,266072.75,246344.9375,252072.4375,-0.04150390625,0.8935546875,-0.489501953125,2.532958745956421,12.542723655700684,3.936767339706421,80.0,1065325.0,1.0
473746.7915462,267559.875,268799.21875,284789.21875,276932.21875,281495.8125,266089.84375,247276.5625,252371.6875,-0.042236328125,0.89501953125,-0.489013671875,2.471923589706421,12.390135765075684,4.028319835662842,80.0,1065326.0,1.0
473746.7939308,268253.75,268884.0625,284766.0625,276499.6875,281266.6875,266078.5,246862.15625,252189.296875,-0.04052734375,0.89453125,-0.488525390625,2.258300542831421,12.176512718200684,3.997802495956421,80.0,1065327.0,1.0
473746.7966936,268424.78125,268779.5625,283934.125,274768.84375,279890.4375,266045.0625,245701.828125,251776.953125,-0.040771484375,0.89794921875,-0.4892578125,2.105712652206421,11.993407249450684,3.997802495956421,80.0,1065328.0,1.0
473746.8278947,267858.75,268642.59375,283434.09375,274099.8125,279260.84375,266049.25,245398.828125,251707.296875,-0.03955078125,0.89794921875,-0.486572265625,1.9226073026657104,11.688231468200684,3.967284917831421,80.0,1065329.0,1.0
473746.8315814,267340.1875,268658.875,283943.25,275394.875,280223.65625,266080.28125,246350.296875,252070.921875,-0.037841796875,0.899658203125,-0.4892578125,1.7395018339157104,11.383055686950684,3.936767339706421,80.0,1065330.0,1.0
473746.8316207,267514.1875,268771.6875,284719.03125,276860.25,281440.75,266078.5625,247247.953125,252357.109375,-0.037109375,0.896484375,-0.48974609375,1.5258787870407104,11.169432640075684,3.936767339706421,80.0,1065331.0,1.0
473746.8316306,268188.40625,268837.125,284674.4375,276418.9375,281184.78125,266051.84375,246808.421875,252161.03125,-0.035888671875,0.896728515625,-0.489013671875,1.3427733182907104,10.833739280700684,3.906249761581421,80.0,1065332.0,1.0
473746.8354062,268380.1875,268748.28125,283860.71875,274706.96875,279813.90625,266036.09375,245654.984375,251765.234375,-0.03515625,0.896728515625,-0.486083984375,1.0681151151657104,10.498045921325684,3.814697027206421,80.0,1065333.0,1.0
473746.8354467,267820.5,268617.5625,283366.9375,274036.875,279179.46875,266036.8125,245343.390625,251692.09375,-0.036376953125,0.896728515625,-0.484130859375,0.9155272841453552,10.192870140075684,3.814697027206421,80.0,1065334.0,1.0
473746.8354566,267318.75,268649.84375,283898.46875,275345.4375,280157.9375,266078.5625,246303.546875,252056.515625,-0.03515625,0.895751953125,-0.48583984375,0.7324218153953552,9.948729515075684,3.662109136581421,80.0,1065335.0,1.0
473746.8378699,267493.25,268764.28125,284683.71875,276824.21875,281389.96875,266074.65625,247206.8125,252335.375,-0.03466796875,0.895751953125,-0.48583984375,0.6103515028953552,9.582518577575684,3.662109136581421,80.0,1065336.0,1.0
473746.8427748,268178.65625,268839.03125,284654.3125,276407.40625,281155.0,266053.53125,246783.46875,252143.421875,-0.03271484375,0.896728515625,-0.4833984375,0.3356933295726776,9.124754905700684,3.448486089706421,80.0,1065337.0,1.0
473746.8452198,268376.0625,268747.90625,283842.5,274698.03125,279782.96875,266034.3125,245627.265625,251740.203125,-0.029052734375,0.8955078125,-0.4814453125,0.1220703050494194,8.666991233825684,3.356933355331421,80.0,1065338.0,1.0
473746.8478572,267815.84375,268610.21875,283340.375,274007.28125,279132.53125,266033.25,245303.078125,251659.640625,-0.028564453125,0.895751953125,-0.4794921875,-0.03051757626235485,8.239745140075684,3.265380620956421,80.0,1065339.0,1.0
473746.8503179,267292.09375,268622.21875,283842.65625,275283.28125,280082.03125,266058.5625,246240.953125,252012.53125,-0.028076171875,0.897705078125,-0.479736328125,-0.2441406100988388,7.843017101287842,3.112792730331421,80.0,1065340.0,1.0
473746.8527663,267485.9375,268767.21875,284656.625,276794.53125,281344.8125,266086.4375,247178.921875,252328.671875,-0.02685546875,0.900390625,-0.48046875,-0.5493163466453552,7.324218273162842,3.021239995956421,80.0,1065341.0,1.0
473746.8551963,268177.40625,268850.71875,284644.65625,276397.75,281129.0,266073.75,246776.0625,252151.46875,-0.024658203125,0.8974609375,-0.47607421875,-0.9155272841453552,6.866454601287842,2.899169683456421,80.0,1065342.0,1.0
473746.8753437,268370.78125,268751.65625,283827.375,274679.78125,279752.65625,266040.5,245611.984375,251741.890625,-0.02392578125,0.896484375,-0.475341796875,-1.1291502714157104,6.530761241912842,2.777099370956421,80.0,1065343.0,1.0
473746.8753853,267812.625,268612.90625,283322.5,273981.625,279098.125,266033.875,245282.328125,251664.03125,-0.022705078125,0.89501953125,-0.4765625,-1.4343260526657104,6.042479991912842,2.532958745956421,80.0,1065344.0,1.0
473746.8779362,267280.125,268620.25,283820.21875,275247.09375,280040.625,266055.0625,246216.28125,252015.65625,-0.02001953125,0.892822265625,-0.47314453125,-1.7395018339157104,5.737304210662842,2.441406011581421,80.0,1065345.0,1.0
473746.8779769,267456.0625,268750.78125,284621.0625,276751.96875,281289.21875,266073.84375,247148.078125,252323.140625,-0.01904296875,0.891357421875,-0.46923828125,-2.044677495956421,5.218505382537842,2.197265386581421,80.0,1065346.0,1.0
473746.8801971,268146.8125,268831.0625,284612.71875,276370.3125,281078.65625,266061.5,246749.765625,252146.546875,-0.017333984375,0.89306640625,-0.470703125,-2.319335699081421,4.852294445037842,2.014159917831421,80.0,1065347.0,1.0
473746.882849,268351.84375,268732.4375,283799.9375,274659.40625,279706.4375,266032.53125,245585.875,251737.078125,-0.017822265625,0.89111328125,-0.469970703125,-2.410888433456421,4.425048351287842,1.8310545682907104,80.0,1065348.0,1.0
473746.8878801,267796.96875,268595.28125,283286.8125,273948.4375,279037.9375,266034.0625,245245.765625,251654.8125,-0.0166015625,0.88916015625,-0.469482421875,-2.593993902206421,4.058837413787842,1.5869139432907104,80.0,1065349.0,1.0
473746.8903783,267252.84375,268598.59375,283764.15625,275193.875,279957.5,266054.53125,246164.78125,252001.265625,-0.013916015625,0.889892578125,-0.470947265625,-2.746581792831421,3.601073980331421,1.4648436307907104,80.0,1065350.0,1.0
473746.8904191,267416.8125,268723.40625,284556.3125,276694.03125,281199.09375,266065.0625,247094.796875,252309.625,-0.01416015625,0.891357421875,-0.469482421875,-3.082275152206421,3.387450933456421,1.3122557401657104,80.0,1065351.0,1.0
473746.8927553,268101.84375,268802.1875,284550.15625,276321.75,280997.90625,266047.71875,246703.71875,252138.234375,-0.013671875,0.89208984375,-0.46484375,-3.356933355331421,2.990722417831421,1.1291502714157104,80.0,1065352.0,1.0
473746.9003214,268323.84375,268718.125,283754.5,274628.65625,279642.78125,266031.90625,245552.96875,251744.765625,-0.012939453125,0.88916015625,-0.463134765625,-3.601073980331421,2.563476324081421,0.9765624403953552,80.0,1065353.0,1.0
473746.9265165,267756.03125,268567.65625,283222.71875,273891.84375,278954.96875,266018.9375,245192.484375,251646.40625,-0.010009765625,0.89013671875,-0.464599609375,-3.875732183456421,2.227782964706421,0.8544921278953552,80.0,1065354.0,1.0
473746.9265561,267220.5625,268581.625,283707.40625,275137.375,279881.6875,266051.5625,246118.921875,252001.09375,-0.0087890625,0.889892578125,-0.465087890625,-3.997802495956421,2.136230230331421,0.7324218153953552,80.0,1065355.0,1.0
473746.9265666,267379.71875,268704.5625,284501.78125,276643.34375,281130.78125,266060.53125,247053.75,252305.34375,-0.010009765625,0.89013671875,-0.46484375,-4.211425304412842,1.8005369901657104,0.6408690810203552,80.0,1065356.0,1.0
473746.9289262,268081.375,268797.875,284517.25,276299.40625,280954.65625,266048.28125,246681.109375,252142.359375,-0.009033203125,0.89013671875,-0.4658203125,-4.455565929412842,1.4343260526657104,0.4882812201976776,80.0,1065357.0,1.0
473746.9289581,268301.59375,268705.71875,283718.75,274596.65625,279592.8125,266015.8125,245518.09375,251726.078125,-0.007080078125,0.89208984375,-0.46533203125,-4.699706554412842,1.0986326932907104,0.3356933295726776,80.0,1065358.0,1.0
473746.9314445,267770.78125,268587.78125,283214.75,273880.9375,278927.6875,266029.9375,245174.234375,251644.359375,-0.00634765625,0.889404296875,-0.463134765625,-4.943847179412842,0.7629393935203552,0.1220703050494194,80.0,1065359.0,1.0
473746.9340841,267218.875,268589.84375,283684.59375,275109.40625,279835.4375,266048.71875,246082.171875,251979.546875,-0.00634765625,0.885986328125,-0.460693359375,-5.126952648162842,0.5493163466453552,-0.03051757626235485,80.0,1065360.0,1.0
473746.9365762,267369.875,268712.78125,284481.3125,276622.15625,281088.3125,266058.0,247020.671875,252279.234375,-0.0048828125,0.8837890625,-0.457275390625,-5.279540538787842,0.3356933295726776,-0.2441406100988388,80.0,1065361.0,1.0
473746.9390798,268074.5,268805.9375,284511.34375,276296.625,280930.78125,266048.71875,246660.546875,252114.90625,-0.00439453125,0.883056640625,-0.4580078125,-5.432128429412842,0.1220703050494194,-0.3051757514476776,80.0,1065362.0,1.0
473746.9439439,268311.15625,268718.21875,283728.21875,274610.9375,279587.34375,266024.5625,245511.9375,251710.421875,-0.0048828125,0.883056640625,-0.46142578125,-5.615233898162842,-0.03051757626235485,-0.3662109076976776,80.0,1065363.0,1.0
473746.946779,267760.5,268574.1875,283202.4375,273867.1875,278899.96875,266023.9375,245153.9375,251622.0,-0.00390625,0.885009765625,-0.465087890625,-5.615233898162842,-0.3356933295726776,-0.6103515028953552,80.0,1065364.0,1.0
473746.9489953,267207.15625,268579.125,283666.375,275087.21875,279805.0625,266053.53125,246068.84375,251977.3125,-0.00390625,0.88232421875,-0.46533203125,-5.615233898162842,-0.5798339247703552,-0.7629393935203552,80.0,1065365.0,1.0
473746.9490359,267362.90625,268709.46875,284472.46875,276611.25,281071.6875,266073.03125,247022.28125,252299.625,-0.005859375,0.8828125,-0.46337890625,-5.615233898162842,-0.8544921278953552,-0.8239745497703552,80.0,1065366.0,1.0
473746.9515218,268081.65625,268816.40625,284528.4375,276315.6875,280948.375,266077.25,246690.3125,252161.578125,-0.006103515625,0.884033203125,-0.4619140625,-5.584716320037842,-1.0070799589157104,-0.9460448622703552,80.0,1065367.0,1.0
473746.9753281,268314.03125,268720.90625,283744.0625,274624.53125,279603.71875,266039.78125,245532.671875,251747.53125,-0.003173828125,0.88427734375,-0.461181640625,-5.554198741912842,-1.3732908964157104,-1.2207030057907104,80.0,1065368.0,1.0
473746.980256,267763.90625,268572.59375,283210.28125,273868.78125,278905.15625,266030.28125,245158.140625,251647.125,-0.0009765625,0.887939453125,-0.459716796875,-5.584716320037842,-1.6784666776657104,-1.2817381620407104,80.0,1065369.0,1.0
473746.9802957,267218.15625,268586.0,283680.21875,275092.15625,279815.0625,266069.09375,246076.796875,252005.46875,-0.002685546875,0.888916015625,-0.456787109375,-5.615233898162842,-1.7089842557907104,-1.4038084745407104,80.0,1065370.0,1.0
473746.9853473,267355.3125,268706.25,284477.0,276612.59375,281078.28125,266074.09375,247025.953125,252315.796875,-0.00048828125,0.888916015625,-0.45556640625,-5.645751476287842,-1.8920897245407104,-1.3732908964157104,80.0,1065371.0,1.0
473746.9878042,268065.65625,268804.59375,284525.5625,276315.9375,280948.84375,266062.3125,246684.40625,252164.703125,-0.001220703125,0.890625,-0.456298828125,-5.798339366912842,-1.9531248807907104,-1.3732908964157104,80.0,1065372.0,1.0
473746.9901385,268313.5625,268717.15625,283749.15625,274632.78125,279612.65625,266025.8125,245529.984375,251754.5,-0.00244140625,0.890625,-0.456787109375,-5.859374523162842,-2.166747808456421,-1.2512205839157104,80.0,1065373.0,1.0
473746.9928872,267770.875,268574.46875,283213.0625,273868.96875,278911.4375,266018.84375,245155.015625,251654.1875,-0.00537109375,0.891357421875,-0.45703125,-6.011962413787842,-2.288818120956421,-1.3427733182907104,80.0,1065374.0,1.0
473746.9953129,267215.28125,268579.75,283668.15625,275075.25,279805.78125,266047.71875,246063.75,252000.546875,-0.006591796875,0.891357421875,-0.458251953125,-6.164550304412842,-2.471923589706421,-1.3122557401657104,80.0,1065375.0,1.0
473746.9977642,267368.71875,268720.09375,284489.1875,276624.21875,281093.59375,266073.84375,247038.203125,252330.46875,-0.0107421875,0.8916015625,-0.45751953125,-6.225585460662842,-2.563476324081421,-1.3122557401657104,80.0,1065376.0,1.0
473747.0002838,268081.1875,268819.15625,284549.0,276343.84375,280976.5625,266067.125,246706.859375,252174.265625,-0.00830078125,0.8916015625,-0.455810546875,-6.225585460662842,-2.807616949081421,-1.2817381620407104,80.0,1065377.0,1.0
473747.0029295,268345.75,268747.8125,283790.375,274676.75,279658.0625,266051.03125,245567.984375,251772.125,-0.0107421875,0.8916015625,-0.457763671875,-6.164550304412842,-3.112792730331421,-1.3732908964157104,80.0,1065378.0,1.0
473747.00297,267784.71875,268591.0,283235.15625,273887.03125,278936.28125,266033.5,245175.484375,251656.25,-0.015625,0.89404296875,-0.45654296875,-6.011962413787842,-3.295898199081421,-1.3122557401657104,80.0,1065379.0,1.0
473747.0053242,267211.0,268582.96875,283672.625,275073.46875,279810.59375,266051.125,246065.265625,251990.09375,-0.022705078125,0.898193359375,-0.4560546875,-5.981444835662842,-3.448486089706421,-1.2512205839157104,80.0,1065380.0,1.0
473747.0293848,267358.625,268716.875,284489.09375,276622.15625,281097.15625,266069.09375,247037.125,252311.6875,-0.028564453125,0.900634765625,-0.455322265625,-5.920409679412842,-3.906249761581421,-1.3427733182907104,80.0,1065381.0,1.0
473747.0411496,268073.6875,268817.375,284555.78125,276351.09375,280990.9375,266054.625,246710.78125,252158.359375,-0.033935546875,0.90380859375,-0.45263671875,-5.981444835662842,-4.455565929412842,-1.1901854276657104,80.0,1065382.0,1.0
473747.0411643,268345.84375,268742.71875,283796.90625,274682.5625,279673.90625,266030.65625,245566.734375,251754.5,-0.035888671875,0.9033203125,-0.453125,-6.103515148162842,-4.913329601287842,-1.1291502714157104,80.0,1065383.0,1.0
473747.0517775,267805.125,268594.3125,283247.65625,273894.625,278953.0,266018.75,245172.359375,251643.1875,-0.03564453125,0.904052734375,-0.451904296875,-6.317138195037842,-5.432128429412842,-0.9460448622703552,80.0,1065384.0,1.0
473747.0715148,267235.0625,268589.125,283683.78125,275078.90625,279821.40625,266035.84375,246057.21875,251974.984375,-0.033203125,0.90576171875,-0.450927734375,-6.439208507537842,-6.011962413787842,-0.9155272841453552,80.0,1065385.0,1.0
473747.1353574,267367.5625,268712.78125,284491.75,276621.4375,281097.875,266048.28125,247021.203125,252288.265625,-0.032958984375,0.90625,-0.448486328125,-6.500243663787842,-6.500243663787842,-0.7019042372703552,80.0,1065386.0,1.0
473747.1377741,268087.5625,268818.625,284568.84375,276363.0625,281004.96875,266046.21875,246709.625,252144.5,-0.033935546875,0.90625,-0.451171875,-6.500243663787842,-6.927489757537842,-0.4577636420726776,80.0,1065387.0,1.0
473747.1428831,268367.65625,268746.46875,283813.875,274697.40625,279691.40625,266029.5,245572.90625,251745.75,-0.036376953125,0.90673828125,-0.449462890625,-6.683349132537842,-7.354735851287842,-0.2441406100988388,80.0,1065388.0,1.0
473747.1477849,267825.40625,268598.0625,283260.0,273903.21875,278967.03125,266023.9375,245177.8125,251639.890625,-0.0361328125,0.9052734375,-0.451416015625,-6.744384288787842,-7.843017101287842,-0.03051757626235485,80.0,1065389.0,1.0
473747.1501951,267236.5,268576.53125,283675.375,275069.875,279819.1875,266034.3125,246053.46875,251968.015625,-0.03515625,0.905517578125,-0.45361328125,-6.774901866912842,-8.209227561950684,0.1220703050494194,80.0,1065390.0,1.0
473747.1528479,267372.46875,268708.46875,284493.28125,276632.96875,281111.28125,266059.0,247038.546875,252302.65625,-0.03369140625,0.90478515625,-0.453857421875,-6.774901866912842,-8.666991233825684,0.2746581733226776,80.0,1065391.0,1.0
473747.1553512,268084.96875,268809.0625,284573.03125,276386.75,281023.84375,266051.125,246730.546875,252160.5,-0.031494140625,0.9052734375,-0.454345703125,-6.683349132537842,-9.063719749450684,0.5493163466453552,80.0,1065392.0,1.0
473747.2192807,268358.53125,268727.78125,283813.15625,274713.15625,279702.6875,266020.28125,245581.578125,251753.34375,-0.030517578125,0.906005859375,-0.454345703125,-6.500243663787842,-9.368895530700684,0.9765624403953552,80.0,1065393.0,1.0
473747.2265249,267807.625,268570.71875,283243.65625,273897.75,278958.8125,266006.4375,245169.59375,251635.5,-0.02978515625,0.90576171875,-0.45361328125,-6.378173351287842,-9.674071311950684,1.0681151151657104,80.0,1065394.0,1.0
473747.2290648,267221.90625,268560.0625,283662.0625,275065.84375,279810.875,266029.75,246047.296875,251969.078125,-0.0283203125,0.907470703125,-0.452392578125,-6.439208507537842,-9.948729515075684,1.3732908964157104,80.0,1065395.0,1.0
473747.2314563,267355.3125,268700.96875,284485.96875,276639.15625,281108.15625,266058.0,247036.3125,252304.359375,-0.0244140625,0.909912109375,-0.451416015625,-6.286620616912842,-10.192870140075684,1.5258787870407104,80.0,1065396.0,1.0
473747.2339431,268063.21875,268800.46875,284565.96875,276392.84375,281023.84375,266045.5,246727.59375,252157.46875,-0.020751953125,0.91015625,-0.4482421875,-6.195067882537842,-10.314940452575684,1.6784666776657104,80.0,1065397.0,1.0
473747.239089,268346.46875,268728.6875,283812.0,274718.0625,279707.6875,266020.90625,245581.9375,251753.15625,-0.017578125,0.911376953125,-0.445068359375,-6.164550304412842,-10.345458030700684,2.014159917831421,80.0,1065398.0,1.0
473747.2415644,267804.40625,268578.65625,283242.40625,273897.21875,278956.40625,266017.34375,245169.953125,251638.90625,-0.015380859375,0.908935546875,-0.444091796875,-6.072997570037842,-10.467528343200684,2.380370855331421,80.0,1065399.0,1.0
473747.2439596,267207.875,268563.65625,283642.21875,275048.875,279785.65625,266038.78125,246036.296875,251967.109375,-0.013671875,0.91162109375,-0.439697265625,-6.195067882537842,-10.253905296325684,2.716064214706421,80.0,1065400.0,1.0
473747.3065535,267320.4375,268692.21875,284449.21875,276611.0625,281066.3125,266059.1875,247013.15625,252294.34375,-0.010986328125,0.907958984375,-0.438232421875,-6.256103038787842,-10.131834983825684,3.051757574081421,80.0,1065401.0,1.0
473747.3090666,268053.21875,268821.84375,284561.0625,276395.0625,281013.125,266070.8125,246736.0,252174.890625,-0.01123046875,0.9052734375,-0.439697265625,-6.378173351287842,-9.796141624450684,3.387450933456421,80.0,1065402.0,1.0
473747.3114436,268331.8125,268741.84375,283799.75,274705.53125,279689.28125,266033.5,245581.21875,251757.453125,-0.010986328125,0.902587890625,-0.4423828125,-6.408690929412842,-9.613036155700684,3.814697027206421,80.0,1065403.0,1.0
473747.3165674,267778.125,268578.03125,283209.3125,273859.3125,278914.75,266012.0625,245145.984375,251626.390625,-0.011962890625,0.899169921875,-0.442138671875,-6.317138195037842,-9.460448265075684,3.967284917831421,80.0,1065404.0,1.0
473747.3215759,267183.65625,268564.34375,283604.65625,275009.96875,279738.71875,266038.625,246003.9375,251955.3125,-0.012939453125,0.89599609375,-0.44140625,-6.256103038787842,-9.094237327575684,4.180907726287842,80.0,1065405.0,1.0
473747.3231838,267290.75,268687.84375,284407.0,276573.0,281017.6875,266051.21875,246978.5625,252279.953125,-0.012451171875,0.89453125,-0.439208984375,-6.103515148162842,-8.758543968200684,4.364013195037842,80.0,1065406.0,1.0
473747.3303318,268009.6875,268802.625,284515.28125,276352.78125,280964.46875,266046.03125,246695.40625,252145.03125,-0.01171875,0.890380859375,-0.43994140625,-5.889892101287842,-8.514403343200684,4.364013195037842,80.0,1065407.0,1.0
473747.3888043,268316.4375,268742.46875,283783.5625,274683.5625,279668.25,266028.96875,245564.234375,251742.875,-0.011474609375,0.891845703125,-0.4375,-5.584716320037842,-8.117674827575684,4.547118663787842,80.0,1065408.0,1.0
473747.3906077,267781.15625,268586.4375,283202.0625,273837.9375,278901.0625,266022.53125,245137.3125,251620.65625,-0.013671875,0.892333984375,-0.436767578125,-5.340575695037842,-7.873534679412842,4.547118663787842,80.0,1065409.0,1.0
473747.4778404,267164.6875,268544.875,283569.1875,274958.3125,279690.6875,266026.53125,245969.609375,251930.28125,-0.014404296875,0.89306640625,-0.433837890625,-5.187987804412842,-7.476806163787842,4.516601085662842,80.0,1065410.0,1.0
473747.4801643,267281.625,268677.8125,284384.46875,276540.96875,280977.34375,266054.4375,246961.390625,252272.0,-0.0126953125,0.89501953125,-0.431396484375,-5.187987804412842,-7.171630382537842,4.364013195037842,80.0,1065411.0,1.0
473747.481742,268016.5625,268802.53125,284513.03125,276349.75,280947.84375,266059.53125,246702.390625,252154.328125,-0.0107421875,0.8974609375,-0.429931640625,-5.126952648162842,-6.774901866912842,4.394530773162842,80.0,1065412.0,1.0
473747.4887898,268307.59375,268718.84375,283769.34375,274670.3125,279645.0,266024.5625,245556.546875,251739.125,-0.011474609375,0.899658203125,-0.4267578125,-5.035399913787842,-6.347655773162842,4.272460460662842,80.0,1065413.0,1.0
473747.4915151,267769.875,268558.46875,283185.71875,273824.4375,278880.125,266013.75,245122.828125,251618.0625,-0.01123046875,0.89990234375,-0.425537109375,-5.004882335662842,-5.920409679412842,4.028319835662842,80.0,1065414.0,1.0
473747.4965161,267173.90625,268544.6875,283576.0625,274973.3125,279695.96875,266043.25,245981.859375,251955.21875,-0.009765625,0.9013671875,-0.4248046875,-5.004882335662842,-5.432128429412842,3.967284917831421,80.0,1065415.0,1.0
473747.4989957,267267.5,268665.125,284378.03125,276548.59375,280975.65625,266054.96875,246961.9375,252282.546875,-0.009521484375,0.9033203125,-0.42529296875,-4.943847179412842,-4.852294445037842,3.814697027206421,80.0,1065416.0,1.0
473747.5015296,267998.6875,268791.71875,284514.90625,276368.0625,280956.78125,266054.53125,246704.625,252164.25,-0.0078125,0.906005859375,-0.425537109375,-4.913329601287842,-4.333495616912842,3.570556402206421,80.0,1065417.0,1.0
473747.5598126,268323.59375,268737.0,283800.65625,274711.28125,279682.03125,266032.8125,245578.8125,251765.953125,-0.00732421875,0.906494140625,-0.42333984375,-4.974364757537842,-3.784179449081421,3.479003667831421,80.0,1065418.0,1.0
473747.559843,267798.5,268584.9375,283219.78125,273856.09375,278913.21875,266023.40625,245140.171875,251640.953125,-0.00634765625,0.907958984375,-0.419677734375,-5.065917491912842,-3.265380620956421,3.234863042831421,80.0,1065419.0,1.0
473747.5665875,267195.90625,268566.875,283598.5,274990.40625,279715.375,266050.0625,245987.578125,251971.578125,-0.00390625,0.907470703125,-0.4189453125,-5.157470226287842,-2.593993902206421,3.082275152206421,80.0,1065420.0,1.0
473747.5666237,267296.125,268696.5,284410.21875,276582.5625,281007.65625,266072.75,246983.75,252312.140625,-0.001220703125,0.906982421875,-0.416259765625,-5.126952648162842,-1.9226073026657104,2.868652105331421,80.0,1065421.0,1.0
473747.5689376,268026.75,268819.78125,284550.59375,276406.96875,280995.59375,266068.5625,246731.171875,252185.53125,0.001953125,0.908935546875,-0.416015625,-5.187987804412842,-1.2207030057907104,2.807616949081421,80.0,1065422.0,1.0
473747.5714411,268358.53125,268765.96875,283843.46875,274753.03125,279723.25,266047.09375,245605.625,251782.84375,0.001953125,0.905029296875,-0.417724609375,-5.279540538787842,-0.4577636420726776,2.624511480331421,80.0,1065423.0,1.0
473747.5765928,267823.0,268599.3125,283245.25,273875.125,278931.53125,266026.375,245149.296875,251644.0,0.002685546875,0.9052734375,-0.419921875,-5.371093273162842,0.2136230319738388,2.502441167831421,80.0,1065424.0,1.0
473747.5789176,267219.3125,268582.6875,283618.15625,274999.0625,279727.96875,266062.03125,245997.140625,251979.625,0.003662109375,0.90380859375,-0.415771484375,-5.279540538787842,0.9460448622703552,2.441406011581421,80.0,1065425.0,1.0
473747.7391185,267286.03125,268686.84375,284403.53125,276569.875,280999.53125,266063.75,246972.9375,252299.890625,0.00439453125,0.902587890625,-0.416015625,-5.310058116912842,1.7395018339157104,2.319335699081421,80.0,1065426.0,1.0
473747.7391574,268006.46875,268804.6875,284540.65625,276396.9375,280990.21875,266058.09375,246722.859375,252176.5,0.003662109375,0.902587890625,-0.41796875,-5.096435070037842,2.563476324081421,2.105712652206421,80.0,1065427.0,1.0
473747.7391663,268338.78125,268749.875,283824.0,274731.65625,279707.6875,266038.875,245591.5,251774.0,0.00244140625,0.90185546875,-0.418212890625,-5.096435070037842,3.356933355331421,1.9836424589157104,80.0,1065428.0,1.0
473747.7391743,267803.3125,268590.03125,283209.40625,273825.96875,278893.90625,266030.84375,245122.734375,251636.21875,0.00244140625,0.902099609375,-0.419677734375,-4.943847179412842,4.058837413787842,1.9226073026657104,80.0,1065429.0,1.0
473747.7391821,267168.71875,268551.84375,283540.125,274899.1875,279638.3125,266048.1875,245930.265625,251948.078125,0.0009765625,0.9033203125,-0.418212890625,-4.913329601287842,4.760741710662842,1.8310545682907104,80.0,1065430.0,1.0
473747.7391898,267243.8125,268667.90625,284328.59375,276474.8125,280906.8125,266064.375,246911.953125,252280.03125,0.00244140625,0.902587890625,-0.416748046875,-4.760741710662842,5.615233898162842,1.6784666776657104,80.0,1065431.0,1.0
473747.7391981,267970.78125,268792.0625,284470.5625,276313.4375,280898.84375,266060.6875,246665.1875,252156.5625,0.002197265625,0.902587890625,-0.416748046875,-4.638671398162842,6.378173351287842,1.5258787870407104,80.0,1065432.0,1.0
473747.739206,268318.5,268745.40625,283765.59375,274657.09375,279621.15625,266044.875,245533.125,251757.90625,0.00048828125,0.90234375,-0.4189453125,-4.547118663787842,7.110595226287842,1.4343260526657104,80.0,1065433.0,1.0
473747.7392139,267788.125,268579.5625,283150.125,273745.125,278801.28125,266028.15625,245052.296875,251612.96875,-0.00244140625,0.904052734375,-0.42138671875,-4.425048351287842,7.965087413787842,1.2817381620407104,80.0,1065434.0,1.0
473747.7392218,267144.75,268529.75,283472.0,274812.5625,279534.9375,266035.3125,245854.453125,251918.125,-0.004638671875,0.904052734375,-0.418701171875,-4.241942882537842,8.666991233825684,1.1596678495407104,80.0,1065435.0,1.0
473747.7392296,267222.90625,268651.1875,284277.0,276416.71875,280825.90625,266058.28125,246857.59375,252263.3125,-0.00634765625,0.90234375,-0.41943359375,-4.150390148162842,8.941649436950684,1.0681151151657104,80.0,1065436.0,1.0
473747.7392375,267954.875,268779.90625,284441.53125,276286.71875,280846.09375,266059.71875,246631.9375,252156.203125,-0.007080078125,0.901123046875,-0.419677734375,-3.906249761581421,9.490965843200684,0.9460448622703552,80.0,1065437.0,1.0
473747.7392456,268312.9375,268736.46875,283752.1875,274643.3125,279587.0,266044.875,245510.765625,251758.703125,-0.009765625,0.902099609375,-0.42529296875,-3.875732183456421,10.070799827575684,0.9460448622703552,80.0,1065438.0,1.0
473747.7392534,267780.34375,268564.0,283131.34375,273722.34375,278760.875,266019.125,245020.28125,251602.0625,-0.012451171875,0.900390625,-0.419921875,-3.601073980331421,10.681151390075684,0.8850097060203552,80.0,1065439.0,1.0
473747.7392617,267141.4375,268520.375,283460.53125,274795.125,279507.15625,266030.28125,245827.984375,251911.6875,-0.014892578125,0.89990234375,-0.416748046875,-3.265380620956421,11.230467796325684,0.7324218153953552,80.0,1065440.0,1.0
473747.7392697,267214.3125,268644.75,284272.0,276408.65625,280810.0,266053.71875,246843.5625,252260.8125,-0.014892578125,0.899169921875,-0.414306640625,-3.021239995956421,11.596678733825684,0.7019042372703552,80.0,1065441.0,1.0
473747.7392778,267945.84375,268772.84375,284444.5625,276295.28125,280846.65625,266052.46875,246627.90625,252152.359375,-0.016845703125,0.899169921875,-0.416748046875,-2.838134527206421,11.993407249450684,0.5798339247703552,80.0,1065442.0,1.0
473747.7392857,268306.875,268725.75,283757.71875,274657.53125,279594.84375,266034.3125,245502.546875,251755.3125,-0.01904296875,0.898193359375,-0.419921875,-2.532958745956421,12.420653343200684,0.5798339247703552,80.0,1065443.0,1.0
473747.7392948,267803.3125,268579.46875,283162.90625,273753.53125,278791.96875,266034.78125,245031.71875,251628.171875,-0.0185546875,0.89892578125,-0.420166015625,-2.227782964706421,12.847899436950684,0.4882812201976776,80.0,1065444.0,1.0
473747.74138,267163.53125,268539.59375,283491.375,274815.96875,279536.5625,266046.125,245840.953125,251936.265625,-0.02001953125,0.8984375,-0.421630859375,-2.105712652206421,13.153075218200684,0.5493163466453552,80.0,1065445.0,1.0
473747.7439109,267225.5,268656.0,284299.4375,276428.6875,280843.0625,266060.0625,246859.390625,252276.1875,-0.022705078125,0.8974609375,-0.420654296875,-1.7395018339157104,13.488768577575684,0.6103515028953552,80.0,1065446.0,1.0
473747.7464488,267947.1875,268775.0,284470.5,276326.21875,280884.90625,266046.84375,246645.515625,252158.359375,-0.0244140625,0.898193359375,-0.419921875,-1.3732908964157104,13.580321311950684,0.6103515028953552,80.0,1065447.0,1.0
473747.90662,268315.53125,268730.65625,283788.21875,274697.15625,279638.3125,266027.875,245519.265625,251758.4375,-0.0263671875,0.896728515625,-0.422119140625,-1.0681151151657104,13.671874046325684,0.6103515028953552,80.0,1065448.0,1.0
473747.9314076,267811.8125,268578.9375,283184.28125,273776.96875,278825.34375,266025.1875,245036.734375,251620.125,-0.0283203125,0.8984375,-0.42138671875,-0.7019042372703552,13.793944358825684,0.6408690810203552,80.0,1065449.0,1.0
473747.933934,267173.28125,268536.09375,283511.96875,274827.9375,279565.1875,266038.875,245846.484375,251928.671875,-0.029296875,0.898681640625,-0.42236328125,-0.4577636420726776,13.916014671325684,0.7324218153953552,80.0,1065450.0,1.0
473747.9951507,267241.125,268657.625,284330.125,276452.28125,280883.21875,266057.3125,246877.359375,252279.140625,-0.029052734375,0.896484375,-0.4228515625,-0.1831054538488388,13.916014671325684,0.8850097060203552,80.0,1065451.0,1.0
473748.0015999,267978.5625,268786.8125,284517.6875,276375.59375,280944.71875,266053.53125,246681.546875,252175.703125,-0.029052734375,0.894287109375,-0.42431640625,0.2136230319738388,13.977049827575684,0.9460448622703552,80.0,1065452.0,1.0
473748.001641,268346.28125,268727.78125,283825.40625,274738.96875,279684.34375,266019.21875,245541.796875,251762.1875,-0.03125,0.893798828125,-0.42236328125,0.5493163466453552,14.038084983825684,1.0986326932907104,80.0,1065453.0,1.0
473748.0016499,267845.875,268570.875,283214.5,273802.71875,278859.125,266007.59375,245046.75,251617.359375,-0.031982421875,0.895263671875,-0.41943359375,0.9460448622703552,13.854979515075684,1.1291502714157104,80.0,1065454.0,1.0
473748.0016579,267216.09375,268542.90625,283551.65625,274858.53125,279609.875,266030.5625,245867.5,251936.890625,-0.033935546875,0.899169921875,-0.420654296875,1.3122557401657104,13.793944358825684,1.0986326932907104,80.0,1065455.0,1.0
473748.0016659,267274.125,268664.5,284373.03125,276487.59375,280937.5625,266050.40625,246909.0,252285.578125,-0.0380859375,0.900390625,-0.424560546875,1.6174315214157104,13.641356468200684,1.0681151151657104,80.0,1065456.0,1.0
473748.0016737,268006.0,268797.8125,284567.9375,276426.625,281012.75,266052.75,246726.875,252186.875,-0.04248046875,0.900634765625,-0.42431640625,1.9836424589157104,13.458250999450684,1.1901854276657104,80.0,1065457.0,1.0
473748.0016815,268371.25,268740.9375,283875.5625,274791.90625,279752.65625,266022.53125,245586.765625,251776.046875,-0.044921875,0.8984375,-0.42431640625,2.166747808456421,13.244627952575684,1.0681151151657104,80.0,1065458.0,1.0
473748.0039336,267865.8125,268583.65625,283257.78125,273844.09375,278918.84375,266006.875,245082.0625,251626.46875,-0.046630859375,0.897705078125,-0.424560546875,2.532958745956421,12.939452171325684,1.0375975370407104,80.0,1065459.0,1.0
473748.0064751,267221.28125,268547.1875,283580.96875,274878.46875,279655.5625,266026.375,245888.953125,251929.75,-0.048828125,0.898193359375,-0.424560546875,2.899169683456421,12.542723655700684,0.9460448622703552,80.0,1065460.0,1.0
473748.008939,267278.59375,268676.75,284408.15625,276522.03125,280994.25,266054.4375,246942.4375,252287.1875,-0.0478515625,0.901611328125,-0.42333984375,3.112792730331421,12.207030296325684,0.8239745497703552,80.0,1065461.0,1.0
473748.0116039,268005.84375,268806.46875,284599.0625,276471.25,281073.90625,266051.40625,246764.96875,252191.53125,-0.048095703125,0.901123046875,-0.424560546875,3.417968511581421,11.779784202575684,0.7019042372703552,80.0,1065462.0,1.0
473748.0116445,268381.6875,268757.3125,283908.5625,274841.09375,279816.9375,266030.21875,245629.5,251785.34375,-0.048583984375,0.902099609375,-0.425537109375,3.570556402206421,11.444090843200684,0.6408690810203552,80.0,1065463.0,1.0
473748.0141265,267890.84375,268604.40625,283290.59375,273882.90625,278972.84375,266023.5,245118.453125,251635.328125,-0.048583984375,0.902587890625,-0.424072265625,3.845214605331421,11.047362327575684,0.5493163466453552,80.0,1065464.0,1.0
473748.014163,267254.09375,268566.5,283615.3125,274912.6875,279707.78125,266039.25,245924.546875,251939.578125,-0.048095703125,0.90234375,-0.42626953125,3.967284917831421,10.620116233825684,0.4577636420726776,80.0,1065465.0,1.0
473748.0165288,267300.40625,268686.125,284442.78125,276558.0625,281051.21875,266055.40625,246984.28125,252293.0,-0.048095703125,0.90283203125,-0.425048828125,4.180907726287842,10.162352561950684,0.3967284858226776,80.0,1065466.0,1.0
473748.0165655,268022.8125,268814.96875,284638.21875,276519.625,281139.09375,266053.28125,246816.203125,252200.46875,-0.04833984375,0.900634765625,-0.424072265625,4.302978038787842,9.826659202575684,0.3967284858226776,80.0,1065467.0,1.0
473748.0778805,268392.53125,268756.40625,283937.34375,274884.8125,279870.125,266024.125,245670.0,251790.0,-0.04638671875,0.90234375,-0.427978515625,4.455565929412842,9.277342796325684,0.3967284858226776,80.0,1065468.0,1.0
473748.0778933,267907.84375,268612.46875,283323.65625,273923.0625,279023.90625,266027.15625,245157.609375,251645.15625,-0.044189453125,0.9033203125,-0.424560546875,4.608153820037842,8.880614280700684,0.4882812201976776,80.0,1065469.0,1.0
473748.0809432,267283.875,268591.0,283661.1875,274957.40625,279765.8125,266058.0,245973.09375,251964.875,-0.04345703125,0.904296875,-0.425537109375,4.791259288787842,8.453368186950684,0.4577636420726776,80.0,1065470.0,1.0
473748.080956,267312.9375,268694.8125,284470.5,276585.78125,281092.6875,266060.78125,247015.3125,252307.3125,-0.040771484375,0.905029296875,-0.422607421875,4.730224132537842,7.995604991912842,0.3051757514476776,80.0,1065471.0,1.0
473748.0809578,268015.84375,268806.84375,284647.34375,276533.84375,281165.5625,266048.1875,246835.0625,252205.390625,-0.0390625,0.90576171875,-0.423828125,4.882812023162842,7.568358898162842,0.5493163466453552,80.0,1065472.0,1.0
473748.0876754,268386.96875,268748.90625,283940.3125,274893.125,279891.15625,266025.1875,245685.5625,251793.84375,-0.036376953125,0.9052734375,-0.4248046875,4.882812023162842,7.232665538787842,0.6713866591453552,80.0,1065473.0,1.0
473748.0876914,268386.96875,268748.90625,283940.3125,274893.125,279891.15625,266025.1875,245685.5625,251793.84375,-0.036376953125,0.9052734375,-0.4248046875,4.882812023162842,7.232665538787842,0.6713866591453552,80.0,1065474.0,0.0
473748.0876918,268386.96875,268748.90625,283940.3125,274893.125,279891.15625,266025.1875,245685.5625,251793.84375,-0.036376953125,0.9052734375,-0.4248046875,4.882812023162842,7.232665538787842,0.6713866591453552,80.0,1065475.0,0.0
473748.0876921,268386.96875,268748.90625,283940.3125,274893.125,279891.15625,266025.1875,245685.5625,251793.84375,-0.036376953125,0.9052734375,-0.4248046875,4.882812023162842,7.232665538787842,0.6713866591453552,80.0,1065476.0,0.0
473748.0876924,268386.96875,268748.90625,283940.3125,274893.125,279891.15625,266025.1875,245685.5625,251793.84375,-0.036376953125,0.9052734375,-0.4248046875,4.882812023162842,7.232665538787842,0.6713866591453552,80.0,1065477.0,0.0
473748.0876928,268386.96875,268748.90625,283940.3125,274893.125,279891.15625,266025.1875,245685.5625,251793.84375,-0.036376953125,0.9052734375,-0.4248046875,4.882812023162842,7.232665538787842,0.6713866591453552,80.0,1065478.0,0.0
473748.0876932,268386.96875,268748.90625,283940.3125,274893.125,279891.15625,266025.1875,245685.5625,251793.84375,-0.036376953125,0.9052734375,-0.4248046875,4.882812023162842,7.232665538787842,0.6713866591453552,80.0,1065479.0,0.0
473748.0876935,268386.96875,268748.90625,283940.3125,274893.125,279891.15625,266025.1875,245685.5625,251793.84375,-0.036376953125,0.9052734375,-0.4248046875,4.882812023162842,7.232665538787842,0.6713866591453552,80.0,1065480.0,0.0
473748.0876938,268386.96875,268748.90625,283940.3125,274893.125,279891.15625,266025.1875,245685.5625,251793.84375,-0.036376953125,0.9052734375,-0.4248046875,4.882812023162842,7.232665538787842,0.6713866591453552,80.0,1065481.0,0.0
473748.0876941,268386.96875,268748.90625,283940.3125,274893.125,279891.15625,266025.1875,245685.5625,251793.84375,-0.036376953125,0.9052734375,-0.4248046875,4.882812023162842,7.232665538787842,0.6713866591453552,80.0,1065482.0,0.0
473748.0876944,268386.96875,268748.90625,283940.3125,274893.125,279891.15625,266025.1875,245685.5625,251793.84375,-0.036376953125,0.9052734375,-0.4248046875,4.882812023162842,7.232665538787842,0.6713866591453552,80.0,1065483.0,0.0
473748.0876947,268386.96875,268748.90625,283940.3125,274893.125,279891.15625,266025.1875,245685.5625,251793.84375,-0.036376953125,0.9052734375,-0.4248046875,4.882812023162842,7.232665538787842,0.6713866591453552,80.0,1065484.0,0.0
473748.087695,268386.96875,268748.90625,283940.3125,274893.125,279891.15625,266025.1875,245685.5625,251793.84375,-0.036376953125,0.9052734375,-0.4248046875,4.882812023162842,7.232665538787842,0.6713866591453552,80.0,1065485.0,0.0
473748.0876953,268386.96875,268748.90625,283940.3125,274893.125,279891.15625,266025.1875,245685.5625,251793.84375,-0.036376953125,0.9052734375,-0.4248046875,4.882812023162842,7.232665538787842,0.6713866591453552,80.0,1065486.0,0.0
473748.0876956,268386.96875,268748.90625,283940.3125,274893.125,279891.15625,266025.1875,245685.5625,251793.84375,-0.036376953125,0.9052734375,-0.4248046875,4.882812023162842,7.232665538787842,0.6713866591453552,80.0,1065487.0,0.0
473748.0876958,268386.96875,268748.90625,283940.3125,274893.125,279891.15625,266025.1875,245685.5625,251793.84375,-0.036376953125,0.9052734375,-0.4248046875,4.882812023162842,7.232665538787842,0.6713866591453552,80.0,1065488.0,0.0
473748.0876961,268386.96875,268748.90625,283940.3125,274893.125,279891.15625,266025.1875,245685.5625,251793.84375,-0.036376953125,0.9052734375,-0.4248046875,4.882812023162842,7.232665538787842,0.6713866591453552,80.0,1065489.0,0.0
473748.0876964,268386.96875,268748.90625,283940.3125,274893.125,279891.15625,266025.1875,245685.5625,251793.84375,-0.036376953125,0.9052734375,-0.4248046875,4.882812023162842,7.232665538787842,0.6713866591453552,80.0,1065490.0,0.0
473748.0876967,268386.96875,268748.90625,283940.3125,274893.125,279891.15625,266025.1875,245685.5625,251793.84375,-0.036376953125,0.9052734375,-0.4248046875,4.882812023162842,7.232665538787842,0.6713866591453552,80.0,1065491.0,0.0
473748.087697,268386.96875,268748.90625,283940.3125,274893.125,279891.15625,266025.1875,245685.5625,251793.84375,-0.036376953125,0.9052734375,-0.4248046875,4.882812023162842,7.232665538787842,0.6713866591453552,80.0,1065492.0,0.0
473748.0876973,268386.96875,268748.90625,283940.3125,274893.125,279891.15625,266025.1875,245685.5625,251793.84375,-0.036376953125,0.9052734375,-0.4248046875,4.882812023162842,7.232665538787842,0.6713866591453552,80.0,1065493.0,0.0
473748.0876976,268386.96875,268748.90625,283940.3125,274893.125,279891.15625,266025.1875,245685.5625,251793.84375,-0.036376953125,0.9052734375,-0.4248046875,4.882812023162842,7.232665538787842,0.6713866591453552,80.0,1065494.0,0.0
473748.0876979,268386.96875,268748.90625,283940.3125,274893.125,279891.15625,266025.1875,245685.5625,251793.84375,-0.036376953125,0.9052734375,-0.4248046875,4.882812023162842,7.232665538787842,0.6713866591453552,80.0,1065495.0,0.0
473748.0876982,268386.96875,268748.90625,283940.3125,274893.125,279891.15625,266025.1875,245685.5625,251793.84375,-0.036376953125,0.9052734375,-0.4248046875,4.882812023162842,7.232665538787842,0.6713866591453552,80.0,1065496.0,0.0
473748.0876984,268386.96875,268748.90625,283940.3125,274893.125,279891.15625,266025.1875,245685.5625,251793.84375,-0.036376953125,0.9052734375,-0.4248046875,4.882812023162842,7.232665538787842,0.6713866591453552,80.0,1065497.0,0.0
473748.0876987,268386.96875,268748.90625,283940.3125,274893.125,279891.15625,266025.1875,245685.5625,251793.84375,-0.036376953125,0.9052734375,-0.4248046875,4.882812023162842,7.232665538787842,0.6713866591453552,80.0,1065498.0,0.0
473748.087699,268386.96875,268748.90625,283940.3125,274893.125,279891.15625,266025.1875,245685.5625,251793.84375,-0.036376953125,0.9052734375,-0.4248046875,4.882812023162842,7.232665538787842,0.6713866591453552,80.0,1065499.0,0.0
473748.0876993,268386.96875,268748.90625,283940.3125,274893.125,279891.15625,266025.1875,245685.5625,251793.84375,-0.036376953125,0.9052734375,-0.4248046875,4.882812023162842,7.232665538787842,0.6713866591453552,80.0,1065500.0,0.0
473748.0876996,268386.96875,268748.90625,283940.3125,274893.125,279891.15625,266025.1875,245685.5625,251793.84375,-0.036376953125,0.9052734375,-0.4248046875,4.882812023162842,7.232665538787842,0.6713866591453552,80.0,1065501.0,0.0
473748.0876999,268386.96875,268748.90625,283940.3125,274893.125,279891.15625,266025.1875,245685.5625,251793.84375,-0.036376953125,0.9052734375,-0.4248046875,4.882812023162842,7.232665538787842,0.6713866591453552,80.0,1065502.0,0.0
473748.0877002,268386.96875,268748.90625,283940.3125,274893.125,279891.15625,266025.1875,245685.5625,251793.84375,-0.036376953125,0.9052734375,-0.4248046875,4.882812023162842,7.232665538787842,0.6713866591453552,80.0,1065503.0,0.0
473748.0877005,268386.96875,268748.90625,283940.3125,274893.125,279891.15625,266025.1875,245685.5625,251793.84375,-0.036376953125,0.9052734375,-0.4248046875,4.882812023162842,7.232665538787842,0.6713866591453552,80.0,1065504.0,0.0
473748.0877008,268386.96875,268748.90625,283940.3125,274893.125,279891.15625,266025.1875,245685.5625,251793.84375,-0.036376953125,0.9052734375,-0.4248046875,4.882812023162842,7.232665538787842,0.6713866591453552,80.0,1065505.0,0.0
473748.0877011,268386.96875,268748.90625,283940.3125,274893.125,279891.15625,266025.1875,245685.5625,251793.84375,-0.036376953125,0.9052734375,-0.4248046875,4.882812023162842,7.232665538787842,0.6713866591453552,80.0,1065506.0,0.0
473748.0877014,268386.96875,268748.90625,283940.3125,274893.125,279891.15625,266025.1875,245685.5625,251793.84375,-0.036376953125,0.9052734375,-0.4248046875,4.882812023162842,7.232665538787842,0.6713866591453552,80.0,1065507.0,0.0
473748.0877017,268386.96875,268748.90625,283940.3125,274893.125,279891.15625,266025.1875,245685.5625,251793.84375,-0.036376953125,0.9052734375,-0.4248046875,4.882812023162842,7.232665538787842,0.6713866591453552,80.0,1065508.0,0.0
473748.087702,267872.34375,268578.84375,283185.53125,273784.5625,278825.5,266002.03125,245037.171875,251589.109375,-0.00390625,0.903076171875,-0.4453125,2.502441167831421,2.593993902206421,2.960204839706421,80.0,1065509.0,1.0
473748.0877043,267248.28125,268558.5625,283498.0,274747.5625,279510.46875,266027.34375,245801.34375,251886.375,-0.00390625,0.902587890625,-0.445068359375,2.441406011581421,2.655029058456421,2.990722417831421,80.0,1065510.0,1.0
473748.0900703,267274.21875,268690.5,284347.46875,276428.78125,280883.75,266061.78125,246894.25,252269.484375,-0.002197265625,0.904052734375,-0.445556640625,2.410888433456421,2.807616949081421,2.990722417831421,80.0,1065511.0,1.0
