Time,FZ,C3,CZ,C4,PZ,PO7,OZ,PO8,AccX,AccY,AccZ,Gyro1,Gyro2,Gyro3,Battery,Counter,Validation
1212837.0770237,289271.0,300621.15625,315775.34375,297210.53125,315118.75,304026.375,299848.5625,307840.21875,-0.02001953125,0.990966796875,-0.079833984375,-0.3356933295726776,-0.6408690810203552,0.2441406100988388,80.0,1130407.0,1.0
1212837.0875315,289002.96875,298800.1875,314905.34375,296669.1875,314464.28125,302206.5,298676.53125,306519.15625,-0.0205078125,0.989990234375,-0.080322265625,-0.2136230319738388,-0.5187987685203552,0.1220703050494194,80.0,1130408.0,1.0
1212837.087576,288652.0625,296022.9375,313946.4375,295619.34375,312333.09375,298646.84375,297015.0,303133.375,-0.021484375,0.988525390625,-0.07958984375,-0.0610351525247097,-0.5187987685203552,0.2136230319738388,80.0,1130409.0,1.0
1212837.0963318,288706.84375,296136.75,314227.375,295515.125,311668.8125,298273.84375,297165.28125,302361.8125,-0.02197265625,0.986572265625,-0.079833984375,0.0610351525247097,-0.5493163466453552,0.3662109076976776,80.0,1130410.0,1.0
1212837.0963764,289099.71875,298996.4375,315371.3125,296537.75,313412.96875,301622.21875,298926.53125,305322.53125,-0.02490234375,0.987548828125,-0.08056640625,0.2136230319738388,-0.6408690810203552,0.3662109076976776,80.0,1130411.0,1.0
1212837.1099414,289274.6875,300623.65625,315776.25,297219.125,315118.75,304029.59375,299851.0,307846.46875,-0.023193359375,0.98681640625,-0.080078125,0.3356933295726776,-0.6103515028953552,0.4272460639476776,80.0,1130412.0,1.0
1212837.1099862,289001.90625,298794.8125,314905.15625,296672.3125,314456.96875,302203.5625,298676.28125,306521.90625,-0.02392578125,0.98828125,-0.078125,0.3051757514476776,-0.6713866591453552,0.4272460639476776,80.0,1130413.0,1.0
1212837.1129603,288650.09375,296025.90625,313945.28125,295625.34375,312333.8125,298649.375,297018.5,303146.53125,-0.026123046875,0.986328125,-0.076416015625,0.4272460639476776,-0.7324218153953552,0.3662109076976776,80.0,1130414.0,1.0
1212837.1129939,288703.5625,296143.5625,314225.84375,295520.46875,311674.15625,298277.4375,297166.375,302375.75,-0.025634765625,0.986328125,-0.080810546875,0.5187987685203552,-0.7934569716453552,0.3356933295726776,80.0,1130415.0,1.0
1212837.1130052,289091.75,298996.53125,315365.53125,296532.84375,313413.3125,301620.1875,298925.8125,305324.40625,-0.026611328125,0.987548828125,-0.080322265625,0.6408690810203552,-0.7934569716453552,0.3662109076976776,80.0,1130416.0,1.0
1212837.1155545,289251.53125,300605.40625,315756.65625,297193.46875,315099.1875,304008.9375,299839.53125,307825.90625,-0.025390625,0.986572265625,-0.07958984375,0.5493163466453552,-0.8239745497703552,0.3662109076976776,80.0,1130417.0,1.0
1212837.1194043,288982.84375,298780.0625,314889.5,296649.5,314439.25,302185.21875,298664.1875,306502.875,-0.02783203125,0.98681640625,-0.07763671875,0.7019042372703552,-0.8850097060203552,0.3356933295726776,80.0,1130418.0,1.0
1212837.1281672,288644.0,296016.78125,313942.6875,295612.90625,312323.4375,298641.3125,297010.53125,303136.875,-0.027587890625,0.985595703125,-0.078125,0.7019042372703552,-0.9765624403953552,0.3356933295726776,80.0,1130419.0,1.0
1212837.1307822,288714.0,296148.03125,314238.4375,295523.96875,311678.1875,298285.75,297173.96875,302384.4375,-0.025390625,0.98583984375,-0.0771484375,0.7324218153953552,-1.0070799589157104,0.3356933295726776,80.0,1130420.0,1.0
1212837.1425545,289096.40625,298994.375,315373.21875,296533.8125,313413.3125,301621.6875,298931.0,305328.6875,-0.02392578125,0.98681640625,-0.07861328125,0.7324218153953552,-1.0681151151657104,0.3356933295726776,80.0,1130421.0,1.0
1212837.142604,289261.625,300604.0625,315766.96875,297196.3125,315101.84375,304008.6875,299845.09375,307829.40625,-0.02490234375,0.986328125,-0.078857421875,0.7629393935203552,-1.1901854276657104,0.2136230319738388,80.0,1130422.0,1.0
1212837.1444654,289007.1875,298793.75,314910.4375,296664.53125,314455.875,302197.9375,298683.34375,306518.78125,-0.026123046875,0.98876953125,-0.07958984375,0.7324218153953552,-1.1596678495407104,0.2441406100988388,80.0,1130423.0,1.0
1212837.1469542,288668.9375,296040.03125,313961.90625,295633.125,312346.15625,298662.78125,297031.4375,303159.59375,-0.026611328125,0.98828125,-0.081298828125,0.7934569716453552,-1.3122557401657104,0.2136230319738388,80.0,1130424.0,1.0
1212837.1514394,288723.5,296159.1875,314243.09375,295532.53125,311693.21875,298296.84375,297179.96875,302392.75,-0.027587890625,0.9892578125,-0.079833984375,0.7629393935203552,-1.3122557401657104,0.2136230319738388,80.0,1130425.0,1.0
1212837.151484,289101.40625,298996.875,315369.625,296533.375,313424.59375,301627.6875,298932.6875,305328.0625,-0.025634765625,0.989990234375,-0.083251953125,0.7934569716453552,-1.2817381620407104,0.3662109076976776,80.0,1130426.0,1.0
1212837.1619592,289259.40625,300595.75,315756.9375,297188.28125,315108.125,304010.65625,299841.34375,307821.09375,-0.025390625,0.98974609375,-0.083251953125,0.6713866591453552,-1.3122557401657104,0.2746581733226776,80.0,1130427.0,1.0
1212837.1650328,288993.59375,298776.84375,314890.40625,296648.0,314451.34375,302189.53125,298668.40625,306499.65625,-0.02587890625,0.989501953125,-0.08251953125,0.6103515028953552,-1.3732908964157104,0.2136230319738388,80.0,1130428.0,1.0
1212837.1650775,288647.75,296020.34375,313938.40625,295611.65625,312333.71875,298645.78125,297013.03125,303135.09375,-0.025390625,0.989013671875,-0.083740234375,0.5493163466453552,-1.3427733182907104,0.1831054538488388,80.0,1130429.0,1.0
1212837.1669213,288715.625,296152.21875,314235.0625,295522.96875,311693.65625,298293.15625,297179.34375,302384.78125,-0.023193359375,0.989990234375,-0.084228515625,0.4882812201976776,-1.4648436307907104,0.2136230319738388,80.0,1130430.0,1.0
1212837.175816,289093.375,298987.40625,315360.25,296524.25,313423.25,301622.84375,298930.28125,305320.71875,-0.0244140625,0.99169921875,-0.082275390625,0.3967284858226776,-1.4648436307907104,0.1220703050494194,80.0,1130431.0,1.0
1212837.1800484,289249.03125,300581.8125,315746.375,297177.09375,315098.1875,303996.15625,299830.53125,307809.8125,-0.026123046875,0.991943359375,-0.07958984375,0.3662109076976776,-1.5563963651657104,0.1831054538488388,80.0,1130432.0,1.0
1212837.1800991,288992.5,298765.40625,314887.625,296643.875,314443.8125,302176.75,298661.53125,306495.28125,-0.02685546875,0.99267578125,-0.080810546875,0.3662109076976776,-1.5869139432907104,0.1831054538488388,80.0,1130433.0,1.0
1212837.1831786,288652.5,296014.71875,313937.5,295610.59375,312328.0,298637.375,297010.53125,303137.40625,-0.025146484375,0.9912109375,-0.08056640625,0.2746581733226776,-1.5258787870407104,0.1220703050494194,80.0,1130434.0,1.0
1212837.1932135,288712.03125,296140.875,314227.1875,295518.0625,311680.875,298282.53125,297168.5,302386.3125,-0.0234375,0.993896484375,-0.081787109375,0.2441406100988388,-1.5869139432907104,0.2136230319738388,80.0,1130435.0,1.0
1212837.1976403,289090.875,298976.59375,315360.25,296523.4375,313413.125,301612.03125,298922.40625,305328.96875,-0.025390625,0.995361328125,-0.082275390625,0.1220703050494194,-1.5869139432907104,0.2136230319738388,80.0,1130436.0,1.0
1212837.1976852,289249.28125,300572.5,315747.5625,297179.875,315088.0,303984.625,299828.5625,307816.25,-0.0234375,0.99609375,-0.079833984375,-0.03051757626235485,-1.5258787870407104,0.1831054538488388,80.0,1130437.0,1.0
1212837.2032803,288987.6875,298758.34375,314885.40625,296645.75,314433.71875,302168.0625,298661.96875,306496.875,-0.02734375,0.99658203125,-0.079345703125,-0.2746581733226776,-1.5869139432907104,0.2746581733226776,80.0,1130438.0,1.0
1212837.2100046,288663.5,296025.4375,313952.71875,295629.8125,312338.65625,298650.15625,297026.71875,303154.125,-0.026611328125,0.99609375,-0.07861328125,-0.3967284858226776,-1.6174315214157104,0.3051757514476776,80.0,1130439.0,1.0
1212837.210048,288720.28125,296146.875,314238.1875,295533.25,311687.3125,298292.0,297180.84375,302398.375,-0.025390625,0.99560546875,-0.077392578125,-0.5493163466453552,-1.6784666776657104,0.3356933295726776,80.0,1130440.0,1.0
1212837.2156686,289096.21875,298984.375,315365.0625,296533.53125,313418.40625,301623.46875,298932.34375,305336.90625,-0.02490234375,0.99755859375,-0.078857421875,-0.7019042372703552,-1.6174315214157104,0.3356933295726776,80.0,1130441.0,1.0
1212837.2201397,289246.6875,300576.0,315744.875,297181.125,315087.0,303991.15625,299831.9375,307816.625,-0.02392578125,0.998291015625,-0.078369140625,-0.7934569716453552,-1.6479490995407104,0.4272460639476776,80.0,1130442.0,1.0
1212837.2201849,288982.40625,298754.25,314878.6875,296640.28125,314425.65625,302165.03125,298654.71875,306489.46875,-0.024169921875,0.998779296875,-0.077880859375,-1.1291502714157104,-1.7089842557907104,0.5187987685203552,80.0,1130443.0,1.0
1212837.2257247,288645.0625,296008.28125,313937.0625,295613.53125,312322.71875,298638.8125,297012.3125,303137.78125,-0.02490234375,0.999755859375,-0.082275390625,-1.1596678495407104,-1.7395018339157104,0.5798339247703552,80.0,1130444.0,1.0
1212837.232001,288713.125,296148.8125,314236.75,295528.4375,311688.375,298294.6875,297182.46875,302396.0625,-0.025390625,0.999755859375,-0.0791015625,-1.3427733182907104,-1.7700194120407104,0.5798339247703552,80.0,1130445.0,1.0
1212837.2412829,289101.6875,298999.46875,315380.1875,296543.65625,313433.0625,301638.5,298950.40625,305349.25,-0.02587890625,0.999267578125,-0.07763671875,-1.4648436307907104,-1.7395018339157104,0.5493163466453552,80.0,1130446.0,1.0
1212837.2413257,289254.125,300589.03125,315761.59375,297194.53125,315105.78125,304007.4375,299851.53125,307830.84375,-0.0263671875,0.998046875,-0.074462890625,-1.6479490995407104,-1.8310545682907104,0.6713866591453552,80.0,1130447.0,1.0
1212837.2433188,288979.5625,298754.875,314881.90625,296641.0,314432.8125,302166.0,298662.59375,306489.71875,-0.027099609375,0.9970703125,-0.076904296875,-1.8920897245407104,-1.7395018339157104,0.7019042372703552,80.0,1130448.0,1.0
1212837.2469585,288643.65625,296010.25,313937.0625,295614.34375,312326.40625,298629.59375,297013.9375,303135.34375,-0.026123046875,0.994873046875,-0.076904296875,-2.014159917831421,-1.7395018339157104,0.6408690810203552,80.0,1130449.0,1.0
1212837.2562942,288708.90625,296144.8125,314230.0625,295523.0625,311684.28125,298281.0,297177.53125,302388.09375,-0.02587890625,0.993408203125,-0.078125,-2.136230230331421,-1.7395018339157104,0.7019042372703552,80.0,1130450.0,1.0
1212837.2563378,289088.8125,298985.34375,315360.59375,296527.28125,313421.28125,301616.5,298933.0625,305333.15625,-0.025146484375,0.992919921875,-0.077880859375,-2.105712652206421,-1.7089842557907104,0.7629393935203552,80.0,1130451.0,1.0
1212837.2587889,289244.375,300573.75,315745.75,297180.75,315098.0,303986.5,299834.0,307818.9375,-0.022705078125,0.99169921875,-0.07568359375,-2.136230230331421,-1.6784666776657104,0.8239745497703552,80.0,1130452.0,1.0
1212837.2588336,288980.4375,298749.0625,314879.40625,296639.03125,314434.34375,302154.5625,298655.34375,306488.21875,-0.0224609375,0.98974609375,-0.074462890625,-2.227782964706421,-1.6479490995407104,0.7629393935203552,80.0,1130453.0,1.0
1212837.2669209,288645.4375,296001.40625,313934.1875,295610.78125,312323.0,298620.9375,297008.75,303132.5,-0.0234375,0.98974609375,-0.075439453125,-2.227782964706421,-1.6479490995407104,0.7324218153953552,80.0,1130454.0,1.0
1212837.2694531,288706.9375,296135.875,314228.09375,295519.84375,311683.90625,298276.71875,297176.375,302390.3125,-0.0224609375,0.989501953125,-0.069580078125,-2.258300542831421,-1.6174315214157104,0.7324218153953552,80.0,1130455.0,1.0
1212837.2732198,289089.0625,298979.71875,315363.625,296525.78125,313423.59375,301621.59375,298937.25,305343.71875,-0.024658203125,0.990478515625,-0.07080078125,-2.319335699081421,-1.6784666776657104,0.8544921278953552,80.0,1130456.0,1.0
1212837.2874825,289246.4375,300578.40625,315748.1875,297179.25,315100.15625,303993.5625,299837.84375,307830.46875,-0.022705078125,0.990966796875,-0.072265625,-2.288818120956421,-1.6174315214157104,0.8239745497703552,80.0,1130457.0,1.0
1212837.2875327,288986.25,298754.6875,314885.5,296642.4375,314438.90625,302165.46875,298668.5,306498.5,-0.020751953125,0.989501953125,-0.06982421875,-2.197265386581421,-1.4648436307907104,0.7629393935203552,80.0,1130458.0,1.0
1212837.2894438,288666.90625,296022.75,313956.09375,295628.03125,312340.875,298646.3125,297035.03125,303147.0625,-0.02001953125,0.9892578125,-0.0673828125,-2.105712652206421,-1.3732908964157104,0.8239745497703552,80.0,1130459.0,1.0
1212837.2969569,288739.125,296168.5,314259.65625,295546.21875,311709.84375,298310.5,297207.0625,302407.9375,-0.02001953125,0.9873046875,-0.067138671875,-2.044677495956421,-1.3427733182907104,0.8850097060203552,80.0,1130460.0,1.0
1212837.3000226,289099.8125,298992.3125,315369.1875,296529.25,313426.71875,301626.625,298938.59375,305336.28125,-0.019775390625,0.989013671875,-0.067626953125,-2.044677495956421,-1.2512205839157104,0.7934569716453552,80.0,1130461.0,1.0
1212837.3000658,289249.5625,300578.75,315748.28125,297182.71875,315098.71875,303990.625,299839.28125,307822.6875,-0.019287109375,0.988037109375,-0.06982421875,-1.9226073026657104,-1.1291502714157104,0.8544921278953552,80.0,1130462.0,1.0
1212837.3019558,288984.90625,298749.40625,314881.09375,296641.375,314433.90625,302158.0625,298665.53125,306490.8125,-0.0224609375,0.9873046875,-0.06689453125,-1.9531248807907104,-1.0375975370407104,0.9460448622703552,80.0,1130463.0,1.0
1212837.3045308,288651.78125,296000.84375,313935.71875,295606.40625,312322.375,298620.9375,297010.25,303123.46875,-0.021484375,0.986572265625,-0.06982421875,-1.8005369901657104,-0.9765624403953552,0.9765624403953552,80.0,1130464.0,1.0
1212837.3157004,288716.96875,296143.90625,314231.46875,295516.71875,311686.25,298279.40625,297174.875,302379.0625,-0.021240234375,0.98779296875,-0.0693359375,-1.6784666776657104,-0.9155272841453552,1.0070799589157104,80.0,1130465.0,1.0
1212837.3188217,289095.59375,298990.4375,315364.1875,296525.6875,313427.71875,301626.625,298935.28125,305337.53125,-0.01904296875,0.989013671875,-0.0693359375,-1.6784666776657104,-0.8544921278953552,0.9155272841453552,80.0,1130466.0,1.0
1212837.3188673,289246.6875,300580.09375,315743.875,297176.46875,315100.875,303996.0625,299834.71875,307827.53125,-0.0205078125,0.992919921875,-0.066162109375,-1.5869139432907104,-0.7934569716453552,0.8544921278953552,80.0,1130467.0,1.0
1212837.3206683,288980.4375,298748.15625,314874.125,296630.46875,314431.65625,302156.71875,298651.96875,306484.90625,-0.0205078125,0.994140625,-0.06787109375,-1.5258787870407104,-0.7324218153953552,0.8239745497703552,80.0,1130468.0,1.0
1212837.3270881,288648.46875,296000.5,313932.21875,295602.5625,312320.03125,298621.1875,297005.4375,303116.84375,-0.01904296875,0.992431640625,-0.06787109375,-1.4343260526657104,-0.7019042372703552,0.8239745497703552,80.0,1130469.0,1.0
1212837.331373,288712.9375,296143.65625,314231.03125,295518.25,311681.9375,298284.75,297179.15625,302374.25,-0.02001953125,0.99462890625,-0.067138671875,-1.4343260526657104,-0.6408690810203552,0.7934569716453552,80.0,1130470.0,1.0
1212837.3314382,289091.9375,298991.15625,315364.53125,296529.96875,313425.03125,301634.84375,298941.90625,305335.84375,-0.01806640625,0.994140625,-0.06640625,-1.3732908964157104,-0.5798339247703552,0.7934569716453552,80.0,1130471.0,1.0
1212837.3500113,289249.90625,300585.375,315746.21875,297182.90625,315103.09375,304004.5625,299842.59375,307829.5,-0.017822265625,0.9931640625,-0.062255859375,-1.2207030057907104,-0.5187987685203552,0.8544921278953552,80.0,1130472.0,1.0
1212837.3500539,288986.6875,298751.03125,314875.5625,296636.625,314434.875,302158.84375,298659.90625,306488.125,-0.019287109375,0.99462890625,-0.0625,-1.1291502714157104,-0.5187987685203552,0.7629393935203552,80.0,1130473.0,1.0
1212837.351797,288654.46875,296000.59375,313933.5625,295602.28125,312318.96875,298618.5,297009.71875,303115.40625,-0.01904296875,0.993896484375,-0.061279296875,-1.0986326932907104,-0.3356933295726776,0.7019042372703552,80.0,1130474.0,1.0
1212837.3555768,288723.84375,296153.21875,314237.28125,295521.28125,311690.53125,298289.125,297185.6875,302382.71875,-0.0185546875,0.99609375,-0.063232421875,-1.0986326932907104,-0.3051757514476776,0.6713866591453552,80.0,1130475.0,1.0
1212837.3599422,289099.53125,299005.8125,315368.90625,296530.875,313432.96875,301638.25,298945.375,305346.21875,-0.017578125,0.9951171875,-0.0625,-0.9765624403953552,-0.1831054538488388,0.6408690810203552,80.0,1130476.0,1.0
1212837.3599742,289254.03125,300599.6875,315751.75,297189.625,315115.09375,304013.59375,299851.4375,307841.84375,-0.018798828125,0.996337890625,-0.06396484375,-0.8850097060203552,-0.1525878757238388,0.6103515028953552,80.0,1130477.0,1.0
1212837.3618478,288996.4375,298770.5,314887.625,296654.875,314453.84375,302177.375,298674.125,306505.65625,-0.01806640625,0.993896484375,-0.06591796875,-0.7934569716453552,-0.0610351525247097,0.5493163466453552,80.0,1130478.0,1.0
1212837.3705879,288652.0625,296005.34375,313932.40625,295611.59375,312325.84375,298627.1875,297010.8125,303120.15625,-0.0185546875,0.99072265625,-0.06396484375,-0.7019042372703552,-0.0610351525247097,0.5187987685203552,80.0,1130479.0,1.0
1212837.3736723,288708.46875,296141.75,314222.09375,295515.5625,311679.1875,298283.15625,297176.46875,302369.75,-0.02001953125,0.989990234375,-0.063720703125,-0.5493163466453552,0.0,0.4272460639476776,80.0,1130480.0,1.0
1212837.3737069,289093.28125,299000.0,315364.875,296534.34375,313429.75,301644.9375,298951.8125,305344.0625,-0.01953125,0.9892578125,-0.0634765625,-0.4272460639476776,0.0610351525247097,0.4272460639476776,80.0,1130481.0,1.0
1212837.384356,289251.625,300591.09375,315748.34375,297191.3125,315108.5625,304013.5,299847.25,307835.75,-0.01904296875,0.988037109375,-0.06494140625,-0.2136230319738388,0.1220703050494194,0.4882812201976776,80.0,1130482.0,1.0
1212837.3873915,288984.03125,298750.40625,314873.78125,296642.09375,314428.53125,302157.15625,298653.21875,306480.34375,-0.019775390625,0.98974609375,-0.0625,-0.0610351525247097,0.1525878757238388,0.3356933295726776,80.0,1130483.0,1.0
1212837.3874272,288645.0,295998.09375,313930.53125,295609.96875,312310.3125,298618.34375,297004.28125,303106.9375,-0.021240234375,0.990966796875,-0.065185546875,0.03051757626235485,0.1220703050494194,0.2136230319738388,80.0,1130484.0,1.0
1212837.3892902,288703.90625,296138.375,314226.125,295520.375,311669.0625,298282.0625,297174.40625,302364.9375,-0.02001953125,0.992431640625,-0.065185546875,0.2441406100988388,0.0915527269244194,0.1831054538488388,80.0,1130485.0,1.0
1212837.4012586,289089.25,298999.21875,315366.78125,296537.21875,313418.3125,301640.46875,298944.9375,305338.25,-0.020751953125,0.992431640625,-0.06494140625,0.2746581733226776,0.0,0.03051757626235485,80.0,1130486.0,1.0
1212837.4012951,289250.53125,300596.09375,315753.1875,297199.53125,315100.96875,304014.9375,299849.90625,307836.90625,-0.022216796875,0.993408203125,-0.064453125,0.5187987685203552,0.03051757626235485,0.03051757626235485,80.0,1130487.0,1.0
1212837.4030988,288987.40625,298756.125,314881.65625,296655.3125,314431.40625,302168.6875,298667.0625,306490.71875,-0.021240234375,0.9931640625,-0.0625,0.5187987685203552,0.0915527269244194,0.0610351525247097,80.0,1130488.0,1.0
1212837.4056035,288650.53125,296002.03125,313932.21875,295617.84375,312313.15625,298625.65625,297011.6875,303114.25,-0.019775390625,0.994873046875,-0.061767578125,0.6103515028953552,0.0610351525247097,0.1220703050494194,80.0,1130489.0,1.0
1212837.4143291,288717.59375,296153.84375,314232.625,295532.625,311680.0625,298292.71875,297179.5,302378.71875,-0.01806640625,0.993896484375,-0.06201171875,0.7324218153953552,-0.03051757626235485,0.03051757626235485,80.0,1130490.0,1.0
1212837.4185961,289101.40625,299012.4375,315370.6875,296544.625,313428.78125,301648.0625,298942.71875,305347.65625,-0.022216796875,0.99267578125,-0.0634765625,0.7324218153953552,-0.1220703050494194,0.03051757626235485,80.0,1130491.0,1.0
1212837.4186137,289256.8125,300600.21875,315751.9375,297201.59375,315112.3125,304019.3125,299844.65625,307843.34375,-0.021484375,0.993896484375,-0.063720703125,0.7324218153953552,-0.0610351525247097,-0.03051757626235485,80.0,1130492.0,1.0
1212837.4205028,288977.59375,298743.0625,314865.8125,296637.0625,314421.65625,302149.375,298642.3125,306475.96875,-0.019775390625,0.9931640625,-0.06591796875,0.9155272841453552,-0.0915527269244194,0.03051757626235485,80.0,1130493.0,1.0
1212837.4348611,288644.09375,295997.71875,313925.4375,295605.59375,312306.71875,298612.25,296998.71875,303106.46875,-0.02001953125,0.992431640625,-0.0673828125,0.8850097060203552,-0.0915527269244194,-0.03051757626235485,80.0,1130494.0,1.0
1212837.434882,288710.0,296149.90625,314229.40625,295523.5,311678.0,298288.96875,297177.90625,302380.9375,-0.020751953125,0.99169921875,-0.06689453125,0.9765624403953552,-0.1525878757238388,-0.0610351525247097,80.0,1130495.0,1.0
1212837.4416863,289097.21875,299009.03125,315371.25,296540.0625,313431.46875,301650.5,298942.09375,305353.8125,-0.021240234375,0.9921875,-0.06884765625,1.0681151151657104,-0.1220703050494194,-0.0610351525247097,80.0,1130496.0,1.0
1212837.4417036,289247.9375,300591.90625,315745.75,297187.65625,315103.8125,304007.0625,299833.03125,307834.9375,-0.022216796875,0.9921875,-0.066162109375,1.3122557401657104,-0.2136230319738388,-0.1525878757238388,80.0,1130497.0,1.0
1212837.4417093,288980.625,298749.6875,314870.03125,296639.75,314430.125,302149.65625,298645.59375,306480.0625,-0.022216796875,0.9921875,-0.064453125,1.3122557401657104,-0.2136230319738388,-0.1220703050494194,80.0,1130498.0,1.0
1212837.4442534,288645.78125,295999.59375,313928.03125,295605.15625,312313.59375,298607.96875,296997.5625,303107.1875,-0.02294921875,0.990966796875,-0.06640625,1.4648436307907104,-0.2746581733226776,-0.1220703050494194,80.0,1130499.0,1.0
1212837.4504853,288707.5625,296147.9375,314226.5625,295516.8125,311678.625,298278.9375,297171.71875,302373.15625,-0.024169921875,0.9921875,-0.068115234375,1.3732908964157104,-0.3967284858226776,-0.0610351525247097,80.0,1130500.0,1.0
1212837.4649034,289096.65625,299013.25,315371.3125,296538.71875,313436.5625,301644.9375,298943.6875,305347.71875,-0.025634765625,0.991455078125,-0.065673828125,1.5563963651657104,-0.5187987685203552,-0.0915527269244194,80.0,1130501.0,1.0
1212837.4649261,289252.875,300597.1875,315752.65625,297193.46875,315114.5625,304010.46875,299840.875,307835.75,-0.0234375,0.990966796875,-0.06787109375,1.5563963651657104,-0.5798339247703552,-0.1220703050494194,80.0,1130502.0,1.0
1212837.4674028,288984.90625,298751.28125,314875.46875,296640.9375,314433.28125,302150.28125,298647.84375,306478.90625,-0.02392578125,0.991455078125,-0.06640625,1.5869139432907104,-0.6408690810203552,-0.1525878757238388,80.0,1130503.0,1.0
1212837.4674238,288649.8125,296004.625,313935.71875,295611.9375,312319.34375,298615.75,297007.65625,303112.8125,-0.021728515625,0.9892578125,-0.06884765625,1.7700194120407104,-0.7019042372703552,-0.0915527269244194,80.0,1130504.0,1.0
1212837.4736519,288710.625,296156.25,314234.59375,295524.125,311683.65625,298287.1875,297184.4375,302380.21875,-0.023681640625,0.9892578125,-0.06982421875,1.7700194120407104,-0.7629393935203552,-0.1220703050494194,80.0,1130505.0,1.0
1212837.4736759,289095.40625,299019.5,315375.8125,296542.03125,313437.8125,301648.34375,298948.96875,305354.0,-0.02587890625,0.990966796875,-0.07177734375,1.8615721464157104,-0.9155272841453552,-0.1831054538488388,80.0,1130506.0,1.0
1212837.4849014,289250.28125,300605.125,315756.21875,297198.1875,315115.96875,304012.15625,299840.875,307841.21875,-0.027587890625,0.99072265625,-0.070556640625,1.8310545682907104,-0.9765624403953552,-0.1831054538488388,80.0,1130507.0,1.0
1212837.4849231,288982.84375,298754.15625,314879.15625,296643.25,314433.53125,302151.15625,298650.25,306479.53125,-0.02587890625,0.991455078125,-0.072265625,1.9531248807907104,-1.0375975370407104,-0.2746581733226776,80.0,1130508.0,1.0
1212837.4912245,288652.9375,296007.21875,313936.0625,295605.9375,312312.28125,298611.375,297007.125,303103.78125,-0.024658203125,0.994140625,-0.07373046875,1.9836424589157104,-1.0070799589157104,-0.2136230319738388,80.0,1130509.0,1.0
1212837.4912473,288721.25,296163.125,314236.40625,295522.1875,311684.28125,298290.40625,297187.125,302375.75,-0.025634765625,0.99267578125,-0.07470703125,2.044677495956421,-1.0986326932907104,-0.1831054538488388,80.0,1130510.0,1.0
1212837.5012261,289104.71875,299022.71875,315373.125,296536.5,313439.5,301652.0,298952.0,305349.34375,-0.023681640625,0.9912109375,-0.07177734375,2.136230230331421,-1.1596678495407104,-0.1525878757238388,80.0,1130511.0,1.0
1212837.5012485,289249.5625,300595.75,315743.15625,297182.625,315107.40625,304003.3125,299833.5625,307826.09375,-0.02294921875,0.991943359375,-0.072998046875,2.258300542831421,-1.2817381620407104,-0.2746581733226776,80.0,1130512.0,1.0
1212837.5074001,288979.8125,298742.875,314866.28125,296626.25,314422.28125,302138.375,298640.875,306462.0,-0.022705078125,0.992919921875,-0.07373046875,2.197265386581421,-1.2817381620407104,-0.3967284858226776,80.0,1130513.0,1.0
1212837.5074241,288642.5625,295991.46875,313925.15625,295588.25,312302.6875,298598.125,296993.53125,303089.84375,-0.021240234375,0.99365234375,-0.072998046875,2.044677495956421,-1.2512205839157104,-0.3356933295726776,80.0,1130514.0,1.0
1212837.5187431,288707.9375,296149.4375,314228.96875,295507.34375,311674.4375,298279.40625,297174.25,302367.53125,-0.022216796875,0.9951171875,-0.075927734375,2.075195074081421,-1.3732908964157104,-0.3051757514476776,80.0,1130515.0,1.0
1212837.5187849,289099.53125,299017.09375,315372.9375,296532.65625,313438.875,301646.28125,298942.34375,305349.34375,-0.0244140625,0.992919921875,-0.075439453125,2.075195074081421,-1.4038084745407104,-0.2136230319738388,80.0,1130516.0,1.0
1212837.5213537,289252.34375,300599.5,315748.90625,297184.875,315113.65625,304004.46875,299828.90625,307831.0,-0.022216796875,0.99365234375,-0.076904296875,2.197265386581421,-1.3732908964157104,-0.1525878757238388,80.0,1130517.0,1.0
1212837.5213914,288985.1875,298751.28125,314874.84375,296632.34375,314430.84375,302144.71875,298643.28125,306469.625,-0.022216796875,0.994140625,-0.07666015625,2.197265386581421,-1.5258787870407104,-0.2746581733226776,80.0,1130518.0,1.0
1212837.5500265,288649.0,296001.03125,313932.59375,295596.03125,312309.9375,298604.9375,297001.59375,303099.15625,-0.023193359375,0.992919921875,-0.073974609375,2.105712652206421,-1.4953612089157104,-0.3662109076976776,80.0,1130519.0,1.0
1212837.5500651,288711.5,296154.90625,314230.84375,295507.875,311677.21875,298280.28125,297176.125,302371.375,-0.024658203125,0.99365234375,-0.0732421875,2.044677495956421,-1.5258787870407104,-0.3967284858226776,80.0,1130520.0,1.0
1212837.5526037,289096.5,299017.0,315368.03125,296529.15625,313434.3125,301645.3125,298942.625,305349.0625,-0.024169921875,0.99365234375,-0.07421875,2.105712652206421,-1.5563963651657104,-0.3662109076976776,80.0,1130521.0,1.0
1212837.5526432,289256.0,300605.84375,315749.53125,297188.8125,315116.0625,304007.25,299837.75,307835.40625,-0.023193359375,0.994140625,-0.07666015625,2.136230230331421,-1.5869139432907104,-0.4272460639476776,80.0,1130522.0,1.0
1212837.5543194,288986.875,298754.78125,314874.3125,296635.65625,314436.5625,302142.59375,298647.84375,306472.90625,-0.024658203125,0.99365234375,-0.076904296875,2.166747808456421,-1.5563963651657104,-0.4272460639476776,80.0,1130523.0,1.0
1212837.5569181,288640.6875,295995.125,313923.5625,295588.6875,312308.25,298596.0,296996.21875,303091.375,-0.02392578125,0.99560546875,-0.075927734375,2.136230230331421,-1.4648436307907104,-0.5187987685203552,80.0,1130524.0,1.0
1212837.5594567,288708.8125,296156.59375,314231.9375,295509.75,311681.0625,298281.625,297183.71875,302373.4375,-0.0234375,0.994384765625,-0.075439453125,2.075195074081421,-1.5563963651657104,-0.5493163466453552,80.0,1130525.0,1.0
1212837.5620041,289098.0,299023.625,315373.90625,296537.125,313438.875,301648.53125,298952.4375,305357.3125,-0.02392578125,0.99365234375,-0.076416015625,2.014159917831421,-1.5869139432907104,-0.5798339247703552,80.0,1130526.0,1.0
1212837.564425,289250.1875,300602.53125,315744.59375,297189.0,315114.28125,304003.78125,299839.1875,307839.5,-0.0244140625,0.993896484375,-0.076416015625,1.9836424589157104,-1.6174315214157104,-0.6408690810203552,80.0,1130527.0,1.0
1212837.5668787,288979.09375,298745.28125,314863.75,296631.90625,314433.8125,302138.1875,298647.5625,306475.4375,-0.024169921875,0.99365234375,-0.078125,1.9226073026657104,-1.6784666776657104,-0.7019042372703552,80.0,1130528.0,1.0
1212837.56937,288645.625,295996.375,313926.15625,295596.65625,312321.375,298604.9375,297008.90625,303109.15625,-0.0244140625,0.9931640625,-0.079345703125,1.8615721464157104,-1.6784666776657104,-0.6713866591453552,80.0,1130529.0,1.0
1212837.5718981,288716.5,296159.65625,314231.9375,295514.46875,311697.875,298293.96875,297191.5,302390.78125,-0.025634765625,0.990966796875,-0.077880859375,1.8615721464157104,-1.7089842557907104,-0.6408690810203552,80.0,1130530.0,1.0
1212837.5763633,289103.5625,299026.84375,315372.40625,296536.6875,313456.78125,301661.84375,298959.4375,305370.8125,-0.024169921875,0.990478515625,-0.080078125,1.7700194120407104,-1.8005369901657104,-0.5798339247703552,80.0,1130531.0,1.0
1212837.5764159,289259.84375,300608.53125,315750.875,297190.96875,315127.78125,304016.65625,299851.625,307848.0,-0.024658203125,0.9921875,-0.07958984375,1.6479490995407104,-1.8310545682907104,-0.5798339247703552,80.0,1130532.0,1.0
1212837.584448,288985.4375,298748.59375,314870.65625,296631.0,314437.03125,302144.71875,298656.0625,306476.5,-0.0244140625,0.992431640625,-0.07958984375,1.5563963651657104,-1.7395018339157104,-0.7019042372703552,80.0,1130533.0,1.0
1212837.5937542,288638.90625,295989.59375,313920.53125,295582.96875,312303.40625,298594.09375,297000.53125,303093.96875,-0.02783203125,0.994140625,-0.08154296875,1.5563963651657104,-1.8005369901657104,-0.7629393935203552,80.0,1130534.0,1.0
1212837.5937967,288708.46875,296156.5,314229.40625,295507.59375,311678.0,298283.5,297187.1875,302380.125,-0.0263671875,0.99267578125,-0.083740234375,1.4953612089157104,-1.8310545682907104,-0.7934569716453552,80.0,1130535.0,1.0
1212837.5960981,289099.53125,299025.59375,315370.875,296537.125,313439.5,301652.90625,298956.5625,305360.4375,-0.028076171875,0.99169921875,-0.078369140625,1.4038084745407104,-1.8310545682907104,-0.7019042372703552,80.0,1130536.0,1.0
1212837.5961463,289256.4375,300608.625,315745.59375,297193.0,315116.25,304009.3125,299840.1875,307837.53125,-0.025390625,0.990234375,-0.078125,1.4648436307907104,-1.8920897245407104,-0.6408690810203552,80.0,1130537.0,1.0
1212837.6018563,288973.8125,298738.9375,314856.96875,296623.5625,314417.1875,302128.375,298636.21875,306455.03125,-0.026123046875,0.990478515625,-0.078369140625,1.4343260526657104,-1.8920897245407104,-0.7019042372703552,80.0,1130538.0,1.0
1212837.6043141,288631.84375,295985.21875,313912.03125,295580.03125,312292.34375,298586.78125,296990.78125,303079.03125,-0.02587890625,0.98974609375,-0.078857421875,1.3122557401657104,-1.9836424589157104,-0.7019042372703552,80.0,1130539.0,1.0
1212837.6186849,288700.59375,296148.1875,314220.3125,295503.5625,311669.0625,298277.15625,297176.03125,302364.40625,-0.024658203125,0.989990234375,-0.078125,1.3122557401657104,-1.9226073026657104,-0.7324218153953552,80.0,1130540.0,1.0
1212837.6187228,289098.1875,299027.1875,315370.25,296539.71875,313437.09375,301653.25,298955.125,305355.15625,-0.024658203125,0.988037109375,-0.078369140625,1.3427733182907104,-2.014159917831421,-0.6713866591453552,80.0,1130541.0,1.0
1212837.6205272,289248.65625,300600.40625,315741.21875,297190.34375,315106.25,304000.46875,299836.3125,307827.6875,-0.025390625,0.98681640625,-0.08056640625,1.1901854276657104,-1.9531248807907104,-0.6103515028953552,80.0,1130542.0,1.0
1212837.6231569,288977.03125,298736.96875,314860.46875,296627.78125,314413.34375,302124.4375,298632.71875,306450.125,-0.02783203125,0.9853515625,-0.0810546875,1.2207030057907104,-1.8920897245407104,-0.6408690810203552,80.0,1130543.0,1.0
1212837.6256697,288640.25,295987.90625,313920.0625,295586.09375,312292.25,298587.84375,296990.15625,303076.53125,-0.0283203125,0.986328125,-0.082275390625,1.2512205839157104,-1.8615721464157104,-0.6103515028953552,80.0,1130544.0,1.0
1212837.6400333,288709.28125,296155.25,314228.875,295509.65625,311670.3125,298280.75,297179.59375,302365.90625,-0.0263671875,0.98828125,-0.08447265625,1.2817381620407104,-1.8615721464157104,-0.5493163466453552,80.0,1130545.0,1.0
1212837.6400707,289100.25,299025.9375,315373.375,296540.875,313437.09375,301656.125,298952.53125,305355.6875,-0.02685546875,0.98681640625,-0.084228515625,1.4343260526657104,-1.8920897245407104,-0.7019042372703552,80.0,1130546.0,1.0
1212837.6432103,289261.09375,300607.46875,315753.53125,297200.78125,315115.09375,304013.5,299846.6875,307837.28125,-0.02783203125,0.98974609375,-0.081787109375,1.4343260526657104,-1.9531248807907104,-0.4882812201976776,80.0,1130547.0,1.0
1212837.6432547,288987.40625,298744.3125,314870.375,296638.6875,314419.5,302136.84375,298651.40625,306457.90625,-0.026611328125,0.990478515625,-0.08349609375,1.5258787870407104,-1.9531248807907104,-0.4882812201976776,80.0,1130548.0,1.0
1212837.6432662,288647.75,295997.375,313925.875,295592.96875,312297.15625,298598.65625,297006.25,303082.78125,-0.028076171875,0.990478515625,-0.084228515625,1.4648436307907104,-1.8920897245407104,-0.4882812201976776,80.0,1130549.0,1.0
1212837.6456553,288720.34375,296172.25,314240.59375,295520.65625,311680.6875,298296.90625,297199.34375,302380.21875,-0.026611328125,0.99267578125,-0.08251953125,1.4038084745407104,-1.9531248807907104,-0.4882812201976776,80.0,1130550.0,1.0
1212837.6544432,289111.875,299038.90625,315384.75,296551.15625,313445.9375,301667.75,298966.03125,305368.65625,-0.027099609375,0.994873046875,-0.083740234375,1.3427733182907104,-1.9836424589157104,-0.4577636420726776,80.0,1130551.0,1.0
1212837.6587855,289255.0,300599.875,315747.5625,297193.625,315106.78125,304006.1875,299840.0,307832.1875,-0.028076171875,0.9951171875,-0.084716796875,1.2817381620407104,-2.014159917831421,-0.3967284858226776,80.0,1130552.0,1.0
1212837.6588239,288977.59375,298735.09375,314861.8125,296627.25,314414.125,302124.15625,298639.78125,306452.96875,-0.029052734375,0.995361328125,-0.080810546875,1.1901854276657104,-1.9531248807907104,-0.4577636420726776,80.0,1130553.0,1.0
1212837.666959,288646.96875,295991.03125,313926.0625,295585.84375,312293.21875,298589.8125,296997.5625,303075.8125,-0.027099609375,0.993408203125,-0.080078125,1.1596678495407104,-1.8310545682907104,-0.3356933295726776,80.0,1130554.0,1.0
1212837.6693124,288719.28125,296163.21875,314239.78125,295512.0625,311674.0,298290.21875,297189.34375,302367.8125,-0.024658203125,0.99169921875,-0.0830078125,1.0070799589157104,-1.8920897245407104,-0.3051757514476776,80.0,1130555.0,1.0
1212837.671855,289109.1875,299030.6875,315381.6875,296545.15625,313440.40625,301662.1875,298960.75,305358.71875,-0.0244140625,0.9892578125,-0.0830078125,1.0375975370407104,-1.8005369901657104,-0.3662109076976776,80.0,1130556.0,1.0
1212837.6806468,289268.78125,300611.3125,315759.34375,297207.5,315117.78125,304015.125,299851.53125,307841.21875,-0.02294921875,0.986328125,-0.085205078125,1.0070799589157104,-1.8615721464157104,-0.2136230319738388,80.0,1130557.0,1.0
1212837.6850689,288991.625,298743.59375,314872.53125,296639.65625,314419.6875,302131.75,298648.75,306458.875,-0.0234375,0.984619140625,-0.084228515625,1.0375975370407104,-1.7089842557907104,-0.1831054538488388,80.0,1130558.0,1.0
1212837.6851051,288653.03125,295992.8125,313928.5625,295592.28125,312293.75,298594.28125,297003.125,303078.9375,-0.02392578125,0.987060546875,-0.0859375,1.2207030057907104,-1.6174315214157104,-0.1831054538488388,80.0,1130559.0,1.0
1212837.6963544,288718.03125,296163.40625,314235.21875,295511.34375,311669.0,298287.53125,297183.8125,302363.3125,-0.026123046875,0.989501953125,-0.0859375,1.2207030057907104,-1.6174315214157104,-0.1831054538488388,80.0,1130560.0,1.0
1212837.6963921,289106.15625,299032.90625,315377.40625,296543.375,313435.5625,301660.15625,298952.625,305351.5625,-0.026123046875,0.99072265625,-0.083251953125,1.2207030057907104,-1.4953612089157104,-0.2441406100988388,80.0,1130561.0,1.0
1212837.6986638,289256.4375,300601.375,315748.1875,297195.875,315102.9375,304003.9375,299836.875,307824.03125,-0.028076171875,0.991943359375,-0.083740234375,1.1901854276657104,-1.4648436307907104,-0.2136230319738388,80.0,1130562.0,1.0
1212837.6987081,288980.625,298732.78125,314863.0625,296629.65625,314405.375,302121.9375,298637.90625,306440.90625,-0.027099609375,0.990966796875,-0.08251953125,1.1291502714157104,-1.4648436307907104,-0.1525878757238388,80.0,1130563.0,1.0
1212837.7056835,288655.4375,295996.125,313932.0625,295593.59375,312290.4375,298594.5625,297004.0,303073.125,-0.029296875,0.99365234375,-0.0830078125,1.1901854276657104,-1.5258787870407104,-0.03051757626235485,80.0,1130564.0,1.0
1212837.708281,288728.84375,296175.125,314246.40625,295523.96875,311679.09375,298301.125,297197.5625,302375.40625,-0.02978515625,0.990966796875,-0.083740234375,1.0986326932907104,-1.5258787870407104,0.0,80.0,1130565.0,1.0
1212837.711951,289114.5625,299039.71875,315386.78125,296554.71875,313443.28125,301673.46875,298966.03125,305364.4375,-0.03173828125,0.990966796875,-0.09033203125,1.0681151151657104,-1.5563963651657104,0.0610351525247097,80.0,1130566.0,1.0
1212837.7206001,289273.53125,300618.375,315763.375,297212.78125,315119.125,304025.84375,299855.90625,307844.0625,-0.031982421875,0.990478515625,-0.091796875,1.1291502714157104,-1.4953612089157104,0.0,80.0,1130567.0,1.0
1212837.7249339,289001.71875,298755.03125,314885.3125,296650.59375,314430.40625,302151.875,298661.0625,306468.0,-0.0322265625,0.990234375,-0.0927734375,1.2207030057907104,-1.5563963651657104,-0.0915527269244194,80.0,1130568.0,1.0
1212837.7249781,288654.375,295998.71875,313935.375,295594.9375,312299.84375,298604.65625,297006.25,303082.25,-0.032470703125,0.98974609375,-0.093017578125,1.4343260526657104,-1.5258787870407104,-0.0610351525247097,80.0,1130569.0,1.0
1212837.7338563,288721.4375,296172.96875,314243.90625,295518.34375,311677.9375,298298.4375,297192.5625,302376.03125,-0.03173828125,0.99169921875,-0.09326171875,1.7089842557907104,-1.4953612089157104,-0.1220703050494194,80.0,1130570.0,1.0
1212837.7338963,289121.53125,299052.75,315395.03125,296563.6875,313450.34375,301680.4375,298974.1875,305377.25,-0.0341796875,0.98974609375,-0.09326171875,1.8310545682907104,-1.6174315214157104,-0.2136230319738388,80.0,1130571.0,1.0
1212837.73571,289269.125,300613.8125,315760.53125,297212.5,315112.125,304019.15625,299852.78125,307843.875,-0.033935546875,0.9931640625,-0.097412109375,2.166747808456421,-1.6174315214157104,-0.3662109076976776,80.0,1130572.0,1.0
1212837.7444429,289000.75,298750.65625,314882.90625,296654.34375,314420.40625,302141.78125,298654.09375,306465.21875,-0.0322265625,0.99658203125,-0.097412109375,2.258300542831421,-1.7395018339157104,-0.5187987685203552,80.0,1130573.0,1.0
1212837.7487488,288660.71875,296004.34375,313938.84375,295608.53125,312295.375,298601.96875,297004.8125,303087.15625,-0.03271484375,0.998046875,-0.09765625,2.288818120956421,-1.8005369901657104,-0.5493163466453552,80.0,1130574.0,1.0
1212837.7487862,288730.0,296180.84375,314251.78125,295535.75,311680.59375,298306.84375,297194.4375,302387.09375,-0.03173828125,0.997314453125,-0.096435546875,2.410888433456421,-1.7395018339157104,-0.6103515028953552,80.0,1130575.0,1.0
1212837.7570212,289121.875,299055.4375,315393.59375,296570.1875,313452.46875,301683.03125,298962.5625,305382.40625,-0.031982421875,0.99365234375,-0.096435546875,2.441406011581421,-1.7700194120407104,-0.6408690810203552,80.0,1130576.0,1.0
1212837.7613488,289271.09375,300622.125,315759.34375,297223.84375,315125.1875,304027.1875,299846.625,307856.75,-0.031494140625,0.99267578125,-0.09765625,2.563476324081421,-1.8310545682907104,-0.6713866591453552,80.0,1130577.0,1.0
1212837.7613856,288989.84375,298745.90625,314870.8125,296650.9375,314421.1875,302138.28125,298643.625,306465.125,-0.03076171875,0.9892578125,-0.100341796875,2.624511480331421,-1.7395018339157104,-0.8239745497703552,80.0,1130578.0,1.0
1212837.7694402,288645.34375,295994.25,313928.5625,295602.0,312293.125,298596.15625,296998.28125,303085.8125,-0.031005859375,0.98291015625,-0.0986328125,2.899169683456421,-1.7700194120407104,-0.8850097060203552,80.0,1130579.0,1.0
1212837.772525,288723.5,296181.5625,314248.1875,295537.0,311688.21875,298310.96875,297199.4375,302399.0,-0.0302734375,0.979248046875,-0.102294921875,3.143310308456421,-1.6479490995407104,-1.0375975370407104,80.0,1130580.0,1.0
1212837.7725616,289120.1875,299057.0625,315396.53125,296579.3125,313468.75,301696.1875,298976.0625,305406.28125,-0.031982421875,0.977294921875,-0.10205078125,3.387450933456421,-1.6784666776657104,-1.1596678495407104,80.0,1130581.0,1.0
1212837.7807616,289266.46875,300614.96875,315759.34375,297227.875,315134.40625,304031.21875,299851.34375,307873.03125,-0.030029296875,0.976806640625,-0.107177734375,3.662109136581421,-1.5869139432907104,-1.2207030057907104,80.0,1130582.0,1.0
1212837.7850029,288986.0625,298744.3125,314870.8125,296659.15625,314436.21875,302144.0,298649.09375,306488.75,-0.0283203125,0.976806640625,-0.105712890625,3.967284917831421,-1.4648436307907104,-1.2817381620407104,80.0,1130583.0,1.0
1212837.7850396,288635.34375,295984.59375,313920.96875,295602.28125,312300.28125,298597.25,296997.5625,303104.40625,-0.02734375,0.977783203125,-0.106201171875,4.333495616912842,-1.3427733182907104,-1.4343260526657104,80.0,1130584.0,1.0
1212837.7981839,288712.03125,296170.375,314239.4375,295535.21875,311691.6875,298311.59375,297191.65625,302412.59375,-0.026123046875,0.982421875,-0.105224609375,4.608153820037842,-1.1901854276657104,-1.4648436307907104,80.0,1130585.0,1.0
1212837.8013016,289119.90625,299060.90625,315398.5,296586.28125,313478.40625,301705.75,298977.84375,305425.96875,-0.0263671875,0.98388671875,-0.10400390625,4.852294445037842,-1.1901854276657104,-1.4648436307907104,80.0,1130586.0,1.0
1212837.8013385,289277.71875,300627.5,315770.96875,297243.25,315155.84375,304050.96875,299863.34375,307899.59375,-0.0263671875,0.984619140625,-0.10205078125,4.760741710662842,-1.0681151151657104,-1.4038084745407104,80.0,1130587.0,1.0
1212837.8037338,288996.0,298747.875,314882.09375,296667.65625,314453.21875,302156.625,298657.0625,306503.125,-0.026611328125,0.984375,-0.099609375,4.730224132537842,-0.9155272841453552,-1.3732908964157104,80.0,1130588.0,1.0
1212837.803773,288653.3125,295998.25,313938.40625,295617.3125,312325.84375,298615.9375,297012.21875,303124.0,-0.0263671875,0.98291015625,-0.10009765625,4.577636241912842,-0.7934569716453552,-1.2207030057907104,80.0,1130589.0,1.0
1212837.8094492,288724.65625,296180.84375,314251.5,295545.5,311715.5625,298327.6875,297206.0625,302431.28125,-0.026123046875,0.980712890625,-0.104248046875,4.638671398162842,-0.6713866591453552,-1.1291502714157104,80.0,1130590.0,1.0
1212837.8119428,289117.59375,299052.9375,315396.375,296584.78125,313489.5,301706.09375,298974.09375,305430.4375,-0.0283203125,0.979736328125,-0.1064453125,4.760741710662842,-0.5798339247703552,-0.9765624403953552,80.0,1130591.0,1.0
1212837.8263577,289271.8125,300617.65625,315766.96875,297237.71875,315163.53125,304043.71875,299852.34375,307897.0,-0.028076171875,0.979248046875,-0.102783203125,4.669188976287842,-0.4577636420726776,-1.0070799589157104,80.0,1130592.0,1.0
1212837.826397,288991.625,298746.46875,314876.8125,296664.78125,314465.625,302151.96875,298650.6875,306505.09375,-0.030029296875,0.978515625,-0.1015625,4.302978038787842,-0.3051757514476776,-1.0681151151657104,80.0,1130593.0,1.0
1212837.845706,288640.0625,295988.34375,313924.0,295605.9375,312330.5,298607.34375,297003.90625,303118.71875,-0.031982421875,0.980224609375,-0.10009765625,4.302978038787842,-0.3356933295726776,-0.9155272841453552,80.0,1130594.0,1.0
1212837.8457433,288716.78125,296175.03125,314241.3125,295537.09375,311720.03125,298321.3125,297203.65625,302424.21875,-0.032470703125,0.978271484375,-0.097412109375,4.302978038787842,-0.3967284858226776,-0.7324218153953552,80.0,1130595.0,1.0
1212837.8457532,289115.28125,299052.59375,315387.15625,296578.0625,313495.65625,301705.125,298979.28125,305420.6875,-0.03076171875,0.981689453125,-0.099609375,4.058837413787842,-0.3662109076976776,-0.8239745497703552,80.0,1130596.0,1.0
1212837.8482088,289264.59375,300609.25,315750.875,297225.09375,315159.78125,304038.0,299851.09375,307873.84375,-0.03173828125,0.984375,-0.1005859375,3.753661870956421,-0.2746581733226776,-0.6713866591453552,80.0,1130597.0,1.0
1212837.8518822,288980.625,298726.6875,314860.53125,296649.15625,314453.21875,302140.15625,298641.59375,306473.28125,-0.02978515625,0.986083984375,-0.10107421875,3.570556402206421,-0.3051757514476776,-0.6713866591453552,80.0,1130598.0,1.0
1212837.851919,288638.28125,295978.6875,313920.0625,295598.34375,312325.9375,298600.8125,296999.71875,303095.75,-0.030517578125,0.985595703125,-0.099609375,3.204345464706421,-0.3967284858226776,-0.4882812201976776,80.0,1130599.0,1.0
1212837.8519286,288712.03125,296166.09375,314238.0,295527.625,311715.5625,298315.4375,297199.71875,302404.28125,-0.030517578125,0.984375,-0.098388671875,2.868652105331421,-0.2746581733226776,-0.3662109076976776,80.0,1130600.0,1.0
1212837.8544311,289109.46875,299042.5625,315384.90625,296567.34375,313487.0625,301694.65625,298974.90625,305397.625,-0.031005859375,0.986328125,-0.097900390625,2.563476324081421,-0.3662109076976776,-0.2746581733226776,80.0,1130601.0,1.0
1212837.8569986,289260.46875,300596.90625,315749.875,297213.3125,315142.625,304018.4375,299844.28125,307846.03125,-0.03125,0.986328125,-0.09619140625,2.227782964706421,-0.3967284858226776,-0.3051757514476776,80.0,1130602.0,1.0
1212837.8682045,288979.09375,298711.15625,314859.21875,296636.1875,314432.09375,302115.21875,298629.5,306438.84375,-0.033203125,0.986572265625,-0.097900390625,1.9531248807907104,-0.3356933295726776,-0.2441406100988388,80.0,1130603.0,1.0
1212837.8730691,288648.75,295975.375,313932.40625,295600.84375,312315.03125,298590.09375,297003.1875,303074.5625,-0.032470703125,0.98828125,-0.097412109375,1.5563963651657104,-0.3662109076976776,-0.0915527269244194,80.0,1130604.0,1.0
1212837.8731056,288739.5,296181.09375,314264.75,295547.5625,311721.1875,298324.8125,297220.1875,302402.65625,-0.033203125,0.9892578125,-0.095703125,1.0070799589157104,-0.4577636420726776,0.0610351525247097,80.0,1130605.0,1.0
1212837.8731155,289110.53125,299034.71875,315383.125,296557.875,313471.875,301680.875,298965.40625,305370.0,-0.0341796875,0.989990234375,-0.093994140625,0.7019042372703552,-0.4882812201976776,0.0915527269244194,80.0,1130606.0,1.0
1212837.8756833,289255.90625,300584.125,315741.28125,297200.34375,315127.15625,304001.09375,299828.46875,307810.28125,-0.035400390625,0.990966796875,-0.093017578125,0.3051757514476776,-0.5187987685203552,0.0915527269244194,80.0,1130607.0,1.0
1212837.8845352,288974.90625,298701.5,314852.15625,296629.84375,314421.75,302102.25,298620.9375,306409.0,-0.036376953125,0.991943359375,-0.0927734375,-0.0610351525247097,-0.5798339247703552,0.1831054538488388,80.0,1130608.0,1.0
1212837.8913579,288626.125,295950.0,313904.15625,295572.875,312283.9375,298557.71875,296976.09375,303025.65625,-0.034423828125,0.992431640625,-0.0927734375,-0.5187987685203552,-0.7019042372703552,0.1525878757238388,80.0,1130609.0,1.0
1212837.891395,288695.59375,296139.71875,314218.96875,295500.53125,311670.59375,298273.40625,297175.3125,302335.4375,-0.03515625,0.994384765625,-0.098388671875,-0.8544921278953552,-0.7934569716453552,0.1525878757238388,80.0,1130610.0,1.0
1212837.9000006,289094.71875,299020.84375,315367.40625,296540.15625,313444.875,301657.0,298948.78125,305327.34375,-0.03564453125,0.9951171875,-0.099365234375,-1.2207030057907104,-0.9765624403953552,0.0610351525247097,80.0,1130611.0,1.0
1212837.9000372,289250.71875,300576.71875,315737.53125,297189.96875,315105.34375,303984.71875,299824.78125,307775.84375,-0.03515625,0.994873046875,-0.095703125,-1.3732908964157104,-0.9460448622703552,0.0,80.0,1130612.0,1.0
1212837.9025288,288973.375,298697.71875,314851.5,296621.34375,314397.78125,302087.0625,298622.28125,306380.84375,-0.036865234375,0.99609375,-0.096435546875,-1.7395018339157104,-1.1291502714157104,-0.03051757626235485,80.0,1130613.0,1.0
1212837.9025653,288627.28125,295949.90625,313906.65625,295572.15625,312265.34375,298546.8125,296978.4375,303006.6875,-0.035400390625,0.9990234375,-0.09716796875,-2.166747808456421,-1.2512205839157104,-0.1525878757238388,80.0,1130614.0,1.0
1212837.9182941,288704.53125,296149.375,314229.25,295509.03125,311661.21875,298271.0,297182.375,302325.15625,-0.03662109375,1.001220703125,-0.094970703125,-2.441406011581421,-1.4038084745407104,-0.1220703050494194,80.0,1130615.0,1.0
1212837.921299,289101.84375,299027.71875,315378.5625,296545.25,313435.21875,301653.15625,298958.71875,305319.65625,-0.0341796875,1.001220703125,-0.09228515625,-2.838134527206421,-1.5258787870407104,-0.1525878757238388,80.0,1130616.0,1.0
1212837.9213355,289244.8125,300566.4375,315736.5625,297183.8125,315084.875,303970.3125,299822.8125,307760.125,-0.034423828125,1.0029296875,-0.09375,-3.143310308456421,-1.6174315214157104,-0.1220703050494194,80.0,1130617.0,1.0
1212837.9300255,288972.5,298691.84375,314852.15625,296618.75,314378.46875,302070.25,298617.25,306361.53125,-0.033203125,1.003173828125,-0.093994140625,-3.509521245956421,-1.5869139432907104,-0.03051757626235485,80.0,1130618.0,1.0
1212837.9300644,288631.125,295950.875,313912.65625,295576.1875,312253.53125,298533.65625,296976.75,302993.65625,-0.03515625,1.0009765625,-0.092041015625,-3.784179449081421,-1.6174315214157104,0.0,80.0,1130619.0,1.0
1212837.9324624,288701.03125,296143.46875,314228.4375,295506.96875,311642.78125,298254.71875,297174.15625,302310.5625,-0.034912109375,1.00341796875,-0.092041015625,-4.058837413787842,-1.7089842557907104,0.0915527269244194,80.0,1130620.0,1.0
1212837.9324969,289096.84375,299017.28125,315373.65625,296540.78125,313408.75,301636.90625,298945.9375,305305.0,-0.03564453125,1.000732421875,-0.090576171875,-4.272460460662842,-1.7089842557907104,0.0915527269244194,80.0,1130621.0,1.0
1212837.9382951,289245.53125,300564.0,315735.5625,297181.5625,315061.96875,303960.59375,299818.53125,307750.625,-0.034423828125,0.99853515625,-0.092041015625,-4.516601085662842,-1.8615721464157104,0.0915527269244194,80.0,1130622.0,1.0
1212837.9425204,288969.96875,298685.84375,314846.5,296615.4375,314354.40625,302061.3125,298612.53125,306351.875,-0.03564453125,0.998779296875,-0.089599609375,-4.608153820037842,-1.8615721464157104,0.1831054538488388,80.0,1130623.0,1.0
1212837.9425573,288628.625,295943.0,313905.9375,295575.0,312229.125,298528.75,296974.78125,302985.34375,-0.035400390625,1.000732421875,-0.08740234375,-4.882812023162842,-1.8310545682907104,0.1831054538488388,80.0,1130624.0,1.0
1212837.9556992,288706.6875,296144.8125,314229.40625,295511.34375,311628.21875,298258.46875,297182.8125,302309.0625,-0.034912109375,1.001220703125,-0.085693359375,-4.974364757537842,-1.8310545682907104,0.2746581733226776,80.0,1130625.0,1.0
1212837.9587859,289098.625,299019.25,315370.96875,296541.875,313399.90625,301640.46875,298956.5625,305305.4375,-0.037841796875,1.001220703125,-0.082275390625,-5.096435070037842,-1.9531248807907104,0.3662109076976776,80.0,1130626.0,1.0
1212837.9588228,289242.59375,300560.0,315728.40625,297179.0625,315045.625,303957.28125,299822.125,307744.46875,-0.03759765625,1.00048828125,-0.0810546875,-5.279540538787842,-1.9836424589157104,0.3051757514476776,80.0,1130627.0,1.0
1212837.9607518,288977.03125,298689.15625,314849.1875,296617.125,314341.34375,302060.59375,298614.75,306347.75,-0.0361328125,1.00048828125,-0.08349609375,-5.432128429412842,-1.9531248807907104,0.5493163466453552,80.0,1130628.0,1.0
1212837.9644073,288648.65625,295963.125,313919.90625,295586.71875,312225.90625,298540.46875,296981.90625,302987.375,-0.035400390625,1.00048828125,-0.07861328125,-5.645751476287842,-2.075195074081421,0.6408690810203552,80.0,1130629.0,1.0
1212837.9687792,288711.96875,296151.6875,314231.21875,295514.75,311619.8125,298266.96875,297181.3125,302305.65625,-0.03369140625,0.999267578125,-0.076171875,-5.798339366912842,-2.105712652206421,0.6103515028953552,80.0,1130630.0,1.0
1212837.9688164,289090.78125,299007.78125,315363.8125,296532.125,313382.03125,301638.6875,298950.65625,305292.5625,-0.033935546875,0.99560546875,-0.075439453125,-5.859374523162842,-2.197265386581421,0.7324218153953552,80.0,1130631.0,1.0
1212837.9819703,289244.1875,300555.78125,315727.53125,297172.71875,315035.25,303958.53125,299825.25,307739.1875,-0.033203125,0.9921875,-0.072998046875,-6.072997570037842,-2.227782964706421,0.7019042372703552,80.0,1130632.0,1.0
1212837.9849535,288982.15625,298690.9375,314854.5625,296621.78125,314334.46875,302065.15625,298627.375,306348.65625,-0.03125,0.99072265625,-0.0703125,-6.103515148162842,-2.227782964706421,0.8239745497703552,80.0,1130633.0,1.0
1212837.9849994,288662.34375,295976.4375,313935.09375,295607.65625,312231.1875,298557.28125,297005.6875,303001.96875,-0.02880859375,0.99072265625,-0.07177734375,-6.164550304412842,-2.227782964706421,0.8850097060203552,80.0,1130634.0,1.0
1212837.9869565,288720.71875,296165.375,314238.8125,295526.90625,311619.53125,298276.8125,297191.125,302314.875,-0.028564453125,0.9892578125,-0.0712890625,-6.072997570037842,-2.166747808456421,0.9460448622703552,80.0,1130635.0,1.0
1212837.9905689,289103.65625,299028.4375,315376.78125,296545.34375,313386.5,301651.03125,298959.34375,305310.375,-0.029296875,0.98876953125,-0.06884765625,-6.011962413787842,-2.105712652206421,1.0986326932907104,80.0,1130636.0,1.0
1212838.005061,289246.6875,300558.375,315733.875,297176.75,315030.5,303958.96875,299823.0,307748.5625,-0.02880859375,0.987060546875,-0.068115234375,-6.011962413787842,-2.136230230331421,1.1291502714157104,80.0,1130637.0,1.0
1212838.0050985,288980.0,298679.125,314851.4375,296617.5,314318.84375,302057.03125,298612.71875,306344.875,-0.02978515625,0.983642578125,-0.067626953125,-5.889892101287842,-2.166747808456421,1.1901854276657104,80.0,1130638.0,1.0
1212838.0075965,288651.0625,295959.375,313923.125,295596.28125,312203.71875,298538.40625,296981.21875,302985.34375,-0.026611328125,0.98388671875,-0.064697265625,-5.828856945037842,-2.105712652206421,1.3732908964157104,80.0,1130639.0,1.0
1212838.0076343,288717.0625,296158.65625,314237.375,295524.125,311598.0,298269.46875,297182.375,302305.65625,-0.02490234375,0.97998046875,-0.064208984375,-5.767821788787842,-2.075195074081421,1.4343260526657104,80.0,1130640.0,1.0
1212838.0094677,289091.03125,299014.78125,315367.03125,296533.53125,313363.96875,301640.65625,298945.5625,305296.21875,-0.025146484375,0.981201171875,-0.06103515625,-5.645751476287842,-2.044677495956421,1.4953612089157104,80.0,1130641.0,1.0
1212838.0207079,289241.5,300553.375,315728.59375,297170.21875,315016.125,303953.25,299811.03125,307737.21875,-0.02685546875,0.981689453125,-0.0615234375,-5.462646007537842,-1.9226073026657104,1.6174315214157104,80.0,1130642.0,1.0
1212838.0237441,288978.9375,298678.96875,314852.3125,296620.09375,314311.5,302058.1875,298609.65625,306340.40625,-0.02783203125,0.98291015625,-0.06005859375,-5.218505382537842,-1.9226073026657104,1.5563963651657104,80.0,1130643.0,1.0
1212838.0237873,288656.34375,295966.0,313925.53125,295603.0,312203.46875,298550.84375,296979.5,302988.625,-0.02978515625,0.985595703125,-0.057373046875,-5.065917491912842,-1.8310545682907104,1.5258787870407104,80.0,1130644.0,1.0
1212838.0258006,288726.0,296172.59375,314239.53125,295535.3125,311606.65625,298287.96875,297185.5,302318.90625,-0.03076171875,0.988525390625,-0.0576171875,-4.943847179412842,-1.8920897245407104,1.4953612089157104,80.0,1130645.0,1.0
1212838.0319645,289099.53125,299027.5625,315370.78125,296541.78125,313370.21875,301658.53125,298955.84375,305307.9375,-0.031005859375,0.99072265625,-0.05615234375,-4.852294445037842,-1.8615721464157104,1.4038084745407104,80.0,1130646.0,1.0
1212838.0407093,289247.9375,300562.9375,315733.0625,297172.8125,315016.75,303969.53125,299828.0,307744.65625,-0.0322265625,0.99365234375,-0.052001953125,-4.943847179412842,-1.8920897245407104,1.3427733182907104,80.0,1130647.0,1.0
1212838.043757,288982.5,298686.90625,314850.53125,296613.5625,314301.21875,302065.34375,298618.6875,306336.9375,-0.03125,0.990966796875,-0.055419921875,-4.974364757537842,-1.9226073026657104,1.2512205839157104,80.0,1130648.0,1.0
1212838.0438003,288658.21875,295971.625,313923.84375,295599.40625,312196.21875,298555.9375,296985.125,302986.59375,-0.031982421875,0.991943359375,-0.056396484375,-4.913329601287842,-2.075195074081421,1.0070799589157104,80.0,1130649.0,1.0
1212838.0520743,288727.25,296170.5625,314237.8125,295531.03125,311605.15625,298294.6875,297189.34375,302321.5,-0.03076171875,0.99365234375,-0.056396484375,-4.760741710662842,-2.197265386581421,0.9155272841453552,80.0,1130650.0,1.0
1212838.0563207,289102.40625,299019.78125,315366.5,296532.46875,313364.84375,301659.25,298952.625,305307.6875,-0.031005859375,0.99560546875,-0.05615234375,-4.699706554412842,-2.166747808456421,0.6713866591453552,80.0,1130651.0,1.0
1212838.0563565,289251.625,300545.0625,315727.0,297161.0,315003.0625,303959.5,299813.25,307738.46875,-0.029296875,0.999267578125,-0.0576171875,-4.547118663787842,-2.197265386581421,0.6408690810203552,80.0,1130652.0,1.0
1212838.0644117,288990.09375,298673.9375,314849.625,296615.96875,314294.0625,302060.78125,298607.6875,306337.03125,-0.029296875,0.998046875,-0.0546875,-4.425048351287842,-2.258300542831421,0.6103515028953552,80.0,1130653.0,1.0
1212838.067486,288673.40625,295975.1875,313931.59375,295611.9375,312195.6875,298560.59375,296986.75,302994.625,-0.027099609375,0.9990234375,-0.052490234375,-4.333495616912842,-2.197265386581421,0.5493163466453552,80.0,1130654.0,1.0
1212838.0675222,288738.59375,296176.90625,314246.59375,295541.125,311605.78125,298302.46875,297191.75,302328.625,-0.024169921875,1.001220703125,-0.050537109375,-4.119872570037842,-2.136230230331421,0.4577636420726776,80.0,1130655.0,1.0
1212838.0757908,289102.46875,299014.40625,315367.3125,296529.53125,313355.1875,301656.84375,298956.125,305305.875,-0.02294921875,1.00048828125,-0.052734375,-4.058837413787842,-2.136230230331421,0.3662109076976776,80.0,1130656.0,1.0
1212838.0787819,289249.125,300541.84375,315723.84375,297152.96875,314990.46875,303950.65625,299818.1875,307728.09375,-0.0234375,1.0,-0.05322265625,-3.936767339706421,-2.044677495956421,0.3356933295726776,80.0,1130657.0,1.0
1212838.0788181,288992.96875,298679.21875,314852.5,296612.21875,314285.9375,302058.28125,298612.53125,306328.25,-0.0224609375,0.99755859375,-0.056396484375,-3.692626714706421,-1.8920897245407104,0.4577636420726776,80.0,1130658.0,1.0
1212838.0807155,288677.625,295990.03125,313936.875,295624.53125,312200.0625,298576.3125,296994.25,303008.125,-0.02197265625,0.997802734375,-0.054443359375,-3.479003667831421,-1.7700194120407104,0.3967284858226776,80.0,1130659.0,1.0
1212838.0943332,288743.96875,296199.6875,314251.5,295562.75,311620.96875,298328.5625,297208.5625,302357.25,-0.0224609375,0.994384765625,-0.052490234375,-3.204345464706421,-1.7089842557907104,0.4882812201976776,80.0,1130660.0,1.0
1212838.0975345,289092.03125,299011.46875,315360.15625,296531.5625,313355.8125,301662.28125,298956.65625,305310.4375,-0.020751953125,0.994140625,-0.0537109375,-2.838134527206421,-1.5563963651657104,0.3967284858226776,80.0,1130661.0,1.0
1212838.0975725,289233.28125,300519.75,315711.0625,297137.65625,314974.375,303935.625,299809.78125,307711.75,-0.01953125,0.9931640625,-0.0517578125,-2.441406011581421,-1.3732908964157104,0.4272460639476776,80.0,1130662.0,1.0
1212838.0994313,288989.90625,298676.4375,314851.875,296612.21875,314278.3125,302054.875,298611.625,306327.53125,-0.01953125,0.991455078125,-0.052978515625,-2.044677495956421,-1.3122557401657104,0.4272460639476776,80.0,1130663.0,1.0
1212838.1031576,288672.625,296001.75,313939.46875,295636.0625,312203.0,298590.53125,296999.96875,303027.1875,-0.0185546875,0.99267578125,-0.055908203125,-1.7700194120407104,-1.1901854276657104,0.4577636420726776,80.0,1130664.0,1.0
1212838.1224241,288724.46875,296197.1875,314241.84375,295559.28125,311615.4375,298333.125,297199.8125,302371.09375,-0.018310546875,0.99169921875,-0.051513671875,-1.4648436307907104,-1.0375975370407104,0.3967284858226776,80.0,1130665.0,1.0
1212838.1224671,289069.84375,298994.46875,315341.28125,296511.90625,313341.34375,301651.1875,298941.28125,305305.96875,-0.01904296875,0.989501953125,-0.053955078125,-1.1291502714157104,-0.8850097060203552,0.5798339247703552,80.0,1130666.0,1.0
1212838.1242965,289221.84375,300510.625,315699.90625,297120.3125,314963.1875,303925.71875,299802.875,307698.875,-0.01953125,0.99072265625,-0.056396484375,-0.7629393935203552,-0.7629393935203552,0.4882812201976776,80.0,1130667.0,1.0
1212838.1267941,288981.875,298672.6875,314845.625,296605.25,314274.40625,302054.25,298612.875,306325.75,-0.021484375,0.989501953125,-0.055908203125,-0.3051757514476776,-0.7019042372703552,0.4272460639476776,80.0,1130668.0,1.0
1212838.1292923,288689.96875,296033.75,313955.84375,295664.25,312234.46875,298627.71875,297020.625,303072.0625,-0.021240234375,0.98974609375,-0.0576171875,0.1220703050494194,-0.5493163466453552,0.4577636420726776,80.0,1130669.0,1.0
1212838.1318044,288742.71875,296235.625,314259.1875,295596.8125,311660.84375,298378.90625,297225.1875,302430.65625,-0.020263671875,0.98974609375,-0.056640625,0.6408690810203552,-0.4577636420726776,0.3967284858226776,80.0,1130670.0,1.0
1212838.1344327,289069.40625,298998.75,315335.75,296517.8125,313360.21875,301658.8125,298942.78125,305324.3125,-0.0224609375,0.990478515625,-0.0546875,1.0986326932907104,-0.3662109076976776,0.3967284858226776,80.0,1130671.0,1.0
1212838.1412989,289202.625,300470.125,315674.0625,297092.59375,314940.375,303892.09375,299779.375,307664.96875,-0.021728515625,0.989990234375,-0.0517578125,1.4648436307907104,-0.2136230319738388,0.2746581733226776,80.0,1130672.0,1.0
1212838.1413396,288989.84375,298664.75,314850.625,296605.96875,314267.40625,302049.5,298610.90625,306315.28125,-0.021728515625,0.9892578125,-0.05078125,1.7395018339157104,-0.1525878757238388,0.2441406100988388,80.0,1130673.0,1.0
1212838.1469277,288711.3125,296058.53125,313978.375,295694.375,312252.0,298659.375,297034.75,303103.34375,-0.02392578125,0.989013671875,-0.054443359375,2.044677495956421,-0.1525878757238388,0.1831054538488388,80.0,1130674.0,1.0
1212838.1512484,288763.53125,296263.71875,314277.96875,295630.4375,311690.96875,298420.3125,297236.1875,302474.46875,-0.023681640625,0.987060546875,-0.055908203125,2.349853277206421,-0.1525878757238388,0.1525878757238388,80.0,1130675.0,1.0
1212838.1512924,289078.625,299002.96875,315337.09375,296521.46875,313368.6875,301669.71875,298935.65625,305329.40625,-0.024169921875,0.985595703125,-0.05859375,2.685546636581421,-0.0610351525247097,0.1525878757238388,80.0,1130676.0,1.0
1212838.1595147,289205.21875,300458.40625,315669.15625,297076.5,314926.53125,303873.6875,299760.59375,307637.4375,-0.0244140625,0.98583984375,-0.065673828125,3.082275152206421,-0.0610351525247097,0.03051757626235485,80.0,1130677.0,1.0
1212838.1625323,288988.75,298659.375,314842.9375,296592.65625,314247.9375,302031.0,298590.53125,306291.15625,-0.02587890625,0.984619140625,-0.064208984375,3.417968511581421,-0.0915527269244194,-0.0915527269244194,80.0,1130678.0,1.0
1212838.1625683,288717.21875,296074.0,313980.4375,295703.84375,312258.96875,298672.78125,297030.1875,303120.78125,-0.02587890625,0.98388671875,-0.0625,3.662109136581421,-0.1525878757238388,-0.1525878757238388,80.0,1130679.0,1.0
1212838.1645178,288772.5625,296276.59375,314280.5625,295638.3125,311705.65625,298439.96875,297235.9375,302501.71875,-0.025390625,0.985595703125,-0.062255859375,3.997802495956421,-0.2441406100988388,-0.2746581733226776,80.0,1130680.0,1.0
1212838.1894226,289082.53125,298994.90625,315334.75,296511.375,313368.4375,301666.75,298925.625,305326.28125,-0.026123046875,0.985595703125,-0.064453125,4.272460460662842,-0.3051757514476776,-0.3356933295726776,80.0,1130681.0,1.0
1212838.192065,289208.4375,300446.0,315668.6875,297062.75,314917.59375,303861.15625,299750.0625,307614.90625,-0.025146484375,0.984375,-0.06689453125,4.333495616912842,-0.4272460639476776,-0.3356933295726776,80.0,1130682.0,1.0
1212838.1944122,289000.375,298663.125,314852.59375,296597.65625,314251.3125,302039.9375,298598.5625,306292.59375,-0.02734375,0.984130859375,-0.06689453125,4.486083507537842,-0.4272460639476776,-0.3967284858226776,80.0,1130683.0,1.0
1212838.1969505,288726.96875,296095.90625,313990.875,295715.65625,312266.03125,298692.90625,297041.5625,303141.625,-0.028076171875,0.984375,-0.0693359375,4.638671398162842,-0.4272460639476776,-0.4882812201976776,80.0,1130684.0,1.0
1212838.1994664,288777.3125,296304.125,314289.0625,295647.625,311716.8125,298460.1875,297249.25,302527.125,-0.029296875,0.984619140625,-0.0673828125,4.821776866912842,-0.5187987685203552,-0.5798339247703552,80.0,1130685.0,1.0
1212838.2020622,289083.625,299004.3125,315335.375,296511.625,313377.46875,301671.5,298933.3125,305332.96875,-0.0302734375,0.984130859375,-0.070556640625,5.157470226287842,-0.5798339247703552,-0.6103515028953552,80.0,1130686.0,1.0
1212838.204453,289204.3125,300431.0625,315659.40625,297049.4375,314910.625,303843.8125,299739.6875,307596.9375,-0.031005859375,0.984619140625,-0.06884765625,5.371093273162842,-0.6408690810203552,-0.7629393935203552,80.0,1130687.0,1.0
1212838.2069035,288993.75,298653.65625,314846.5,296584.15625,314238.0,302021.34375,298583.65625,306273.53125,-0.0302734375,0.987060546875,-0.072265625,5.462646007537842,-0.6713866591453552,-0.8239745497703552,80.0,1130688.0,1.0
1212838.209987,288731.71875,296103.0625,314000.28125,295724.9375,312277.125,298704.78125,297048.34375,303157.53125,-0.029052734375,0.990478515625,-0.073486328125,5.523681163787842,-0.8850097060203552,-0.9460448622703552,80.0,1130689.0,1.0
1212838.2100291,288781.96875,296306.0,314296.9375,295659.15625,311737.90625,298478.40625,297255.78125,302551.71875,-0.030517578125,0.988037109375,-0.072021484375,5.615233898162842,-1.0375975370407104,-1.0070799589157104,80.0,1130690.0,1.0
1212838.2118359,289081.28125,298991.53125,315328.6875,296500.09375,313379.59375,301665.15625,298924.09375,305326.625,-0.031982421875,0.989990234375,-0.072265625,5.523681163787842,-1.0986326932907104,-0.9460448622703552,80.0,1130691.0,1.0
1212838.2300535,289191.71875,300409.59375,315640.875,297021.71875,314894.15625,303815.84375,299719.75,307561.0,-0.0361328125,0.988525390625,-0.07666015625,5.462646007537842,-1.1901854276657104,-0.9155272841453552,80.0,1130692.0,1.0
1212838.2300902,288988.21875,298641.3125,314837.65625,296572.4375,314235.0625,302008.03125,298576.21875,306257.0,-0.033935546875,0.989013671875,-0.079345703125,5.401610851287842,-1.2817381620407104,-1.0681151151657104,80.0,1130693.0,1.0
1212838.2330358,288724.03125,296100.90625,313991.34375,295718.59375,312282.125,298700.21875,297039.84375,303155.75,-0.033935546875,0.988525390625,-0.0810546875,5.371093273162842,-1.3732908964157104,-1.1596678495407104,80.0,1130694.0,1.0
1212838.2330723,288769.4375,296304.03125,314281.09375,295648.875,311738.28125,298466.96875,297240.65625,302547.59375,-0.0322265625,0.98876953125,-0.078857421875,5.249022960662842,-1.5563963651657104,-1.3122557401657104,80.0,1130695.0,1.0
1212838.2330817,289076.28125,298983.125,315319.375,296490.4375,313377.1875,301647.1875,298912.40625,305315.71875,-0.034912109375,0.990478515625,-0.08154296875,5.157470226287842,-1.6174315214157104,-1.3427733182907104,80.0,1130696.0,1.0
1212838.2375327,289204.21875,300413.09375,315652.4375,297024.75,314903.90625,303811.53125,299725.09375,307557.875,-0.035400390625,0.990478515625,-0.078857421875,5.035399913787842,-1.8005369901657104,-1.3427733182907104,80.0,1130697.0,1.0
1212838.2375699,288994.125,298646.15625,314847.03125,296571.28125,314238.1875,302002.5625,298576.9375,306248.25,-0.03662109375,0.9931640625,-0.08154296875,4.974364757537842,-1.9226073026657104,-1.4038084745407104,80.0,1130698.0,1.0
1212838.2457964,288732.6875,296119.15625,314007.34375,295728.6875,312298.15625,298715.25,297053.53125,303169.15625,-0.0361328125,0.994384765625,-0.08251953125,4.913329601287842,-1.9531248807907104,-1.4648436307907104,80.0,1130699.0,1.0
1212838.2500037,288777.65625,296318.53125,314295.84375,295656.375,311754.0,298485.46875,297254.96875,302564.5,-0.035888671875,0.99462890625,-0.08447265625,4.699706554412842,-1.9836424589157104,-1.4343260526657104,80.0,1130700.0,1.0
1212838.2500399,289070.03125,298976.59375,315318.5625,296478.8125,313374.4375,301642.875,298910.4375,305308.75,-0.03662109375,0.994384765625,-0.08544921875,4.608153820037842,-2.197265386581421,-1.4953612089157104,80.0,1130701.0,1.0
1212838.2582063,289194.125,300394.5,315643.125,297005.4375,314890.125,303792.0625,299718.40625,307539.0,-0.036376953125,0.994384765625,-0.087890625,4.455565929412842,-2.258300542831421,-1.5869139432907104,80.0,1130702.0,1.0
1212838.267471,288988.75,298632.65625,314839.625,296558.125,314232.46875,301990.78125,298572.1875,306240.46875,-0.03466796875,0.9951171875,-0.0908203125,4.241942882537842,-2.380370855331421,-1.5869139432907104,80.0,1130703.0,1.0
1212838.2675146,288725.90625,296109.5,314000.71875,295720.125,312296.625,298709.09375,297045.65625,303173.09375,-0.0361328125,0.997314453125,-0.0908203125,4.058837413787842,-2.471923589706421,-1.6174315214157104,80.0,1130704.0,1.0
1212838.2701153,288765.5,296310.75,314285.125,295645.5625,311753.125,298481.625,297246.125,302570.40625,-0.035400390625,0.996337890625,-0.09130859375,3.967284917831421,-2.502441167831421,-1.6784666776657104,80.0,1130705.0,1.0
1212838.2701534,289067.53125,298970.15625,315314.8125,296472.375,313377.46875,301640.46875,298901.9375,305311.34375,-0.034423828125,0.9951171875,-0.088623046875,3.875732183456421,-2.441406011581421,-1.6784666776657104,80.0,1130706.0,1.0
1212838.2807107,289196.09375,300387.4375,315639.625,296993.8125,314878.53125,303776.75,299700.25,307522.125,-0.03466796875,0.994873046875,-0.0869140625,3.692626714706421,-2.532958745956421,-1.6784666776657104,80.0,1130707.0,1.0
1212838.2875976,288998.25,298638.28125,314847.65625,296563.5,314230.5,301989.34375,298574.0,306238.5,-0.03564453125,0.99560546875,-0.089111328125,3.509521245956421,-2.502441167831421,-1.6784666776657104,80.0,1130708.0,1.0
1212838.2876365,288742.625,296127.5625,314015.1875,295738.90625,312310.75,298724.65625,297063.09375,303195.4375,-0.0361328125,0.993896484375,-0.09033203125,3.265380620956421,-2.655029058456421,-1.6174315214157104,80.0,1130709.0,1.0
1212838.2900498,288787.21875,296336.75,314300.6875,295665.21875,311776.53125,298499.78125,297256.3125,302595.53125,-0.03662109375,0.993408203125,-0.091796875,3.204345464706421,-2.655029058456421,-1.5869139432907104,80.0,1130710.0,1.0
1212838.2900863,289072.625,298978.28125,315313.5625,296473.375,313387.46875,301638.0625,298898.8125,305313.40625,-0.03515625,0.994384765625,-0.0927734375,3.143310308456421,-2.624511480331421,-1.6479490995407104,80.0,1130711.0,1.0
1212838.3033042,289195.03125,300383.84375,315636.34375,296991.75,314887.71875,303769.96875,299698.71875,307517.90625,-0.034912109375,0.99365234375,-0.092529296875,2.807616949081421,-2.563476324081421,-1.6784666776657104,80.0,1130712.0,1.0
1212838.310641,289004.3125,298646.6875,314852.3125,296566.1875,314242.21875,301989.4375,298576.5,306238.40625,-0.03662109375,0.9912109375,-0.091064453125,2.807616949081421,-2.532958745956421,-1.6174315214157104,80.0,1130713.0,1.0
1212838.3106783,288744.0625,296142.125,314021.46875,295744.4375,312324.6875,298732.5,297070.78125,303201.96875,-0.03564453125,0.991943359375,-0.093017578125,2.624511480331421,-2.441406011581421,-1.5563963651657104,80.0,1130714.0,1.0
1212838.310688,288778.125,296344.4375,314298.25,295666.65625,311787.71875,298506.3125,297268.46875,302607.21875,-0.03515625,0.99267578125,-0.0927734375,2.716064214706421,-2.441406011581421,-1.5869139432907104,80.0,1130715.0,1.0
1212838.3254549,289055.8125,298973.28125,315300.6875,296461.40625,313387.21875,301632.59375,298899.96875,305310.625,-0.033935546875,0.990234375,-0.092041015625,2.471923589706421,-2.410888433456421,-1.4648436307907104,80.0,1130716.0,1.0
1212838.3254922,289175.53125,300369.28125,315617.28125,296970.03125,314873.59375,303748.0625,299691.125,307493.3125,-0.03466796875,0.9873046875,-0.09326171875,2.471923589706421,-2.319335699081421,-1.5258787870407104,80.0,1130717.0,1.0
1212838.3255019,288983.3125,298628.96875,314833.8125,296547.65625,314226.84375,301964.84375,298564.15625,306211.84375,-0.034912109375,0.988037109375,-0.093017578125,2.380370855331421,-2.258300542831421,-1.3732908964157104,80.0,1130718.0,1.0
1212838.3343702,288727.875,296130.5,314009.125,295736.9375,312321.03125,298723.125,297064.0,303190.6875,-0.03564453125,0.98828125,-0.090087890625,2.380370855331421,-2.197265386581421,-1.3732908964157104,80.0,1130719.0,1.0
1212838.3344062,288775.0625,296344.625,314298.96875,295671.75,311795.59375,298511.5,297268.28125,302608.3125,-0.034912109375,0.989013671875,-0.0908203125,2.105712652206421,-2.136230230331421,-1.2817381620407104,80.0,1130720.0,1.0
1212838.334416,289059.9375,298977.3125,315308.84375,296473.8125,313404.03125,301642.96875,298905.78125,305316.625,-0.034423828125,0.989013671875,-0.0908203125,2.136230230331421,-2.044677495956421,-1.1596678495407104,80.0,1130721.0,1.0
1212838.3370631,289176.34375,300361.6875,315619.78125,296972.4375,314880.5625,303749.84375,299694.78125,307492.0625,-0.035888671875,0.989501953125,-0.093017578125,2.105712652206421,-2.075195074081421,-1.1596678495407104,80.0,1130722.0,1.0
1212838.3394517,288985.53125,298622.625,314835.59375,296546.96875,314230.3125,301966.625,298570.15625,306214.53125,-0.03662109375,0.988037109375,-0.0947265625,2.136230230331421,-1.9836424589157104,-1.1901854276657104,80.0,1130723.0,1.0
1212838.3419494,288742.1875,296144.53125,314017.34375,295741.84375,312330.25,298732.0625,297068.75,303201.53125,-0.038818359375,0.9873046875,-0.093505859375,2.075195074081421,-2.044677495956421,-1.0681151151657104,80.0,1130724.0,1.0
1212838.3507085,288779.90625,296348.5625,314302.75,295668.53125,311804.53125,298515.875,297268.90625,302617.875,-0.040283203125,0.987060546875,-0.095947265625,2.014159917831421,-2.014159917831421,-1.0681151151657104,80.0,1130725.0,1.0
1212838.3549514,289055.53125,298969.4375,315302.84375,296453.625,313395.53125,301629.65625,298895.84375,305307.3125,-0.039794921875,0.985595703125,-0.09326171875,1.9836424589157104,-1.9836424589157104,-1.0070799589157104,80.0,1130726.0,1.0
1212838.3549973,289174.90625,300355.875,315619.6875,296959.5625,314876.71875,303739.5625,299687.65625,307480.71875,-0.039306640625,0.985595703125,-0.093505859375,1.8310545682907104,-1.9226073026657104,-0.9765624403953552,80.0,1130727.0,1.0
1212838.356964,288988.3125,298624.9375,314839.34375,296545.625,314231.375,301963.9375,298567.65625,306209.15625,-0.0400390625,0.984130859375,-0.097412109375,1.8615721464157104,-1.9226073026657104,-0.9765624403953552,80.0,1130728.0,1.0
1212838.3707116,288737.875,296145.96875,314018.78125,295742.84375,312332.375,298732.78125,297069.1875,303203.3125,-0.040283203125,0.98583984375,-0.095458984375,1.8615721464157104,-1.8615721464157104,-0.8850097060203552,80.0,1130729.0,1.0
1212838.3737997,288782.125,296357.9375,314306.21875,295678.375,311814.71875,298526.25,297274.09375,302630.5625,-0.041259765625,0.985107421875,-0.09423828125,2.014159917831421,-1.9226073026657104,-0.9765624403953552,80.0,1130730.0,1.0
1212838.3738364,289052.875,298963.09375,315298.0,296456.75,313400.4375,301633.78125,298898.0,305313.75,-0.041015625,0.986572265625,-0.094482421875,2.105712652206421,-1.9531248807907104,-0.9155272841453552,80.0,1130731.0,1.0
1212838.3758013,289181.0625,300355.96875,315621.21875,296963.3125,314874.65625,303738.125,299696.0625,307482.9375,-0.041015625,0.9853515625,-0.095458984375,2.136230230331421,-2.044677495956421,-0.8544921278953552,80.0,1130732.0,1.0
1212838.3793234,288989.375,298622.71875,314836.3125,296540.59375,314222.625,301955.28125,298568.34375,306202.1875,-0.043701171875,0.9853515625,-0.093017578125,2.075195074081421,-2.044677495956421,-0.8544921278953552,80.0,1130733.0,1.0
1212838.383174,288737.6875,296144.0,314015.75,295738.09375,312325.59375,298726.875,297066.59375,303197.0625,-0.04248046875,0.98681640625,-0.0927734375,2.075195074081421,-2.136230230331421,-0.8544921278953552,80.0,1130734.0,1.0
1212838.3975222,288779.90625,296350.71875,314303.28125,295672.71875,311808.0,298522.21875,297274.46875,302624.40625,-0.0439453125,0.986572265625,-0.08984375,2.044677495956421,-2.166747808456421,-0.7934569716453552,80.0,1130735.0,1.0
1212838.3975652,289054.5625,298959.78125,315298.09375,296453.09375,313394.8125,301624.375,298894.6875,305307.6875,-0.0419921875,0.9873046875,-0.09228515625,2.014159917831421,-2.166747808456421,-0.7934569716453552,80.0,1130736.0,1.0
1212838.3995504,289168.375,300334.9375,315605.65625,296943.9375,314853.125,303707.21875,299670.3125,307459.53125,-0.044677734375,0.989013671875,-0.092041015625,1.9531248807907104,-2.105712652206421,-0.7934569716453552,80.0,1130737.0,1.0
1212838.4019203,288980.53125,298604.65625,314828.53125,296531.40625,314203.6875,301929.875,298549.84375,306186.375,-0.042724609375,0.98876953125,-0.093994140625,1.8615721464157104,-2.166747808456421,-0.8544921278953552,80.0,1130738.0,1.0
1212838.4063137,288741.28125,296143.28125,314019.40625,295743.1875,312317.46875,298716.5,297063.46875,303196.875,-0.041748046875,0.986572265625,-0.09375,1.7700194120407104,-2.258300542831421,-0.8850097060203552,80.0,1130739.0,1.0
1212838.4063507,288780.15625,296355.1875,314302.03125,295673.71875,311798.625,298511.21875,297268.75,302621.53125,-0.0439453125,0.98779296875,-0.09326171875,1.7700194120407104,-2.380370855331421,-0.8239745497703552,80.0,1130740.0,1.0
1212838.4144604,289053.03125,298960.0625,315297.65625,296451.28125,313388.71875,301618.84375,298894.15625,305297.75,-0.044189453125,0.988525390625,-0.095458984375,1.7089842557907104,-2.380370855331421,-0.8239745497703552,80.0,1130741.0,1.0
1212838.4176384,289170.0625,300336.03125,315612.28125,296946.34375,314853.9375,303709.15625,299679.40625,307449.5,-0.04296875,0.986328125,-0.0966796875,1.6479490995407104,-2.502441167831421,-0.7019042372703552,80.0,1130742.0,1.0
1212838.417676,288985.71875,298610.65625,314838.46875,296534.625,314205.5625,301933.1875,298560.3125,306178.0625,-0.042236328125,0.986572265625,-0.095947265625,1.5869139432907104,-2.471923589706421,-0.7934569716453552,80.0,1130743.0,1.0
1212838.4232142,288748.625,296159.09375,314030.125,295750.25,312323.875,298729.1875,297075.1875,303196.59375,-0.041259765625,0.9892578125,-0.09375,1.5563963651657104,-2.624511480331421,-0.7324218153953552,80.0,1130744.0,1.0
1212838.4332068,288790.09375,296373.6875,314315.96875,295685.6875,311814.28125,298533.40625,297287.0625,302631.90625,-0.04296875,0.988037109375,-0.09375,1.5563963651657104,-2.563476324081421,-0.6408690810203552,80.0,1130745.0,1.0
1212838.4363523,289047.78125,298961.40625,315295.59375,296447.0,313386.75,301622.0625,298903.46875,305294.96875,-0.04443359375,0.98876953125,-0.095703125,1.5258787870407104,-2.593993902206421,-0.6408690810203552,80.0,1130746.0,1.0
1212838.4363896,289155.9375,300326.53125,315599.84375,296929.875,314834.34375,303694.5,299676.8125,307429.5625,-0.044677734375,0.990478515625,-0.094482421875,1.4038084745407104,-2.716064214706421,-0.6408690810203552,80.0,1130747.0,1.0
1212838.4420605,288980.96875,298603.59375,314829.875,296523.8125,314186.96875,301922.09375,298556.5625,306158.65625,-0.041259765625,0.989013671875,-0.09521484375,1.3732908964157104,-2.777099370956421,-0.5493163466453552,80.0,1130748.0,1.0
1212838.4463456,288743.875,296156.78125,314027.1875,295745.875,312312.1875,298727.40625,297078.9375,303192.125,-0.043212890625,0.990966796875,-0.095947265625,1.2512205839157104,-2.746581792831421,-0.6713866591453552,80.0,1130749.0,1.0
1212838.4463823,288779.71875,296369.5625,314307.84375,295679.53125,311801.21875,298531.0625,297285.28125,302631.625,-0.040283203125,0.9892578125,-0.095458984375,1.1901854276657104,-2.807616949081421,-0.6103515028953552,80.0,1130750.0,1.0
1212838.4494391,289046.15625,298957.375,315294.53125,296448.34375,313379.78125,301619.625,298901.03125,305298.1875,-0.043212890625,0.990234375,-0.0927734375,1.0375975370407104,-2.807616949081421,-0.5187987685203552,80.0,1130751.0,1.0
1212838.4632086,289157.65625,300316.34375,315596.53125,296929.4375,314827.03125,303687.0,299667.78125,307428.78125,-0.04052734375,0.989013671875,-0.0908203125,0.8850097060203552,-3.021239995956421,-0.5493163466453552,80.0,1130752.0,1.0
1212838.466441,288975.78125,298593.46875,314823.71875,296522.1875,314179.1875,301913.25,298552.09375,306158.5625,-0.041748046875,0.990966796875,-0.091064453125,0.8850097060203552,-2.929687261581421,-0.5493163466453552,80.0,1130753.0,1.0
1212838.4664791,288743.15625,296156.25,314026.03125,295750.53125,312309.75,298728.03125,297078.125,303199.09375,-0.042236328125,0.9912109375,-0.09375,0.8239745497703552,-3.082275152206421,-0.5187987685203552,80.0,1130754.0,1.0
1212838.4681359,288784.1875,296375.84375,314309.0,295682.65625,311796.9375,298529.5625,297281.78125,302634.9375,-0.041259765625,0.991455078125,-0.094970703125,0.6713866591453552,-2.899169683456421,-0.6103515028953552,80.0,1130755.0,1.0
1212838.4706729,289053.75,298966.3125,315297.5625,296446.375,313372.625,301616.25,298895.78125,305295.6875,-0.044189453125,0.990478515625,-0.094482421875,0.6408690810203552,-3.021239995956421,-0.6713866591453552,80.0,1130756.0,1.0
1212838.4794199,289173.84375,300328.59375,315607.90625,296934.8125,314826.46875,303689.3125,299675.21875,307429.21875,-0.043212890625,0.988037109375,-0.09375,0.5798339247703552,-3.112792730331421,-0.7324218153953552,80.0,1130757.0,1.0
1212838.4838887,288997.25,298611.4375,314839.34375,296531.5,314179.625,301917.625,298556.65625,306158.21875,-0.04541015625,0.990966796875,-0.0947265625,0.4882812201976776,-3.082275152206421,-0.7324218153953552,80.0,1130758.0,1.0
1212838.4839259,288761.40625,296173.40625,314038.8125,295761.875,312311.90625,298733.75,297078.65625,303199.71875,-0.043701171875,0.98974609375,-0.0947265625,0.3967284858226776,-3.143310308456421,-0.7019042372703552,80.0,1130759.0,1.0
1212838.4944628,288792.5,296386.1875,314317.40625,295696.34375,311802.90625,298540.28125,297287.5,302642.71875,-0.0439453125,0.989013671875,-0.09228515625,0.2746581733226776,-3.204345464706421,-0.6713866591453552,80.0,1130760.0,1.0
1212838.4975885,289043.75,298952.90625,315287.375,296444.6875,313363.875,301607.5625,298886.03125,305288.28125,-0.045654296875,0.989013671875,-0.09228515625,0.1220703050494194,-3.265380620956421,-0.6713866591453552,80.0,1130761.0,1.0
1212838.4976258,289151.21875,300300.25,315586.25,296920.9375,314801.0,303665.90625,299654.65625,307405.78125,-0.044677734375,0.990966796875,-0.091796875,0.0610351525247097,-3.234863042831421,-0.7934569716453552,80.0,1130762.0,1.0
1212838.5038157,288975.78125,298580.96875,314817.71875,296518.0625,314153.6875,301897.15625,298538.84375,306140.59375,-0.04638671875,0.9921875,-0.090576171875,-0.0610351525247097,-3.326415777206421,-0.7019042372703552,80.0,1130763.0,1.0
1212838.5038526,288742.53125,296148.46875,314019.59375,295750.25,312287.59375,298717.5,297069.53125,303191.0625,-0.044189453125,0.9912109375,-0.0908203125,-0.1831054538488388,-3.356933355331421,-0.6103515028953552,80.0,1130764.0,1.0
1212838.5118643,288779.46875,296372.53125,314304.25,295687.125,311787.4375,298531.6875,297284.65625,302644.96875,-0.04638671875,0.990234375,-0.08935546875,-0.3356933295726776,-3.448486089706421,-0.7629393935203552,80.0,1130765.0,1.0
1212838.5194033,289048.03125,298958.4375,315289.15625,296449.78125,313369.25,301621.4375,298900.59375,305311.96875,-0.046142578125,0.991455078125,-0.089111328125,-0.4882812201976776,-3.540038824081421,-0.7019042372703552,80.0,1130766.0,1.0
1212838.5194413,289154.4375,300304.09375,315584.84375,296921.3125,314804.3125,303674.03125,299662.0625,307424.65625,-0.045166015625,0.99169921875,-0.091064453125,-0.5493163466453552,-3.631591558456421,-0.7019042372703552,80.0,1130767.0,1.0
1212838.5194511,288979.28125,298591.4375,314820.21875,296522.5625,314161.03125,301908.0625,298552.90625,306158.375,-0.04638671875,0.988525390625,-0.0927734375,-0.6408690810203552,-3.723144292831421,-0.7629393935203552,80.0,1130768.0,1.0
1212838.5232088,288740.5625,296161.625,314018.78125,295751.78125,312296.8125,298728.5,297079.65625,303204.65625,-0.04736328125,0.98974609375,-0.0927734375,-0.6408690810203552,-3.814697027206421,-0.8239745497703552,80.0,1130769.0,1.0
1212838.5309325,288773.46875,296379.40625,314299.15625,295684.71875,311792.625,298542.34375,297294.21875,302654.875,-0.04736328125,0.98876953125,-0.092529296875,-0.7324218153953552,-3.875732183456421,-0.7934569716453552,80.0,1130770.0,1.0
1212838.5363713,289048.21875,298977.5,315293.8125,296457.28125,313384.4375,301642.875,298922.21875,305334.9375,-0.046142578125,0.988525390625,-0.093017578125,-0.6408690810203552,-3.875732183456421,-0.8239745497703552,80.0,1130771.0,1.0
1212838.5364084,289163.46875,300335.84375,315603.875,296941.96875,314839.90625,303711.59375,299697.375,307471.59375,-0.046630859375,0.987548828125,-0.08935546875,-0.6103515028953552,-3.967284917831421,-0.8239745497703552,80.0,1130772.0,1.0
1212838.5475004,288981.25,298610.65625,314830.5,296536.0625,314187.84375,301934.4375,298578.8125,306194.15625,-0.04931640625,0.988037109375,-0.0869140625,-0.7019042372703552,-3.997802495956421,-0.8544921278953552,80.0,1130773.0,1.0
1212838.5475362,288750.65625,296182.1875,314034.96875,295770.46875,312325.3125,298757.09375,297107.4375,303237.09375,-0.048828125,0.989013671875,-0.087646484375,-0.6713866591453552,-4.028319835662842,-0.9460448622703552,80.0,1130774.0,1.0
1212838.5613556,288789.1875,296404.625,314318.46875,295705.90625,311826.25,298574.09375,297316.3125,302689.40625,-0.04833984375,0.99169921875,-0.09130859375,-0.6713866591453552,-4.119872570037842,-1.0681151151657104,80.0,1130775.0,1.0
1212838.5614013,289051.4375,298981.6875,315297.5625,296467.375,313405.4375,301659.25,298925.625,305356.6875,-0.045654296875,0.992919921875,-0.08984375,-0.7019042372703552,-4.180907726287842,-0.9765624403953552,80.0,1130776.0,1.0
1212838.5643918,289162.65625,300329.84375,315598.96875,296946.6875,314847.03125,303711.59375,299693.0,307479.1875,-0.046630859375,0.991943359375,-0.0888671875,-0.8239745497703552,-4.241942882537842,-1.0070799589157104,80.0,1130777.0,1.0
1212838.5644285,288980.53125,298598.84375,314824.6875,296533.53125,314185.34375,301922.71875,298563.09375,306188.34375,-0.046142578125,0.992431640625,-0.087890625,-0.7324218153953552,-4.241942882537842,-1.0375975370407104,80.0,1130778.0,1.0
1212838.5644382,288745.03125,296160.90625,314021.28125,295757.5,312311.03125,298735.0,297081.53125,303215.5625,-0.0458984375,0.992431640625,-0.090576171875,-0.8239745497703552,-4.364013195037842,-1.0375975370407104,80.0,1130779.0,1.0
1212838.5669896,288782.59375,296387.53125,314307.03125,295692.75,311807.84375,298552.34375,297296.53125,302665.6875,-0.04638671875,0.9921875,-0.090087890625,-0.8544921278953552,-4.302978038787842,-1.1291502714157104,80.0,1130780.0,1.0
1212838.5707055,289046.4375,298975.53125,315292.65625,296460.15625,313390.6875,301645.375,298913.8125,305347.71875,-0.046875,0.9912109375,-0.0888671875,-0.7629393935203552,-4.364013195037842,-1.2207030057907104,80.0,1130781.0,1.0
1212838.5794406,289152.8125,300313.65625,315591.0,296941.25,314828.4375,303700.40625,299675.5625,307474.53125,-0.04541015625,0.989990234375,-0.08935546875,-0.6713866591453552,-4.302978038787842,-1.2512205839157104,80.0,1130782.0,1.0
1212838.5863535,288985.625,298596.625,314829.625,296544.4375,314182.84375,301925.0625,298561.5625,306197.375,-0.044189453125,0.990478515625,-0.09130859375,-0.7019042372703552,-4.241942882537842,-1.2207030057907104,80.0,1130783.0,1.0
1212838.5863909,288753.53125,296158.125,314026.46875,295762.6875,312307.71875,298731.78125,297082.25,303216.28125,-0.042724609375,0.98828125,-0.091064453125,-0.6103515028953552,-4.241942882537842,-1.1901854276657104,80.0,1130784.0,1.0
1212838.5951542,288787.21875,296382.4375,314310.15625,295694.625,311801.40625,298549.6875,297294.5625,302663.65625,-0.042236328125,0.98681640625,-0.0927734375,-0.6408690810203552,-4.119872570037842,-1.1596678495407104,80.0,1130785.0,1.0
1212838.5951933,289054.5625,298984.625,315302.40625,296476.0625,313402.0625,301663.90625,298926.0625,305369.28125,-0.0419921875,0.98779296875,-0.09033203125,-0.5798339247703552,-3.997802495956421,-1.1596678495407104,80.0,1130786.0,1.0
1212838.5975487,289167.03125,300337.09375,315604.3125,296966.90625,314863.0625,303731.4375,299695.4375,307518.53125,-0.0419921875,0.98583984375,-0.088623046875,-0.5798339247703552,-3.936767339706421,-1.0681151151657104,80.0,1130787.0,1.0
1212838.5975863,288981.59375,298594.71875,314822.1875,296547.125,314199.03125,301931.5,298561.28125,306215.4375,-0.041015625,0.988037109375,-0.091552734375,-0.4577636420726776,-3.845214605331421,-1.0375975370407104,80.0,1130788.0,1.0
1212838.6156458,288739.21875,296141.0625,314011.90625,295754.09375,312313.25,298726.875,297075.09375,303213.78125,-0.041015625,0.988525390625,-0.090576171875,-0.3662109076976776,-3.723144292831421,-1.0070799589157104,80.0,1130789.0,1.0
1212838.6193585,288781.34375,296379.9375,314305.96875,295698.3125,311822.5,298559.96875,297297.25,302672.75,-0.037841796875,0.988037109375,-0.090576171875,-0.3356933295726776,-3.540038824081421,-1.0070799589157104,80.0,1130790.0,1.0
1212838.6193952,289059.125,299001.90625,315314.1875,296497.34375,313440.21875,301698.3125,298944.6875,305406.125,-0.038818359375,0.986083984375,-0.08837890625,-0.3356933295726776,-3.417968511581421,-1.0375975370407104,80.0,1130791.0,1.0
1212838.6194052,289170.25,300361.15625,315613.625,296991.40625,314904.25,303772.1875,299715.28125,307565.75,-0.040771484375,0.9853515625,-0.089111328125,-0.2441406100988388,-3.326415777206421,-1.0070799589157104,80.0,1130792.0,1.0
1212838.6225127,288982.84375,298608.21875,314822.625,296559.75,314239.0625,301963.3125,298576.59375,306253.875,-0.041748046875,0.987060546875,-0.08740234375,-0.2441406100988388,-3.234863042831421,-0.8850097060203552,80.0,1130793.0,1.0
1212838.6225586,288732.0625,296133.4375,314001.0625,295740.5,312330.59375,298726.53125,297070.875,303216.34375,-0.043212890625,0.986083984375,-0.093017578125,-0.0610351525247097,-3.051757574081421,-1.0070799589157104,80.0,1130794.0,1.0
1212838.6244799,288773.71875,296370.1875,314296.5625,295680.59375,311829.46875,298556.5625,297294.65625,302669.09375,-0.04541015625,0.986083984375,-0.09130859375,0.0610351525247097,-3.082275152206421,-0.9765624403953552,80.0,1130795.0,1.0
1212838.6332168,289058.40625,299009.03125,315310.71875,296497.59375,313456.84375,301715.5625,298947.09375,305427.9375,-0.0439453125,0.98779296875,-0.089599609375,0.1525878757238388,-2.929687261581421,-1.1291502714157104,80.0,1130796.0,1.0
1212838.6356463,289171.5,300374.28125,315618.34375,297004.375,314931.34375,303803.21875,299720.625,307607.6875,-0.045654296875,0.988037109375,-0.09033203125,0.2136230319738388,-2.929687261581421,-1.2207030057907104,80.0,1130797.0,1.0
1212838.6445704,288981.4375,298606.53125,314821.75,296563.75,314255.34375,301972.71875,298566.9375,306274.78125,-0.045166015625,0.985595703125,-0.090576171875,0.1831054538488388,-2.838134527206421,-1.2817381620407104,80.0,1130798.0,1.0
1212838.6475472,288733.3125,296122.53125,313998.9375,295735.9375,312335.5,298717.5,297060.875,303214.65625,-0.04345703125,0.984130859375,-0.091552734375,0.3051757514476776,-2.777099370956421,-1.3427733182907104,80.0,1130799.0,1.0
1212838.6475841,288779.28125,296361.78125,314300.6875,295677.21875,311832.25,298545.28125,297286.4375,302662.21875,-0.041748046875,0.982666015625,-0.0908203125,0.3967284858226776,-2.685546636581421,-1.3732908964157104,80.0,1130800.0,1.0
1212838.6494199,289069.75,299017.53125,315321.78125,296508.6875,313471.875,301719.96875,298946.375,305442.40625,-0.04248046875,0.98388671875,-0.095703125,0.4577636420726776,-2.532958745956421,-1.4343260526657104,80.0,1130801.0,1.0
1212838.6581698,289186.0,300395.5625,315628.09375,297022.78125,314960.40625,303818.78125,299725.09375,307639.3125,-0.041748046875,0.985107421875,-0.093017578125,0.6408690810203552,-2.380370855331421,-1.4343260526657104,80.0,1130802.0,1.0
1212838.6613032,288984.65625,298615.21875,314824.6875,296569.3125,314279.75,301979.15625,298568.625,306299.90625,-0.04150390625,0.98486328125,-0.091552734375,0.7934569716453552,-2.319335699081421,-1.4648436307907104,80.0,1130803.0,1.0
1212838.6613481,288735.375,296124.34375,314002.5,295735.40625,312357.6875,298727.15625,297064.0,303234.59375,-0.04248046875,0.986328125,-0.091796875,0.8850097060203552,-2.197265386581421,-1.4038084745407104,80.0,1130804.0,1.0
1212838.6669695,288774.28125,296367.53125,314297.0,295674.78125,311851.5625,298558.34375,297292.25,302686.25,-0.043701171875,0.9853515625,-0.09130859375,1.1901854276657104,-2.227782964706421,-1.2817381620407104,80.0,1130805.0,1.0
1212838.6757116,289051.4375,299010.84375,315306.59375,296496.0,313483.9375,301720.59375,298941.46875,305459.03125,-0.0439453125,0.982666015625,-0.093017578125,1.5563963651657104,-2.319335699081421,-1.3122557401657104,80.0,1130806.0,1.0
1212838.678804,289161.3125,300372.0625,315608.875,297001.21875,314961.3125,303804.3125,299716.25,307642.4375,-0.0458984375,0.982421875,-0.0908203125,2.105712652206421,-2.471923589706421,-1.2207030057907104,80.0,1130807.0,1.0
1212838.6788416,288969.09375,298599.5625,314811.625,296554.71875,314285.375,301969.75,298564.4375,306306.8125,-0.04345703125,0.98193359375,-0.09423828125,2.899169683456421,-2.593993902206421,-1.0070799589157104,80.0,1130808.0,1.0
1212838.6805832,288725.0,296130.40625,313998.5625,295737.5625,312392.71875,298733.84375,297058.625,303273.3125,-0.044921875,0.984375,-0.093505859375,3.387450933456421,-2.685546636581421,-0.8239745497703552,80.0,1130809.0,1.0
1212838.6919586,288778.46875,296394.53125,314307.03125,295689.28125,311922.53125,298581.84375,297285.8125,302754.3125,-0.045166015625,0.98388671875,-0.09619140625,3.387450933456421,-2.685546636581421,-1.0986326932907104,80.0,1130810.0,1.0
1212838.6951271,289062.53125,299034.25,315319.65625,296506.28125,313566.1875,301739.34375,298934.375,305522.78125,-0.04736328125,0.98095703125,-0.09912109375,3.936767339706421,-2.716064214706421,-0.8544921278953552,80.0,1130811.0,1.0
1212838.6951678,289170.0,300381.0,315616.3125,296996.9375,315042.65625,303803.3125,299692.46875,307690.71875,-0.049560546875,0.983154296875,-0.093994140625,4.699706554412842,-2.838134527206421,-0.6103515028953552,80.0,1130812.0,1.0
1212838.7007084,288984.46875,298620.46875,314825.6875,296560.375,314391.6875,301973.25,298535.90625,306375.28125,-0.047119140625,0.986083984375,-0.094482421875,4.180907726287842,-2.807616949081421,-0.7324218153953552,80.0,1130813.0,1.0
1212838.7100201,288745.3125,296162.9375,314017.78125,295755.4375,312514.78125,298750.75,297042.53125,303363.25,-0.0478515625,0.986083984375,-0.095947265625,3.814697027206421,-2.685546636581421,-0.9460448622703552,80.0,1130814.0,1.0
1212838.7100666,288785.09375,296403.71875,314313.65625,295696.875,312032.96875,298588.90625,297268.125,302830.21875,-0.0478515625,0.98828125,-0.09765625,3.601073980331421,-2.532958745956421,-0.8850097060203552,80.0,1130815.0,1.0
1212838.7119844,289057.59375,299020.59375,315313.21875,296494.125,313656.9375,301721.5625,298907.5625,305564.8125,-0.048095703125,0.98681640625,-0.099609375,3.387450933456421,-2.380370855331421,-0.7934569716453552,80.0,1130816.0,1.0
1212838.7144243,289161.3125,300355.5,315604.15625,296976.375,315106.9375,303770.3125,299665.1875,307702.4375,-0.050048828125,0.9873046875,-0.101806640625,3.265380620956421,-2.136230230331421,-0.8544921278953552,80.0,1130817.0,1.0
1212838.7232001,288983.75,298612.34375,314826.46875,296555.8125,314444.90625,301960.5625,298527.40625,306387.90625,-0.050537109375,0.99072265625,-0.09716796875,2.563476324081421,-1.8005369901657104,-1.0375975370407104,80.0,1130818.0,1.0
1212838.7276552,288749.5,296175.03125,314026.90625,295771.96875,312573.25,298771.9375,297053.90625,303394.1875,-0.051025390625,0.994384765625,-0.0927734375,1.8615721464157104,-1.6174315214157104,-1.2512205839157104,80.0,1130819.0,1.0
1212838.727694,288784.8125,296416.875,314317.65625,295718.875,312086.25,298625.125,297292.4375,302862.65625,-0.0537109375,0.9921875,-0.097900390625,1.8005369901657104,-1.8310545682907104,-1.0375975370407104,80.0,1130820.0,1.0
1212838.7380585,289058.40625,299027.28125,315314.03125,296508.0625,313692.0,301754.90625,298937.6875,305583.5,-0.053955078125,0.99267578125,-0.09423828125,1.9531248807907104,-2.044677495956421,-0.9460448622703552,80.0,1130821.0,1.0
1212838.7463232,289157.28125,300349.25,315600.21875,296978.53125,315121.71875,303790.4375,299690.15625,307700.65625,-0.053955078125,0.993408203125,-0.0966796875,1.8005369901657104,-2.075195074081421,-1.0375975370407104,80.0,1130822.0,1.0
1212838.7463597,288974.71875,298595.71875,314817.09375,296557.40625,314449.8125,301972.53125,298541.625,306377.53125,-0.05126953125,0.99609375,-0.09716796875,1.5258787870407104,-2.014159917831421,-1.0375975370407104,80.0,1130823.0,1.0
1212838.7480904,288750.84375,296175.03125,314029.15625,295789.84375,312586.375,298796.15625,297079.65625,303400.90625,-0.053955078125,0.996826171875,-0.095703125,1.4648436307907104,-2.105712652206421,-1.0070799589157104,80.0,1130824.0,1.0
1212838.7507936,288791.34375,296429.375,314326.875,295739.0625,312102.4375,298651.59375,297319.96875,302880.625,-0.05224609375,0.997314453125,-0.0947265625,1.3122557401657104,-2.349853277206421,-1.0070799589157104,80.0,1130825.0,1.0
1212838.7532344,289045.96875,299016.03125,315305.34375,296506.46875,313690.03125,301757.9375,298940.8125,305581.1875,-0.05078125,0.9970703125,-0.094970703125,1.0986326932907104,-2.349853277206421,-1.0681151151657104,80.0,1130826.0,1.0
1212838.7574411,289147.46875,300335.75,315589.40625,296976.28125,315121.4375,303788.90625,299686.75,307695.375,-0.050048828125,0.996826171875,-0.097412109375,0.8239745497703552,-2.410888433456421,-0.9765624403953552,80.0,1130827.0,1.0
1212838.7574842,288967.84375,298589.1875,314809.75,296559.21875,314451.78125,301976.90625,298548.15625,306380.46875,-0.0478515625,0.99609375,-0.094482421875,0.7934569716453552,-2.471923589706421,-0.9155272841453552,80.0,1130828.0,1.0
1212838.7707103,288732.4375,296160.09375,314012.625,295777.875,312574.5,298789.46875,297074.1875,303396.25,-0.0478515625,0.996337890625,-0.095947265625,0.6408690810203552,-2.593993902206421,-0.8850097060203552,80.0,1130829.0,1.0
1212838.7737691,288776.15625,296413.90625,314312.3125,295724.9375,312087.9375,298644.09375,297311.65625,302876.78125,-0.046142578125,0.99462890625,-0.096435546875,0.4577636420726776,-2.593993902206421,-0.8850097060203552,80.0,1130830.0,1.0
1212838.7738153,289052.6875,299022.53125,315313.03125,296513.25,313694.5,301769.40625,298948.6875,305594.125,-0.04736328125,0.99169921875,-0.099853515625,0.5187987685203552,-2.593993902206421,-0.8544921278953552,80.0,1130831.0,1.0
1212838.7757307,289150.0625,300338.875,315594.65625,296986.5625,315128.40625,303797.5,299693.8125,307708.78125,-0.046142578125,0.990234375,-0.101806640625,0.7324218153953552,-2.532958745956421,-0.8239745497703552,80.0,1130832.0,1.0
1212838.778275,288970.78125,298589.625,314813.53125,296568.25,314464.03125,301982.71875,298552.96875,306394.0625,-0.043212890625,0.989501953125,-0.10205078125,0.6408690810203552,-2.471923589706421,-0.7019042372703552,80.0,1130833.0,1.0
1212838.7869632,288737.0,296158.75,314015.03125,295787.875,312593.4375,298795.8125,297075.8125,303410.5625,-0.04150390625,0.988037109375,-0.097900390625,0.6103515028953552,-2.471923589706421,-0.7019042372703552,80.0,1130834.0,1.0
1212838.7900197,288775.875,296409.53125,314313.46875,295736.46875,312112.34375,298650.0625,297314.0625,302895.3125,-0.04248046875,0.98681640625,-0.096435546875,0.5187987685203552,-2.441406011581421,-0.5493163466453552,80.0,1130835.0,1.0
1212838.7900663,289041.59375,299009.9375,315302.03125,296514.6875,313714.09375,301769.3125,298945.84375,305608.8125,-0.04296875,0.985595703125,-0.09521484375,0.2441406100988388,-2.288818120956421,-0.7019042372703552,80.0,1130836.0,1.0
1212838.8263184,289152.375,300343.0,315596.71875,296996.6875,315154.25,303809.75,299706.875,307731.21875,-0.041015625,0.98779296875,-0.0927734375,0.1220703050494194,-2.227782964706421,-0.5798339247703552,80.0,1130837.0,1.0
1212838.8263558,288970.59375,298592.9375,314814.59375,296576.09375,314482.1875,301993.09375,298567.09375,306405.5,-0.040283203125,0.9853515625,-0.0927734375,0.0915527269244194,-2.075195074081421,-0.4577636420726776,80.0,1130838.0,1.0
1212838.8282158,288733.59375,296156.4375,314012.78125,295788.15625,312603.375,298799.5625,297086.15625,303410.90625,-0.0400390625,0.985595703125,-0.093017578125,0.0915527269244194,-2.014159917831421,-0.4272460639476776,80.0,1130839.0,1.0
1212838.8307023,288774.625,296412.84375,314309.71875,295734.875,312122.1875,298660.4375,297324.34375,302895.125,-0.0400390625,0.985595703125,-0.096435546875,0.1525878757238388,-1.9531248807907104,-0.3356933295726776,80.0,1130840.0,1.0
1212838.8332356,289041.875,299022.375,315301.21875,296523.875,313735.09375,301795.15625,298958.875,305626.5,-0.041748046875,0.984619140625,-0.098388671875,0.0610351525247097,-1.8615721464157104,-0.4272460639476776,80.0,1130841.0,1.0
1212838.8356262,289149.5,300353.71875,315594.40625,297011.15625,315186.0625,303844.625,299717.5,307762.625,-0.04248046875,0.984130859375,-0.095458984375,0.0610351525247097,-1.7395018339157104,-0.4577636420726776,80.0,1130842.0,1.0
1212838.8388386,288971.59375,298598.5625,314814.40625,296589.78125,314513.65625,302025.28125,298577.65625,306433.125,-0.04443359375,0.98291015625,-0.092529296875,0.0915527269244194,-1.6784666776657104,-0.5798339247703552,80.0,1130843.0,1.0
1212838.8388807,288734.125,296156.78125,314009.3125,295793.53125,312624.3125,298819.6875,297091.8125,303418.15625,-0.043212890625,0.983154296875,-0.096435546875,0.0915527269244194,-1.6174315214157104,-0.6103515028953552,80.0,1130844.0,1.0
1212838.8407167,288788.9375,296431.625,314322.0625,295749.96875,312152.59375,298687.34375,297339.09375,302907.1875,-0.042236328125,0.98486328125,-0.092529296875,-0.0915527269244194,-1.6174315214157104,-0.7934569716453552,80.0,1130845.0,1.0
1212838.8432796,289059.21875,299050.4375,315320.71875,296549.625,313770.125,301830.0,298980.78125,305654.40625,-0.04296875,0.984130859375,-0.09375,-0.1525878757238388,-1.6174315214157104,-0.7629393935203552,80.0,1130846.0,1.0
1212838.8454985,289158.8125,300371.96875,315604.9375,297033.875,315218.875,303874.125,299729.03125,307798.375,-0.046142578125,0.985107421875,-0.09375,-0.2441406100988388,-1.5258787870407104,-0.8239745497703552,80.0,1130847.0,1.0
1212838.8519608,288964.71875,298592.84375,314805.90625,296589.5,314528.84375,302028.0625,298566.21875,306446.09375,-0.04736328125,0.984619140625,-0.095703125,-0.4577636420726776,-1.6174315214157104,-0.8544921278953552,80.0,1130848.0,1.0
1212838.8544311,288721.53125,296134.875,313997.5,295778.3125,312625.71875,298804.75,297075.34375,303406.96875,-0.0478515625,0.98583984375,-0.095458984375,-0.5798339247703552,-1.7089842557907104,-1.1596678495407104,80.0,1130849.0,1.0
1212838.8574629,288771.40625,296403.625,314309.4375,295728.78125,312144.71875,298667.96875,297319.15625,302888.78125,-0.048828125,0.982666015625,-0.095703125,-0.6103515028953552,-1.7395018339157104,-1.2207030057907104,80.0,1130850.0,1.0
1212838.8575102,289046.78125,299045.0,315317.875,296546.25,313780.875,301834.75,298967.90625,305665.3125,-0.050537109375,0.98486328125,-0.0947265625,-0.6713866591453552,-1.7395018339157104,-1.4343260526657104,80.0,1130851.0,1.0
1212838.8599359,289156.65625,300386.28125,315610.03125,297049.25,315250.0,303898.53125,299728.9375,307834.84375,-0.051025390625,0.986328125,-0.09228515625,-0.8239745497703552,-1.8005369901657104,-1.4953612089157104,80.0,1130852.0,1.0
1212838.8599691,288963.625,298596.53125,314806.09375,296594.625,314556.375,302036.90625,298562.625,306467.8125,-0.052001953125,0.986572265625,-0.094970703125,-0.9155272841453552,-1.8615721464157104,-1.7089842557907104,80.0,1130853.0,1.0
1212838.861936,288705.0625,296108.875,313977.90625,295750.96875,312621.15625,298776.59375,297053.09375,303383.625,-0.054931640625,0.986083984375,-0.0927734375,-1.1291502714157104,-1.9226073026657104,-1.6784666776657104,80.0,1130854.0,1.0
1212838.8706746,288755.84375,296379.3125,314293.71875,295707.25,312133.0,298642.21875,297304.9375,302864.1875,-0.0546875,0.9833984375,-0.091064453125,-1.1596678495407104,-2.044677495956421,-1.8920897245407104,80.0,1130855.0,1.0
1212838.8737388,289054.84375,299059.03125,315330.8125,296561.875,313802.875,301855.125,298981.96875,305690.96875,-0.056640625,0.986328125,-0.093017578125,-1.2207030057907104,-2.105712652206421,-1.9836424589157104,80.0,1130856.0,1.0
1212838.8737853,289168.8125,300409.0625,315627.75,297073.375,315286.40625,303931.4375,299746.65625,307877.78125,-0.05712890625,0.987060546875,-0.092041015625,-1.2817381620407104,-2.166747808456421,-2.044677495956421,80.0,1130857.0,1.0
1212838.8844927,288966.59375,298600.0,314806.8125,296597.75,314574.96875,302044.3125,298564.15625,306481.9375,-0.05908203125,0.98583984375,-0.08935546875,-1.4343260526657104,-2.319335699081421,-2.136230230331421,80.0,1130858.0,1.0
1212838.8876001,288713.75,296108.59375,313983.375,295753.03125,312639.6875,298779.4375,297056.75,303387.21875,-0.0595703125,0.988037109375,-0.09033203125,-1.3427733182907104,-2.380370855331421,-2.227782964706421,80.0,1130859.0,1.0
1212838.8876372,288764.0,296379.3125,314299.34375,295707.4375,312152.0625,298645.0625,297300.5625,302865.15625,-0.06103515625,0.98779296875,-0.090576171875,-1.4343260526657104,-2.441406011581421,-2.258300542831421,80.0,1130860.0,1.0
1212838.889409,289052.3125,299048.5625,315322.25,296549.0,313805.46875,301840.03125,298966.03125,305677.1875,-0.058349609375,0.988525390625,-0.09033203125,-1.4343260526657104,-2.593993902206421,-2.166747808456421,80.0,1130861.0,1.0
1212838.8984448,289159.15625,300387.25,315610.65625,297049.4375,315268.5,303900.40625,299724.3125,307847.8125,-0.0576171875,0.9873046875,-0.09228515625,-1.4343260526657104,-2.593993902206421,-2.105712652206421,80.0,1130862.0,1.0
1212838.9025728,288959.625,298576.5,314797.15625,296581.90625,314560.3125,302019.8125,298552.34375,306457.8125,-0.057373046875,0.98974609375,-0.093994140625,-1.4343260526657104,-2.685546636581421,-2.044677495956421,80.0,1130863.0,1.0
1212838.9026097,288712.21875,296091.0625,313977.65625,295741.9375,312626.96875,298759.25,297047.46875,303366.65625,-0.0556640625,0.992431640625,-0.093017578125,-1.4953612089157104,-2.746581792831421,-1.9836424589157104,80.0,1130864.0,1.0
1212838.9156678,288764.15625,296372.6875,314294.875,295696.34375,312140.59375,298627.09375,297292.6875,302844.0625,-0.0546875,0.98974609375,-0.091796875,-1.6174315214157104,-2.929687261581421,-1.9531248807907104,80.0,1130865.0,1.0
1212838.9187588,289041.6875,299029.34375,315310.4375,296527.09375,313788.375,301811.59375,298956.90625,305644.90625,-0.056640625,0.988525390625,-0.09130859375,-1.6174315214157104,-2.960204839706421,-1.7700194120407104,80.0,1130866.0,1.0
1212838.9187972,289152.375,300363.75,315605.03125,297027.0625,315253.84375,303868.6875,299721.71875,307811.25,-0.057861328125,0.991455078125,-0.092041015625,-1.5258787870407104,-2.960204839706421,-1.7089842557907104,80.0,1130867.0,1.0
1212838.9208063,288960.6875,298565.6875,314799.5625,296568.40625,314546.5625,301994.0,298550.21875,306424.625,-0.057861328125,0.994873046875,-0.09228515625,-1.5869139432907104,-3.051757574081421,-1.6479490995407104,80.0,1130868.0,1.0
1212838.923262,288714.8125,296103.59375,313986.25,295742.75,312625.46875,298754.15625,297046.46875,303354.21875,-0.05859375,0.99462890625,-0.090576171875,-1.6174315214157104,-3.143310308456421,-1.4953612089157104,80.0,1130869.0,1.0
1212838.9319007,288766.5,296390.84375,314307.65625,295706.0,312151.59375,298637.5625,297304.3125,302852.65625,-0.0576171875,0.996826171875,-0.088623046875,-1.7700194120407104,-3.143310308456421,-1.2817381620407104,80.0,1130870.0,1.0
1212838.9363173,289042.65625,299027.46875,315317.0625,296522.09375,313785.875,301804.4375,298962.8125,305632.21875,-0.057373046875,0.997314453125,-0.087890625,-1.8615721464157104,-3.173827886581421,-1.1596678495407104,80.0,1130871.0,1.0
1212838.9363602,289148.71875,300343.90625,315602.28125,297006.0625,315226.9375,303838.1875,299709.90625,307766.46875,-0.05908203125,0.995849609375,-0.0869140625,-1.9226073026657104,-3.265380620956421,-1.0070799589157104,80.0,1130872.0,1.0
1212838.9420114,288968.8125,298567.1875,314805.46875,296564.375,314527.3125,301978.59375,298542.34375,306395.125,-0.05908203125,0.996337890625,-0.086669921875,-2.044677495956421,-3.265380620956421,-0.8850097060203552,80.0,1130873.0,1.0
1212838.9463444,288734.03125,296130.40625,314003.84375,295770.90625,312635.28125,298775.5,297063.46875,303372.46875,-0.05859375,0.996337890625,-0.084716796875,-2.166747808456421,-3.356933355331421,-0.7934569716453552,80.0,1130874.0,1.0
1212838.9463814,288777.03125,296404.96875,314311.0625,295723.34375,312160.53125,298655.34375,297316.125,302872.15625,-0.057861328125,0.9951171875,-0.0810546875,-2.288818120956421,-3.295898199081421,-0.6713866591453552,80.0,1130875.0,1.0
1212838.9594395,289039.90625,299015.21875,315302.3125,296513.0625,313779.4375,301796.65625,298958.53125,305625.0625,-0.054443359375,0.994384765625,-0.0810546875,-2.410888433456421,-3.143310308456421,-0.4882812201976776,80.0,1130876.0,1.0
1212838.9625583,289136.28125,300315.09375,315575.71875,296977.1875,315203.40625,303809.5,299693.1875,307731.0625,-0.05224609375,0.9912109375,-0.082763671875,-2.502441167831421,-3.143310308456421,-0.3051757514476776,80.0,1130877.0,1.0
1212838.9625959,288962.84375,298547.71875,314794.65625,296554.65625,314517.59375,301970.375,298545.375,306379.5625,-0.0517578125,0.988037109375,-0.0830078125,-2.471923589706421,-3.173827886581421,-0.1220703050494194,80.0,1130878.0,1.0
1212838.9645757,288748.625,296140.0625,314012.53125,295789.21875,312652.28125,298799.125,297083.40625,303392.125,-0.052490234375,0.989013671875,-0.082763671875,-2.441406011581421,-3.021239995956421,-0.0915527269244194,80.0,1130879.0,1.0
1212838.9683032,288784.8125,296415.78125,314313.375,295740.6875,312183.34375,298678.15625,297328.65625,302895.375,-0.0517578125,0.98779296875,-0.08447265625,-2.227782964706421,-2.929687261581421,0.03051757626235485,80.0,1130880.0,1.0
1212838.9775559,289033.71875,299004.21875,315291.84375,296508.0625,313785.4375,301794.96875,298956.125,305626.9375,-0.05078125,0.985595703125,-0.0830078125,-2.166747808456421,-2.746581792831421,0.1220703050494194,80.0,1130881.0,1.0
1212838.9775929,289137.53125,300302.9375,315576.59375,296977.71875,315208.4375,303807.96875,299702.9375,307734.625,-0.049072265625,0.98486328125,-0.083251953125,-2.105712652206421,-2.716064214706421,0.3051757514476776,80.0,1130882.0,1.0
1212838.979481,288971.78125,298554.21875,314801.90625,296565.03125,314526.6875,301977.96875,298557.4375,306390.125,-0.048095703125,0.984130859375,-0.080810546875,-2.075195074081421,-2.624511480331421,0.4272460639476776,80.0,1130883.0,1.0
1212838.988907,288749.3125,296155.4375,314014.84375,295797.8125,312660.25,298809.59375,297088.84375,303403.125,-0.04638671875,0.9853515625,-0.080322265625,-1.9531248807907104,-2.410888433456421,0.4577636420726776,80.0,1130884.0,1.0
1212838.9889448,288796.4375,296442.625,314325.34375,295756.5,312203.46875,298703.625,297345.625,302917.03125,-0.048095703125,0.981689453125,-0.078857421875,-1.8005369901657104,-2.227782964706421,0.6408690810203552,80.0,1130885.0,1.0
1212838.9906986,289046.0625,299026.46875,315303.46875,296523.875,313807.96875,301820.8125,298972.03125,305642.96875,-0.04931640625,0.980712890625,-0.08203125,-1.7395018339157104,-2.075195074081421,0.7324218153953552,80.0,1130886.0,1.0
1212838.9943723,289138.875,300314.125,315575.96875,296982.09375,315222.71875,303819.6875,299703.1875,307736.0625,-0.052490234375,0.981689453125,-0.082275390625,-1.4648436307907104,-1.9836424589157104,0.7934569716453552,80.0,1130887.0,1.0
1212839.0087727,288972.5,298565.75,314800.90625,296566.625,314538.0625,301984.6875,298552.0,306391.75,-0.0556640625,0.984130859375,-0.08056640625,-1.3732908964157104,-1.9226073026657104,0.7629393935203552,80.0,1130888.0,1.0
1212839.0088095,288757.71875,296170.90625,314024.21875,295808.1875,312678.375,298828.34375,297091.4375,303421.28125,-0.05810546875,0.98486328125,-0.081298828125,-1.3122557401657104,-1.8615721464157104,0.7019042372703552,80.0,1130889.0,1.0
1212839.010748,288802.34375,296458.875,314334.03125,295770.53125,312226.0,298728.03125,297349.375,302946.96875,-0.057861328125,0.984619140625,-0.078369140625,-1.1901854276657104,-1.7700194120407104,0.6408690810203552,80.0,1130890.0,1.0
1212839.0137431,289057.96875,299050.0,315316.625,296542.03125,313834.5,301850.40625,298979.09375,305682.125,-0.05712890625,0.984619140625,-0.081298828125,-1.1901854276657104,-1.8615721464157104,0.4272460639476776,80.0,1130891.0,1.0
1212839.0137878,289148.96875,300336.46875,315587.6875,296997.75,315244.46875,303844.8125,299705.09375,307771.90625,-0.06005859375,0.984619140625,-0.080078125,-1.1901854276657104,-1.8005369901657104,0.3356933295726776,80.0,1130892.0,1.0
1212839.0156156,288978.84375,298581.40625,314809.75,296581.03125,314557.1875,302005.53125,298549.5,306420.4375,-0.059326171875,0.984375,-0.078369140625,-1.1901854276657104,-1.8920897245407104,0.1831054538488388,80.0,1130893.0,1.0
1212839.0294858,288759.875,296180.5625,314028.15625,295820.34375,312701.375,298845.25,297087.25,303443.1875,-0.05859375,0.984619140625,-0.078125,-1.0375975370407104,-1.9531248807907104,0.0610351525247097,80.0,1130894.0,1.0
1212839.0324603,288801.4375,296468.28125,314335.1875,295778.15625,312248.625,298745.75,297345.0,302965.3125,-0.056640625,0.984375,-0.078125,-0.9765624403953552,-2.044677495956421,-0.0915527269244194,80.0,1130895.0,1.0
1212839.0325007,289058.59375,299065.28125,315319.28125,296551.34375,313862.0625,301878.375,298985.25,305708.5,-0.0546875,0.983154296875,-0.07958984375,-0.8544921278953552,-1.9531248807907104,-0.1525878757238388,80.0,1130896.0,1.0
1212839.0344175,289161.03125,300363.03125,315600.21875,297020.625,315291.5625,303886.90625,299724.375,307821.625,-0.05810546875,0.984375,-0.080810546875,-0.6408690810203552,-2.014159917831421,-0.3356933295726776,80.0,1130897.0,1.0
1212839.0382146,288988.65625,298601.0,314818.53125,296601.9375,314606.4375,302041.1875,298568.4375,306470.59375,-0.05859375,0.98681640625,-0.0810546875,-0.4882812201976776,-1.9531248807907104,-0.5493163466453552,80.0,1130898.0,1.0
1212839.0475589,288766.3125,296194.6875,314032.71875,295831.0625,312740.34375,298867.875,297099.75,303478.15625,-0.057373046875,0.9873046875,-0.080322265625,-0.4272460639476776,-1.9226073026657104,-0.5493163466453552,80.0,1130899.0,1.0
1212839.0475994,288806.09375,296477.65625,314338.78125,295784.9375,312280.0,298763.625,297353.59375,302994.1875,-0.0556640625,0.987060546875,-0.07958984375,-0.3356933295726776,-1.9531248807907104,-0.7324218153953552,80.0,1130900.0,1.0
1212839.0494938,289070.125,299088.15625,315329.21875,296576.1875,313907.75,301912.1875,298996.78125,305759.625,-0.0556640625,0.989990234375,-0.07958984375,-0.2136230319738388,-1.8615721464157104,-0.7019042372703552,80.0,1130901.0,1.0
1212839.0632858,289172.84375,300394.3125,315610.5,297056.84375,315350.0625,303935.71875,299741.28125,307891.8125,-0.05419921875,0.9912109375,-0.0791015625,-0.0915527269244194,-1.8920897245407104,-0.7019042372703552,80.0,1130902.0,1.0
1212839.0663507,288993.84375,298621.28125,314818.34375,296626.15625,314659.65625,302082.84375,298579.8125,306530.6875,-0.056396484375,0.990478515625,-0.08203125,0.1220703050494194,-1.8005369901657104,-0.6408690810203552,80.0,1130903.0,1.0
1212839.0663889,288765.15625,296197.375,314023.78125,295835.90625,312781.9375,298894.5,297099.59375,303516.6875,-0.05615234375,0.991455078125,-0.0830078125,0.1525878757238388,-1.8005369901657104,-0.7629393935203552,80.0,1130904.0,1.0
1212839.068308,288808.59375,296489.09375,314336.09375,295793.4375,312326.5625,298796.0,297359.5,303038.53125,-0.056884765625,0.989013671875,-0.08544921875,0.2441406100988388,-1.7395018339157104,-0.7629393935203552,80.0,1130905.0,1.0
1212839.0707637,289081.75,299127.15625,315343.625,296609.53125,313983.09375,301979.15625,299020.75,305847.25,-0.056640625,0.9873046875,-0.084716796875,0.2441406100988388,-1.7089842557907104,-0.8239745497703552,80.0,1130906.0,1.0
1212839.0768748,289189.84375,300443.84375,315630.4375,297108.625,315451.0,304024.15625,299772.3125,308013.59375,-0.05712890625,0.9873046875,-0.082275390625,0.3662109076976776,-1.7395018339157104,-0.7629393935203552,80.0,1130907.0,1.0
1212839.0862124,288997.78125,298638.8125,314823.25,296655.0625,314751.8125,302144.46875,298595.09375,306630.53125,-0.05712890625,0.98779296875,-0.083251953125,0.4272460639476776,-1.7089842557907104,-0.7019042372703552,80.0,1130908.0,1.0
1212839.0862443,288743.78125,296166.0,314002.0625,295815.34375,312823.75,298894.96875,297085.625,303546.28125,-0.056396484375,0.9892578125,-0.0888671875,0.5798339247703552,-1.6174315214157104,-0.7019042372703552,80.0,1130909.0,1.0
1212839.0886321,288811.28125,296488.40625,314342.875,295798.4375,312383.4375,298817.09375,297372.4375,303086.28125,-0.05615234375,0.98876953125,-0.0869140625,0.6103515028953552,-1.5563963651657104,-0.7324218153953552,80.0,1130910.0,1.0
1212839.0886596,289092.65625,299159.15625,315362.75,296645.46875,314064.03125,302034.125,299048.84375,305943.4375,-0.059326171875,0.98828125,-0.0869140625,0.7934569716453552,-1.4343260526657104,-0.7629393935203552,80.0,1130911.0,1.0
1212839.096946,289191.8125,300476.84375,315640.4375,297147.5,315537.4375,304083.4375,299794.5,308126.21875,-0.060302734375,0.9873046875,-0.0859375,0.8239745497703552,-1.4343260526657104,-0.8850097060203552,80.0,1130912.0,1.0
1212839.0994141,288988.5,298644.875,314816.125,296673.5625,314821.90625,302176.03125,298601.25,306713.4375,-0.059814453125,0.986328125,-0.084716796875,0.9155272841453552,-1.2817381620407104,-0.8850097060203552,80.0,1130913.0,1.0
1212839.1031765,288738.96875,296162.3125,313995.625,295822.3125,312889.375,298914.53125,297087.15625,303603.125,-0.06103515625,0.987548828125,-0.086181640625,0.9155272841453552,-1.3732908964157104,-0.8544921278953552,80.0,1130914.0,1.0
1212839.11256,288806.375,296482.21875,314334.90625,295796.5625,312440.3125,298830.21875,297363.34375,303128.46875,-0.060302734375,0.984619140625,-0.08544921875,0.9460448622703552,-1.4038084745407104,-0.9155272841453552,80.0,1130915.0,1.0
1212839.1125975,289093.0,299165.15625,315360.59375,296654.875,314128.84375,302060.875,299046.78125,305999.875,-0.0595703125,0.984130859375,-0.0869140625,1.0681151151657104,-1.3732908964157104,-0.8850097060203552,80.0,1130916.0,1.0
1212839.1145421,289198.6875,300490.78125,315643.03125,297164.9375,315611.46875,304121.34375,299798.0625,308195.875,-0.063232421875,0.98193359375,-0.088134765625,1.1596678495407104,-1.3427733182907104,-0.9460448622703552,80.0,1130917.0,1.0
1212839.1257363,288994.03125,298652.9375,314815.65625,296680.53125,314887.28125,302201.78125,298597.3125,306767.78125,-0.063232421875,0.981201171875,-0.086669921875,1.2512205839157104,-1.4038084745407104,-1.0375975370407104,80.0,1130918.0,1.0
1212839.1288092,288746.03125,296173.78125,313996.0625,295827.9375,312951.0,298934.125,297086.625,303651.5,-0.06396484375,0.98388671875,-0.087890625,1.3732908964157104,-1.4648436307907104,-1.1596678495407104,80.0,1130919.0,1.0
1212839.1288455,288803.15625,296485.53125,314331.34375,295799.25,312501.90625,298852.21875,297363.40625,303176.65625,-0.06298828125,0.98291015625,-0.0869140625,1.3122557401657104,-1.4343260526657104,-1.3122557401657104,80.0,1130920.0,1.0
