Time,FZ,C3,CZ,C4,PZ,PO7,OZ,PO8,AccX,AccY,AccZ,Gyro1,Gyro2,Gyro3,Battery,Counter,Validation
179065.1998636,308143.5,311319.9375,330703.90625,316336.75,310548.4375,290451.8125,290669.34375,306928.625,-0.095458984375,0.91748046875,-0.31982421875,2.380370855331421,-12.664793968200684,0.0915527269244194,100.0,193590.0,1.0
179065.2022557,307898.25,309919.90625,329020.03125,315759.4375,309268.9375,290170.625,290331.28125,306858.25,-0.09619140625,0.91650390625,-0.318603515625,2.197265386581421,-12.603758811950684,0.3662109076976776,100.0,193591.0,1.0
179065.2047805,307819.03125,309964.96875,328181.90625,315743.96875,308833.4375,290246.1875,290369.375,306891.34375,-0.097900390625,0.9169921875,-0.31640625,2.014159917831421,-12.481688499450684,0.5187987685203552,100.0,193592.0,1.0
179065.2073046,308102.09375,311568.9375,329584.90625,316446.4375,310000.90625,290645.75,290794.78125,307017.59375,-0.099609375,0.91943359375,-0.316162109375,1.9531248807907104,-12.298583030700684,0.7019042372703552,100.0,193593.0,1.0
179065.2152695,308301.5625,312435.8125,331188.5,316811.40625,311098.84375,290776.1875,290976.90625,307018.3125,-0.1005859375,0.92041015625,-0.317138671875,1.7395018339157104,-12.084959983825684,0.7019042372703552,100.0,193594.0,1.0
179065.2152981,308146.4375,311343.1875,330668.40625,316336.5625,310549.59375,290464.875,290664.6875,306902.875,-0.100341796875,0.922607421875,-0.314697265625,1.5258787870407104,-11.962889671325684,0.7019042372703552,100.0,193595.0,1.0
179065.2178742,307898.5,309922.6875,328980.5,315756.125,309257.21875,290176.875,290320.90625,306831.4375,-0.10009765625,0.922607421875,-0.314697265625,1.3732908964157104,-11.871336936950684,0.7324218153953552,100.0,193596.0,1.0
179065.2179071,307816.71875,309951.65625,328122.09375,315736.65625,308801.0625,290246.09375,290356.59375,306874.28125,-0.097900390625,0.9228515625,-0.3125,1.0986326932907104,-11.779784202575684,0.8239745497703552,100.0,193597.0,1.0
179065.2197588,308102.53125,311568.84375,329525.53125,316446.0,309972.125,290647.53125,290785.46875,307005.875,-0.097412109375,0.9248046875,-0.313232421875,0.7934569716453552,-11.627196311950684,1.0375975370407104,100.0,193598.0,1.0
179065.2248062,308309.875,312465.96875,331157.90625,316826.4375,311097.5,290785.46875,290982.09375,307022.5,-0.097900390625,0.9228515625,-0.31201171875,0.4882812201976776,-11.413573265075684,1.1596678495407104,100.0,193599.0,1.0
179065.2272422,308156.90625,311374.375,330651.53125,316353.71875,310554.875,290473.0,290668.34375,306910.84375,-0.09619140625,0.9248046875,-0.314697265625,0.4577636420726776,-11.138915061950684,1.1901854276657104,100.0,193600.0,1.0
179065.2297488,307910.84375,309942.28125,328969.5,315771.34375,309262.59375,290181.90625,290324.0625,306841.625,-0.095458984375,0.923828125,-0.3134765625,0.3356933295726776,-10.955809593200684,1.1596678495407104,100.0,193601.0,1.0
179065.2385303,307829.65625,309960.96875,328108.96875,315749.0625,308804.65625,290251.625,290364.8125,306887.3125,-0.094482421875,0.923828125,-0.31591796875,0.0915527269244194,-10.681151390075684,1.2817381620407104,100.0,193602.0,1.0
179065.2434026,308108.625,311572.25,329501.75,316452.78125,309972.9375,290652.34375,290794.96875,307019.46875,-0.09228515625,0.924072265625,-0.318115234375,-0.0915527269244194,-10.345458030700684,1.2512205839157104,100.0,193603.0,1.0
179065.2434318,308311.9375,312476.78125,331143.53125,316837.6875,311106.53125,290792.28125,290997.90625,307038.0625,-0.089111328125,0.925048828125,-0.320556640625,-0.2136230319738388,-10.009764671325684,1.4953612089157104,100.0,193604.0,1.0
179065.2434385,308165.03125,311400.40625,330659.90625,316372.3125,310578.75,290480.0625,290689.09375,306924.59375,-0.086669921875,0.92333984375,-0.319580078125,-0.4272460639476776,-9.582518577575684,1.6479490995407104,100.0,193605.0,1.0
179065.2485546,307920.0625,309959.53125,328975.75,315786.4375,309280.3125,290182.78125,290339.96875,306854.15625,-0.08251953125,0.920654296875,-0.320556640625,-0.6103515028953552,-9.155272483825684,1.8615721464157104,100.0,193606.0,1.0
179065.2510661,307836.65625,309960.0625,328106.71875,315759.09375,308817.09375,290250.03125,290374.46875,306902.0625,-0.079833984375,0.919677734375,-0.318359375,-0.6713866591453552,-8.697508811950684,2.105712652206421,100.0,193607.0,1.0
179065.264805,308108.71875,311554.0,329472.875,316453.6875,309966.75,290649.65625,290798.0,307031.53125,-0.077880859375,0.92138671875,-0.317626953125,-0.7629393935203552,-8.148192405700684,2.288818120956421,100.0,193608.0,1.0
179065.2703762,308313.53125,312472.3125,331114.09375,316841.625,311101.4375,290794.78125,291002.03125,307054.6875,-0.075439453125,0.92041015625,-0.319580078125,-0.8850097060203552,-7.476806163787842,2.502441167831421,100.0,193609.0,1.0
179065.2704118,308172.53125,311415.78125,330652.40625,316385.46875,310592.78125,290491.40625,290701.625,306953.21875,-0.075927734375,0.91845703125,-0.3193359375,-1.0070799589157104,-6.835937023162842,2.593993902206421,100.0,193610.0,1.0
179065.2728746,307925.0625,309970.78125,328969.59375,315792.53125,309292.1875,290193.59375,290342.03125,306863.0,-0.074951171875,0.917236328125,-0.3203125,-1.0681151151657104,-6.286620616912842,2.746581792831421,100.0,193611.0,1.0
179065.2729061,307830.375,309944.875,328062.375,315748.625,308797.78125,290254.3125,290365.90625,306900.71875,-0.072265625,0.919189453125,-0.321533203125,-1.0681151151657104,-5.737304210662842,2.960204839706421,100.0,193612.0,1.0
179065.2810075,308097.625,311524.875,329400.71875,316436.53125,309929.65625,290647.15625,290786.1875,307026.53125,-0.073974609375,0.9189453125,-0.321044921875,-1.0986326932907104,-5.065917491912842,3.173827886581421,100.0,193613.0,1.0
179065.2878738,308301.46875,312450.03125,331042.84375,316827.40625,311069.78125,290792.53125,290993.09375,307044.0625,-0.072998046875,0.91845703125,-0.3173828125,-1.1901854276657104,-4.486083507537842,3.479003667831421,100.0,193614.0,1.0
179065.2879062,308152.6875,311395.9375,330581.25,316366.6875,310561.21875,290486.3125,290689.375,306932.65625,-0.07470703125,0.917236328125,-0.31884765625,-1.3122557401657104,-3.875732183456421,3.631591558456421,100.0,193615.0,1.0
179065.290372,307900.5625,309937.4375,328882.40625,315765.6875,309248.8125,290183.875,290331.65625,306850.03125,-0.073974609375,0.9169921875,-0.317138671875,-1.3732908964157104,-3.265380620956421,3.753661870956421,100.0,193616.0,1.0
179065.2904068,307801.5,309894.34375,327942.5,315711.0625,308735.1875,290237.0625,290353.09375,306889.8125,-0.07421875,0.918212890625,-0.314208984375,-1.4953612089157104,-2.655029058456421,3.753661870956421,100.0,193617.0,1.0
179065.3010557,308062.5,311468.34375,329247.28125,316397.8125,309851.34375,290629.71875,290772.96875,307017.6875,-0.074462890625,0.91748046875,-0.314697265625,-1.5869139432907104,-2.044677495956421,3.936767339706421,100.0,193618.0,1.0
179065.3109631,308267.9375,312407.125,330883.71875,316796.75,310992.4375,290777.53125,290976.625,307027.0625,-0.074462890625,0.917236328125,-0.314208984375,-1.5869139432907104,-1.3427733182907104,4.150390148162842,100.0,193619.0,1.0
179065.3109959,308123.375,311361.5,330417.0,316337.625,310486.03125,290472.46875,290674.15625,306914.3125,-0.0703125,0.917236328125,-0.3134765625,-1.7089842557907104,-0.7934569716453552,4.272460460662842,100.0,193620.0,1.0
179065.3110027,307879.5625,309907.9375,328718.375,315743.4375,309181.25,290173.75,290321.1875,306844.0625,-0.06982421875,0.915771484375,-0.31005859375,-1.8005369901657104,-0.1831054538488388,4.425048351287842,100.0,193621.0,1.0
179065.3140938,307783.34375,309849.1875,327764.75,315691.0625,308659.90625,290227.84375,290343.625,306891.34375,-0.06689453125,0.91455078125,-0.30859375,-1.9836424589157104,0.5187987685203552,4.455565929412842,100.0,193622.0,1.0
179065.3141261,308046.40625,311418.90625,329045.9375,316375.0,309762.03125,290620.78125,290761.25,307014.8125,-0.067626953125,0.913330078125,-0.310302734375,-2.014159917831421,1.1901854276657104,4.669188976287842,100.0,193623.0,1.0
179065.3222956,308260.15625,312391.21875,330707.125,316787.0,310922.0,290779.125,290974.65625,307027.875,-0.064697265625,0.91357421875,-0.3125,-2.197265386581421,1.9226073026657104,4.852294445037842,100.0,193624.0,1.0
179065.3265674,308128.90625,311384.65625,330306.84375,316351.3125,310457.53125,290482.46875,290683.375,306920.40625,-0.06494140625,0.912109375,-0.311279296875,-2.166747808456421,2.563476324081421,4.943847179412842,100.0,193625.0,1.0
179065.3266032,307895.125,309940.375,328659.34375,315767.84375,309174.34375,290183.5,290332.90625,306849.59375,-0.0634765625,0.9091796875,-0.312744140625,-2.166747808456421,3.387450933456421,5.004882335662842,100.0,193626.0,1.0
179065.3297091,307802.03125,309878.78125,327725.40625,315713.65625,308654.90625,290236.625,290353.28125,306899.46875,-0.0625,0.906982421875,-0.313232421875,-2.258300542831421,3.967284917831421,5.096435070037842,100.0,193627.0,1.0
179065.3497768,308063.46875,311448.59375,329021.90625,316395.65625,309763.53125,290631.96875,290771.625,307029.21875,-0.061767578125,0.907470703125,-0.313232421875,-2.227782964706421,4.577636241912842,5.371093273162842,100.0,193628.0,1.0
179065.3498239,308277.40625,312434.3125,330708.75,316812.9375,310936.84375,290791.65625,290984.59375,307030.90625,-0.0595703125,0.904541015625,-0.31494140625,-2.197265386581421,5.249022960662842,5.523681163787842,100.0,193629.0,1.0
179065.3498373,308156.625,311447.78125,330341.625,316385.125,310492.03125,290497.84375,290696.15625,306923.8125,-0.059326171875,0.904541015625,-0.314208984375,-2.105712652206421,5.920409679412842,5.798339366912842,100.0,193630.0,1.0
179065.3523629,307926.0625,309999.40625,328710.9375,315800.65625,309215.65625,290197.4375,290346.21875,306857.375,-0.05712890625,0.904541015625,-0.31396484375,-1.9531248807907104,6.652831554412842,5.981444835662842,100.0,193631.0,1.0
179065.3623675,307824.75,309907.5625,327761.78125,315729.75,308673.84375,290239.75,290352.84375,306893.21875,-0.055419921875,0.903564453125,-0.311279296875,-1.8920897245407104,7.354735851287842,6.072997570037842,100.0,193632.0,1.0
179065.3648633,308078.9375,311462.0,329033.25,316399.78125,309762.90625,290628.21875,290768.84375,307021.6875,-0.05419921875,0.904541015625,-0.310302734375,-1.7395018339157104,8.087157249450684,6.317138195037842,100.0,193633.0,1.0
179065.3673747,308292.1875,312457.71875,330727.5,316818.90625,310943.09375,290789.9375,290991.46875,307039.5,-0.0517578125,0.903564453125,-0.30810546875,-1.7395018339157104,8.819579124450684,6.530761241912842,100.0,193634.0,1.0
179065.3748174,308160.65625,311468.28125,330362.46875,316388.15625,310497.9375,290495.4375,290704.125,306934.0,-0.051025390625,0.904052734375,-0.31201171875,-1.7395018339157104,9.429930686950684,6.774901866912842,100.0,193635.0,1.0
179065.3773115,307922.375,310007.09375,328727.03125,315797.34375,309214.125,290188.78125,290347.28125,306859.34375,-0.053466796875,0.90771484375,-0.31298828125,-1.5563963651657104,10.162352561950684,6.988524913787842,100.0,193636.0,1.0
179065.3798635,307817.25,309899.625,327769.3125,315719.125,308665.4375,290225.15625,290347.28125,306888.40625,-0.05126953125,0.906494140625,-0.314208984375,-1.4343260526657104,10.833739280700684,7.141112804412842,100.0,193637.0,1.0
179065.3823408,308063.5625,311434.375,329011.875,316378.59375,309733.15625,290607.65625,290754.71875,307008.90625,-0.052001953125,0.907470703125,-0.313232421875,-1.3732908964157104,11.505125999450684,7.324218273162842,100.0,193638.0,1.0
179065.3847307,308277.875,312440.65625,330697.75,316804.53125,310916.625,290777.6875,290985.84375,307036.0,-0.052734375,0.91064453125,-0.31396484375,-1.1901854276657104,12.145995140075684,7.507323741912842,100.0,193639.0,1.0
179065.387929,308154.21875,311469.78125,330353.34375,316386.8125,310493.5625,290491.25,290704.375,306935.875,-0.05126953125,0.9111328125,-0.312255859375,-1.0681151151657104,12.786864280700684,7.629394054412842,100.0,193640.0,1.0
179065.3879918,307917.5625,309995.65625,328716.125,315794.65625,309207.4375,290184.03125,290345.34375,306861.40625,-0.050537109375,0.912109375,-0.312744140625,-1.0986326932907104,13.305663108825684,7.904052257537842,100.0,193641.0,1.0
179065.4017058,307810.625,309871.625,327734.15625,315711.34375,308645.78125,290218.28125,290345.96875,306896.71875,-0.0498046875,0.9091796875,-0.31591796875,-1.0070799589157104,13.885497093200684,8.056639671325684,100.0,193642.0,1.0
179065.4017556,308052.75,311401.5625,328939.90625,316362.21875,309695.59375,290605.40625,290754.90625,307025.0,-0.049560546875,0.908935546875,-0.31591796875,-1.0070799589157104,14.434813499450684,8.239745140075684,100.0,193643.0,1.0
179065.4041425,308270.1875,312428.84375,330627.28125,316795.21875,310888.28125,290782.96875,290988.25,307048.4375,-0.05078125,0.910400390625,-0.316650390625,-0.7934569716453552,14.984129905700684,8.331297874450684,100.0,193644.0,1.0
179065.4041914,308146.15625,311473.4375,330298.28125,316382.6875,310474.96875,290500.1875,290707.53125,306940.0625,-0.052978515625,0.912109375,-0.316650390625,-0.6408690810203552,15.502928733825684,8.361815452575684,100.0,193645.0,1.0
179065.4060768,307914.15625,310006.71875,328672.5,315795.5625,309196.0,290195.9375,290346.9375,306860.0625,-0.052490234375,0.914794921875,-0.31494140625,-0.6713866591453552,16.021726608276367,8.544920921325684,100.0,193646.0,1.0
179065.4198751,307804.09375,309859.75,327672.125,315702.59375,308619.59375,290223.28125,290339.25,306887.3125,-0.0498046875,0.917236328125,-0.314697265625,-0.5798339247703552,16.510007858276367,8.697508811950684,100.0,193647.0,1.0
179065.4229359,308035.75,311364.5625,328840.5,316347.28125,309648.21875,290605.78125,290745.34375,307021.34375,-0.052001953125,0.918701171875,-0.312744140625,-0.6713866591453552,16.998289108276367,8.789061546325684,100.0,193648.0,1.0
179065.4229951,308251.65625,312402.3125,330521.4375,316785.75,310841.96875,290788.875,290985.125,307054.6875,-0.0517578125,0.921630859375,-0.31298828125,-0.6713866591453552,17.395017623901367,9.002684593200684,100.0,193649.0,1.0
179065.4248653,308136.34375,311468.625,330212.4375,316382.6875,310448.40625,290510.65625,290711.8125,306942.46875,-0.052001953125,0.921630859375,-0.3095703125,-0.7629393935203552,17.700193405151367,9.063719749450684,100.0,193650.0,1.0
179065.4272853,307902.90625,309991.53125,328591.03125,315792.53125,309170.15625,290202.8125,290347.28125,306855.125,-0.051025390625,0.92138671875,-0.31201171875,-0.6713866591453552,18.127439498901367,9.124754905700684,100.0,193651.0,1.0
179065.4386167,307783.8125,309815.5625,327557.84375,315684.78125,308566.84375,290226.78125,290329.15625,306876.15625,-0.052978515625,0.923828125,-0.310546875,-0.8544921278953552,18.432615280151367,9.124754905700684,100.0,193652.0,1.0
179065.4416837,308015.0,311301.96875,328672.75,316318.875,309564.15625,290606.75,290730.3125,307008.75,-0.052734375,0.922119140625,-0.311767578125,-1.0375975370407104,18.585203170776367,9.216307640075684,100.0,193653.0,1.0
179065.4417324,308237.53125,312347.84375,330326.4375,316764.375,310751.3125,290792.0,290974.5,307044.40625,-0.048828125,0.91748046875,-0.3134765625,-1.1596678495407104,18.829343795776367,9.277342796325684,100.0,193654.0,1.0
179065.4498644,308129.71875,311434.46875,330029.25,316378.21875,310376.875,290518.5,290711.1875,306950.96875,-0.047119140625,0.916015625,-0.313720703125,-1.2207030057907104,19.012449264526367,9.338377952575684,100.0,193655.0,1.0
179065.4556625,307898.59375,309953.8125,328411.875,315794.3125,309102.125,290209.53125,290345.78125,306865.25,-0.041748046875,0.913330078125,-0.31201171875,-1.0986326932907104,19.409177780151367,9.368895530700684,100.0,193656.0,1.0
179065.4592189,307779.4375,309760.25,327356.0625,315676.5625,308482.875,290227.5,290322.96875,306880.875,-0.041015625,0.915771484375,-0.312255859375,-0.8544921278953552,19.683835983276367,9.429930686950684,100.0,193657.0,1.0
179065.4592674,307995.0625,311218.09375,328411.875,316286.9375,309445.0,290598.53125,290718.5,307009.53125,-0.0400390625,0.9189453125,-0.3125,-0.7019042372703552,19.958494186401367,9.429930686950684,100.0,193658.0,1.0
179065.4617085,308197.59375,312250.9375,330016.0,316718.6875,310607.28125,290775.1875,290956.78125,307042.09375,-0.040283203125,0.9267578125,-0.313232421875,-0.7629393935203552,20.233152389526367,9.613036155700684,100.0,193659.0,1.0
179065.4617562,308081.625,311341.125,329698.0,316332.1875,310223.0,290499.65625,290689.90625,306943.28125,-0.0400390625,0.930419921875,-0.310791015625,-0.7629393935203552,20.446775436401367,9.704588890075684,100.0,193660.0,1.0
179065.4748651,307857.28125,309868.15625,328083.46875,315752.1875,308951.90625,290188.34375,290330.21875,306861.21875,-0.040283203125,0.932373046875,-0.30859375,-1.0681151151657104,20.690916061401367,10.009764671325684,100.0,193661.0,1.0
179065.4997759,307737.40625,309661.875,327011.03125,315630.6875,308321.21875,290200.3125,290308.59375,306888.03125,-0.038330078125,0.930419921875,-0.307861328125,-1.3427733182907104,20.843503952026367,10.253905296325684,100.0,193662.0,1.0
179065.4998282,307945.28125,311103.21875,328022.40625,316228.28125,309258.65625,290565.71875,290696.875,307008.75,-0.03466796875,0.923828125,-0.306884765625,-1.5258787870407104,21.057126998901367,10.406493186950684,100.0,193663.0,1.0
179065.499843,308160.75,312170.8125,329639.15625,316675.34375,310437.21875,290753.84375,290944.4375,307040.375,-0.031982421875,0.92138671875,-0.310546875,-1.4648436307907104,21.392820358276367,10.620116233825684,100.0,193664.0,1.0
179065.5166445,308072.3125,311325.03125,329413.6875,316329.40625,310115.625,290496.15625,290697.15625,306945.25,-0.030029296875,0.92333984375,-0.31103515625,-1.3122557401657104,21.697996139526367,10.711668968200684,100.0,193665.0,1.0
179065.5166919,307870.96875,309891.03125,327901.53125,315778.125,308898.25,290196.03125,290342.28125,306859.875,-0.0322265625,0.9248046875,-0.309814453125,-1.3427733182907104,21.942136764526367,10.711668968200684,100.0,193666.0,1.0
179065.5248931,307761.09375,309697.1875,326892.59375,315662.53125,308292.96875,290209.78125,290323.15625,306887.59375,-0.03564453125,0.929443359375,-0.30810546875,-1.2817381620407104,22.064207077026367,10.772704124450684,100.0,193667.0,1.0
179065.5273199,307971.46875,311149.625,327936.5,316259.59375,309244.28125,290576.34375,290711.1875,307016.96875,-0.040771484375,0.931640625,-0.310546875,-1.4038084745407104,22.125242233276367,10.925292015075684,100.0,193668.0,1.0
179065.5298641,308191.3125,312233.6875,329594.71875,316709.3125,310448.125,290771.0,290958.9375,307039.21875,-0.043701171875,0.933349609375,-0.30859375,-1.5563963651657104,21.942136764526367,10.986327171325684,100.0,193669.0,1.0
179065.532367,308113.09375,311410.5,329432.8125,316369.65625,310167.125,290514.9375,290714.21875,306937.46875,-0.04736328125,0.930908203125,-0.30712890625,-1.7700194120407104,21.789548873901367,10.925292015075684,100.0,193670.0,1.0
179065.539888,307912.375,309982.15625,327964.3125,315818.90625,308970.25,290209.78125,290360.625,306858.96875,-0.04931640625,0.927490234375,-0.3046875,-1.8310545682907104,21.606443405151367,10.986327171325684,100.0,193671.0,1.0
179065.5423645,307797.46875,309764.34375,326959.90625,315689.25,308353.6875,290213.1875,290326.03125,306873.375,-0.05029296875,0.9248046875,-0.306640625,-1.8615721464157104,21.484373092651367,10.833739280700684,100.0,193672.0,1.0
179065.545433,308005.53125,311196.90625,327989.34375,316274.59375,309286.375,290575.03125,290707.96875,306993.09375,-0.048583984375,0.922607421875,-0.304931640625,-1.8920897245407104,21.179197311401367,10.650633811950684,100.0,193673.0,1.0
179065.5454856,308226.90625,312294.375,329658.90625,316731.5625,310497.3125,290771.8125,290962.15625,307033.15625,-0.04833984375,0.923828125,-0.305419921875,-1.8310545682907104,20.843503952026367,10.467528343200684,100.0,193674.0,1.0
179065.547363,308141.625,311475.59375,329510.3125,316396.90625,310226.125,290521.8125,290720.03125,306940.6875,-0.047607421875,0.92626953125,-0.305908203125,-1.8005369901657104,20.477293014526367,10.314940452575684,100.0,193675.0,1.0
179065.5498716,307940.4375,310039.0,328059.59375,315848.59375,309041.75,290219.4375,290367.59375,306860.3125,-0.04931640625,0.9267578125,-0.305419921875,-1.7089842557907104,20.019529342651367,10.192870140075684,100.0,193676.0,1.0
179065.5523623,307825.125,309801.09375,327053.15625,315716.25,308420.84375,290221.40625,290332.09375,306878.1875,-0.046875,0.926025390625,-0.30224609375,-1.7089842557907104,19.744871139526367,10.009764671325684,100.0,193677.0,1.0
179065.5548644,308028.59375,311225.53125,328069.71875,316290.0625,309342.625,290579.5625,290709.40625,306994.4375,-0.044921875,0.924072265625,-0.30322265625,-1.6479490995407104,19.287107467651367,9.948729515075684,100.0,193678.0,1.0
179065.5573671,308244.78125,312332.46875,329750.46875,316745.15625,310558.1875,290779.125,290971.4375,307039.21875,-0.04248046875,0.923828125,-0.303466796875,-1.4953612089157104,18.981931686401367,9.796141624450684,100.0,193679.0,1.0
179065.5604077,308157.625,311522.1875,329619.3125,316413.53125,310295.59375,290528.34375,290733.34375,306942.5625,-0.0419921875,0.9248046875,-0.301513671875,-1.4953612089157104,18.493650436401367,9.857176780700684,100.0,193680.0,1.0
179065.5604531,307949.75,310067.78125,328161.34375,315862.25,309102.65625,290223.03125,290381.0,306864.53125,-0.04248046875,0.9248046875,-0.300048828125,-1.4648436307907104,18.188474655151367,9.735106468200684,100.0,193681.0,1.0
179065.5623805,307827.53125,309807.71875,327139.625,315720.90625,308466.53125,290220.0625,290340.15625,306882.40625,-0.042724609375,0.9228515625,-0.3037109375,-1.4343260526657104,17.639158248901367,9.674071311950684,100.0,193682.0,1.0
179065.5653965,308023.6875,311218.8125,328131.03125,316287.03125,309370.5,290576.34375,290715.5625,307001.125,-0.04052734375,0.921875,-0.30322265625,-1.4648436307907104,17.181394577026367,9.521483421325684,100.0,193683.0,1.0
179065.5654474,308243.90625,312340.53125,329819.125,316747.75,310597.53125,290781.28125,290975.125,307033.0625,-0.040283203125,0.921142578125,-0.304931640625,-1.3732908964157104,16.815183639526367,9.368895530700684,100.0,193684.0,1.0
179065.5673632,308159.03125,311543.53125,329709.15625,316423.65625,310350.5,290533.625,290740.78125,306941.15625,-0.037353515625,0.919677734375,-0.304931640625,-1.1596678495407104,16.296384811401367,9.307860374450684,100.0,193685.0,1.0
179065.5773648,307954.125,310087.03125,328260.96875,315875.21875,309165.15625,290229.0,290388.4375,306868.53125,-0.037109375,0.918701171875,-0.302490234375,-0.9460448622703552,15.930174827575684,9.063719749450684,100.0,193686.0,1.0
179065.5804352,307833.25,309808.4375,327225.53125,315727.625,308517.21875,290216.59375,290340.21875,306880.4375,-0.03759765625,0.91845703125,-0.304443359375,-0.7629393935203552,15.472411155700684,8.758543968200684,100.0,193687.0,1.0
179065.5804843,308032.53125,311212.5625,328202.65625,316293.1875,309412.4375,290570.375,290717.0,307008.75,-0.0380859375,0.921142578125,-0.303955078125,-0.5798339247703552,14.953612327575684,8.392333030700684,100.0,193688.0,1.0
179065.5823188,308252.65625,312349.71875,329890.21875,316757.03125,310640.1875,290776.90625,290976.28125,307037.15625,-0.03857421875,0.921875,-0.30419921875,-0.4577636420726776,14.465331077575684,8.178709983825684,100.0,193689.0,1.0
179065.5848673,308170.84375,311570.28125,329791.59375,316439.75,310404.84375,290537.71875,290743.09375,306941.6875,-0.0380859375,0.92041015625,-0.302490234375,-0.4272460639476776,13.977049827575684,7.873534679412842,100.0,193690.0,1.0
179065.5941864,307966.09375,310105.34375,328334.71875,315887.28125,309209.21875,290236.875,290387.09375,306865.5,-0.0380859375,0.919677734375,-0.30224609375,-0.3356933295726776,13.519286155700684,7.659911632537842,100.0,193691.0,1.0
179065.5942358,307848.53125,309816.125,327293.3125,315732.96875,308549.65625,290227.65625,290340.0625,306882.21875,-0.0361328125,0.9189453125,-0.30419921875,-0.2136230319738388,13.000487327575684,7.202147960662842,100.0,193692.0,1.0
179065.6028873,308046.9375,311209.53125,328246.46875,316292.03125,309420.9375,290581.90625,290713.6875,307004.1875,-0.031494140625,0.919677734375,-0.3037109375,-0.0915527269244194,12.451170921325684,6.927489757537842,100.0,193693.0,1.0
179065.6029358,308270.1875,312356.96875,329934.375,316761.34375,310646.875,290796.03125,290981.5625,307040.84375,-0.029296875,0.92138671875,-0.305419921875,0.0915527269244194,12.054442405700684,6.469726085662842,100.0,193694.0,1.0
179065.6142193,308177.71875,311582.625,329843.53125,316437.875,310415.3125,290552.9375,290747.40625,306937.65625,-0.0302734375,0.92138671875,-0.305908203125,0.1525878757238388,11.688231468200684,5.920409679412842,100.0,193695.0,1.0
179065.6142727,307963.25,310112.125,328391.84375,315877.90625,309223.71875,290240.28125,290384.40625,306849.40625,-0.032958984375,0.92138671875,-0.304931640625,0.2441406100988388,11.291502952575684,5.493163585662842,100.0,193696.0,1.0
179065.6167098,307839.3125,309804.40625,327334.0625,315715.625,308551.0,290221.59375,290327.0,306858.71875,-0.034423828125,0.918701171875,-0.306396484375,0.2136230319738388,10.742186546325684,5.035399913787842,100.0,193697.0,1.0
179065.616757,308032.8125,311182.53125,328267.3125,316267.1875,309411.5625,290567.25,290691.0625,306973.59375,-0.03515625,0.915771484375,-0.3056640625,0.1831054538488388,10.284422874450684,4.638671398162842,100.0,193698.0,1.0
179065.6473234,308254.8125,312341.9375,329960.5,316744.25,310647.15625,290779.3125,290964.5625,307019.09375,-0.03564453125,0.908935546875,-0.30419921875,0.3662109076976776,9.796141624450684,4.211425304412842,100.0,193699.0,1.0
179065.6560098,308175.84375,311596.03125,329900.40625,316444.125,310443.21875,290546.75,290749.90625,306935.59375,-0.033935546875,0.908447265625,-0.302978515625,0.6103515028953552,9.307860374450684,3.936767339706421,100.0,193700.0,1.0
179065.6560577,307967.90625,310127.875,328458.53125,315896.59375,309260.1875,290241.0,290399.34375,306864.0,-0.034423828125,0.909912109375,-0.306640625,0.9765624403953552,8.697508811950684,3.417968511581421,100.0,193701.0,1.0
179065.6560694,307843.53125,309803.6875,327382.25,315734.40625,308572.375,290227.21875,290347.03125,306886.5,-0.033203125,0.911865234375,-0.306396484375,1.2207030057907104,8.117674827575684,2.990722417831421,100.0,193702.0,1.0
179065.6586188,308041.65625,311181.34375,328298.40625,316282.46875,309418.15625,290575.46875,290708.5,307000.59375,-0.031982421875,0.914794921875,-0.303955078125,1.3732908964157104,7.659911632537842,2.624511480331421,100.0,193703.0,1.0
179065.6611093,308269.375,312355.09375,329999.75,316763.75,310656.71875,290793.34375,290981.8125,307039.9375,-0.0302734375,0.916748046875,-0.3037109375,1.5258787870407104,7.141112804412842,2.258300542831421,100.0,193704.0,1.0
179065.6661211,308190.6875,311623.46875,329951.28125,316463.6875,310461.375,290560.96875,290763.9375,306950.96875,-0.028564453125,0.915771484375,-0.30419921875,1.6174315214157104,6.713866710662842,1.9226073026657104,100.0,193705.0,1.0
179065.6685756,307982.09375,310155.3125,328515.40625,315910.28125,309282.25,290253.25,290407.28125,306871.75,-0.02587890625,0.916748046875,-0.309326171875,1.8005369901657104,6.378173351287842,1.5563963651657104,100.0,193706.0,1.0
179065.6711126,307851.84375,309807.1875,327421.40625,315734.84375,308577.28125,290231.5,290344.34375,306884.1875,-0.0234375,0.917236328125,-0.308349609375,1.8310545682907104,5.981444835662842,1.0681151151657104,100.0,193707.0,1.0
179065.6736212,308046.03125,311165.625,328316.125,316278.09375,309405.90625,290577.25,290702.15625,307002.65625,-0.023193359375,0.91748046875,-0.306396484375,2.014159917831421,5.645751476287842,0.7324218153953552,100.0,193708.0,1.0
179065.6761679,308274.28125,312347.21875,330021.8125,316763.5625,310652.25,290795.125,290976.625,307038.34375,-0.025390625,0.91748046875,-0.31005859375,2.075195074081421,5.279540538787842,0.3051757514476776,100.0,193709.0,1.0
179065.6786219,308194.375,311629.90625,329993.125,316473.1875,310475.03125,290566.625,290765.0,306950.09375,-0.029052734375,0.9169921875,-0.309326171875,2.197265386581421,4.943847179412842,-0.0610351525247097,100.0,193710.0,1.0
179065.6811139,307985.25,310159.875,328561.1875,315918.5,309298.90625,290257.0,290404.875,306869.96875,-0.03466796875,0.917724609375,-0.309326171875,2.288818120956421,4.486083507537842,-0.4882812201976776,100.0,193711.0,1.0
179065.6835243,307855.6875,309800.125,327457.90625,315741.90625,308593.03125,290234.65625,290342.125,306888.03125,-0.038330078125,0.917236328125,-0.308837890625,2.502441167831421,3.997802495956421,-0.7324218153953552,100.0,193712.0,1.0
179065.6860543,308044.875,311141.40625,328319.875,316278.90625,309401.90625,290577.6875,290701.96875,307009.375,-0.03857421875,0.916748046875,-0.30908203125,2.624511480331421,3.387450933456421,-0.9155272841453552,100.0,193713.0,1.0
179065.6885253,308271.59375,312331.3125,330014.84375,316767.25,310639.71875,290797.0,290975.65625,307046.28125,-0.0361328125,0.916259765625,-0.3095703125,2.777099370956421,2.838134527206421,-1.2207030057907104,100.0,193714.0,1.0
179065.6916308,308196.875,311639.03125,330010.90625,316483.1875,310484.78125,290572.5,290771.25,306962.6875,-0.03662109375,0.916015625,-0.314208984375,2.838134527206421,2.258300542831421,-1.4648436307907104,100.0,193715.0,1.0
179065.6916655,307987.46875,310170.625,328588.0,315929.40625,309318.375,290262.1875,290413.71875,306876.875,-0.035400390625,0.91357421875,-0.3125,3.112792730331421,1.7089842557907104,-1.7089842557907104,100.0,193716.0,1.0
179065.6941174,307853.71875,309790.375,327469.625,315743.71875,308596.59375,290233.21875,290344.0625,306889.5625,-0.03662109375,0.914794921875,-0.31591796875,3.234863042831421,1.1291502714157104,-1.8005369901657104,100.0,193717.0,1.0
179065.6941512,308039.78125,311117.96875,328311.5625,316277.375,309388.125,290574.75,290699.28125,307012.84375,-0.035888671875,0.91552734375,-0.314453125,3.387450933456421,0.6713866591453552,-1.8920897245407104,100.0,193718.0,1.0
179065.7096942,308276.0,312322.09375,330022.0,316776.28125,310640.09375,290804.0,290979.59375,307050.3125,-0.036376953125,0.91455078125,-0.317626953125,3.540038824081421,0.1831054538488388,-2.075195074081421,100.0,193719.0,1.0
179065.7179611,308202.9375,311641.28125,330030.59375,316496.96875,310494.90625,290581.46875,290775.375,306961.53125,-0.0380859375,0.9130859375,-0.317626953125,3.753661870956421,-0.3356933295726776,-2.075195074081421,100.0,193720.0,1.0
179065.7180093,307989.625,310166.0625,328600.4375,315939.0625,309320.71875,290267.71875,290416.125,306883.03125,-0.038818359375,0.913818359375,-0.3173828125,3.906249761581421,-0.8544921278953552,-2.105712652206421,100.0,193721.0,1.0
179065.7198652,307855.15625,309769.1875,327459.78125,315745.40625,308580.25,290233.03125,290339.6875,306893.59375,-0.04150390625,0.915283203125,-0.31689453125,4.058837413787842,-1.4343260526657104,-2.319335699081421,100.0,193722.0,1.0
179065.7273881,308041.46875,311086.3125,328283.65625,316274.875,309362.28125,290572.96875,290691.96875,307011.15625,-0.04345703125,0.9140625,-0.31982421875,4.180907726287842,-2.014159917831421,-2.471923589706421,100.0,193723.0,1.0
179065.7298835,308273.65625,312300.65625,329997.875,316781.46875,310620.5,290805.78125,290980.65625,307058.28125,-0.04345703125,0.914306640625,-0.3203125,4.394530773162842,-2.593993902206421,-2.593993902206421,100.0,193724.0,1.0
179065.7329702,308198.65625,311637.0625,330027.71875,316505.625,310488.71875,290585.84375,290782.625,306972.71875,-0.0458984375,0.914794921875,-0.31884765625,4.516601085662842,-3.143310308456421,-2.838134527206421,100.0,193725.0,1.0
179065.7330196,307986.75,310172.84375,328616.53125,315944.78125,309328.125,290272.90625,290422.65625,306886.34375,-0.047119140625,0.91455078125,-0.31787109375,4.699706554412842,-3.753661870956421,-3.143310308456421,100.0,193726.0,1.0
179065.7398655,307843.625,309756.5625,327465.9375,315739.15625,308581.6875,290235.71875,290340.78125,306891.53125,-0.04541015625,0.913330078125,-0.321044921875,4.852294445037842,-4.333495616912842,-3.234863042831421,100.0,193727.0,1.0
179065.7423726,308022.0625,311057.4375,328263.8125,316254.21875,309342.78125,290568.5,290684.53125,307002.125,-0.04541015625,0.914306640625,-0.320068359375,5.096435070037842,-4.913329601287842,-3.326415777206421,100.0,193728.0,1.0
179065.744812,308264.375,312292.25,329990.53125,316768.84375,310607.53125,290808.8125,290981.09375,307055.3125,-0.04296875,0.916259765625,-0.322509765625,5.126952648162842,-5.432128429412842,-3.417968511581421,100.0,193729.0,1.0
179065.7473635,308196.3125,311654.6875,330043.0,316502.6875,310494.90625,290597.375,290786.65625,306969.03125,-0.0439453125,0.916748046875,-0.32373046875,5.126952648162842,-5.981444835662842,-3.601073980331421,100.0,193730.0,1.0
179065.7542088,307987.28125,310198.15625,328646.9375,315946.75,309350.75,290283.71875,290426.5,306880.71875,-0.044921875,0.91943359375,-0.326171875,5.310058116912842,-6.469726085662842,-3.631591558456421,100.0,193731.0,1.0
179065.7542626,307845.125,309769.53125,327491.59375,315739.5,308600.4375,290241.71875,290343.28125,306885.34375,-0.045654296875,0.918212890625,-0.32568359375,5.157470226287842,-6.805419445037842,-3.784179449081421,100.0,193732.0,1.0
179065.7566508,308016.96875,311050.28125,328265.15625,316251.375,309345.84375,290573.59375,290684.8125,306999.0,-0.04443359375,0.919921875,-0.326904296875,5.157470226287842,-7.263183116912842,-3.936767339706421,100.0,193733.0,1.0
179065.756698,308257.46875,312296.25,329993.9375,316768.3125,310616.9375,290814.4375,290982.53125,307053.09375,-0.04345703125,0.920654296875,-0.327392578125,5.310058116912842,-7.720946788787842,-3.967284917831421,100.0,193734.0,1.0
179065.7698675,308195.15625,311682.40625,330072.59375,316508.6875,310527.15625,290603.96875,290793.25,306969.21875,-0.0439453125,0.92041015625,-0.32470703125,5.187987804412842,-8.087157249450684,-3.967284917831421,100.0,193735.0,1.0
179065.7723646,307986.59375,310219.96875,328674.8125,315950.6875,309380.53125,290289.375,290436.15625,306892.3125,-0.043212890625,0.92041015625,-0.326171875,5.187987804412842,-8.422850608825684,-4.150390148162842,100.0,193736.0,1.0
179065.775417,307842.0,309769.96875,327499.46875,315737.0,308614.40625,290239.125,290342.90625,306899.21875,-0.043212890625,0.92041015625,-0.326904296875,5.187987804412842,-8.697508811950684,-4.302978038787842,100.0,193737.0,1.0
179065.7754691,308017.78125,311046.34375,328257.1875,316246.25,309348.6875,290567.5,290685.25,307020.28125,-0.04248046875,0.91845703125,-0.327880859375,4.974364757537842,-9.002684593200684,-4.425048351287842,100.0,193738.0,1.0
179065.7773004,308258.65625,312302.78125,329994.1875,316766.34375,310626.9375,290811.0625,290978.0625,307054.25,-0.04248046875,0.918212890625,-0.328369140625,5.035399913787842,-9.368895530700684,-4.516601085662842,100.0,193739.0,1.0
179065.7923236,308194.625,311701.875,330094.875,316512.6875,310553.0,290605.15625,290792.09375,306962.96875,-0.042236328125,0.9189453125,-0.328857421875,4.882812023162842,-9.613036155700684,-4.547118663787842,100.0,193740.0,1.0
179065.7948628,307984.15625,310237.40625,328701.8125,315954.71875,309406.8125,290290.53125,290434.1875,306885.4375,-0.042724609375,0.918701171875,-0.32958984375,4.791259288787842,-9.918211936950684,-4.608153820037842,100.0,193741.0,1.0
179065.797917,307835.65625,309773.46875,327511.90625,315733.25,308624.9375,290238.65625,290338.8125,306889.90625,-0.0439453125,0.916259765625,-0.328369140625,4.669188976287842,-10.223387718200684,-4.669188976287842,100.0,193742.0,1.0
179065.7979693,308006.96875,311035.09375,328250.125,316233.03125,309343.78125,290566.53125,290677.65625,307003.71875,-0.043701171875,0.916259765625,-0.328125,4.608153820037842,-10.437010765075684,-4.730224132537842,100.0,193743.0,1.0
179065.7998183,308254.8125,312296.25,329993.125,316763.9375,310624.34375,290812.65625,290980.21875,307054.5,-0.043701171875,0.916015625,-0.32666015625,4.516601085662842,-10.528563499450684,-4.852294445037842,100.0,193744.0,1.0
179065.8036176,308199.46875,311711.0,330109.53125,316520.28125,310559.90625,290609.4375,290800.9375,306972.96875,-0.04541015625,0.916748046875,-0.327880859375,4.394530773162842,-10.681151390075684,-5.096435070037842,100.0,193745.0,1.0
179065.8217086,307994.625,310249.90625,328726.0625,315962.75,309418.15625,290291.875,290442.25,306889.8125,-0.0439453125,0.917236328125,-0.325439453125,4.302978038787842,-10.833739280700684,-5.310058116912842,100.0,193746.0,1.0
179065.8217572,307848.96875,309768.1875,327525.40625,315738.53125,308630.03125,290237.5,290344.71875,306892.5,-0.043212890625,0.916259765625,-0.32861328125,4.150390148162842,-11.077879905700684,-5.401610851287842,100.0,193747.0,1.0
179065.8241906,308019.65625,311013.0,328234.9375,316236.4375,309332.78125,290563.40625,290677.46875,307005.4375,-0.043212890625,0.915771484375,-0.3310546875,3.906249761581421,-11.230467796325684,-5.462646007537842,100.0,193748.0,1.0
179065.8242507,308272.78125,312296.4375,329983.8125,316775.28125,310621.21875,290816.40625,290985.9375,307062.375,-0.04443359375,0.916259765625,-0.32861328125,3.814697027206421,-11.383055686950684,-5.432128429412842,100.0,193749.0,1.0
179065.8261738,308224.5,311741.75,330135.625,316542.125,310584.3125,290618.125,290812.21875,306981.71875,-0.047119140625,0.915283203125,-0.3291015625,3.631591558456421,-11.627196311950684,-5.584716320037842,100.0,193750.0,1.0
179065.8285972,308012.875,310278.78125,328762.25,315978.03125,309449.8125,290295.8125,290449.21875,306896.25,-0.045654296875,0.914794921875,-0.329345703125,3.417968511581421,-11.779784202575684,-5.584716320037842,100.0,193751.0,1.0
179065.8374087,307860.25,309780.625,327548.125,315743.15625,308649.71875,290235.4375,290344.71875,306893.75,-0.04443359375,0.91552734375,-0.326904296875,3.387450933456421,-11.840819358825684,-5.645751476287842,100.0,193752.0,1.0
179065.8404636,308017.59375,311000.125,328231.28125,316231.59375,309334.21875,290555.4375,290673.46875,307007.03125,-0.045166015625,0.915283203125,-0.326416015625,3.265380620956421,-11.871336936950684,-5.676269054412842,100.0,193753.0,1.0
179065.840516,308267.0625,312286.34375,329980.875,316772.875,310624.8125,290814.8125,290986.46875,307073.46875,-0.044921875,0.91748046875,-0.324951171875,3.112792730331421,-12.023924827575684,-5.798339366912842,100.0,193754.0,1.0
179065.8511118,308219.40625,311749.625,330143.6875,316542.125,310596.1875,290622.21875,290813.46875,306990.84375,-0.044189453125,0.91796875,-0.3291015625,2.868652105331421,-12.023924827575684,-5.798339366912842,100.0,193755.0,1.0
179065.8541606,308011.78125,310293.5625,328771.1875,315980.1875,309461.625,290305.8125,290452.53125,306899.21875,-0.044921875,0.916748046875,-0.328369140625,2.746581792831421,-12.084959983825684,-5.767821788787842,100.0,193756.0,1.0
179065.8542086,307852.5625,309776.5,327544.53125,315740.65625,308650.96875,290244.75,290348.375,306901.1875,-0.04736328125,0.91650390625,-0.32763671875,2.502441167831421,-12.268065452575684,-5.645751476287842,100.0,193757.0,1.0
179065.8560285,308008.9375,310987.71875,328216.0625,316228.75,309329.65625,290563.75,290677.21875,307019.375,-0.046630859375,0.91796875,-0.32763671875,2.380370855331421,-12.268065452575684,-5.645751476287842,100.0,193758.0,1.0
179065.8654704,308260.15625,312286.875,329973.71875,316777.875,310626.0625,290826.4375,290994.0625,307090.90625,-0.046630859375,0.917724609375,-0.3251953125,2.227782964706421,-12.329100608825684,-5.615233898162842,100.0,193759.0,1.0
179065.8655248,308211.25,311761.6875,330158.0,316552.3125,310610.125,290632.9375,290823.375,307006.3125,-0.046875,0.916748046875,-0.32666015625,2.014159917831421,-12.268065452575684,-5.615233898162842,100.0,193760.0,1.0
179065.8748646,307999.53125,310301.9375,328800.71875,315981.53125,309482.71875,290306.625,290450.125,306891.34375,-0.047607421875,0.917236328125,-0.32666015625,1.9226073026657104,-12.176512718200684,-5.615233898162842,100.0,193761.0,1.0
179065.8798329,307840.75,309771.59375,327560.375,315730.125,308659.8125,290235.0,290336.46875,306886.4375,-0.045654296875,0.91552734375,-0.327880859375,1.7700194120407104,-12.145995140075684,-5.584716320037842,100.0,193762.0,1.0
179065.8829686,307997.9375,310968.5625,328200.78125,316210.3125,309314.0,290551.40625,290662.8125,306999.15625,-0.0458984375,0.91552734375,-0.326171875,1.5869139432907104,-12.145995140075684,-5.462646007537842,100.0,193763.0,1.0
179065.8830195,308248.09375,312270.4375,329954.21875,316759.90625,310607.90625,290815.34375,290978.40625,307053.4375,-0.044189453125,0.916259765625,-0.326416015625,1.3427733182907104,-12.145995140075684,-5.340575695037842,100.0,193764.0,1.0
179065.8873131,308204.90625,311766.25,330158.0,316542.1875,310607.8125,290628.125,290814.1875,306972.53125,-0.0439453125,0.919677734375,-0.326416015625,1.2207030057907104,-12.084959983825684,-5.340575695037842,100.0,193765.0,1.0
179065.889778,308009.65625,310325.65625,328823.59375,315986.34375,309500.15625,290311.71875,290458.34375,306890.28125,-0.044921875,0.919189453125,-0.323974609375,0.9460448622703552,-11.901854515075684,-5.157470226287842,100.0,193766.0,1.0
179065.8923113,307853.4375,309781.25,327580.125,315734.6875,308673.40625,290239.90625,290341.5625,306881.6875,-0.0439453125,0.91796875,-0.328369140625,0.7324218153953552,-11.840819358825684,-5.035399913787842,100.0,193767.0,1.0
179065.8986144,308001.78125,310955.59375,328196.40625,316206.9375,309307.375,290553.8125,290661.375,306995.9375,-0.044921875,0.918212890625,-0.3271484375,0.5493163466453552,-11.779784202575684,-4.852294445037842,100.0,193768.0,1.0
179065.9079634,308255.59375,312273.03125,329960.65625,316766.34375,310611.375,290821.0625,290980.9375,307059.15625,-0.04443359375,0.9189453125,-0.3271484375,0.3967284858226776,-11.718749046325684,-4.882812023162842,100.0,193769.0,1.0
179065.908016,308213.9375,311785.9375,330191.96875,316554.625,310631.6875,290635.375,290817.3125,306973.78125,-0.04150390625,0.91748046875,-0.32568359375,0.3051757514476776,-11.474608421325684,-4.638671398162842,100.0,193770.0,1.0
179065.914178,308012.34375,310336.375,328857.3125,315992.09375,309520.34375,290312.96875,290456.09375,306891.78125,-0.042236328125,0.91455078125,-0.324951171875,0.1220703050494194,-11.383055686950684,-4.547118663787842,100.0,193771.0,1.0
179065.9142251,307849.25,309776.78125,327604.4375,315733.4375,308683.96875,290237.0625,290340.15625,306892.40625,-0.043212890625,0.91455078125,-0.3232421875,0.03051757626235485,-11.108397483825684,-4.394530773162842,100.0,193772.0,1.0
179065.9254598,307986.03125,310934.59375,328194.6875,316194.125,309303.09375,290544.875,290651.625,306996.21875,-0.04345703125,0.9150390625,-0.32080078125,0.0610351525247097,-10.864256858825684,-4.272460460662842,100.0,193773.0,1.0
179065.9255097,308240.75,312261.84375,329958.6875,316761.59375,310612.28125,290817.65625,290980.46875,307066.59375,-0.04345703125,0.916259765625,-0.325439453125,-0.0610351525247097,-10.650633811950684,-4.180907726287842,100.0,193774.0,1.0
179065.9279185,308204.46875,311793.96875,330205.375,316559.71875,310645.625,290639.375,290825.8125,306989.34375,-0.043701171875,0.91748046875,-0.3251953125,-0.1525878757238388,-10.437010765075684,-4.150390148162842,100.0,193775.0,1.0
179065.9279751,308004.90625,310349.875,328880.375,315998.34375,309537.0625,290321.28125,290466.84375,306905.5625,-0.043212890625,0.91552734375,-0.326416015625,-0.3662109076976776,-10.223387718200684,-4.150390148162842,100.0,193776.0,1.0
179065.9361214,307847.28125,309781.78125,327625.1875,315736.5625,308696.75,290244.125,290348.0,306903.15625,-0.046142578125,0.9169921875,-0.32275390625,-0.5798339247703552,-10.040282249450684,-4.150390148162842,100.0,193777.0,1.0
179065.9504581,307988.53125,310930.21875,328203.65625,316195.5625,309310.15625,290550.59375,290660.65625,307012.5,-0.047119140625,0.916259765625,-0.324462890625,-0.6103515028953552,-9.826659202575684,-3.906249761581421,100.0,193778.0,1.0
179065.9505072,308239.25,312259.34375,329964.78125,316760.25,310619.0,290821.34375,290983.78125,307070.875,-0.046875,0.914794921875,-0.324951171875,-0.6713866591453552,-9.613036155700684,-3.845214605331421,100.0,193779.0,1.0
179065.9573472,308208.03125,311813.46875,330235.3125,316565.28125,310668.78125,290640.90625,290828.9375,306988.875,-0.04541015625,0.916259765625,-0.32421875,-0.7934569716453552,-9.429930686950684,-3.814697027206421,100.0,193780.0,1.0
179065.9573957,308012.96875,310367.84375,328916.9375,316003.25,309558.8125,290315.90625,290462.0,306896.53125,-0.043212890625,0.914306640625,-0.32666015625,-0.8239745497703552,-9.033202171325684,-3.692626714706421,100.0,193781.0,1.0
179065.9574076,307852.65625,309779.53125,327642.71875,315734.15625,308701.21875,290235.4375,290335.125,306883.46875,-0.043701171875,0.914794921875,-0.327392578125,-0.7324218153953552,-8.728026390075684,-3.631591558456421,100.0,193782.0,1.0
179065.9598274,307988.71875,310912.15625,328188.34375,316187.0625,309289.96875,290537.71875,290642.53125,306991.65625,-0.043701171875,0.915283203125,-0.3232421875,-0.8850097060203552,-8.453368186950684,-3.692626714706421,100.0,193783.0,1.0
179065.9622762,308242.90625,312254.875,329950.9375,316757.84375,310599.9375,290813.5625,290972.25,307060.15625,-0.04296875,0.91552734375,-0.32421875,-0.9765624403953552,-8.209227561950684,-3.570556402206421,100.0,193784.0,1.0
179065.9673896,308212.25,311822.84375,330241.59375,316569.75,310664.5,290637.34375,290824.46875,306982.0,-0.045654296875,0.915283203125,-0.32470703125,-1.0681151151657104,-7.781981945037842,-3.479003667831421,100.0,193785.0,1.0
179065.9698734,308021.90625,310386.09375,328941.4375,316009.78125,309567.46875,290313.78125,290459.6875,306890.4375,-0.045654296875,0.91650390625,-0.32763671875,-1.0070799589157104,-7.476806163787842,-3.509521245956421,100.0,193786.0,1.0
179065.9723173,307859.4375,309786.6875,327665.3125,315737.0,308707.1875,290230.34375,290334.34375,306888.46875,-0.048583984375,0.9169921875,-0.326171875,-1.0070799589157104,-7.110595226287842,-3.417968511581421,100.0,193787.0,1.0
179065.9785788,307990.4375,310902.78125,328193.8125,316185.5625,309290.5,290533.8125,290643.40625,307004.1875,-0.049072265625,0.915283203125,-0.325439453125,-1.0375975370407104,-6.958007335662842,-3.234863042831421,100.0,193788.0,1.0
179065.9854623,308243.625,312253.0,329956.8125,316760.8125,310605.3125,290812.46875,290973.875,307062.125,-0.048583984375,0.915283203125,-0.325927734375,-1.1291502714157104,-6.683349132537842,-3.173827886581421,100.0,193789.0,1.0
179065.9855109,308221.375,311850.9375,330275.46875,316583.40625,310692.40625,290649.03125,290837.5,306989.4375,-0.048095703125,0.917724609375,-0.326904296875,-1.2207030057907104,-6.530761241912842,-3.173827886581421,100.0,193790.0,1.0
179065.9991697,308028.40625,310413.25,328984.25,316019.34375,309600.09375,290330.03125,290474.96875,306905.125,-0.050537109375,0.915283203125,-0.326416015625,-1.3427733182907104,-6.072997570037842,-2.990722417831421,100.0,193791.0,1.0
179065.9992183,307862.84375,309794.21875,327694.125,315737.09375,308725.96875,290243.9375,290347.21875,306902.53125,-0.050048828125,0.9130859375,-0.325439453125,-1.2512205839157104,-5.828856945037842,-2.929687261581421,100.0,193792.0,1.0
179066.0017078,307981.40625,310885.34375,328185.9375,316168.9375,309278.96875,290537.65625,290640.09375,306989.875,-0.052734375,0.9140625,-0.32470703125,-1.1901854276657104,-5.462646007537842,-3.051757574081421,100.0,193793.0,1.0
179066.0017566,308235.84375,312243.25,329944.84375,316750.59375,310595.125,290822.6875,290976.1875,307062.90625,-0.054443359375,0.912109375,-0.3271484375,-1.0986326932907104,-5.218505382537842,-2.838134527206421,100.0,193794.0,1.0
179066.0073213,308217.6875,311859.15625,330282.0,316580.1875,310695.15625,290660.65625,290842.0625,306990.75,-0.0546875,0.9111328125,-0.325927734375,-1.0986326932907104,-4.913329601287842,-2.868652105331421,100.0,193795.0,1.0
179066.0142174,308033.0625,310431.0625,329010.1875,316023.65625,309615.125,290336.9375,290479.53125,306900.375,-0.05322265625,0.91259765625,-0.324951171875,-1.0681151151657104,-4.730224132537842,-2.838134527206421,100.0,193796.0,1.0
179066.0142663,307864.625,309796.71875,327717.34375,315738.34375,308737.34375,290242.4375,290344.34375,306894.125,-0.0556640625,0.91259765625,-0.326416015625,-0.8544921278953552,-4.516601085662842,-2.685546636581421,100.0,193797.0,1.0
179066.0236161,307979.25,310868.78125,328180.65625,316169.03125,309269.5625,290534.59375,290643.40625,307003.5625,-0.056884765625,0.91162109375,-0.326171875,-0.8544921278953552,-4.272460460662842,-2.593993902206421,100.0,193798.0,1.0
179066.0285172,308238.25,312241.28125,329944.21875,316756.0625,310589.84375,290817.40625,290978.0625,307073.5625,-0.05810546875,0.9130859375,-0.325927734375,-0.7324218153953552,-4.150390148162842,-2.593993902206421,100.0,193799.0,1.0
179066.0285652,308221.09375,311870.40625,330306.40625,316592.90625,310708.84375,290653.875,290843.5,306996.125,-0.062255859375,0.912353515625,-0.323974609375,-0.6713866591453552,-3.936767339706421,-2.624511480331421,100.0,193800.0,1.0
179066.0285771,308036.5625,310437.40625,329043.0,316036.96875,309631.125,290329.6875,290482.3125,306909.3125,-0.06298828125,0.915771484375,-0.326416015625,-0.5493163466453552,-3.692626714706421,-2.563476324081421,100.0,193801.0,1.0
179066.0311134,307871.34375,309792.34375,327740.25,315745.3125,308740.90625,290232.40625,290338.96875,306896.4375,-0.064697265625,0.911865234375,-0.327392578125,-0.5187987685203552,-3.417968511581421,-2.441406011581421,100.0,193802.0,1.0
179066.0423005,307980.21875,310848.6875,328180.03125,316159.53125,309257.5,290519.84375,290626.15625,306990.84375,-0.066650390625,0.91064453125,-0.328125,-0.3967284858226776,-3.295898199081421,-2.349853277206421,100.0,193803.0,1.0
179066.0466632,308232.625,312220.1875,329928.75,316746.6875,310573.03125,290810.15625,290967.6875,307066.21875,-0.06689453125,0.908447265625,-0.325439453125,-0.2746581733226776,-3.143310308456421,-2.380370855331421,100.0,193804.0,1.0
179066.0467113,308220.375,311873.5625,330304.15625,316592.0,310706.6875,290656.1875,290840.09375,306987.625,-0.067626953125,0.907958984375,-0.324951171875,-0.1220703050494194,-2.990722417831421,-2.227782964706421,100.0,193805.0,1.0
179066.0529868,308037.71875,310457.53125,329053.8125,316037.3125,309641.9375,290332.1875,290476.03125,306893.65625,-0.0673828125,0.90771484375,-0.32373046875,-0.0610351525247097,-2.929687261581421,-2.227782964706421,100.0,193806.0,1.0
179066.0530356,307865.78125,309797.6875,327744.28125,315740.75,308744.75,290231.25,290333.78125,306884.8125,-0.0693359375,0.907470703125,-0.32421875,0.1525878757238388,-2.899169683456421,-2.136230230331421,100.0,193807.0,1.0
179066.0667104,307974.34375,310839.46875,328160.375,316152.375,309248.03125,290517.96875,290623.21875,306990.59375,-0.06787109375,0.910400390625,-0.325439453125,0.2746581733226776,-2.716064214706421,-2.136230230331421,100.0,193808.0,1.0
179066.0667621,308229.125,312220.90625,329912.03125,316742.28125,310566.96875,290806.21875,290966.625,307066.5,-0.067626953125,0.91064453125,-0.32666015625,0.4272460639476776,-2.777099370956421,-2.044677495956421,100.0,193809.0,1.0
179066.0692345,308217.0625,311893.21875,330311.5,316593.0625,310716.4375,290651.71875,290842.6875,306990.6875,-0.070556640625,0.90869140625,-0.323486328125,0.4272460639476776,-2.716064214706421,-1.9836424589157104,100.0,193810.0,1.0
179066.0692821,308030.3125,310470.75,329074.125,316033.5625,309657.6875,290327.8125,290479.09375,306894.125,-0.070068359375,0.908935546875,-0.324462890625,0.4272460639476776,-2.655029058456421,-1.8615721464157104,100.0,193811.0,1.0
179066.071139,307857.125,309793.3125,327754.46875,315725.1875,308749.5,290221.21875,290328.625,306876.40625,-0.073974609375,0.908203125,-0.322265625,0.5798339247703552,-2.655029058456421,-1.8615721464157104,100.0,193812.0,1.0
179066.0748655,307964.6875,310820.5,328149.09375,316132.625,309236.5625,290508.40625,290617.9375,306986.28125,-0.072998046875,0.908447265625,-0.321533203125,0.6713866591453552,-2.532958745956421,-1.7700194120407104,100.0,193813.0,1.0
179066.083616,308219.65625,312202.65625,329890.03125,316727.90625,310553.90625,290803.625,290965.71875,307066.3125,-0.07470703125,0.90869140625,-0.3251953125,0.7934569716453552,-2.563476324081421,-1.8005369901657104,100.0,193814.0,1.0
179066.0860996,308220.375,311897.0625,330316.15625,316596.90625,310726.1875,290660.3125,290853.875,307003.1875,-0.07421875,0.910400390625,-0.3251953125,0.8850097060203552,-2.532958745956421,-1.7700194120407104,100.0,193815.0,1.0
179066.0904583,308048.28125,310490.0625,329104.78125,316046.96875,309682.625,290335.75,290492.5,306909.5,-0.074462890625,0.909912109375,-0.324462890625,0.9765624403953552,-2.380370855331421,-1.5563963651657104,100.0,193816.0,1.0
179066.0905069,307873.9375,309798.6875,327780.84375,315736.5625,308765.03125,290225.71875,290336.03125,306887.3125,-0.07421875,0.9111328125,-0.324951171875,1.0070799589157104,-2.380370855331421,-1.3732908964157104,100.0,193817.0,1.0
179066.1042101,307972.71875,310807.375,328150.96875,316133.6875,309234.4375,290504.125,290616.40625,306993.90625,-0.074462890625,0.911376953125,-0.3271484375,1.1596678495407104,-2.380370855331421,-1.1901854276657104,100.0,193818.0,1.0
179066.1042674,308221.1875,312192.28125,329885.21875,316724.9375,310544.0625,290796.03125,290956.78125,307059.25,-0.0771484375,0.911376953125,-0.325927734375,1.1901854276657104,-2.410888433456421,-1.1291502714157104,100.0,193819.0,1.0
179066.1061129,308217.6875,311897.78125,330321.53125,316592.53125,310720.375,290652.625,290842.78125,306984.78125,-0.076171875,0.912109375,-0.324462890625,1.3427733182907104,-2.288818120956421,-1.0070799589157104,100.0,193820.0,1.0
179066.1085767,308039.0625,310481.5625,329104.59375,316035.71875,309669.5,290327.8125,290480.0625,306890.625,-0.0751953125,0.912353515625,-0.327392578125,1.3122557401657104,-2.258300542831421,-0.8544921278953552,100.0,193821.0,1.0
179066.1123772,307858.28125,309772.5625,327767.59375,315713.40625,308740.71875,290212.5625,290319.75,306864.625,-0.075439453125,0.9130859375,-0.327392578125,1.3427733182907104,-2.319335699081421,-0.7629393935203552,100.0,193822.0,1.0
179066.1279646,307945.90625,310760.6875,328112.71875,316097.125,309194.75,290487.40625,290597.90625,306963.0625,-0.07470703125,0.913818359375,-0.32861328125,1.2817381620407104,-2.319335699081421,-0.7324218153953552,100.0,193823.0,1.0
179066.1280126,308197.40625,312158.5625,329852.125,316699.03125,310514.75,290787.8125,290951.40625,307049.3125,-0.07666015625,0.91259765625,-0.3291015625,1.2817381620407104,-2.227782964706421,-0.6713866591453552,100.0,193824.0,1.0
179066.1298637,308201.59375,311893.125,330312.03125,316578.15625,310711.53125,290649.5,290839.5625,306970.90625,-0.074951171875,0.91357421875,-0.32568359375,1.2512205839157104,-2.136230230331421,-0.5493163466453552,100.0,193825.0,1.0
179066.1323877,308025.28125,310485.15625,329110.21875,316024.71875,309668.0625,290320.90625,290475.6875,306870.96875,-0.073974609375,0.913818359375,-0.326171875,1.3122557401657104,-2.227782964706421,-0.3967284858226776,100.0,193826.0,1.0
179066.1473499,307853.09375,309771.0625,327776.375,315707.40625,308741.09375,290205.40625,290317.25,306860.3125,-0.072021484375,0.914306640625,-0.328125,1.2817381620407104,-2.197265386581421,-0.3051757514476776,100.0,193827.0,1.0
179066.1473986,307946.78125,310748.28125,328095.8125,316092.84375,309178.8125,290481.125,290593.875,306969.84375,-0.072021484375,0.912841796875,-0.32568359375,1.3427733182907104,-2.197265386581421,-0.2746581733226776,100.0,193828.0,1.0
179066.1474109,308207.875,312162.0625,329834.25,316702.59375,310502.21875,290791.75,290953.9375,307059.25,-0.07177734375,0.9140625,-0.3271484375,1.1901854276657104,-2.166747808456421,-0.2136230319738388,100.0,193829.0,1.0
179066.1504231,308223.875,311922.0,330331.4375,316598.53125,310732.53125,290668.28125,290859.96875,306999.15625,-0.0703125,0.915283203125,-0.32958984375,1.1596678495407104,-2.136230230331421,-0.1831054538488388,100.0,193830.0,1.0
179066.1504698,308057.375,310528.34375,329156.71875,316057.09375,309714.625,290347.03125,290502.5,306912.0,-0.072021484375,0.914306640625,-0.328125,1.2207030057907104,-2.014159917831421,-0.0610351525247097,100.0,193831.0,1.0
179066.1523666,307878.65625,309797.59375,327811.875,315733.0625,308774.4375,290226.40625,290338.34375,306899.65625,-0.07080078125,0.915283203125,-0.32958984375,1.2512205839157104,-1.9531248807907104,0.03051757626235485,100.0,193832.0,1.0
179066.1548907,307961.53125,310751.03125,328104.03125,316102.84375,309187.75,290492.75,290605.40625,306993.96875,-0.072509765625,0.911376953125,-0.329345703125,1.1901854276657104,-1.9531248807907104,0.0915527269244194,100.0,193833.0,1.0
179066.1585714,308217.96875,312168.15625,329844.53125,316712.875,310516.625,290798.96875,290960.8125,307066.40625,-0.07177734375,0.911376953125,-0.32763671875,1.1901854276657104,-1.9836424589157104,0.1831054538488388,100.0,193834.0,1.0
179066.1673226,308222.34375,311932.75,330344.125,316607.5625,310746.65625,290669.15625,290861.375,306996.125,-0.0712890625,0.9111328125,-0.3291015625,1.2512205839157104,-1.7395018339157104,0.2441406100988388,100.0,193835.0,1.0
179066.1704608,308051.3125,310532.34375,329169.5,316061.625,309721.6875,290346.59375,290499.90625,306902.78125,-0.072509765625,0.911376953125,-0.3271484375,1.3122557401657104,-1.7089842557907104,0.2136230319738388,100.0,193836.0,1.0
179066.1705137,307875.4375,309789.65625,327819.46875,315733.96875,308776.5,290223.90625,290329.78125,306880.34375,-0.072509765625,0.911865234375,-0.327392578125,1.3427733182907104,-1.6479490995407104,0.2441406100988388,100.0,193837.0,1.0
179066.181087,307953.40625,310731.28125,328090.8125,316096.34375,309176.5,290485.875,290592.1875,306975.21875,-0.0732421875,0.90966796875,-0.328369140625,1.3427733182907104,-1.5563963651657104,0.3662109076976776,100.0,193838.0,1.0
179066.1842205,308208.5625,312151.59375,329819.5,316704.28125,310494.0,290792.90625,290950.15625,307057.28125,-0.07373046875,0.908447265625,-0.330078125,1.4343260526657104,-1.4343260526657104,0.3051757514476776,100.0,193839.0,1.0
179066.1842687,308220.1875,311938.0,330343.6875,316607.75,310742.8125,290668.53125,290855.75,306986.28125,-0.07470703125,0.908203125,-0.330810546875,1.4953612089157104,-1.3732908964157104,0.0610351525247097,100.0,193840.0,1.0
179066.1923888,308052.03125,310542.46875,329184.875,316065.21875,309730.46875,290345.34375,290495.1875,306891.25,-0.0751953125,0.90771484375,-0.328369140625,1.5869139432907104,-1.3427733182907104,0.1220703050494194,100.0,193841.0,1.0
179066.1966742,307872.125,309784.71875,327829.65625,315729.9375,308777.84375,290222.3125,290324.21875,306869.34375,-0.074462890625,0.907958984375,-0.329345703125,1.4343260526657104,-1.3732908964157104,-0.03051757626235485,100.0,193842.0,1.0
179066.1967298,307946.34375,310704.09375,328078.03125,316083.46875,309161.125,290483.375,290585.75,306967.34375,-0.075439453125,0.9072265625,-0.32861328125,1.4648436307907104,-1.4648436307907104,-0.1831054538488388,100.0,193843.0,1.0
179066.2011034,308201.96875,312129.15625,329804.5625,316695.71875,310484.4375,290789.78125,290942.9375,307048.96875,-0.07763671875,0.905517578125,-0.33056640625,1.5563963651657104,-1.4648436307907104,-0.1525878757238388,100.0,193844.0,1.0
179066.2036155,308218.84375,311939.09375,330345.9375,316608.09375,310749.4375,290669.0625,290852.1875,306978.6875,-0.077880859375,0.906494140625,-0.33251953125,1.5869139432907104,-1.5563963651657104,-0.2746581733226776,100.0,193845.0,1.0
179066.2098263,308046.9375,310542.8125,329188.375,316062.25,309737.4375,290342.03125,290490.96875,306883.21875,-0.0771484375,0.908203125,-0.330078125,1.6174315214157104,-1.5258787870407104,-0.4272460639476776,100.0,193846.0,1.0
179066.2166776,307868.125,309774.28125,327834.21875,315724.9375,308785.4375,290216.21875,290320.46875,306865.40625,-0.0751953125,0.907958984375,-0.330810546875,1.6479490995407104,-1.4343260526657104,-0.5187987685203552,100.0,193847.0,1.0
179066.2167288,307941.25,310685.5,328066.5,316076.21875,309158.15625,290475.875,290579.65625,306969.03125,-0.074462890625,0.9091796875,-0.330322265625,1.6784666776657104,-1.4038084745407104,-0.5798339247703552,100.0,193848.0,1.0
179066.218609,308200.1875,312122.90625,329791.15625,316690.53125,310480.75,290789.9375,290941.9375,307053.71875,-0.07763671875,0.908203125,-0.328125,1.7089842557907104,-1.5258787870407104,-0.6408690810203552,100.0,193849.0,1.0
179066.2348527,308218.5,311952.125,330354.96875,316611.21875,310760.25,290674.96875,290858.625,306991.3125,-0.076416015625,0.906005859375,-0.328369140625,1.7395018339157104,-1.4343260526657104,-0.7324218153953552,100.0,193850.0,1.0
179066.2379609,308051.125,310564.4375,329216.28125,316067.09375,309759.25,290350.4375,290496.59375,306896.625,-0.075439453125,0.909423828125,-0.330810546875,1.7395018339157104,-1.4953612089157104,-0.8850097060203552,100.0,193851.0,1.0
179066.2380114,307865.875,309776.6875,327845.375,315721.34375,308788.46875,290219.34375,290319.59375,306875.15625,-0.072509765625,0.908447265625,-0.33251953125,1.7089842557907104,-1.4038084745407104,-0.9460448622703552,100.0,193852.0,1.0
179066.2398641,307932.9375,310670.5625,328047.4375,316061.0,309140.5625,290475.59375,290573.6875,306972.625,-0.072021484375,0.91064453125,-0.33203125,1.6479490995407104,-1.3732908964157104,-0.8850097060203552,100.0,193853.0,1.0
179066.2423868,308188.625,312112.25,329768.25,316678.625,310461.09375,290789.875,290936.65625,307055.6875,-0.07568359375,0.910400390625,-0.33203125,1.6174315214157104,-1.3122557401657104,-0.7934569716453552,100.0,193854.0,1.0
179066.2448885,308208.9375,311955.0,330344.75,316603.90625,310751.03125,290680.6875,290855.75,306985.65625,-0.077392578125,0.908935546875,-0.332275390625,1.5563963651657104,-1.2512205839157104,-0.7629393935203552,100.0,193855.0,1.0
179066.2566812,308042.46875,310568.65625,329214.3125,316057.4375,309756.84375,290358.65625,290494.46875,306879.90625,-0.078125,0.909423828125,-0.33154296875,1.5258787870407104,-1.3122557401657104,-0.8239745497703552,100.0,193856.0,1.0
179066.25673,307857.125,309769.96875,327842.96875,315708.03125,308785.59375,290222.21875,290312.96875,306855.5,-0.080078125,0.908935546875,-0.328857421875,1.4953612089157104,-1.2512205839157104,-0.8239745497703552,100.0,193857.0,1.0
179066.25861,307918.4375,310642.15625,328017.5,316039.71875,309115.0625,290469.96875,290555.34375,306943.1875,-0.07958984375,0.91064453125,-0.33251953125,1.3732908964157104,-1.3427733182907104,-0.7934569716453552,100.0,193858.0,1.0
179066.2611638,308180.25,312090.1875,329733.5625,316662.28125,310436.0625,290786.1875,290919.5,307024.125,-0.080322265625,0.912109375,-0.331787109375,1.3427733182907104,-1.4038084745407104,-0.7629393935203552,100.0,193859.0,1.0
179066.2867365,308210.8125,311961.4375,330344.59375,316602.1875,310754.0,290679.8125,290848.875,306962.59375,-0.081787109375,0.9111328125,-0.33154296875,1.2817381620407104,-1.4648436307907104,-0.7934569716453552,100.0,193860.0,1.0
179066.2867839,308047.1875,310578.125,329230.03125,316067.09375,309771.15625,290356.5,290492.75,306873.65625,-0.0810546875,0.91064453125,-0.332763671875,1.2207030057907104,-1.4648436307907104,-0.7934569716453552,100.0,193861.0,1.0
179066.2885615,307871.6875,309770.4375,327856.5625,315724.125,308797.40625,290222.5,290312.15625,306856.46875,-0.080810546875,0.91162109375,-0.3349609375,1.1901854276657104,-1.6479490995407104,-0.6408690810203552,100.0,193862.0,1.0
179066.2923455,307935.78125,310633.21875,328016.59375,316051.90625,309116.9375,290469.34375,290557.125,306947.9375,-0.0810546875,0.912841796875,-0.332763671875,1.0375975370407104,-1.6479490995407104,-0.7324218153953552,100.0,193863.0,1.0
179066.2923969,308200.09375,312092.59375,329732.3125,316678.90625,310440.53125,290789.9375,290929.59375,307040.84375,-0.07861328125,0.912841796875,-0.330810546875,0.9155272841453552,-1.7089842557907104,-0.7019042372703552,100.0,193864.0,1.0
179066.2924124,308230.3125,311980.3125,330362.1875,316627.84375,310770.96875,290685.6875,290864.15625,306987.46875,-0.078857421875,0.910888671875,-0.332763671875,0.8850097060203552,-1.7700194120407104,-0.7019042372703552,100.0,193865.0,1.0
179066.2979854,308063.90625,310602.625,329260.875,316091.3125,309794.03125,290357.9375,290504.90625,306893.3125,-0.07763671875,0.91064453125,-0.33251953125,0.8544921278953552,-1.8615721464157104,-0.6408690810203552,100.0,193866.0,1.0
179066.2980318,307879.125,309780.09375,327879.09375,315731.625,308811.09375,290212.90625,290316.0,306867.90625,-0.07958984375,0.90966796875,-0.330322265625,0.6713866591453552,-1.8310545682907104,-0.5187987685203552,100.0,193867.0,1.0
179066.3067104,307934.625,310620.96875,328016.59375,316049.125,309115.4375,290457.0,290558.375,306968.0625,-0.0791015625,0.9130859375,-0.329833984375,0.7324218153953552,-1.7700194120407104,-0.3662109076976776,100.0,193868.0,1.0
179066.3067588,308194.09375,312084.8125,329731.25,316679.53125,310438.03125,290787.0,290930.6875,307061.125,-0.0810546875,0.914306640625,-0.327392578125,0.6713866591453552,-1.9226073026657104,-0.4272460639476776,100.0,193869.0,1.0
179066.3123929,308225.90625,311988.96875,330374.28125,316632.3125,310780.71875,290695.90625,290870.96875,307005.78125,-0.08349609375,0.915771484375,-0.328125,0.4272460639476776,-1.9226073026657104,-0.3051757514476776,100.0,193870.0,1.0
179066.3167356,308066.59375,310616.03125,329281.71875,316094.1875,309808.4375,290374.03125,290513.3125,306904.125,-0.08447265625,0.91796875,-0.330322265625,0.3662109076976776,-2.044677495956421,-0.3356933295726776,100.0,193871.0,1.0
179066.3167967,307882.96875,309781.5,327896.1875,315730.9375,308818.15625,290231.96875,290321.8125,306871.21875,-0.086669921875,0.9169921875,-0.326904296875,0.1831054538488388,-2.105712652206421,-0.3051757514476776,100.0,193872.0,1.0
179066.3192084,307935.34375,310609.96875,328012.125,316043.125,309106.03125,290475.78125,290560.8125,306967.4375,-0.08837890625,0.91796875,-0.328369140625,-0.0610351525247097,-2.319335699081421,-0.3051757514476776,100.0,193873.0,1.0
179066.3192566,308194.71875,312075.4375,329719.90625,316676.9375,310423.09375,290804.53125,290938.28125,307062.03125,-0.08642578125,0.919921875,-0.326416015625,-0.2746581733226776,-2.502441167831421,-0.2746581733226776,100.0,193874.0,1.0
179066.3398368,308231.28125,311999.4375,330384.09375,316640.625,310779.65625,290713.6875,290879.90625,307002.9375,-0.088134765625,0.91748046875,-0.328125,-0.4272460639476776,-2.655029058456421,-0.3662109076976776,100.0,193875.0,1.0
179066.3478324,308071.25,310635.0,329301.90625,316107.15625,309817.0,290390.84375,290524.84375,306906.1875,-0.08544921875,0.91943359375,-0.329833984375,-0.5493163466453552,-2.838134527206421,-0.4272460639476776,100.0,193876.0,1.0
179066.3478809,307885.71875,309787.25,327907.4375,315741.375,308818.15625,290244.375,290331.125,306880.15625,-0.084716796875,0.917724609375,-0.326904296875,-0.7629393935203552,-2.929687261581421,-0.4577636420726776,100.0,193877.0,1.0
179066.3478931,307934.625,310598.15625,328000.34375,316040.8125,309089.0625,290477.5625,290560.96875,306964.84375,-0.0859375,0.917724609375,-0.3251953125,-0.8850097060203552,-3.051757574081421,-0.4272460639476776,100.0,193878.0,1.0
179066.3479061,308192.46875,312069.96875,329698.4375,316670.0625,310404.84375,290799.15625,290933.0,307050.3125,-0.08642578125,0.921142578125,-0.326171875,-1.0986326932907104,-3.143310308456421,-0.4272460639476776,100.0,193879.0,1.0
179066.3523141,308230.3125,312014.90625,330379.0,316638.65625,310777.875,290710.5625,290881.40625,306994.78125,-0.0830078125,0.92236328125,-0.325439453125,-1.3122557401657104,-3.265380620956421,-0.4882812201976776,100.0,193880.0,1.0
179066.3548916,308073.84375,310657.15625,329312.125,316105.90625,309825.5,290387.8125,290530.84375,306905.65625,-0.081298828125,0.921875,-0.32861328125,-1.5563963651657104,-3.265380620956421,-0.3662109076976776,100.0,193881.0,1.0
179066.3573884,307893.78125,309802.625,327919.40625,315737.71875,308827.8125,290237.3125,290331.84375,306871.21875,-0.08056640625,0.919677734375,-0.327392578125,-1.7700194120407104,-3.295898199081421,-0.3051757514476776,100.0,193882.0,1.0
179066.3598434,307940.09375,310595.28125,327988.34375,316035.0,309084.9375,290469.96875,290559.90625,306964.03125,-0.07861328125,0.91748046875,-0.330810546875,-1.9836424589157104,-3.295898199081421,-0.2136230319738388,100.0,193883.0,1.0
179066.3623899,308199.1875,312069.15625,329679.40625,316670.3125,310403.25,290796.5625,290934.0625,307053.625,-0.078369140625,0.91357421875,-0.32763671875,-2.014159917831421,-3.356933355331421,-0.1525878757238388,100.0,193884.0,1.0
179066.3648887,308237.375,312031.53125,330383.21875,316648.0625,310794.9375,290710.90625,290882.40625,306989.0625,-0.07568359375,0.912841796875,-0.328857421875,-2.014159917831421,-3.295898199081421,-0.2136230319738388,100.0,193885.0,1.0
179066.3686188,308080.71875,310676.75,329328.75,316119.21875,309850.09375,290387.53125,290525.65625,306893.3125,-0.078369140625,0.911376953125,-0.32666015625,-2.014159917831421,-3.234863042831421,-0.1220703050494194,100.0,193886.0,1.0
179066.377394,307898.0625,309807.25,327930.3125,315748.71875,308842.28125,290238.40625,290329.78125,306873.28125,-0.076171875,0.910400390625,-0.32861328125,-1.9836424589157104,-2.990722417831421,-0.03051757626235485,100.0,193887.0,1.0
179066.3829175,307941.78125,310587.15625,327986.46875,316043.03125,309087.90625,290471.9375,290560.53125,306972.96875,-0.076416015625,0.908447265625,-0.326416015625,-2.014159917831421,-2.990722417831421,0.0610351525247097,100.0,193888.0,1.0
179066.3829651,308196.25,312066.5625,329675.0,316674.25,310402.09375,290802.8125,290936.3125,307062.375,-0.076171875,0.90673828125,-0.323486328125,-2.136230230331421,-2.990722417831421,0.1220703050494194,100.0,193889.0,1.0
179066.384838,308240.9375,312049.0625,330395.09375,316657.71875,310805.75,290724.78125,290892.5,307008.75,-0.07373046875,0.904541015625,-0.324462890625,-2.105712652206421,-2.960204839706421,0.1831054538488388,100.0,193890.0,1.0
179066.3898709,308092.78125,310700.78125,329358.59375,316131.8125,309872.0,290400.21875,290538.1875,306911.1875,-0.07421875,0.9052734375,-0.326904296875,-2.044677495956421,-2.838134527206421,0.3356933295726776,100.0,193891.0,1.0
179066.393601,307907.8125,309812.90625,327952.0625,315750.875,308850.53125,290240.0,290334.34375,306878.90625,-0.074951171875,0.904052734375,-0.328369140625,-1.8615721464157104,-2.655029058456421,0.3662109076976776,100.0,193892.0,1.0
179066.4104618,307947.78125,310577.40625,327983.6875,316032.9375,309078.0625,290468.0,290555.96875,306967.875,-0.078125,0.904052734375,-0.3291015625,-1.7395018339157104,-2.471923589706421,0.3662109076976776,100.0,193893.0,1.0
179066.4105151,308208.125,312066.21875,329668.5,316671.75,310393.9375,290802.75,290939.0,307066.21875,-0.078857421875,0.904296875,-0.324462890625,-1.8310545682907104,-2.349853277206421,0.3662109076976776,100.0,193894.0,1.0
179066.4123919,308258.375,312072.46875,330410.5625,316664.78125,310816.40625,290725.75,290896.625,307005.59375,-0.077392578125,0.906005859375,-0.32421875,-1.7700194120407104,-2.319335699081421,0.3356933295726776,100.0,193895.0,1.0
179066.4148903,308106.75,310729.40625,329380.5,316134.875,309882.53125,290397.90625,290534.78125,306897.15625,-0.07666015625,0.906494140625,-0.32275390625,-1.7089842557907104,-2.288818120956421,0.3356933295726776,100.0,193896.0,1.0
179066.417308,307926.6875,309840.6875,327978.6875,315755.0625,308859.90625,290239.46875,290329.875,306868.71875,-0.07666015625,0.906005859375,-0.323974609375,-1.7089842557907104,-2.166747808456421,0.4272460639476776,100.0,193897.0,1.0
179066.4198053,307959.3125,310584.75,327988.53125,316027.84375,309066.71875,290463.25,290544.875,306954.90625,-0.078857421875,0.908203125,-0.326171875,-1.5869139432907104,-2.044677495956421,0.3356933295726776,100.0,193898.0,1.0
179066.4223432,308215.375,312073.0,329666.34375,316664.59375,310374.90625,290799.0625,290926.125,307048.0,-0.078857421875,0.908447265625,-0.3251953125,-1.5563963651657104,-1.9531248807907104,0.3356933295726776,100.0,193899.0,1.0
179066.4248517,308265.53125,312096.71875,330430.40625,316666.75,310811.21875,290728.0,290894.90625,306998.4375,-0.078125,0.908203125,-0.325927734375,-1.5258787870407104,-1.8005369901657104,0.3356933295726776,100.0,193900.0,1.0
179066.4373924,308114.53125,310757.5625,329419.3125,316141.375,309890.21875,290399.96875,290538.8125,306899.21875,-0.079833984375,0.909912109375,-0.32373046875,-1.6784666776657104,-1.8310545682907104,0.3662109076976776,100.0,193901.0,1.0
179066.4442143,307934.0,309855.0,328021.78125,315760.59375,308869.65625,290240.90625,290330.9375,306870.59375,-0.079833984375,0.91162109375,-0.322998046875,-1.6479490995407104,-1.6784666776657104,0.3356933295726776,100.0,193902.0,1.0
179066.4442667,307967.53125,310585.625,328016.875,316030.78125,309067.0625,290463.0,290546.125,306962.59375,-0.079833984375,0.911376953125,-0.3212890625,-1.5563963651657104,-1.7700194120407104,0.2441406100988388,100.0,193903.0,1.0
179066.4598466,308226.90625,312082.03125,329695.21875,316671.3125,310379.46875,290800.6875,290930.59375,307060.9375,-0.078857421875,0.9091796875,-0.32275390625,-1.5869139432907104,-1.5869139432907104,0.2441406100988388,100.0,193904.0,1.0
179066.4648621,308277.875,312121.03125,330476.71875,316679.53125,310827.9375,290732.5625,290898.3125,307007.125,-0.07763671875,0.911865234375,-0.32275390625,-1.5258787870407104,-1.5563963651657104,0.3662109076976776,100.0,193905.0,1.0
179066.4773905,308127.125,310783.40625,329473.59375,316157.21875,309910.15625,290410.0625,290547.375,306917.90625,-0.078857421875,0.909912109375,-0.3232421875,-1.6479490995407104,-1.4953612089157104,0.4272460639476776,100.0,193906.0,1.0
179066.4804625,307946.0625,309869.9375,328073.1875,315774.5625,308884.9375,290247.875,290334.78125,306886.15625,-0.078857421875,0.909423828125,-0.326171875,-1.7089842557907104,-1.4953612089157104,0.3662109076976776,100.0,193907.0,1.0
179066.4805155,307962.0,310573.5625,328034.40625,316022.375,309055.0,290459.3125,290536.21875,306959.375,-0.0771484375,0.910400390625,-0.322509765625,-1.7089842557907104,-1.3732908964157104,0.3967284858226776,100.0,193908.0,1.0
179066.4823916,308212.59375,312068.0,329700.0625,316661.8125,310362.40625,290796.03125,290920.65625,307055.9375,-0.07861328125,0.91259765625,-0.32080078125,-1.6479490995407104,-1.2207030057907104,0.4272460639476776,100.0,193909.0,1.0
179066.4911402,308271.15625,312131.9375,330507.40625,316684.625,310834.5625,290736.40625,290899.125,307009.53125,-0.076416015625,0.912841796875,-0.324462890625,-1.5869139432907104,-1.1901854276657104,0.5493163466453552,100.0,193910.0,1.0
179066.4936089,308117.375,310798.78125,329518.5625,316162.84375,309927.34375,290411.75,290545.5,306908.0625,-0.078369140625,0.911376953125,-0.32373046875,-1.5563963651657104,-1.1291502714157104,0.6408690810203552,100.0,193911.0,1.0
179066.4998404,307934.09375,309870.28125,328105.28125,315770.09375,308887.53125,290242.6875,290326.1875,306866.65625,-0.077392578125,0.912109375,-0.3251953125,-1.5563963651657104,-1.0375975370407104,0.7019042372703552,100.0,193912.0,1.0
179066.5048932,307955.375,310565.96875,328052.09375,316020.15625,309048.5625,290453.78125,290530.3125,306951.25,-0.077392578125,0.912353515625,-0.321044921875,-1.4343260526657104,-1.0375975370407104,0.8239745497703552,100.0,193913.0,1.0
179066.5136428,308206.4375,312063.0,329706.03125,316661.75,310349.25,290793.4375,290914.3125,307050.5,-0.078125,0.913818359375,-0.32568359375,-1.5258787870407104,-0.9155272841453552,0.8850097060203552,100.0,193914.0,1.0
179066.5223989,308269.375,312140.875,330525.625,316692.59375,310834.5625,290737.90625,290897.78125,307009.375,-0.077880859375,0.913818359375,-0.323974609375,-1.4953612089157104,-0.6713866591453552,0.8850097060203552,100.0,193915.0,1.0
179066.5248909,308128.75,310821.0625,329557.1875,316176.25,309948.0,290416.3125,290548.46875,306911.90625,-0.0751953125,0.91259765625,-0.32373046875,-1.4038084745407104,-0.8239745497703552,1.0375975370407104,100.0,193916.0,1.0
179066.5273913,307945.90625,309882.71875,328140.4375,315779.125,308906.5625,290244.9375,290328.96875,306871.5,-0.075927734375,0.90966796875,-0.322998046875,-1.3122557401657104,-0.7019042372703552,1.1291502714157104,100.0,193917.0,1.0
179066.529895,307961.625,310560.59375,328059.96875,316018.625,309050.34375,290453.96875,290527.71875,306951.25,-0.076904296875,0.9091796875,-0.321533203125,-1.2512205839157104,-0.6713866591453552,1.1291502714157104,100.0,193918.0,1.0
179066.5329579,308215.46875,312065.3125,329706.5,316659.9375,310352.28125,290797.90625,290914.59375,307050.3125,-0.07666015625,0.909912109375,-0.321044921875,-1.1901854276657104,-0.5493163466453552,1.0681151151657104,100.0,193919.0,1.0
179066.5330057,308276.4375,312159.03125,330539.03125,316689.0,310847.96875,290744.0,290898.03125,306999.71875,-0.077392578125,0.912109375,-0.32373046875,-1.0681151151657104,-0.4882812201976776,1.1291502714157104,100.0,193920.0,1.0
179066.5363238,308123.625,310828.1875,329570.59375,316163.5625,309954.875,290412.21875,290538.8125,306892.875,-0.076416015625,0.912353515625,-0.322021484375,-0.9460448622703552,-0.4272460639476776,1.2817381620407104,100.0,193921.0,1.0
179066.5386509,307934.46875,309871.28125,328147.5,315759.8125,308904.96875,290234.71875,290314.125,306855.03125,-0.07568359375,0.911376953125,-0.32275390625,-0.8544921278953552,-0.3662109076976776,1.3732908964157104,100.0,193922.0,1.0
179066.5436217,307946.96875,310533.0625,328052.1875,315994.9375,309037.75,290439.125,290511.625,306937.03125,-0.0751953125,0.911376953125,-0.3232421875,-0.8239745497703552,-0.3051757514476776,1.2817381620407104,100.0,193923.0,1.0
179066.5461474,308200.8125,312041.625,329696.21875,316640.5625,310337.96875,290785.21875,290904.65625,307042.875,-0.0751953125,0.90869140625,-0.32373046875,-0.6713866591453552,-0.2136230319738388,1.4038084745407104,100.0,193924.0,1.0
179066.5486358,308267.75,312157.15625,330553.4375,316686.78125,310855.375,290738.625,290901.0,307007.125,-0.07568359375,0.9111328125,-0.323486328125,-0.6103515028953552,-0.1831054538488388,1.4343260526657104,100.0,193925.0,1.0
179066.5511413,308124.0,310839.8125,329604.46875,316174.125,309979.46875,290419.09375,290554.53125,306915.9375,-0.077392578125,0.9140625,-0.323486328125,-0.4272460639476776,-0.0915527269244194,1.3732908964157104,100.0,193926.0,1.0
179066.5536359,307935.34375,309874.0625,328184.5,315768.84375,308927.78125,290239.03125,290324.5,306867.375,-0.07763671875,0.91845703125,-0.32568359375,-0.2441406100988388,-0.03051757626235485,1.4343260526657104,100.0,193927.0,1.0
179066.556149,307942.3125,310515.90625,328067.21875,315996.28125,309042.5625,290438.65625,290514.9375,306949.28125,-0.0791015625,0.918701171875,-0.324462890625,-0.2746581733226776,-0.03051757626235485,1.4648436307907104,100.0,193928.0,1.0
179066.5592973,308195.25,312027.59375,329705.9375,316644.5625,310340.21875,290788.625,290909.5625,307058.8125,-0.07958984375,0.91845703125,-0.322265625,-0.2441406100988388,-0.0915527269244194,1.4648436307907104,100.0,193929.0,1.0
179066.5593489,308259.53125,312158.75,330569.71875,316694.09375,310859.84375,290747.40625,290907.0,307016.78125,-0.0810546875,0.915283203125,-0.324462890625,-0.3662109076976776,-0.1220703050494194,1.3427733182907104,100.0,193930.0,1.0
179066.5636433,308112.90625,310843.59375,329621.1875,316181.4375,309981.78125,290425.4375,290558.375,306917.53125,-0.079345703125,0.9140625,-0.323974609375,-0.4577636420726776,-0.1220703050494194,1.3427733182907104,100.0,193931.0,1.0
179066.5704609,307928.09375,309870.65625,328193.71875,315776.875,308924.71875,290247.875,290332.71875,306883.375,-0.073974609375,0.911376953125,-0.324462890625,-0.5798339247703552,-0.1525878757238388,1.3122557401657104,100.0,193932.0,1.0
179066.5705102,307936.5,310502.125,328057.28125,315996.71875,309028.15625,290444.9375,290519.9375,306961.875,-0.071533203125,0.906494140625,-0.3251953125,-0.5187987685203552,-0.0610351525247097,1.3732908964157104,100.0,193933.0,1.0
179066.572392,308182.65625,312013.1875,329681.71875,316639.65625,310319.375,290786.03125,290908.25,307057.0,-0.0673828125,0.905517578125,-0.322021484375,-0.2136230319738388,0.0915527269244194,1.3732908964157104,100.0,193934.0,1.0
179066.5748963,308249.875,312158.125,330563.4375,316691.0625,310856.09375,290742.21875,290905.03125,307004.4375,-0.068115234375,0.906005859375,-0.325439453125,-0.03051757626235485,0.2136230319738388,1.3732908964157104,100.0,193935.0,1.0
179066.5779886,308104.25,310844.75,329631.5625,316171.4375,309990.71875,290417.46875,290552.84375,306892.9375,-0.066650390625,0.912109375,-0.326416015625,0.3356933295726776,0.5187987685203552,1.3732908964157104,100.0,193936.0,1.0
179066.5780357,307918.0,309857.875,328197.84375,315757.125,308928.75,290235.4375,290321.1875,306852.1875,-0.0693359375,0.9169921875,-0.32666015625,0.3051757514476776,0.6408690810203552,1.4648436307907104,100.0,193937.0,1.0
179066.5961128,307924.71875,310471.65625,328036.8125,315967.9375,309011.71875,290430.09375,290507.96875,306937.03125,-0.06689453125,0.9169921875,-0.326904296875,0.2441406100988388,0.7019042372703552,1.4343260526657104,100.0,193938.0,1.0
179066.5986403,308180.40625,311993.625,329663.125,316615.96875,310305.09375,290779.59375,290900.90625,307035.375,-0.063720703125,0.912841796875,-0.32568359375,0.1831054538488388,0.7019042372703552,1.5869139432907104,100.0,193939.0,1.0
179066.6011418,308255.25,312162.78125,330568.09375,316682.46875,310860.5625,290743.71875,290907.6875,306992.46875,-0.061279296875,0.90869140625,-0.326904296875,0.0915527269244194,0.8239745497703552,1.7089842557907104,100.0,193940.0,1.0
179066.6036382,308110.125,310854.9375,329642.28125,316167.84375,310001.0,290419.8125,290561.78125,306896.71875,-0.060302734375,0.905517578125,-0.326416015625,0.3051757514476776,1.0986326932907104,1.7700194120407104,100.0,193941.0,1.0
179066.6061635,307924.71875,309856.71875,328206.3125,315751.75,308932.25,290233.3125,290326.46875,306856.125,-0.058837890625,0.904541015625,-0.32470703125,0.4882812201976776,1.3732908964157104,1.7395018339157104,100.0,193942.0,1.0
179066.6198881,307930.625,310457.0625,328039.03125,315961.9375,309010.03125,290423.21875,290504.46875,306934.15625,-0.065185546875,0.9072265625,-0.3251953125,0.7019042372703552,1.4953612089157104,1.7700194120407104,100.0,193943.0,1.0
179066.6223961,308184.875,311981.0,329657.59375,316613.90625,310300.875,290774.40625,290898.03125,307037.78125,-0.069580078125,0.907958984375,-0.32373046875,0.8239745497703552,1.7089842557907104,1.7700194120407104,100.0,193944.0,1.0
179066.6248875,308266.15625,312169.5,330577.65625,316691.6875,310868.6875,290748.09375,290913.34375,307006.9375,-0.075927734375,0.910400390625,-0.323974609375,0.8239745497703552,1.6784666776657104,1.5563963651657104,100.0,193945.0,1.0
179066.6279218,308125.59375,310874.25,329667.5,316183.78125,310022.65625,290429.71875,290570.28125,306911.46875,-0.0791015625,0.91357421875,-0.322998046875,0.9155272841453552,1.6174315214157104,1.4343260526657104,100.0,193946.0,1.0
179066.6279684,307941.53125,309874.21875,328236.1875,315768.90625,308956.1875,290244.9375,290334.6875,306869.34375,-0.0810546875,0.913330078125,-0.32666015625,0.7934569716453552,1.5258787870407104,1.4038084745407104,100.0,193947.0,1.0
179066.6298488,307940.8125,310457.875,328044.6875,315969.46875,309012.34375,290431.96875,290508.125,306945.625,-0.081787109375,0.908203125,-0.324951171875,0.8544921278953552,1.3732908964157104,1.2512205839157104,100.0,193948.0,1.0
179066.6323451,308190.96875,311980.65625,329650.25,316619.625,310294.625,290781.8125,290902.5,307053.09375,-0.0830078125,0.906982421875,-0.32470703125,0.9155272841453552,1.2207030057907104,1.0681151151657104,100.0,193949.0,1.0
179066.6498923,308275.28125,312191.375,330592.15625,316707.6875,310883.0,290757.84375,290921.90625,307020.53125,-0.08349609375,0.906494140625,-0.32177734375,0.8544921278953552,1.0681151151657104,0.9155272841453552,100.0,193950.0,1.0
179066.658615,308136.0625,310898.84375,329697.09375,316205.59375,310046.0625,290435.4375,290577.0625,306922.28125,-0.081298828125,0.90576171875,-0.323974609375,0.9460448622703552,1.0070799589157104,0.6103515028953552,100.0,193951.0,1.0
179066.6611394,307948.75,309877.96875,328253.34375,315788.3125,308968.4375,290243.21875,290334.15625,306878.375,-0.079833984375,0.909423828125,-0.325439453125,1.0375975370407104,0.8544921278953552,0.3967284858226776,100.0,193952.0,1.0
179066.6667089,307944.1875,310445.4375,328037.71875,315982.4375,309010.5625,290423.75,290503.40625,306952.59375,-0.0791015625,0.91015625,-0.326171875,1.1901854276657104,0.7629393935203552,0.3051757514476776,100.0,193953.0,1.0
179066.6667601,308194.375,311973.25,329636.03125,316632.5,310294.8125,290775.90625,290899.84375,307059.4375,-0.07861328125,0.91357421875,-0.328125,1.2207030057907104,0.4882812201976776,0.2136230319738388,100.0,193954.0,1.0
179066.6686414,308270.71875,312190.21875,330578.21875,316716.0,310881.5,290750.4375,290920.75,307026.53125,-0.075927734375,0.91552734375,-0.323974609375,1.1901854276657104,0.3967284858226776,0.1220703050494194,100.0,193955.0,1.0
179066.671134,308130.625,310906.625,329694.25,316211.21875,310051.34375,290431.25,290581.71875,306932.75,-0.07373046875,0.916015625,-0.32470703125,1.0986326932907104,0.3662109076976776,0.1831054538488388,100.0,193956.0,1.0
179066.6823946,307945.09375,309884.5,328263.8125,315789.84375,308980.78125,290237.9375,290337.0,306874.1875,-0.07275390625,0.918212890625,-0.321044921875,1.0375975370407104,0.3051757514476776,0.3051757514476776,100.0,193957.0,1.0
179066.6848447,307932.75,310430.96875,328024.75,315969.28125,309001.0,290413.71875,290501.25,306941.15625,-0.072509765625,0.91748046875,-0.32080078125,0.8850097060203552,0.2441406100988388,0.3051757514476776,100.0,193958.0,1.0
179066.687389,308180.3125,311960.71875,329611.34375,316614.71875,310272.90625,290768.75,290897.96875,307048.53125,-0.073974609375,0.916015625,-0.3212890625,0.8239745497703552,0.2136230319738388,0.3051757514476776,100.0,193959.0,1.0
179066.6898481,308262.9375,312201.3125,330580.25,316707.5,310882.375,290752.5,290922.53125,307014.53125,-0.0732421875,0.913818359375,-0.3232421875,0.7629393935203552,0.1525878757238388,0.4882812201976776,100.0,193960.0,1.0
179066.6923971,308123.375,310917.6875,329703.09375,316203.53125,310060.1875,290435.375,290580.375,306913.96875,-0.072509765625,0.914794921875,-0.323974609375,0.7019042372703552,0.1525878757238388,0.6103515028953552,100.0,193961.0,1.0
179066.6948524,307936.40625,309874.21875,328254.53125,315777.15625,308972.125,290242.4375,290334.78125,306869.53125,-0.0703125,0.9150390625,-0.32275390625,0.6713866591453552,0.0610351525247097,0.7934569716453552,100.0,193962.0,1.0
179066.7004441,307927.125,310406.75,327995.875,315950.25,308977.21875,290418.28125,290493.46875,306937.75,-0.07080078125,0.91455078125,-0.323974609375,0.6103515028953552,0.0,0.7629393935203552,100.0,193963.0,1.0
179066.7004921,308180.3125,311943.71875,329579.53125,316602.5625,310249.65625,290774.40625,290891.96875,307044.5,-0.06982421875,0.914306640625,-0.32470703125,0.4882812201976776,0.1220703050494194,0.8239745497703552,100.0,193964.0,1.0
179066.7023146,308272.0625,312211.5,330573.03125,316710.1875,310878.1875,290762.875,290926.125,307015.53125,-0.072265625,0.91552734375,-0.324462890625,0.4882812201976776,-0.03051757626235485,0.9765624403953552,100.0,193965.0,1.0
179066.7048871,308136.875,310941.75,329721.0625,316215.5,310070.125,290445.8125,290589.40625,306923.71875,-0.0751953125,0.914794921875,-0.325439453125,0.5493163466453552,-0.1831054538488388,1.0375975370407104,100.0,193966.0,1.0
179066.7199009,307947.40625,309888.1875,328271.875,315785.46875,308978.375,290249.3125,290338.53125,306875.96875,-0.072998046875,0.914306640625,-0.327880859375,0.4882812201976776,-0.2441406100988388,1.1901854276657104,100.0,193967.0,1.0
179066.7223199,307941.4375,310410.65625,328003.0,315957.65625,308976.6875,290422.40625,290494.28125,306940.875,-0.075439453125,0.91357421875,-0.323486328125,0.4272460639476776,-0.3051757514476776,1.2512205839157104,100.0,193968.0,1.0
179066.7254928,308194.0,311945.0625,329581.21875,316610.5,310245.96875,290779.40625,290895.71875,307050.65625,-0.07421875,0.912353515625,-0.326171875,0.2441406100988388,-0.3356933295726776,1.1901854276657104,100.0,193969.0,1.0
179066.7255421,308287.4375,312226.96875,330592.6875,316723.15625,310890.34375,290770.90625,290933.71875,307017.84375,-0.0771484375,0.915771484375,-0.3271484375,0.1831054538488388,-0.5187987685203552,1.0681151151657104,100.0,193970.0,1.0
179066.7273825,308153.78125,310958.90625,329747.15625,316223.65625,310086.9375,290450.21875,290589.6875,306914.5,-0.078125,0.910400390625,-0.323974609375,0.2136230319738388,-0.6408690810203552,0.9460448622703552,100.0,193971.0,1.0
179066.7298898,307966.5625,309898.90625,328293.5,315791.28125,308989.46875,290250.8125,290338.96875,306872.75,-0.077880859375,0.909912109375,-0.32373046875,0.0,-0.7629393935203552,0.9155272841453552,100.0,193972.0,1.0
179066.7323985,307950.8125,310400.375,327996.125,315954.09375,308965.59375,290419.625,290491.5,306943.90625,-0.076904296875,0.9091796875,-0.326171875,0.03051757626235485,-0.9460448622703552,1.0681151151657104,100.0,193973.0,1.0
179066.7423683,308202.75,311941.6875,329567.46875,316608.0,310233.65625,290775.90625,290890.8125,307049.59375,-0.075439453125,0.90771484375,-0.328369140625,0.0915527269244194,-0.9765624403953552,0.8850097060203552,100.0,193974.0,1.0
179066.7447375,308295.75,312241.28125,330593.59375,316725.84375,310889.625,290770.8125,290930.40625,307016.25,-0.075927734375,0.91064453125,-0.3251953125,-0.03051757626235485,-1.1901854276657104,0.8239745497703552,100.0,193975.0,1.0
179066.7598357,308156.0,310976.96875,329758.53125,316229.46875,310095.0625,290453.25,290590.03125,306915.03125,-0.07421875,0.912841796875,-0.3271484375,0.0610351525247097,-1.3427733182907104,0.7934569716453552,100.0,193976.0,1.0
179066.7623928,307967.625,309906.59375,328308.0625,315796.5625,308998.84375,290251.1875,290338.625,306874.1875,-0.074462890625,0.912841796875,-0.325927734375,-0.03051757626235485,-1.3732908964157104,0.7019042372703552,100.0,193977.0,1.0
179066.7654877,307948.59375,310388.5,327990.5,315953.90625,308958.0625,290417.03125,290490.625,306948.75,-0.07568359375,0.911376953125,-0.324951171875,-0.0610351525247097,-1.4343260526657104,0.6103515028953552,100.0,193978.0,1.0
179066.7655353,308203.03125,311933.53125,329554.03125,316617.21875,310226.9375,290778.59375,290898.21875,307066.75,-0.07373046875,0.913818359375,-0.326416015625,-0.1220703050494194,-1.5563963651657104,0.5493163466453552,100.0,193979.0,1.0
179066.8036399,308304.78125,312256.125,330600.90625,316752.3125,310902.59375,290780.5625,290946.78125,307043.25,-0.072509765625,0.912109375,-0.325439453125,-0.3356933295726776,-1.5258787870407104,0.5493163466453552,100.0,193980.0,1.0
179066.8067378,308170.03125,311000.65625,329780.6875,316261.65625,310117.40625,290463.96875,290609.625,306944.71875,-0.072265625,0.911376953125,-0.326171875,-0.4272460639476776,-1.6479490995407104,0.4882812201976776,100.0,193981.0,1.0
179066.8067887,307983.625,309921.34375,328334.53125,315825.5,309021.90625,290258.96875,290356.5,306902.25,-0.072509765625,0.910400390625,-0.328125,-0.4577636420726776,-1.8005369901657104,0.4577636420726776,100.0,193982.0,1.0
179066.8086431,307958.5,310385.71875,328001.5,315970.0,308969.875,290417.40625,290496.6875,306963.59375,-0.073486328125,0.911376953125,-0.327880859375,-0.4577636420726776,-1.8920897245407104,0.3051757514476776,100.0,193983.0,1.0
179066.8111644,308204.09375,311926.03125,329549.03125,316620.78125,310225.96875,290774.40625,290896.25,307070.4375,-0.073974609375,0.910400390625,-0.328369140625,-0.6103515028953552,-1.8920897245407104,0.4272460639476776,100.0,193984.0,1.0
179066.8135957,308302.1875,312264.15625,330607.53125,316755.96875,310910.625,290779.03125,290950.09375,307044.0625,-0.072509765625,0.911865234375,-0.326904296875,-0.4577636420726776,-1.9836424589157104,0.3967284858226776,100.0,193985.0,1.0
179066.8236408,308170.59375,311018.09375,329805.625,316267.625,310140.84375,290464.875,290617.65625,306947.59375,-0.071533203125,0.9111328125,-0.32666015625,-0.4577636420726776,-2.075195074081421,0.3356933295726776,100.0,193986.0,1.0
179066.8267096,307983.8125,309928.84375,328354.21875,315823.09375,309037.8125,290254.125,290353.09375,306888.21875,-0.072265625,0.911376953125,-0.3232421875,-0.5493163466453552,-2.075195074081421,0.2136230319738388,100.0,193987.0,1.0
179066.8267544,307949.9375,310371.0625,327991.21875,315956.125,308961.375,290405.0625,290486.875,306947.40625,-0.07177734375,0.911865234375,-0.326171875,-0.5187987685203552,-1.9531248807907104,0.2136230319738388,100.0,193988.0,1.0
179066.834893,308189.875,311906.1875,329522.5625,316602.09375,310200.28125,290761.25,290880.53125,307047.1875,-0.071533203125,0.91162109375,-0.325927734375,-0.5493163466453552,-2.075195074081421,0.1220703050494194,100.0,193989.0,1.0
179066.8636434,308292.34375,312263.625,330599.65625,316744.15625,310897.9375,290768.84375,290936.3125,307019.71875,-0.07275390625,0.91357421875,-0.32275390625,-0.6408690810203552,-2.105712652206421,0.1525878757238388,100.0,193990.0,1.0
179066.8660938,308163.59375,311025.625,329812.625,316255.5625,310136.375,290452.09375,290600.6875,306916.03125,-0.072509765625,0.9130859375,-0.32763671875,-0.5798339247703552,-2.105712652206421,0.1525878757238388,100.0,193991.0,1.0
179066.8736414,307978.1875,309923.40625,328356.875,315811.75,309027.71875,290243.75,290339.78125,306866.9375,-0.072509765625,0.909423828125,-0.327392578125,-0.6408690810203552,-2.105712652206421,0.03051757626235485,100.0,193992.0,1.0
179066.8761006,307951.4375,310357.90625,327986.84375,315945.3125,308949.21875,290401.125,290476.65625,306932.90625,-0.072021484375,0.909912109375,-0.3291015625,-0.6408690810203552,-2.136230230331421,0.0610351525247097,100.0,193993.0,1.0
179066.8861013,308196.78125,311900.625,329514.78125,316597.1875,310195.90625,290766.53125,290881.78125,307044.5,-0.073486328125,0.90966796875,-0.327392578125,-0.5187987685203552,-2.136230230331421,0.0,100.0,193994.0,1.0
179066.8911416,308303.875,312281.96875,330614.0625,316751.15625,310915.71875,290786.71875,290947.125,307024.28125,-0.07275390625,0.912353515625,-0.3271484375,-0.5798339247703552,-2.105712652206421,-0.1220703050494194,100.0,193995.0,1.0
179066.893669,308168.96875,311045.0,329834.25,316265.125,310159.71875,290470.6875,290613.0,306923.4375,-0.075439453125,0.916259765625,-0.322509765625,-0.6408690810203552,-2.136230230331421,-0.1525878757238388,100.0,193996.0,1.0
179066.8961636,307978.34375,309930.71875,328373.15625,315817.1875,309042.9375,290258.5,290350.34375,306878.1875,-0.074951171875,0.916015625,-0.325439453125,-0.6103515028953552,-2.166747808456421,-0.2441406100988388,100.0,193997.0,1.0
179066.9298962,307944.375,310344.0625,327977.8125,315941.75,308941.4375,290408.53125,290483.71875,306945.6875,-0.0751953125,0.915771484375,-0.325927734375,-0.6713866591453552,-2.410888433456421,-0.2746581733226776,100.0,193998.0,1.0
179066.9335768,308184.71875,311887.125,329494.78125,316590.46875,310179.28125,290772.4375,290889.09375,307058.8125,-0.074951171875,0.9150390625,-0.324951171875,-0.7629393935203552,-2.380370855331421,-0.3051757514476776,100.0,193999.0,1.0
179066.9336287,308288.15625,312281.4375,330605.21875,316746.9375,310905.4375,290791.90625,290956.59375,307039.03125,-0.074951171875,0.91357421875,-0.32373046875,-0.8239745497703552,-2.441406011581421,-0.3356933295726776,100.0,194000.0,1.0
179066.9336452,308160.28125,311059.59375,329847.03125,316268.53125,310166.15625,290478.71875,290623.5625,306940.53125,-0.0771484375,0.912353515625,-0.3232421875,-0.8239745497703552,-2.319335699081421,-0.1831054538488388,100.0,194001.0,1.0
179066.936124,307970.40625,309936.8125,328385.21875,315816.5625,309049.0,290261.65625,290354.90625,306889.09375,-0.076171875,0.911865234375,-0.326171875,-0.8544921278953552,-2.410888433456421,-0.1831054538488388,100.0,194002.0,1.0
179066.9479488,307930.875,310327.6875,327960.1875,315927.25,308927.6875,290404.6875,290481.6875,306949.90625,-0.077392578125,0.910400390625,-0.323974609375,-0.7934569716453552,-2.502441167831421,-0.3051757514476776,100.0,194003.0,1.0
179066.9479969,308174.59375,311869.0625,329462.84375,316582.34375,310160.78125,290771.875,290890.0,307064.96875,-0.075439453125,0.909423828125,-0.322998046875,-0.8544921278953552,-2.502441167831421,-0.3356933295726776,100.0,194004.0,1.0
179066.9498425,308288.3125,312288.125,330597.96875,316759.1875,310910.90625,290797.625,290965.375,307046.71875,-0.076416015625,0.907958984375,-0.3251953125,-0.8239745497703552,-2.502441167831421,-0.4272460639476776,100.0,194005.0,1.0
179066.9523645,308158.78125,311071.65625,329849.0,316277.5625,310176.4375,290479.09375,290627.9375,306931.84375,-0.0771484375,0.908935546875,-0.324462890625,-0.8850097060203552,-2.624511480331421,-0.4882812201976776,100.0,194006.0,1.0
179066.9547405,307975.65625,309943.15625,328394.4375,315827.5625,309061.53125,290263.78125,290362.5,306884.28125,-0.076171875,0.90966796875,-0.32373046875,-0.8239745497703552,-2.471923589706421,-0.4882812201976776,100.0,194007.0,1.0
179066.9586895,307939.1875,310320.46875,327957.875,315937.28125,308931.34375,290407.8125,290483.8125,306945.78125,-0.074951171875,0.908447265625,-0.3232421875,-0.7324218153953552,-2.532958745956421,-0.6103515028953552,100.0,194008.0,1.0
179066.9635818,308184.625,311862.1875,329447.46875,316586.46875,310158.53125,290775.09375,290884.46875,307049.3125,-0.074951171875,0.90966796875,-0.323486328125,-0.7324218153953552,-2.655029058456421,-0.5798339247703552,100.0,194009.0,1.0
179066.9685711,308299.25,312295.90625,330592.0625,316764.28125,310913.5,290803.90625,290958.9375,307026.96875,-0.0751953125,0.911865234375,-0.3232421875,-0.7629393935203552,-2.593993902206421,-0.6408690810203552,100.0,194010.0,1.0
179066.973631,308176.375,311085.6875,329863.3125,316291.5,310189.375,290491.59375,290630.4375,306926.03125,-0.074951171875,0.9111328125,-0.322998046875,-0.7629393935203552,-2.655029058456421,-0.5187987685203552,100.0,194011.0,1.0
179066.9786438,307993.46875,309946.5625,328407.3125,315840.28125,309066.0,290273.4375,290362.5,306881.0625,-0.07763671875,0.912353515625,-0.323486328125,-0.7019042372703552,-2.624511480331421,-0.5187987685203552,100.0,194012.0,1.0
179066.9973551,307949.21875,310305.4375,327955.8125,315942.8125,308924.28125,290406.03125,290482.84375,306945.4375,-0.07666015625,0.91259765625,-0.324462890625,-0.7019042372703552,-2.563476324081421,-0.5493163466453552,100.0,194013.0,1.0
179066.9998896,308190.4375,311847.1875,329440.0625,316594.6875,310150.0625,290772.25,290888.21875,307060.5,-0.076416015625,0.912109375,-0.32421875,-0.6408690810203552,-2.471923589706421,-0.4577636420726776,100.0,194014.0,1.0
179067.0024145,308306.46875,312300.65625,330598.3125,316779.75,310919.75,290809.09375,290972.0625,307045.75,-0.076904296875,0.912841796875,-0.32177734375,-0.5493163466453552,-2.532958745956421,-0.4577636420726776,100.0,194015.0,1.0
179067.0049162,308181.75,311101.25,329879.03125,316302.9375,310205.75,290492.21875,290639.21875,306933.28125,-0.076171875,0.912353515625,-0.327880859375,-0.7019042372703552,-2.532958745956421,-0.3662109076976776,100.0,194016.0,1.0
179067.007389,307994.90625,309951.9375,328421.15625,315840.53125,309080.21875,290266.28125,290362.9375,306883.125,-0.0771484375,0.91259765625,-0.326171875,-0.7629393935203552,-2.502441167831421,-0.3967284858226776,100.0,194017.0,1.0
179067.0210958,307944.125,310287.75,327943.90625,315929.21875,308916.40625,290392.625,290474.25,306945.0,-0.076416015625,0.913330078125,-0.3232421875,-0.7324218153953552,-2.441406011581421,-0.2746581733226776,100.0,194018.0,1.0
179067.0361373,308175.6875,311821.25,329405.8125,316574.9375,310126.8125,290755.0,290876.9375,307058.28125,-0.075927734375,0.913330078125,-0.32080078125,-0.7629393935203552,-2.380370855331421,-0.2441406100988388,100.0,194019.0,1.0
179067.0454861,308290.375,312291.25,330581.78125,316767.875,310911.4375,290788.875,290962.40625,307041.8125,-0.076416015625,0.912353515625,-0.32275390625,-0.8544921278953552,-2.441406011581421,-0.2136230319738388,100.0,194020.0,1.0
179067.0455352,308165.40625,311098.375,329877.625,316297.84375,310206.90625,290475.3125,290635.09375,306940.0625,-0.074951171875,0.91357421875,-0.325927734375,-0.7324218153953552,-2.471923589706421,-0.2746581733226776,100.0,194021.0,1.0
179067.0498861,307981.84375,309943.4375,328420.375,315835.53125,309079.3125,290252.625,290358.125,306888.65625,-0.076416015625,0.912353515625,-0.327392578125,-0.6408690810203552,-2.441406011581421,-0.1831054538488388,100.0,194022.0,1.0
179067.0546949,307929.53125,310266.09375,327927.03125,315914.46875,308899.875,290382.34375,290467.5625,306944.09375,-0.075927734375,0.912841796875,-0.326904296875,-0.6103515028953552,-2.410888433456421,-0.2441406100988388,100.0,194023.0,1.0
179067.0723931,308166.46875,311802.90625,329383.0,316557.59375,310107.59375,290752.75,290872.03125,307054.40625,-0.077880859375,0.912353515625,-0.32421875,-0.6713866591453552,-2.532958745956421,-0.2136230319738388,100.0,194024.0,1.0
179067.0748948,308281.875,312288.9375,330569.625,316750.875,310901.78125,290795.6875,290961.4375,307032.25,-0.079345703125,0.91357421875,-0.3251953125,-0.7019042372703552,-2.410888433456421,-0.2746581733226776,100.0,194025.0,1.0
179067.0773947,308156.375,311104.8125,329876.71875,316278.375,310207.625,290487.5,290640.46875,306927.65625,-0.078369140625,0.912841796875,-0.321044921875,-0.7934569716453552,-2.380370855331421,-0.2441406100988388,100.0,194026.0,1.0
179067.0848978,307971.28125,309944.3125,328419.03125,315812.90625,309079.5,290266.28125,290367.3125,306877.75,-0.0771484375,0.909423828125,-0.32568359375,-0.6103515028953552,-2.441406011581421,-0.2746581733226776,100.0,194027.0,1.0
179067.0874141,307919.0,310254.75,327908.875,315891.21875,308891.1875,290394.25,290476.65625,306940.78125,-0.078369140625,0.909423828125,-0.32568359375,-0.6103515028953552,-2.410888433456421,-0.1525878757238388,100.0,194028.0,1.0
179067.089917,308150.375,311785.9375,329349.65625,316535.9375,310086.65625,290761.78125,290876.9375,307046.90625,-0.07666015625,0.910400390625,-0.325927734375,-0.4882812201976776,-2.471923589706421,-0.1525878757238388,100.0,194029.0,1.0
179067.0924467,308269.8125,312289.90625,330554.0625,316745.0625,310894.09375,290810.875,290973.0625,307028.40625,-0.0771484375,0.909912109375,-0.325439453125,-0.4882812201976776,-2.380370855331421,-0.0610351525247097,100.0,194030.0,1.0
179067.0998915,308154.125,311124.9375,329885.21875,316289.71875,310219.0625,290508.9375,290654.59375,306938.375,-0.075439453125,0.91064453125,-0.324462890625,-0.4272460639476776,-2.380370855331421,-0.2746581733226776,100.0,194031.0,1.0
179067.109845,307973.0,309957.09375,328432.4375,315827.125,309090.5,290281.21875,290374.9375,306887.9375,-0.07470703125,0.90966796875,-0.3251953125,-0.3356933295726776,-2.349853277206421,-0.2136230319738388,100.0,194032.0,1.0
179067.1123288,307920.5,310250.1875,327902.96875,315899.28125,308886.90625,290401.125,290474.78125,306942.3125,-0.074951171875,0.91015625,-0.326171875,-0.4577636420726776,-2.258300542831421,-0.1831054538488388,100.0,194033.0,1.0
179067.1148035,308160.9375,311787.53125,329337.25,316549.25,310085.84375,290767.25,290877.46875,307054.96875,-0.075927734375,0.910888671875,-0.326904296875,-0.3662109076976776,-2.136230230331421,-0.0915527269244194,100.0,194034.0,1.0
179067.117866,308290.75,312313.875,330558.8125,316769.28125,310910.90625,290816.25,290976.90625,307040.46875,-0.075439453125,0.911376953125,-0.32763671875,-0.3051757514476776,-2.166747808456421,-0.1525878757238388,100.0,194035.0,1.0
179067.1179009,308181.5,311158.125,329905.3125,316315.8125,310245.09375,290510.90625,290657.53125,306940.59375,-0.07421875,0.910400390625,-0.327392578125,-0.3662109076976776,-2.044677495956421,-0.1220703050494194,100.0,194036.0,1.0
179067.1366223,308005.25,309979.71875,328455.3125,315851.625,309113.375,290279.4375,290373.3125,306881.25,-0.07666015625,0.908447265625,-0.327392578125,-0.3662109076976776,-2.044677495956421,-0.0915527269244194,100.0,194037.0,1.0
179067.1366612,307950.1875,310251.53125,327912.0,315915.0,308896.375,290393.25,290467.0,306933.625,-0.077392578125,0.90869140625,-0.323974609375,-0.2746581733226776,-2.014159917831421,-0.0915527269244194,100.0,194038.0,1.0
179067.1385173,308181.65625,311774.5625,329321.15625,316556.15625,310075.5625,290755.625,290867.375,307045.125,-0.076416015625,0.909912109375,-0.32666015625,-0.2136230319738388,-1.9531248807907104,-0.1220703050494194,100.0,194039.0,1.0
179067.1410568,308314.6875,312319.15625,330558.625,316783.5,310912.875,290809.8125,290973.78125,307036.375,-0.074951171875,0.91162109375,-0.324462890625,-0.1831054538488388,-1.8920897245407104,-0.1525878757238388,100.0,194040.0,1.0
179067.157215,308200.34375,311170.375,329919.90625,316330.3125,310257.34375,290505.8125,290658.34375,306939.0,-0.076416015625,0.91162109375,-0.32666015625,-0.1220703050494194,-1.8310545682907104,-0.0610351525247097,100.0,194041.0,1.0
179067.1612039,308021.4375,309987.59375,328474.46875,315866.65625,309128.75,290275.6875,290379.46875,306893.84375,-0.07666015625,0.911865234375,-0.32568359375,-0.0610351525247097,-1.8005369901657104,0.1220703050494194,100.0,194042.0,1.0
179067.168481,307961.1875,310243.65625,327915.21875,315923.875,308901.03125,290389.3125,290472.375,306950.0,-0.078369140625,0.911376953125,-0.32470703125,-0.03051757626235485,-1.8005369901657104,0.03051757626235485,100.0,194043.0,1.0
179067.1709778,308190.96875,311770.71875,329320.59375,316569.90625,310080.125,290760.28125,290880.78125,307075.6875,-0.07861328125,0.910400390625,-0.324462890625,-0.0915527269244194,-1.6784666776657104,0.0610351525247097,100.0,194044.0,1.0
179067.1734769,308323.03125,312333.28125,330572.84375,316808.90625,310931.46875,290826.6875,290998.71875,307077.59375,-0.078125,0.910400390625,-0.32666015625,0.0,-1.6784666776657104,0.0,100.0,194045.0,1.0
179067.1852945,308204.03125,311188.5,329943.40625,316354.71875,310284.4375,290523.59375,290683.375,306981.65625,-0.078125,0.912353515625,-0.325439453125,-0.03051757626235485,-1.6479490995407104,0.0915527269244194,100.0,194046.0,1.0
179067.185308,308016.34375,309988.21875,328485.625,315877.625,309142.625,290288.03125,290392.0,306925.6875,-0.077392578125,0.913330078125,-0.32421875,0.03051757626235485,-1.5869139432907104,0.0915527269244194,100.0,194047.0,1.0
179067.1853111,307949.46875,310224.96875,327904.5,315923.0625,308895.125,290399.15625,290480.34375,306977.0,-0.077392578125,0.913330078125,-0.32470703125,0.0,-1.4953612089157104,0.1525878757238388,100.0,194048.0,1.0
179067.1853143,308171.46875,311742.5625,329286.0,316556.875,310058.0625,290766.625,290882.3125,307092.40625,-0.077880859375,0.9111328125,-0.324462890625,-0.03051757626235485,-1.4343260526657104,0.0915527269244194,100.0,194049.0,1.0
179067.1896999,308304.875,312322.625,330548.6875,316794.0625,310915.46875,290836.1875,290997.28125,307083.03125,-0.077392578125,0.9111328125,-0.326904296875,-0.0610351525247097,-1.4953612089157104,0.0610351525247097,100.0,194050.0,1.0
179067.1922483,308192.125,311189.59375,329935.0,316341.21875,310278.09375,290535.0625,290679.8125,306976.09375,-0.076904296875,0.9111328125,-0.32666015625,-0.1525878757238388,-1.3427733182907104,0.0,100.0,194051.0,1.0
179067.1947011,308005.96875,309982.6875,328475.25,315855.03125,309132.15625,290292.65625,290381.4375,306907.625,-0.079833984375,0.9111328125,-0.324951171875,-0.1831054538488388,-1.4343260526657104,0.0,100.0,194052.0,1.0
179067.1972239,307935.875,310199.59375,327864.4375,315885.78125,308861.78125,290393.25,290459.0625,306951.25,-0.0810546875,0.91064453125,-0.3251953125,-0.2441406100988388,-1.4343260526657104,-0.0610351525247097,100.0,194053.0,1.0
179067.1997406,308161.5625,311717.71875,329230.3125,316519.3125,310017.46875,290759.65625,290859.5,307064.78125,-0.081298828125,0.910888671875,-0.3251953125,-0.1525878757238388,-1.3122557401657104,0.03051757626235485,100.0,194054.0,1.0
179067.2022007,308298.0625,312318.875,330507.125,316764.1875,310893.375,290829.46875,290977.625,307049.59375,-0.08203125,0.9091796875,-0.323974609375,-0.0610351525247097,-1.2817381620407104,0.03051757626235485,100.0,194055.0,1.0
179067.20471,308185.78125,311199.96875,329909.4375,316316.0,310271.28125,290524.21875,290660.65625,306933.8125,-0.08203125,0.907470703125,-0.325439453125,-0.0915527269244194,-1.3122557401657104,-0.0610351525247097,100.0,194056.0,1.0
179067.2110192,308001.0625,309985.0,328450.3125,315833.125,309123.03125,290279.4375,290363.375,306869.0,-0.081298828125,0.906494140625,-0.32470703125,0.0,-1.2512205839157104,-0.0915527269244194,100.0,194057.0,1.0
179067.2110308,307931.15625,310184.90625,327825.8125,315867.34375,308839.6875,290376.09375,290439.5625,306917.28125,-0.081298828125,0.90869140625,-0.32470703125,0.0,-1.3427733182907104,-0.0915527269244194,100.0,194058.0,1.0
179067.211034,308157.25,311701.71875,329180.25,316507.34375,309984.65625,290738.09375,290841.8125,307031.4375,-0.08154296875,0.908935546875,-0.3251953125,-0.03051757626235485,-1.3122557401657104,-0.0610351525247097,100.0,194059.0,1.0
179067.2110369,308300.5625,312322.1875,330477.34375,316770.09375,310873.4375,290809.4375,290968.84375,307026.96875,-0.0830078125,0.908935546875,-0.323974609375,-0.0610351525247097,-1.2817381620407104,-0.1220703050494194,100.0,194060.0,1.0
179067.2110398,308196.96875,311221.6875,329912.21875,316337.46875,310273.34375,290507.25,290657.28125,306926.75,-0.08154296875,0.90966796875,-0.32568359375,0.0610351525247097,-1.2512205839157104,-0.03051757626235485,100.0,194061.0,1.0
179067.211043,308021.4375,310008.6875,328473.28125,315863.59375,309136.09375,290262.90625,290362.6875,306870.59375,-0.08154296875,0.912109375,-0.3212890625,0.0,-1.2207030057907104,-0.03051757626235485,100.0,194062.0,1.0
179067.2159618,307951.53125,310192.59375,327837.53125,315890.96875,308841.9375,290356.5,290435.09375,306919.96875,-0.0810546875,0.9130859375,-0.3232421875,0.0,-1.2512205839157104,-0.03051757626235485,100.0,194063.0,1.0
179067.2372573,308173.4375,311698.9375,329175.84375,316524.59375,309980.96875,290722.71875,290834.46875,307041.375,-0.08251953125,0.913330078125,-0.325439453125,-0.03051757626235485,-1.2817381620407104,-0.03051757626235485,100.0,194064.0,1.0
179067.2404001,308316.5,312330.78125,330479.84375,316792.28125,310876.21875,290808.90625,290969.5625,307046.28125,-0.081298828125,0.914794921875,-0.3271484375,-0.1220703050494194,-1.2817381620407104,0.03051757626235485,100.0,194065.0,1.0
179067.2404343,308212.875,311240.28125,329929.8125,316362.5,310288.53125,290517.71875,290667.71875,306951.25,-0.082763671875,0.914306640625,-0.322998046875,-0.2746581733226776,-1.2817381620407104,0.1220703050494194,100.0,194066.0,1.0
179067.2524035,308028.875,310015.03125,328484.90625,315880.40625,309149.125,290277.03125,290374.03125,306896.96875,-0.082763671875,0.912353515625,-0.3251953125,-0.3051757514476776,-1.1901854276657104,0.1831054538488388,100.0,194067.0,1.0
179067.25244,307947.78125,310178.40625,327831.25,315895.25,308845.34375,290368.3125,290441.96875,306946.875,-0.08203125,0.91259765625,-0.327880859375,-0.2746581733226776,-1.0681151151657104,0.2746581733226776,100.0,194068.0,1.0
179067.2524468,308162.71875,311677.65625,329154.125,316523.34375,309973.1875,290737.8125,290842.6875,307069.25,-0.082763671875,0.914794921875,-0.3291015625,-0.3967284858226776,-1.0986326932907104,0.3662109076976776,100.0,194069.0,1.0
179067.2524531,308305.5,312328.53125,330480.75,316794.5,310884.53125,290827.0625,290984.5,307071.5,-0.0830078125,0.913818359375,-0.328125,-0.3662109076976776,-1.0681151151657104,0.3662109076976776,100.0,194070.0,1.0
179067.2524594,308197.84375,311243.6875,329941.71875,316361.25,310304.53125,290532.625,290683.375,306969.3125,-0.08349609375,0.914306640625,-0.324951171875,-0.3662109076976776,-1.0375975370407104,0.3967284858226776,100.0,194071.0,1.0
179067.2524665,308015.53125,310011.375,328496.28125,315875.21875,309160.9375,290286.40625,290384.40625,306908.875,-0.08203125,0.91455078125,-0.32470703125,-0.5493163466453552,-0.9765624403953552,0.3051757514476776,100.0,194072.0,1.0
179067.2547639,307935.25,310154.6875,327824.65625,315886.3125,308837.09375,290378.59375,290450.5625,306961.25,-0.08251953125,0.9150390625,-0.32373046875,-0.5187987685203552,-1.0070799589157104,0.4577636420726776,100.0,194073.0,1.0
179067.2573225,308149.375,311649.40625,329130.0,316508.0625,309952.09375,290744.09375,290844.75,307065.0625,-0.081787109375,0.912841796875,-0.324951171875,-0.6713866591453552,-1.0375975370407104,0.4577636420726776,100.0,194074.0,1.0
179067.2603803,308300.3125,312322.8125,330474.03125,316785.65625,310880.6875,290836.71875,290986.375,307056.46875,-0.0830078125,0.911865234375,-0.325439453125,-0.6713866591453552,-1.0375975370407104,0.4577636420726776,100.0,194075.0,1.0
179067.2604146,308195.34375,311249.03125,329955.03125,316355.96875,310315.09375,290544.4375,290685.34375,306951.4375,-0.082763671875,0.91162109375,-0.32568359375,-0.7629393935203552,-1.0375975370407104,0.5493163466453552,100.0,194076.0,1.0
179067.2622845,308008.9375,310005.375,328507.34375,315862.15625,309165.84375,290291.40625,290380.28125,306883.84375,-0.08349609375,0.91015625,-0.327880859375,-0.6713866591453552,-1.0375975370407104,0.5493163466453552,100.0,194077.0,1.0
179067.2723729,307921.03125,310133.96875,327814.1875,315859.3125,308829.5,290372.6875,290434.65625,306919.25,-0.083984375,0.909912109375,-0.326904296875,-0.7629393935203552,-0.9460448622703552,0.5798339247703552,100.0,194078.0,1.0
179067.2773231,308132.9375,311630.1875,329101.28125,316476.75,309936.375,290732.8125,290828.21875,307026.15625,-0.082763671875,0.911865234375,-0.325927734375,-0.7629393935203552,-0.9460448622703552,0.6408690810203552,100.0,194079.0,1.0
179067.2823498,308288.0625,312323.875,330455.4375,316765.0,310876.03125,290825.09375,290974.5625,307026.625,-0.082275390625,0.91162109375,-0.32568359375,-0.8239745497703552,-0.9460448622703552,0.6408690810203552,100.0,194080.0,1.0
179067.2873466,308186.9375,311264.40625,329947.625,316341.9375,310316.34375,290534.96875,290676.03125,306923.8125,-0.082275390625,0.912841796875,-0.326904296875,-0.8544921278953552,-0.9460448622703552,0.5798339247703552,100.0,194081.0,1.0
179067.2929048,308009.1875,310023.1875,328507.625,315855.75,309169.34375,290283.71875,290372.25,306862.71875,-0.08154296875,0.910400390625,-0.327880859375,-0.8239745497703552,-1.0070799589157104,0.6103515028953552,100.0,194082.0,1.0
179067.2929388,307933.1875,310144.15625,327810.875,315856.71875,308823.875,290360.875,290426.25,306903.78125,-0.08154296875,0.909912109375,-0.32861328125,-0.8544921278953552,-0.9460448622703552,0.5493163466453552,100.0,194083.0,1.0
179067.2986246,308151.8125,311637.0625,329092.15625,316484.34375,309923.75,290724.5,290825.09375,307027.5,-0.080810546875,0.91015625,-0.326416015625,-0.8544921278953552,-0.8544921278953552,0.5187987685203552,100.0,194084.0,1.0
179067.3011133,308312.75,312350.8125,330460.09375,316788.96875,310874.5,290825.96875,290981.0,307039.65625,-0.082275390625,0.909912109375,-0.3271484375,-0.8239745497703552,-0.9155272841453552,0.6408690810203552,100.0,194085.0,1.0
179067.3090464,308218.15625,311309.84375,329975.25,316377.59375,310334.59375,290536.125,290684.71875,306941.21875,-0.080078125,0.909912109375,-0.32275390625,-0.9155272841453552,-0.8850097060203552,0.6103515028953552,100.0,194086.0,1.0
179067.309091,308042.28125,310063.25,328539.1875,315893.28125,309191.25,290284.25,290379.46875,306883.28125,-0.080810546875,0.91064453125,-0.3232421875,-0.9155272841453552,-0.7629393935203552,0.6103515028953552,100.0,194087.0,1.0
179067.3090978,307957.96875,310159.4375,327818.375,315886.125,308828.96875,290363.84375,290434.1875,306933.0,-0.080078125,0.910888671875,-0.3271484375,-0.9155272841453552,-0.8544921278953552,0.6103515028953552,100.0,194088.0,1.0
179067.3091052,308174.59375,311648.15625,329089.125,316510.65625,309928.9375,290733.09375,290832.25,307054.5,-0.081787109375,0.91162109375,-0.32666015625,-0.9460448622703552,-0.7934569716453552,0.5493163466453552,100.0,194089.0,1.0
179067.3148049,308333.46875,312374.9375,330474.9375,316818.75,310896.6875,290842.53125,290992.46875,307066.65625,-0.082275390625,0.91064453125,-0.32373046875,-0.9460448622703552,-0.7934569716453552,0.6103515028953552,100.0,194090.0,1.0
179067.3198164,308235.84375,311341.65625,330011.09375,316408.53125,310373.03125,290561.34375,290704.21875,306974.03125,-0.08203125,0.911865234375,-0.322509765625,-0.9765624403953552,-0.7019042372703552,0.6103515028953552,100.0,194091.0,1.0
179067.322318,308050.25,310078.0,328573.25,315910.625,309223.53125,290306.34375,290391.375,306902.78125,-0.080810546875,0.9130859375,-0.323486328125,-1.0070799589157104,-0.6103515028953552,0.7019042372703552,100.0,194092.0,1.0
179067.3273199,307952.59375,310146.84375,327836.09375,315885.875,308845.0625,290375.8125,290431.0625,306929.6875,-0.082763671875,0.9130859375,-0.324951171875,-0.9765624403953552,-0.6408690810203552,0.6408690810203552,100.0,194093.0,1.0
179067.3323065,308158.40625,311620.09375,329085.375,316499.46875,309928.40625,290739.53125,290825.96875,307049.78125,-0.0810546875,0.911865234375,-0.3251953125,-0.9460448622703552,-0.6103515028953552,0.7019042372703552,100.0,194094.0,1.0
179067.3403268,308315.59375,312357.0625,330478.6875,316806.3125,310902.0625,290847.8125,290985.9375,307056.65625,-0.08203125,0.912109375,-0.32568359375,-0.9460448622703552,-0.6408690810203552,0.7019042372703552,100.0,194095.0,1.0
179067.3403553,308218.9375,311329.6875,330024.5,316393.96875,310383.40625,290562.6875,290694.71875,306955.28125,-0.083740234375,0.911376953125,-0.324951171875,-0.9460448622703552,-0.7324218153953552,0.7019042372703552,100.0,194096.0,1.0
179067.3428464,308034.15625,310060.09375,328586.40625,315894.09375,309232.1875,290305.625,290384.75,306891.25,-0.08056640625,0.90966796875,-0.324951171875,-1.0375975370407104,-0.7934569716453552,0.7019042372703552,100.0,194097.0,1.0
179067.3428745,307933.75,310112.78125,327826.34375,315860.21875,308835.59375,290371.34375,290424.46875,306927.71875,-0.0830078125,0.910400390625,-0.323974609375,-1.0986326932907104,-0.7324218153953552,0.6408690810203552,100.0,194098.0,1.0
179067.3472937,308136.59375,311582.0,329057.5625,316468.8125,309907.21875,290732.5625,290815.78125,307042.34375,-0.0830078125,0.910888671875,-0.3212890625,-1.0986326932907104,-0.7324218153953552,0.7019042372703552,100.0,194099.0,1.0
179067.3498197,308286.8125,312327.03125,330452.6875,316777.34375,310881.125,290840.03125,290975.28125,307042.875,-0.082763671875,0.911376953125,-0.319091796875,-1.0986326932907104,-0.6713866591453552,0.5493163466453552,100.0,194100.0,1.0
179067.3548739,308191.6875,311316.28125,330019.15625,316371.34375,310377.3125,290554.90625,290686.3125,306939.25,-0.081298828125,0.911376953125,-0.3232421875,-1.1291502714157104,-0.6713866591453552,0.5493163466453552,100.0,194101.0,1.0
179067.3573724,308015.53125,310048.84375,328594.25,315871.1875,309232.375,290293.21875,290376.1875,306871.0625,-0.082275390625,0.911376953125,-0.322998046875,-1.1596678495407104,-0.7324218153953552,0.5493163466453552,100.0,194102.0,1.0
179067.359806,307919.0,310088.8125,327826.15625,315831.3125,308826.8125,290355.0625,290411.125,306907.71875,-0.083740234375,0.910888671875,-0.324951171875,-1.0986326932907104,-0.7019042372703552,0.5187987685203552,100.0,194103.0,1.0
179067.3672241,308123.09375,311555.15625,329042.8125,316441.625,309888.8125,290720.125,290807.75,307031.90625,-0.083740234375,0.91064453125,-0.321044921875,-1.0986326932907104,-0.7324218153953552,0.4272460639476776,100.0,194104.0,1.0
179067.3736247,308287.34375,312328.90625,330457.40625,316766.96875,310882.03125,290838.59375,290979.3125,307038.34375,-0.08056640625,0.912353515625,-0.323486328125,-1.0070799589157104,-0.7019042372703552,0.5493163466453552,100.0,194105.0,1.0
