Time,FZ,C3,CZ,C4,PZ,PO7,OZ,PO8,AccX,AccY,AccZ,Gyro1,Gyro2,Gyro3,Battery,Counter,Validation
510396.3412694,253797.28125,288929.3125,306100.90625,282281.625,293628.53125,277962.375,250239.140625,264210.25,-0.03759765625,0.874755859375,-0.4892578125,1.1901854276657104,-0.9765624403953552,-3.326415777206421,100.0,123945.0,1.0
510396.3711739,254341.765625,288809.21875,305732.8125,281292.78125,290590.3125,276827.0,249545.34375,263302.75,-0.037841796875,0.873046875,-0.4892578125,1.3427733182907104,-0.8850097060203552,-3.387450933456421,100.0,123946.0,1.0
510396.3711912,254601.046875,288688.0,305262.0,280329.25,286330.59375,275982.46875,248726.296875,262280.9375,-0.03857421875,0.873046875,-0.48876953125,1.3732908964157104,-0.9460448622703552,-3.448486089706421,100.0,123947.0,1.0
510396.3711944,254228.484375,288710.6875,305293.0,280636.96875,286549.1875,276516.65625,248864.15625,262494.34375,-0.037353515625,0.871337890625,-0.491455078125,1.5258787870407104,-0.8850097060203552,-3.570556402206421,100.0,123948.0,1.0
510396.3841865,253740.953125,288854.5625,305792.25,281790.5,290826.25,277690.5625,249742.578125,263627.46875,-0.040283203125,0.869140625,-0.491455078125,1.5258787870407104,-0.8544921278953552,-3.570556402206421,100.0,123949.0,1.0
510396.384209,253788.25,288911.5,306083.1875,282246.65625,293414.9375,277930.46875,250182.546875,264167.0625,-0.041015625,0.873779296875,-0.486083984375,1.5563963651657104,-0.8544921278953552,-3.723144292831421,100.0,123950.0,1.0
510396.3842133,254357.859375,288818.78125,305747.65625,281300.84375,290496.15625,276837.375,249522.546875,263299.71875,-0.04443359375,0.87744140625,-0.483642578125,1.5563963651657104,-0.8544921278953552,-3.723144292831421,100.0,123951.0,1.0
510396.3842177,254632.0625,288706.6875,305283.1875,280342.03125,286277.03125,275985.84375,248711.1875,262285.5,-0.044189453125,0.880126953125,-0.4833984375,1.3732908964157104,-0.9765624403953552,-3.753661870956421,100.0,123952.0,1.0
510396.3946634,254264.421875,288719.8125,305305.71875,280640.28125,286451.375,276503.59375,248838.140625,262490.21875,-0.04541015625,0.88916015625,-0.485107421875,1.1291502714157104,-1.0986326932907104,-3.753661870956421,100.0,123953.0,1.0
510396.3946952,253753.90625,288840.96875,305780.1875,281773.34375,290675.78125,277658.46875,249698.328125,263606.75,-0.05029296875,0.889892578125,-0.483642578125,0.7324218153953552,-1.3122557401657104,-3.723144292831421,100.0,123954.0,1.0
510396.3971656,253790.65625,288898.28125,306074.15625,282241.65625,293311.75,277915.15625,250155.734375,264163.5625,-0.053466796875,0.89208984375,-0.480712890625,0.1831054538488388,-1.3122557401657104,-3.631591558456421,100.0,123955.0,1.0
510396.3972013,254355.796875,288807.09375,305744.625,281306.8125,290479.53125,276838.625,249506.546875,263309.03125,-0.053466796875,0.891845703125,-0.476806640625,0.0,-1.5258787870407104,-3.509521245956421,100.0,123956.0,1.0
510396.3997729,254636.8125,288708.75,305289.875,280352.9375,286326.84375,275997.5625,248709.390625,262309.0,-0.05419921875,0.889404296875,-0.470458984375,0.0,-1.9836424589157104,-3.143310308456421,100.0,123957.0,1.0
510396.4021938,254260.40625,288710.15625,305295.15625,280625.4375,286465.15625,276486.53125,248817.390625,262489.4375,-0.05908203125,0.8935546875,-0.467529296875,-0.2136230319738388,-2.655029058456421,-2.960204839706421,100.0,123958.0,1.0
510396.4047577,253770.90625,288847.40625,305785.125,281771.375,290659.5,277659.5625,249693.671875,263613.71875,-0.0556640625,0.899658203125,-0.47607421875,-0.7629393935203552,-2.868652105331421,-2.960204839706421,100.0,123959.0,1.0
510396.4071051,253799.0625,288905.6875,306084.8125,282250.40625,293307.21875,277929.28125,250147.6875,264169.46875,-0.05224609375,0.8974609375,-0.481201171875,-1.4038084745407104,-2.410888433456421,-2.960204839706421,100.0,123960.0,1.0
510396.4097452,254368.046875,288822.09375,305772.15625,281343.75,290561.53125,276862.3125,249507.703125,263324.03125,-0.060546875,0.901123046875,-0.4775390625,-1.9531248807907104,-2.166747808456421,-2.685546636581421,100.0,123961.0,1.0
510396.4121806,254658.71875,288735.46875,305318.9375,280390.21875,286419.03125,276017.15625,248701.53125,262306.9375,-0.061767578125,0.90087890625,-0.47314453125,-2.471923589706421,-2.685546636581421,-2.624511480331421,100.0,123962.0,1.0
510396.4147484,254279.359375,288735.03125,305320.46875,280641.71875,286510.40625,276505.75,248816.40625,262484.875,-0.059326171875,0.8955078125,-0.47119140625,-2.960204839706421,-2.929687261581421,-2.227782964706421,100.0,123963.0,1.0
510396.4197302,253770.1875,288843.1875,305788.78125,281766.46875,290637.78125,277654.09375,249678.390625,263596.1875,-0.061279296875,0.89599609375,-0.466796875,-3.448486089706421,-3.143310308456421,-1.9226073026657104,100.0,123964.0,1.0
510396.4222582,253779.84375,288886.75,306076.3125,282244.25,293294.0625,277927.40625,250132.390625,264150.25,-0.060546875,0.89404296875,-0.467041015625,-3.845214605331421,-3.509521245956421,-1.8615721464157104,100.0,123965.0,1.0
510396.4271185,254384.5,288856.15625,305806.21875,281384.4375,290645.46875,276917.65625,249534.265625,263351.9375,-0.064697265625,0.894775390625,-0.467041015625,-4.180907726287842,-3.540038824081421,-1.5563963651657104,100.0,123966.0,1.0
510396.4321198,254676.59375,288775.53125,305355.34375,280424.375,286539.90625,276068.375,248737.828125,262342.09375,-0.0634765625,0.89111328125,-0.46630859375,-4.638671398162842,-3.814697027206421,-1.3122557401657104,100.0,123967.0,1.0
510396.4361077,254298.3125,288767.21875,305339.15625,280658.4375,286572.96875,276521.75,248830.0,262494.53125,-0.06494140625,0.88623046875,-0.467529296875,-4.913329601287842,-4.089354991912842,-0.9155272841453552,100.0,123968.0,1.0
510396.4361478,253763.125,288843.1875,305778.3125,281756.625,290620.0,277644.71875,249665.6875,263583.75,-0.06884765625,0.8896484375,-0.466552734375,-5.035399913787842,-4.364013195037842,-0.5493163466453552,100.0,123969.0,1.0
510396.436158,253770.625,288869.84375,306069.0625,282245.0625,293297.90625,277922.3125,250132.21875,264151.6875,-0.07080078125,0.8994140625,-0.460205078125,-5.615233898162842,-4.852294445037842,-0.3967284858226776,100.0,123970.0,1.0
510396.4384978,254376.1875,288859.75,305814.25,281403.90625,290740.25,276936.25,249558.21875,263374.46875,-0.070068359375,0.899169921875,-0.457275390625,-6.195067882537842,-5.279540538787842,0.0610351525247097,100.0,123971.0,1.0
510396.440966,254695.546875,288804.3125,305385.46875,280461.75,286674.09375,276104.9375,248775.109375,262384.0,-0.073486328125,0.89501953125,-0.45751953125,-6.652831554412842,-5.523681163787842,0.5187987685203552,100.0,123972.0,1.0
510396.4410135,254290.71875,288740.28125,305325.28125,280649.9375,286618.03125,276514.25,248821.6875,262492.65625,-0.072265625,0.89306640625,-0.4609375,-6.958007335662842,-5.859374523162842,0.8239745497703552,100.0,123973.0,1.0
510396.4433954,253752.921875,288815.5,305749.78125,281730.78125,290601.84375,277618.4375,249644.046875,263566.15625,-0.07177734375,0.89404296875,-0.458740234375,-7.324218273162842,-6.225585460662842,1.2512205839157104,100.0,123974.0,1.0
510396.4460273,253757.484375,288874.5,306049.40625,282231.75,293297.46875,277918.125,250117.28125,264147.375,-0.071044921875,0.8974609375,-0.45751953125,-7.843017101287842,-6.622313976287842,1.7089842557907104,100.0,123975.0,1.0
510396.4460681,254374.84375,288872.875,305813.09375,281418.65625,290814.1875,276948.6875,249554.828125,263388.6875,-0.068359375,0.890380859375,-0.460205078125,-8.209227561950684,-6.896972179412842,1.9531248807907104,100.0,123976.0,1.0
510396.4533674,254711.015625,288828.71875,305398.6875,280484.53125,286793.375,276126.84375,248785.390625,262404.03125,-0.06689453125,0.87646484375,-0.462890625,-8.087157249450684,-7.141112804412842,2.105712652206421,100.0,123977.0,1.0
510396.4559713,254316.640625,288773.65625,305342.8125,280668.28125,286705.125,276528.46875,248839.84375,262512.21875,-0.068359375,0.88427734375,-0.459228515625,-7.781981945037842,-7.202147960662842,2.136230230331421,100.0,123978.0,1.0
510396.463539,253755.703125,288812.4375,305745.15625,281725.875,290592.53125,277604.84375,249638.515625,263557.75,-0.07080078125,0.878173828125,-0.46337890625,-7.781981945037842,-7.598876476287842,2.075195074081421,100.0,123979.0,1.0
510396.4635796,253756.59375,288857.34375,306041.71875,282237.375,293262.78125,277896.5625,250093.0625,264131.125,-0.068115234375,0.877685546875,-0.455322265625,-7.385253429412842,-7.781981945037842,2.136230230331421,100.0,123980.0,1.0
510396.4658679,254382.796875,288890.78125,305827.125,281433.78125,290854.875,276958.96875,249543.65625,263388.15625,-0.067138671875,0.8740234375,-0.454345703125,-7.232665538787842,-7.965087413787842,2.075195074081421,100.0,123981.0,1.0
510396.4683671,254710.296875,288843.84375,305421.5,280501.875,286877.15625,276150.53125,248797.28125,262414.3125,-0.06640625,0.88525390625,-0.452880859375,-6.927489757537842,-8.178709983825684,1.8005369901657104,100.0,123982.0,1.0
510396.4709551,254338.640625,288802.0625,305369.375,280686.875,286731.84375,276542.21875,248847.171875,262512.59375,-0.060302734375,0.901123046875,-0.45458984375,-7.110595226287842,-8.087157249450684,2.044677495956421,100.0,123983.0,1.0
510396.4759644,253777.15625,288817.28125,305749.15625,281743.03125,290533.71875,277583.375,249618.296875,263531.90625,-0.06005859375,0.8896484375,-0.454833984375,-7.415771007537842,-8.087157249450684,2.136230230331421,100.0,123984.0,1.0
510396.478526,253729.0625,288848.125,306026.34375,282234.6875,293215.03125,277887.28125,250085.90625,264112.34375,-0.06201171875,0.88037109375,-0.460693359375,-7.232665538787842,-8.087157249450684,2.014159917831421,100.0,123985.0,1.0
510396.4809501,254344.625,288854.8125,305806.21875,281421.71875,290877.5625,276965.03125,249544.28125,263381.25,-0.060302734375,0.875,-0.461181640625,-6.927489757537842,-8.148192405700684,1.8920897245407104,100.0,123986.0,1.0
510396.48099,254720.765625,288856.15625,305422.375,280500.1875,286940.34375,276162.53125,248795.671875,262407.4375,-0.06201171875,0.873291015625,-0.460205078125,-6.591796398162842,-8.026122093200684,1.8005369901657104,100.0,123987.0,1.0
510396.4834816,254335.0625,288792.34375,305357.3125,280663.71875,286770.40625,276543.75,248848.78125,262497.375,-0.05859375,0.86865234375,-0.460205078125,-6.195067882537842,-8.087157249450684,1.5869139432907104,100.0,123988.0,1.0
510396.5172835,253746.765625,288781.6875,305717.4375,281688.21875,290514.03125,277576.75,249617.59375,263514.21875,-0.057373046875,0.870361328125,-0.4619140625,-5.523681163787842,-8.026122093200684,1.3732908964157104,100.0,123989.0,1.0
510396.5196765,253724.40625,288801.4375,306002.375,282205.71875,293190.34375,277875.46875,250071.421875,264098.3125,-0.054931640625,0.8818359375,-0.459716796875,-5.065917491912842,-7.812499523162842,1.3427733182907104,100.0,123990.0,1.0
510396.5197156,254411.234375,288897.65625,305859.84375,281492.15625,290973.59375,277022.96875,249592.46875,263431.15625,-0.048828125,0.88818359375,-0.458251953125,-4.852294445037842,-7.568358898162842,1.3427733182907104,100.0,123991.0,1.0
510396.5323033,254782.453125,288908.65625,305474.25,280561.625,287056.6875,276211.59375,248835.28125,262449.53125,-0.04541015625,0.8857421875,-0.455810546875,-4.821776866912842,-7.415771007537842,1.2817381620407104,100.0,123992.0,1.0
510396.5347486,254398.0,288866.0,305408.09375,280711.1875,286830.03125,276581.03125,248875.875,262529.03125,-0.04638671875,0.882568359375,-0.45849609375,-4.516601085662842,-7.080077648162842,1.2512205839157104,100.0,123993.0,1.0
510396.5347902,253773.84375,288838.46875,305743.90625,281701.5625,290511.96875,277594.46875,249640.921875,263537.4375,-0.047607421875,0.876708984375,-0.461181640625,-4.241942882537842,-6.774901866912842,1.2207030057907104,100.0,123994.0,1.0
510396.537233,253704.46875,288810.5625,306003.53125,282209.125,293177.75,277892.46875,250100.296875,264118.25,-0.043701171875,0.879150390625,-0.462158203125,-3.875732183456421,-6.347655773162842,0.9765624403953552,100.0,123995.0,1.0
510396.5397522,254356.0625,288876.46875,305843.75,281480.71875,291009.53125,277042.46875,249623.3125,263450.375,-0.042236328125,0.883056640625,-0.46044921875,-3.631591558456421,-5.828856945037842,1.1291502714157104,100.0,123996.0,1.0
510396.5421952,254742.3125,288895.96875,305467.4375,280547.65625,287120.25,276235.03125,248872.828125,262471.4375,-0.038330078125,0.886962890625,-0.45849609375,-3.631591558456421,-5.310058116912842,1.1901854276657104,100.0,123997.0,1.0
510396.549609,254359.015625,288821.125,305380.1875,280669.96875,286836.65625,276560.75,248889.640625,262530.0,-0.0400390625,0.884521484375,-0.45751953125,-3.601073980331421,-4.943847179412842,1.2207030057907104,100.0,123998.0,1.0
510396.5522506,253730.578125,288753.34375,305691.875,281652.8125,290426.875,277533.40625,249610.96875,263500.875,-0.031005859375,0.89013671875,-0.457763671875,-3.356933355331421,-4.364013195037842,1.2817381620407104,100.0,123999.0,1.0
510396.5572816,253678.359375,288760.21875,305968.75,282182.03125,293126.875,277845.25,250070.875,264095.15625,-0.042724609375,0.88818359375,-0.45654296875,-3.295898199081421,-3.784179449081421,1.2512205839157104,100.0,124000.0,1.0
510396.5573234,254329.609375,288858.40625,305818.0,281468.46875,291024.5625,277003.75,249584.421875,263421.3125,-0.044189453125,0.8818359375,-0.458984375,-2.929687261581421,-3.570556402206421,0.6408690810203552,100.0,124001.0,1.0
510396.5597718,254749.734375,288905.53125,305467.625,280556.25,287177.09375,276220.375,248849.40625,262460.375,-0.0390625,0.885986328125,-0.4619140625,-2.258300542831421,-2.990722417831421,0.03051757626235485,100.0,124002.0,1.0
510396.5620751,254366.53125,288843.1875,305382.34375,280671.5,286882.25,276555.71875,248876.21875,262518.03125,-0.03564453125,0.89892578125,-0.46044921875,-1.9836424589157104,-2.288818120956421,0.2746581733226776,100.0,124003.0,1.0
510396.5646048,253742.296875,288775.0,305701.15625,281667.21875,290481.59375,277545.28125,249618.75,263509.90625,-0.038818359375,0.896484375,-0.46142578125,-2.044677495956421,-1.9226073026657104,0.2136230319738388,100.0,124004.0,1.0
510396.5672372,253704.46875,288790.0,305994.78125,282220.90625,293227.71875,277871.90625,250086.265625,264115.90625,-0.029541015625,0.896484375,-0.460205078125,-1.9836424589157104,-1.4343260526657104,0.03051757626235485,100.0,124005.0,1.0
510396.5697659,254331.21875,288864.46875,305840.28125,281503.78125,291211.40625,277036.03125,249612.5,263469.5,-0.0341796875,0.89599609375,-0.45556640625,-1.9226073026657104,-0.7324218153953552,0.1831054538488388,100.0,124006.0,1.0
510396.5721525,254763.3125,288933.6875,305506.96875,280603.71875,287408.65625,276264.625,248898.9375,262525.1875,-0.0380859375,0.8955078125,-0.455078125,-1.9226073026657104,-0.1220703050494194,0.3051757514476776,100.0,124007.0,1.0
510396.5721909,254384.859375,288855.90625,305408.96875,280700.46875,287042.53125,276570.3125,248900.8125,262558.1875,-0.04638671875,0.890380859375,-0.4599609375,-1.8310545682907104,0.2136230319738388,0.1220703050494194,100.0,124008.0,1.0
510396.5747346,253753.46875,288781.6875,305712.59375,281672.75,290557.03125,277548.40625,249623.21875,263524.65625,-0.043212890625,0.88623046875,-0.461181640625,-1.4953612089157104,0.6408690810203552,-0.1831054538488388,100.0,124009.0,1.0
510396.577253,253712.96875,288794.65625,306017.46875,282238.71875,293317.5625,277911.15625,250124.890625,264161.78125,-0.04931640625,0.887939453125,-0.459228515625,-1.1596678495407104,1.0681151151657104,-0.3662109076976776,100.0,124010.0,1.0
510396.579668,254352.671875,288893.0,305873.90625,281539.375,291334.34375,277083.6875,249653.265625,263509.5625,-0.049560546875,0.888427734375,-0.454833984375,-1.0986326932907104,1.2817381620407104,-0.4272460639476776,100.0,124011.0,1.0
510396.5835323,254775.390625,288966.84375,305534.0625,280635.65625,287535.8125,276296.8125,248936.578125,262563.90625,-0.05126953125,0.89013671875,-0.458251953125,-1.0070799589157104,1.5563963651657104,-0.6103515028953552,100.0,124012.0,1.0
510396.583573,254398.0,288894.875,305434.46875,280721.21875,287145.28125,276598.375,248940.234375,262598.40625,-0.054443359375,0.890869140625,-0.457275390625,-0.9765624403953552,1.8005369901657104,-0.8239745497703552,100.0,124013.0,1.0
510396.6171141,253768.046875,288802.4375,305731.75,281688.15625,290634.125,277559.78125,249651.65625,263554.34375,-0.053955078125,0.890869140625,-0.45703125,-0.8850097060203552,1.9531248807907104,-0.9765624403953552,100.0,124014.0,1.0
510396.6247684,253693.03125,288813.4375,306025.4375,282247.1875,293421.03125,277921.25,250143.5625,264178.0625,-0.051513671875,0.8935546875,-0.459716796875,-0.7324218153953552,2.166747808456421,-1.2207030057907104,100.0,124015.0,1.0
510396.6248097,254334.515625,288907.03125,305897.40625,281572.09375,291520.21875,277120.59375,249699.65625,263558.625,-0.052734375,0.893310546875,-0.46142578125,-0.8544921278953552,2.410888433456421,-1.4648436307907104,100.0,124016.0,1.0
510396.6272596,254783.796875,288985.53125,305568.5625,280679.0,287745.09375,276337.21875,248986.734375,262616.46875,-0.054443359375,0.893798828125,-0.463134765625,-0.6713866591453552,2.716064214706421,-1.5258787870407104,100.0,124017.0,1.0
510396.6297341,254415.25,288913.65625,305459.03125,280747.84375,287308.71875,276624.84375,248974.75,262631.03125,-0.0546875,0.893310546875,-0.46533203125,-0.4272460639476776,2.838134527206421,-1.5869139432907104,100.0,124018.0,1.0
510396.6322672,253765.265625,288814.5,305737.625,281692.53125,290761.78125,277583.28125,249686.15625,263576.34375,-0.057373046875,0.8935546875,-0.464599609375,-0.2746581733226776,2.990722417831421,-1.7089842557907104,100.0,124019.0,1.0
510396.6346223,253663.796875,288796.96875,306009.875,282238.09375,293544.84375,277930.0,250169.3125,264197.09375,-0.060546875,0.89111328125,-0.464111328125,-0.03051757626235485,3.112792730331421,-1.8005369901657104,100.0,124020.0,1.0
510396.6372856,254328.796875,288921.96875,305910.375,281594.34375,291694.125,277152.78125,249746.875,263606.03125,-0.064453125,0.886474609375,-0.462890625,0.3051757514476776,3.112792730331421,-1.8310545682907104,100.0,124021.0,1.0
510396.6420953,254778.0625,288985.1875,305576.71875,280690.0,287900.75,276350.09375,249023.75,262652.5,-0.06689453125,0.882080078125,-0.463134765625,0.6408690810203552,3.143310308456421,-1.9531248807907104,100.0,124022.0,1.0
510396.6446128,254418.5625,288910.0,305471.125,280760.71875,287424.3125,276628.40625,249010.15625,262663.125,-0.06689453125,0.8837890625,-0.464599609375,0.9765624403953552,3.021239995956421,-1.9531248807907104,100.0,124023.0,1.0
510396.6571148,253779.65625,288824.15625,305757.65625,281706.75,290845.46875,277596.4375,249719.78125,263608.09375,-0.070068359375,0.878173828125,-0.46728515625,1.0681151151657104,2.899169683456421,-1.8615721464157104,100.0,124024.0,1.0
510396.6647064,253684.265625,288807.25,306037.96875,282267.59375,293655.09375,277953.6875,250201.234375,264229.1875,-0.06982421875,0.8876953125,-0.462890625,1.5258787870407104,2.960204839706421,-1.8615721464157104,100.0,124025.0,1.0
510396.6673052,254321.921875,288913.84375,305923.0625,281615.71875,291841.1875,277170.9375,249771.8125,263629.8125,-0.0673828125,0.898681640625,-0.459228515625,1.4038084745407104,2.807616949081421,-1.6174315214157104,100.0,124026.0,1.0
510396.6673462,254778.421875,288990.375,305591.625,280706.28125,288049.90625,276371.1875,249056.015625,262679.59375,-0.06884765625,0.89404296875,-0.4619140625,1.0375975370407104,2.563476324081421,-1.2207030057907104,100.0,124027.0,1.0
510396.6696677,254425.265625,288907.40625,305473.25,280763.125,287517.5625,276628.875,249029.828125,262666.625,-0.06787109375,0.8837890625,-0.467529296875,0.9765624403953552,2.532958745956421,-1.0681151151657104,100.0,124028.0,1.0
510396.6697061,253767.765625,288800.46875,305737.09375,281686.0,290893.5625,277574.15625,249709.5,263582.875,-0.071533203125,0.88037109375,-0.47216796875,1.1291502714157104,2.532958745956421,-0.8239745497703552,100.0,124029.0,1.0
510396.672209,253650.734375,288783.65625,306013.53125,282240.9375,293733.0625,277949.59375,250205.796875,264220.78125,-0.07373046875,0.8798828125,-0.470458984375,1.3122557401657104,2.380370855331421,-0.5798339247703552,100.0,124030.0,1.0
510396.6747746,254309.3125,288912.40625,305921.8125,281618.40625,291970.5625,277192.75,249803.28125,263645.625,-0.075927734375,0.880859375,-0.4736328125,1.4648436307907104,2.105712652206421,-0.3356933295726776,100.0,124031.0,1.0
510396.6770458,254781.203125,288992.5,305594.5,280709.03125,288169.34375,276385.875,249085.4375,262692.1875,-0.080322265625,0.880126953125,-0.46826171875,1.7700194120407104,1.8310545682907104,-0.0610351525247097,100.0,124032.0,1.0
510396.6797203,254414.984375,288894.78125,305455.75,280732.28125,287571.84375,276616.8125,249027.859375,262651.25,-0.08349609375,0.876708984375,-0.46826171875,1.9226073026657104,1.5563963651657104,0.4272460639476776,100.0,124033.0,1.0
510396.6822419,253752.75,288791.78125,305716.53125,281649.6875,290914.6875,277562.1875,249707.265625,263565.0,-0.086669921875,0.875244140625,-0.474853515625,2.410888433456421,1.3122557401657104,0.6103515028953552,100.0,124034.0,1.0
510396.6845896,253653.0625,288781.5,306007.8125,282241.65625,293777.125,277951.46875,250214.109375,264214.53125,-0.08740234375,0.87255859375,-0.47412109375,2.716064214706421,1.0070799589157104,0.7019042372703552,100.0,124035.0,1.0
510396.6921825,254298.671875,288904.71875,305914.03125,281622.6875,292048.25,277195.625,249811.421875,263645.625,-0.08447265625,0.87744140625,-0.474365234375,3.082275152206421,0.6713866591453552,0.8544921278953552,100.0,124036.0,1.0
510396.692222,254763.9375,288985.28125,305579.65625,280700.65625,288223.78125,276379.875,249081.234375,262677.09375,-0.08251953125,0.885986328125,-0.470703125,3.326415777206421,0.4577636420726776,1.1901854276657104,100.0,124037.0,1.0
510396.7033649,254406.671875,288885.59375,305440.09375,280719.9375,287571.125,276603.5625,249022.40625,262634.875,-0.080322265625,0.891845703125,-0.47021484375,2.990722417831421,0.03051757626235485,1.7395018339157104,100.0,124038.0,1.0
510396.7059151,253763.65625,288795.1875,305712.6875,281653.53125,290895.90625,277558.6875,249720.765625,263577.25,-0.08642578125,0.88818359375,-0.470703125,2.716064214706421,-0.2136230319738388,2.197265386581421,100.0,124039.0,1.0
510396.7059502,253654.21875,288787.59375,306007.1875,282250.6875,293770.15625,277960.40625,250231.09375,264241.09375,-0.0859375,0.877197265625,-0.473388671875,2.685546636581421,-0.5798339247703552,2.410888433456421,100.0,124040.0,1.0
510396.7075648,254290.171875,288897.90625,305905.0,281626.90625,292051.75,277196.96875,249815.09375,263669.25,-0.091552734375,0.870361328125,-0.478515625,3.082275152206421,-0.8544921278953552,2.410888433456421,100.0,124041.0,1.0
510396.7362712,254772.4375,288980.875,305573.5,280705.28125,288209.5625,276369.9375,249079.625,262692.5625,-0.09033203125,0.871337890625,-0.47607421875,3.479003667831421,-1.3122557401657104,2.441406011581421,100.0,124042.0,1.0
510396.7475587,254419.015625,288890.21875,305433.84375,280717.375,287510.59375,276583.71875,249012.125,262631.65625,-0.07861328125,0.875732421875,-0.47509765625,3.540038824081421,-1.9226073026657104,2.593993902206421,100.0,124043.0,1.0
510396.7620877,253756.953125,288778.125,305687.84375,281626.09375,290771.4375,277518.75,249678.921875,263533.15625,-0.068359375,0.8857421875,-0.472412109375,3.723144292831421,-2.075195074081421,3.021239995956421,100.0,124044.0,1.0
510396.767055,253655.03125,288785.8125,306005.59375,282251.21875,293687.71875,277948.5,250217.859375,264223.375,-0.070556640625,0.886474609375,-0.472412109375,3.662109136581421,-2.258300542831421,3.540038824081421,100.0,124045.0,1.0
510396.769718,254283.203125,288898.625,305908.75,281641.46875,292012.6875,277199.28125,249816.609375,263662.96875,-0.068603515625,0.88525390625,-0.4716796875,3.479003667831421,-2.532958745956421,3.784179449081421,100.0,124046.0,1.0
510396.7722409,254743.375,288955.84375,305549.15625,280690.28125,288130.0,276346.34375,249050.21875,262663.3125,-0.064697265625,0.88720703125,-0.473876953125,3.540038824081421,-2.563476324081421,3.997802495956421,100.0,124047.0,1.0
510396.7746686,254407.390625,288874.59375,305413.53125,280693.65625,287392.84375,276558.875,248982.890625,262602.53125,-0.067138671875,0.880615234375,-0.471435546875,3.417968511581421,-2.624511480331421,4.211425304412842,100.0,124048.0,1.0
510396.7821333,253769.015625,288781.15625,305686.59375,281627.15625,290655.40625,277511.6875,249667.03125,263513.75,-0.052001953125,0.891357421875,-0.472412109375,3.204345464706421,-2.838134527206421,4.364013195037842,100.0,124049.0,1.0
510396.7845741,253611.9375,288738.96875,305956.3125,282213.21875,293553.78125,277904.4375,250171.640625,264169.125,-0.053466796875,0.8935546875,-0.46923828125,2.929687261581421,-2.532958745956421,4.943847179412842,100.0,124050.0,1.0
510396.7872258,254240.90625,288857.59375,305867.375,281611.15625,291932.75,277177.1875,249788.265625,263624.34375,-0.05224609375,0.896240234375,-0.47314453125,2.563476324081421,-2.593993902206421,5.310058116912842,100.0,124051.0,1.0
510396.7897647,254751.6875,288959.6875,305548.625,280692.875,288083.59375,276355.09375,249047.625,262640.875,-0.0478515625,0.894775390625,-0.475341796875,2.105712652206421,-2.380370855331421,5.676269054412842,100.0,124052.0,1.0
510396.7920553,254426.171875,288877.34375,305407.71875,280683.28125,287307.1875,276548.5,248968.21875,262567.5625,-0.0458984375,0.888916015625,-0.47998046875,1.8615721464157104,-1.7089842557907104,6.195067882537842,100.0,124053.0,1.0
510396.7945262,253759.640625,288748.25,305651.90625,281590.5,290515.75,277468.03125,249629.84375,263465.03125,-0.051513671875,0.8857421875,-0.48193359375,2.044677495956421,-1.2817381620407104,6.744384288787842,100.0,124054.0,1.0
510396.7969547,253603.0,288707.5625,305931.46875,282194.90625,293442.03125,277881.0,250144.28125,264136.46875,-0.06201171875,0.879638671875,-0.474853515625,1.8005369901657104,-1.5563963651657104,6.530761241912842,100.0,124055.0,1.0
510396.7991706,254250.75,288848.84375,305859.3125,281615.625,291873.21875,277174.4375,249774.859375,263612.28125,-0.0673828125,0.871826171875,-0.47216796875,1.8920897245407104,-2.197265386581421,5.981444835662842,100.0,124056.0,1.0
510396.7991777,254764.75,288967.3125,305544.875,280685.71875,288032.71875,276363.0625,249048.6875,262635.96875,-0.052490234375,0.879638671875,-0.46826171875,2.166747808456421,-2.655029058456421,5.767821788787842,100.0,124057.0,1.0
510396.8057094,254418.5625,288862.0625,305381.96875,280652.09375,287199.0,276533.84375,248950.609375,262542.25,-0.052001953125,0.88232421875,-0.4638671875,1.8920897245407104,-2.502441167831421,6.134032726287842,100.0,124058.0,1.0
510396.810737,253754.453125,288729.84375,305627.75,281564.40625,290381.28125,277452.5625,249606.953125,263443.46875,-0.058349609375,0.87841796875,-0.468017578125,1.5563963651657104,-2.655029058456421,6.072997570037842,100.0,124059.0,1.0
510396.8132021,253588.0625,288686.125,305911.71875,282181.9375,293321.34375,277864.125,250121.75,264130.40625,-0.05126953125,0.879638671875,-0.47265625,1.1596678495407104,-2.624511480331421,5.828856945037842,100.0,124060.0,1.0
510396.8409868,254220.34375,288824.78125,305845.5625,281612.59375,291812.84375,277168.71875,249768.0625,263631.59375,-0.046630859375,0.88671875,-0.4716796875,1.0375975370407104,-2.563476324081421,6.011962413787842,100.0,124061.0,1.0
510396.8410008,254754.734375,288942.90625,305534.15625,280693.75,287985.25,276345.09375,249035.453125,262662.4375,-0.03759765625,0.892578125,-0.46826171875,0.4882812201976776,-2.563476324081421,6.286620616912842,100.0,124062.0,1.0
510396.8433701,254456.203125,288884.5,305405.59375,280681.59375,287142.3125,276535.71875,248953.203125,262586.6875,-0.036865234375,0.896728515625,-0.469970703125,-0.0610351525247097,-2.349853277206421,6.622313976287842,100.0,124063.0,1.0
510396.8433798,253758.65625,288734.125,305619.71875,281554.65625,290259.21875,277421.90625,249581.5625,263446.53125,-0.034912109375,0.89990234375,-0.473388671875,-0.7324218153953552,-1.8615721464157104,6.683349132537842,100.0,124064.0,1.0
510396.8458022,253588.6875,288687.46875,305904.5625,282190.59375,293228.625,277853.46875,250104.953125,264142.8125,-0.046142578125,0.898681640625,-0.470947265625,-1.4038084745407104,-1.3427733182907104,6.805419445037842,100.0,124065.0,1.0
510396.8509568,254245.65625,288827.1875,305853.34375,281653.4375,291776.375,277173.34375,249759.125,263655.03125,-0.0537109375,0.8916015625,-0.4658203125,-1.6784666776657104,-2.075195074081421,6.561278820037842,100.0,124066.0,1.0
510396.850972,254750.796875,288937.78125,305523.9375,280697.25,287940.625,276336.34375,249014.71875,262658.40625,-0.044677734375,0.89306640625,-0.46875,-1.8310545682907104,-2.685546636581421,6.500243663787842,100.0,124067.0,1.0
510396.8547394,254428.84375,288855.0,305368.21875,280654.875,287051.5625,276498.34375,248918.78125,262554.6875,-0.06591796875,0.881103515625,-0.4697265625,-1.7700194120407104,-2.655029058456421,6.256103038787842,100.0,124068.0,1.0
510396.8547572,253728.609375,288688.4375,305579.84375,281540.8125,290154.96875,277387.5,249550.71875,263419.25,-0.05419921875,0.884765625,-0.477783203125,-1.7089842557907104,-3.234863042831421,5.371093273162842,100.0,124069.0,1.0
510396.85476,253549.078125,288628.28125,305860.9375,282174.34375,293136.09375,277820.5,250070.53125,264112.6875,-0.04541015625,0.89453125,-0.476318359375,-1.4343260526657104,-3.204345464706421,5.065917491912842,100.0,124070.0,1.0
510396.8571778,254195.140625,288790.71875,305818.28125,281637.0,291734.71875,277167.53125,249743.296875,263633.84375,-0.042724609375,0.900390625,-0.470703125,-1.5869139432907104,-3.204345464706421,5.187987804412842,100.0,124071.0,1.0
510396.8621793,254760.015625,288951.03125,305531.375,280723.0,287938.84375,276368.96875,249043.859375,262670.5625,-0.037109375,0.90380859375,-0.475830078125,-2.075195074081421,-3.509521245956421,5.279540538787842,100.0,124072.0,1.0
510396.8621971,254441.546875,288865.8125,305369.8125,280665.3125,286996.5,276520.6875,248939.796875,262557.28125,-0.044677734375,0.899658203125,-0.47607421875,-2.380370855331421,-3.387450933456421,5.310058116912842,100.0,124073.0,1.0
510396.8671851,253747.65625,288685.21875,305571.53125,281528.625,290040.625,277387.125,249552.046875,263412.09375,-0.054443359375,0.887451171875,-0.474365234375,-2.471923589706421,-3.570556402206421,4.821776866912842,100.0,124074.0,1.0
510396.8672056,253550.25,288623.34375,305848.0625,282167.90625,293029.40625,277818.53125,250065.78125,264104.1875,-0.0478515625,0.888671875,-0.474609375,-2.441406011581421,-3.845214605331421,4.486083507537842,100.0,124075.0,1.0
510396.8710626,254195.40625,288779.53125,305811.9375,281644.25,291672.65625,277175.78125,249746.875,263642.875,-0.04541015625,0.890625,-0.47607421875,-2.502441167831421,-3.631591558456421,4.638671398162842,100.0,124076.0,1.0
510396.871087,254741.859375,288928.75,305508.125,280695.53125,287866.25,276357.59375,249025.359375,262659.28125,-0.040771484375,0.89599609375,-0.4755859375,-2.777099370956421,-3.479003667831421,4.760741710662842,100.0,124077.0,1.0
510396.871091,254447.71875,288856.78125,305351.75,280634.3125,286879.1875,276495.65625,248902.6875,262520.1875,-0.054931640625,0.887451171875,-0.4775390625,-3.234863042831421,-3.448486089706421,4.730224132537842,100.0,124078.0,1.0
510396.8710952,253749.796875,288669.65625,305554.0,281506.1875,289894.90625,277348.78125,249511.109375,263373.46875,-0.06494140625,0.876708984375,-0.477294921875,-3.448486089706421,-3.753661870956421,3.997802495956421,100.0,124079.0,1.0
510396.8734505,253597.625,288648.375,305876.125,282202.40625,292945.65625,277830.21875,250075.0,264116.0,-0.06494140625,0.8701171875,-0.474365234375,-3.112792730331421,-4.150390148162842,3.509521245956421,100.0,124080.0,1.0
510396.8759155,254185.390625,288775.34375,305807.71875,281633.875,291606.59375,277165.3125,249731.84375,263624.8125,-0.055419921875,0.875732421875,-0.468017578125,-2.593993902206421,-4.608153820037842,3.204345464706421,100.0,124081.0,1.0
510396.8783003,254717.984375,288913.5625,305488.375,280649.78125,287784.34375,276323.28125,248983.421875,262619.25,-0.06005859375,0.8779296875,-0.4638671875,-2.471923589706421,-4.974364757537842,3.173827886581421,100.0,124082.0,1.0
510396.880979,254446.28125,288860.8125,305344.875,280587.625,286771.46875,276465.78125,248873.1875,262491.375,-0.063232421875,0.8779296875,-0.46533203125,-2.349853277206421,-5.645751476287842,2.868652105331421,100.0,124083.0,1.0
510396.8834127,253758.390625,288687.90625,305552.03125,281469.90625,289761.9375,277341.625,249496.703125,263350.59375,-0.06982421875,0.874267578125,-0.47021484375,-1.9226073026657104,-5.981444835662842,2.593993902206421,100.0,124084.0,1.0
510396.8834475,253553.375,288615.21875,305833.3125,282137.21875,292789.34375,277793.40625,250027.875,264065.03125,-0.07470703125,0.86767578125,-0.474853515625,-1.7395018339157104,-6.408690929412842,2.166747808456421,100.0,124085.0,1.0
510396.8859912,254191.734375,288792.25,305808.8125,281629.125,291527.65625,277172.46875,249721.921875,263619.0,-0.068359375,0.865478515625,-0.47607421875,-1.3122557401657104,-6.927489757537842,1.7089842557907104,100.0,124086.0,1.0
510396.8933444,254773.953125,288969.09375,305523.0625,280683.5625,287743.21875,276360.03125,249006.3125,262637.84375,-0.0546875,0.87353515625,-0.474365234375,-1.0375975370407104,-7.263183116912842,1.4953612089157104,100.0,124087.0,1.0
510396.895866,254469.609375,288879.40625,305344.0625,280580.84375,286660.34375,276458.625,248855.9375,262464.5625,-0.0595703125,0.873779296875,-0.4716796875,-0.8544921278953552,-7.415771007537842,1.7089842557907104,100.0,124088.0,1.0
510396.8985741,253749.703125,288666.0,305514.84375,281424.375,289567.3125,277291.5625,249435.203125,263279.25,-0.056396484375,0.873779296875,-0.47509765625,-0.4577636420726776,-7.904052257537842,1.3427733182907104,100.0,124089.0,1.0
510396.8986159,253558.109375,288602.59375,305817.9375,282129.8125,292615.90625,277765.6875,249985.859375,264021.21875,-0.03173828125,0.8994140625,-0.4697265625,-0.3051757514476776,-7.568358898162842,1.4038084745407104,100.0,124090.0,1.0
510396.9008914,254169.75,288773.8125,305788.25,281607.5,291387.5625,277145.46875,249687.421875,263583.6875,-0.046630859375,0.8984375,-0.46728515625,-0.4577636420726776,-7.080077648162842,2.014159917831421,100.0,124091.0,1.0
510396.9009298,254780.03125,288986.96875,305528.34375,280671.40625,287619.5,276349.21875,248988.96875,262616.375,-0.0478515625,0.888427734375,-0.473876953125,-0.8850097060203552,-7.629394054412842,1.7700194120407104,100.0,124092.0,1.0
510396.9170777,254507.34375,288913.375,305366.78125,280584.5,286495.8125,276454.25,248846.625,262461.875,-0.044189453125,0.887451171875,-0.46875,-0.9155272841453552,-7.629394054412842,1.8005369901657104,100.0,124093.0,1.0
510396.9248372,253770.453125,288675.9375,305519.125,281420.0,289356.40625,277265.0,249416.25,263275.65625,-0.05810546875,0.87841796875,-0.46875,-0.8850097060203552,-7.324218273162842,1.9531248807907104,100.0,124094.0,1.0
510396.9248766,253568.390625,288594.375,305811.5625,282114.25,292411.34375,277732.96875,249961.265625,264009.34375,-0.056396484375,0.876708984375,-0.474365234375,-0.8544921278953552,-7.446288585662842,1.5869139432907104,100.0,124095.0,1.0
510396.9248871,254186.828125,288776.15625,305790.75,281608.65625,291229.9375,277132.6875,249669.796875,263581.09375,-0.055419921875,0.8818359375,-0.47119140625,-0.5493163466453552,-7.659911632537842,1.6784666776657104,100.0,124096.0,1.0
510396.9271342,254756.96875,288964.625,305501.78125,280644.125,287447.375,276315.84375,248955.0,262594.125,-0.047607421875,0.894775390625,-0.46533203125,-0.3967284858226776,-7.629394054412842,2.136230230331421,100.0,124097.0,1.0
510396.9297292,254469.171875,288848.46875,305309.5625,280517.96875,286270.0625,276389.15625,248782.34375,262394.28125,-0.044921875,0.9013671875,-0.468017578125,-0.7019042372703552,-7.690429210662842,2.624511480331421,100.0,124098.0,1.0
510396.9322576,253775.015625,288645.4375,305488.90625,281371.375,289115.34375,277227.28125,249355.71875,263210.65625,-0.046630859375,0.9033203125,-0.4677734375,-1.1596678495407104,-7.507323741912842,3.051757574081421,100.0,124099.0,1.0
510396.9346942,253539.78125,288560.84375,305768.03125,282060.34375,292167.625,277699.96875,249892.78125,263948.09375,-0.06396484375,0.888916015625,-0.4697265625,-1.5258787870407104,-7.476806163787842,3.173827886581421,100.0,124100.0,1.0
510396.9408667,254154.640625,288728.3125,305749.875,281567.71875,291026.34375,277111.40625,249608.921875,263530.65625,-0.06298828125,0.88720703125,-0.470947265625,-1.4038084745407104,-7.873534679412842,3.051757574081421,100.0,124101.0,1.0
510396.9472346,254752.765625,288940.9375,305480.5,280612.40625,287260.53125,276312.28125,248907.515625,262557.09375,-0.069091796875,0.883544921875,-0.465087890625,-1.0681151151657104,-8.239745140075684,3.295898199081421,100.0,124102.0,1.0
510396.947275,254491.515625,288868.875,305309.375,280501.25,286059.875,276400.0,248752.21875,262370.0625,-0.072998046875,0.877685546875,-0.462158203125,-0.7324218153953552,-8.666991233825684,3.204345464706421,100.0,124103.0,1.0
510396.9497737,253774.75,288638.625,305467.8125,281333.09375,288852.3125,277212.53125,249312.0,263169.53125,-0.075927734375,0.871826171875,-0.467041015625,-0.4272460639476776,-9.033202171325684,3.173827886581421,100.0,124104.0,1.0
510396.9498146,253508.9375,288523.3125,305732.09375,282019.84375,291920.15625,277679.59375,249842.53125,263900.625,-0.064453125,0.88330078125,-0.46728515625,-0.1525878757238388,-9.246825218200684,3.143310308456421,100.0,124105.0,1.0
510396.9670747,254136.75,288720.0,305735.03125,281552.78125,290856.65625,277110.5,249577.265625,263502.84375,-0.050048828125,0.895263671875,-0.46435546875,-0.4272460639476776,-9.338377952575684,3.601073980331421,100.0,124106.0,1.0
510396.9698089,254734.703125,288922.15625,305456.28125,280582.1875,287096.1875,276292.25,248857.984375,262508.28125,-0.04443359375,0.90234375,-0.46240234375,-1.1291502714157104,-9.246825218200684,4.577636241912842,100.0,124107.0,1.0
510396.9698499,254450.296875,288811.71875,305247.40625,280424.03125,285819.71875,276332.46875,248651.359375,262277.4375,-0.0625,0.885986328125,-0.465576171875,-1.7395018339157104,-9.094237327575684,4.913329601287842,100.0,124108.0,1.0
510396.9720719,253765.453125,288605.03125,305433.375,281294.125,288617.53125,277162.625,249232.328125,263109.0,-0.078369140625,0.86083984375,-0.47021484375,-1.6174315214157104,-9.429930686950684,4.180907726287842,100.0,124109.0,1.0
510396.9747381,253538.0,288532.4375,305736.90625,282031.71875,291738.28125,277658.65625,249801.40625,263887.65625,-0.0771484375,0.852294921875,-0.468017578125,-1.0986326932907104,-10.009764671325684,3.967284917831421,100.0,124110.0,1.0
510396.9771918,254146.59375,288717.125,305735.5,281575.5625,290726.90625,277110.3125,249546.15625,263503.65625,-0.060791015625,0.865234375,-0.470703125,-0.3356933295726776,-10.131834983825684,4.058837413787842,100.0,124111.0,1.0
510396.9833292,254719.59375,288910.625,305441.59375,280564.03125,286984.78125,276295.8125,248825.359375,262502.125,-0.061767578125,0.875732421875,-0.4677734375,0.0610351525247097,-10.101317405700684,4.516601085662842,100.0,124112.0,1.0
510396.9871461,254496.96875,288863.9375,305284.96875,280443.25,285753.375,276375.75,248675.59375,262313.65625,-0.06787109375,0.875,-0.463623046875,-0.0610351525247097,-10.620116233825684,4.791259288787842,100.0,124113.0,1.0
510396.987186,253821.5,288661.96875,305485.34375,281337.40625,288557.375,277206.71875,249268.71875,263152.65625,-0.060302734375,0.87744140625,-0.466796875,-0.3662109076976776,-10.894774436950684,4.791259288787842,100.0,124114.0,1.0
510397.0197191,253519.40625,288519.375,305736.46875,282027.53125,291683.65625,277659.46875,249794.703125,263894.0,-0.05712890625,0.8828125,-0.458251953125,-0.3051757514476776,-10.650633811950684,5.035399913787842,100.0,124115.0,1.0
510397.0222744,254107.515625,288697.8125,305725.3125,281551.34375,290733.09375,277113.1875,249535.875,263506.25,-0.06982421875,0.87109375,-0.45947265625,-0.9155272841453552,-10.559081077575684,5.371093273162842,100.0,124116.0,1.0
510397.0223163,254728.890625,288933.25,305460.125,280577.53125,287027.34375,276312.0,248828.390625,262515.53125,-0.081298828125,0.85791015625,-0.468505859375,-0.6408690810203552,-10.803221702575684,5.157470226287842,100.0,124117.0,1.0
510397.0246923,254501.09375,288899.09375,305301.59375,280447.8125,285775.75,276386.5625,248678.28125,262319.28125,-0.061279296875,0.888916015625,-0.46875,0.03051757626235485,-11.077879905700684,5.249022960662842,100.0,124118.0,1.0
510397.032098,253787.796875,288651.0625,305469.15625,281311.5625,288551.46875,277195.875,249254.421875,263142.71875,-0.0673828125,0.895263671875,-0.471923828125,-0.1525878757238388,-11.138915061950684,6.195067882537842,100.0,124119.0,1.0
510397.0347024,253547.390625,288552.09375,305770.90625,282075.0,291747.21875,277701.46875,249821.96875,263933.96875,-0.070556640625,0.889892578125,-0.470458984375,-0.7019042372703552,-11.718749046325684,6.469726085662842,100.0,124120.0,1.0
510397.0395723,254122.359375,288732.0625,305759.53125,281609.09375,290856.1875,277157.53125,249565.203125,263553.8125,-0.068603515625,0.890380859375,-0.472900390625,-1.0070799589157104,-11.993407249450684,6.469726085662842,100.0,124121.0,1.0
510397.0422123,254748.921875,288967.5625,305492.40625,280622.84375,287164.6875,276353.3125,248852.625,262552.90625,-0.072998046875,0.88916015625,-0.474365234375,-0.8850097060203552,-11.901854515075684,6.469726085662842,100.0,124122.0,1.0
510397.0446953,254533.625,288916.96875,305324.5625,280481.0625,285871.3125,276407.6875,248684.265625,262339.21875,-0.060791015625,0.885986328125,-0.469970703125,-1.0375975370407104,-12.176512718200684,6.439208507537842,100.0,124123.0,1.0
510397.0472063,253832.328125,288678.96875,305494.0,281354.21875,288611.28125,277204.46875,249259.78125,263159.25,-0.0576171875,0.89306640625,-0.46728515625,-0.9155272841453552,-12.145995140075684,6.744384288787842,100.0,124124.0,1.0
510397.0497462,253546.84375,288537.15625,305770.4375,282094.9375,291799.90625,277688.875,249815.53125,263937.09375,-0.044677734375,0.91943359375,-0.45947265625,-1.2207030057907104,-11.962889671325684,7.293700695037842,100.0,124125.0,1.0
510397.0522475,254171.09375,288760.6875,305809.53125,281676.96875,290984.40625,277205.90625,249605.421875,263605.125,-0.06689453125,0.9013671875,-0.470703125,-2.380370855331421,-11.901854515075684,7.659911632537842,100.0,124126.0,1.0
510397.0547419,254801.9375,289017.375,305545.3125,280683.84375,287288.3125,276406.5,248890.53125,262600.1875,-0.068359375,0.8798828125,-0.482421875,-2.532958745956421,-12.207030296325684,6.958007335662842,100.0,124127.0,1.0
510397.0547828,254526.65625,288911.875,305317.5,280451.5625,285901.28125,276403.28125,248670.234375,262332.5,-0.04541015625,0.891357421875,-0.4736328125,-1.8920897245407104,-12.390135765075684,6.683349132537842,100.0,124128.0,1.0
510397.0570744,253823.109375,288669.5,305476.3125,281307.53125,288591.0,277183.1875,249223.390625,263132.625,-0.0478515625,0.90185546875,-0.46533203125,-2.166747808456421,-11.993407249450684,7.415771007537842,100.0,124129.0,1.0
510397.0646969,253549.796875,288541.90625,305769.46875,282079.75,291799.09375,277678.25,249794.4375,263929.78125,-0.052490234375,0.89111328125,-0.472900390625,-3.051757574081421,-11.688231468200684,7.537841320037842,100.0,124130.0,1.0
510397.0670941,254148.203125,288750.21875,305796.375,281658.90625,291015.0625,277196.34375,249581.375,263595.5625,-0.04931640625,0.89208984375,-0.47509765625,-3.265380620956421,-11.291502952575684,7.202147960662842,100.0,124131.0,1.0
510397.0721538,254815.703125,289053.125,305567.6875,280685.53125,287385.6875,276454.0625,248923.4375,262629.625,-0.049072265625,0.89892578125,-0.469482421875,-3.753661870956421,-10.589598655700684,7.476806163787842,100.0,124132.0,1.0
510397.0721945,254578.15625,288965.96875,305365.34375,280491.15625,285997.65625,276468.375,248727.359375,262375.4375,-0.058837890625,0.888671875,-0.468505859375,-3.875732183456421,-10.803221702575684,7.720946788787842,100.0,124133.0,1.0
510397.0745728,253858.25,288695.0625,305506.25,281332.125,288632.84375,277223.875,249261.03125,263157.03125,-0.0546875,0.882568359375,-0.467529296875,-3.875732183456421,-11.444090843200684,7.690429210662842,100.0,124134.0,1.0
510397.0761839,253560.078125,288539.03125,305781.53125,282095.9375,291830.5625,277702.03125,249811.875,263946.3125,-0.05908203125,0.885009765625,-0.4619140625,-3.570556402206421,-11.352538108825684,7.873534679412842,100.0,124135.0,1.0
510397.1058717,254148.5625,288741.5625,305806.3125,281672.9375,291087.5,277220.5625,249592.015625,263617.75,-0.0615234375,0.885009765625,-0.461181640625,-3.631591558456421,-11.138915061950684,7.690429210662842,100.0,124136.0,1.0
510397.1085089,254803.109375,289038.28125,305564.375,280674.96875,287462.75,276461.78125,248913.78125,262637.65625,-0.052978515625,0.889892578125,-0.464599609375,-3.936767339706421,-10.864256858825684,7.629394054412842,100.0,124137.0,1.0
510397.1085503,254585.3125,288962.125,305363.75,280476.78125,286031.8125,276465.53125,248704.828125,262369.53125,-0.0546875,0.890380859375,-0.46533203125,-3.997802495956421,-10.437010765075684,7.965087413787842,100.0,124138.0,1.0
510397.1099312,253858.25,288663.84375,305487.84375,281313.96875,288599.75,277188.03125,249209.265625,263133.0625,-0.0615234375,0.8779296875,-0.46826171875,-3.906249761581421,-10.498045921325684,7.720946788787842,100.0,124139.0,1.0
510397.1322049,253581.53125,288523.84375,305787.625,282117.125,291820.71875,277693.0,249778.4375,263950.96875,-0.06494140625,0.8671875,-0.47314453125,-3.265380620956421,-10.925292015075684,7.080077648162842,100.0,124140.0,1.0
510397.1347901,254174.296875,288758.53125,305836.15625,281714.53125,291156.6875,277250.6875,249602.5625,263660.03125,-0.0546875,0.883056640625,-0.475341796875,-2.624511480331421,-10.681151390075684,6.652831554412842,100.0,124141.0,1.0
510397.1370891,254835.296875,289075.40625,305604.78125,280707.71875,287556.46875,276506.125,248942.390625,262683.15625,-0.0576171875,0.88623046875,-0.468505859375,-2.685546636581421,-10.314940452575684,6.774901866912842,100.0,124142.0,1.0
510397.139717,254610.875,288981.78125,305381.4375,280481.6875,286059.6875,276468.75,248701.703125,262368.625,-0.051025390625,0.888916015625,-0.466796875,-3.234863042831421,-10.070799827575684,6.622313976287842,100.0,124143.0,1.0
510397.1422335,253878.546875,288676.28125,305495.0625,281306.5625,288593.40625,277180.40625,249206.578125,263125.71875,-0.0419921875,0.902099609375,-0.460693359375,-3.570556402206421,-9.185790061950684,6.988524913787842,100.0,124144.0,1.0
510397.144633,253559.0,288510.875,305768.21875,282091.625,291816.0625,277676.4375,249771.90625,263936.90625,-0.05029296875,0.900146484375,-0.4599609375,-4.516601085662842,-8.392333030700684,7.263183116912842,100.0,124145.0,1.0
510397.1470636,254142.46875,288725.46875,305811.9375,281706.46875,291196.65625,277242.8125,249597.65625,263651.28125,-0.0634765625,0.880615234375,-0.462158203125,-4.943847179412842,-8.239745140075684,7.080077648162842,100.0,124146.0,1.0
510397.1520873,254825.90625,289058.5,305600.125,280721.46875,287623.59375,276513.34375,248946.234375,262690.40625,-0.072021484375,0.85888671875,-0.4677734375,-3.845214605331421,-9.033202171325684,6.927489757537842,100.0,124147.0,1.0
510397.1546963,254622.140625,289006.5625,305402.28125,280499.21875,286144.90625,276505.125,248744.53125,262412.4375,-0.047119140625,0.88427734375,-0.466064453125,-2.624511480331421,-8.789061546325684,6.530761241912842,100.0,124148.0,1.0
510397.1572676,253888.203125,288690.0625,305514.9375,281331.21875,288650.1875,277209.65625,249254.6875,263170.34375,-0.04638671875,0.91455078125,-0.45654296875,-3.082275152206421,-8.056639671325684,6.866454601287842,100.0,124149.0,1.0
510397.1597356,253556.6875,288504.96875,305778.9375,282122.9375,291869.8125,277693.875,249804.09375,263967.9375,-0.052978515625,0.907958984375,-0.461181640625,-3.967284917831421,-7.995604991912842,7.019042491912842,100.0,124150.0,1.0
510397.1722256,254134.96875,288737.4375,305833.46875,281747.0625,291311.1875,277270.375,249640.65625,263692.5625,-0.05712890625,0.8916015625,-0.470703125,-4.547118663787842,-7.598876476287842,6.652831554412842,100.0,124151.0,1.0
510397.1796973,254825.640625,289081.65625,305623.03125,280750.34375,287767.46875,276541.4375,248992.453125,262731.34375,-0.06640625,0.87744140625,-0.4716796875,-4.180907726287842,-7.232665538787842,6.103515148162842,100.0,124152.0,1.0
510397.182271,254621.25,289018.8125,305408.96875,280500.8125,286226.875,276501.65625,248751.859375,262413.4375,-0.072998046875,0.865478515625,-0.4677734375,-3.692626714706421,-7.629394054412842,5.493163585662842,100.0,124153.0,1.0
510397.1823116,253868.265625,288678.875,305501.0625,281309.0625,288680.84375,277182.9375,249238.6875,263150.21875,-0.051513671875,0.892822265625,-0.462158203125,-3.021239995956421,-7.629394054412842,5.218505382537842,100.0,124154.0,1.0
510397.1846714,253529.046875,288473.0625,305766.59375,282115.15625,291914.25,277669.9375,249799.4375,263965.1875,-0.0458984375,0.910400390625,-0.453125,-3.051757574081421,-6.988524913787842,5.798339366912842,100.0,124155.0,1.0
510397.187248,254115.5625,288720.96875,305836.78125,281763.0625,291407.21875,277272.34375,249652.1875,263707.9375,-0.043212890625,0.919189453125,-0.457275390625,-4.028319835662842,-6.408690929412842,6.378173351287842,100.0,124156.0,1.0
510397.1872891,254808.5625,289069.40625,305616.5,280739.1875,287861.6875,276543.75,248999.78125,262734.3125,-0.0634765625,0.897705078125,-0.468505859375,-4.791259288787842,-5.981444835662842,6.652831554412842,100.0,124157.0,1.0
510397.1895588,254635.828125,289018.4375,305406.65625,280497.875,286284.65625,276503.53125,248760.171875,262412.25,-0.062744140625,0.89501953125,-0.469970703125,-5.004882335662842,-5.798339366912842,6.225585460662842,100.0,124158.0,1.0
510397.1921731,253863.609375,288667.59375,305480.3125,281288.9375,288670.90625,277171.9375,249228.3125,263132.15625,-0.0615234375,0.892822265625,-0.470703125,-5.004882335662842,-5.523681163787842,6.195067882537842,100.0,124159.0,1.0
510397.1922147,253531.734375,288473.5,305758.1875,282112.1875,291916.75,277679.65625,249808.296875,263963.03125,-0.0634765625,0.891357421875,-0.47216796875,-4.943847179412842,-5.249022960662842,6.103515148162842,100.0,124160.0,1.0
510397.194725,254128.890625,288727.40625,305841.25,281778.09375,291459.34375,277297.625,249677.21875,263725.21875,-0.060791015625,0.891845703125,-0.475341796875,-5.035399913787842,-5.065917491912842,5.676269054412842,100.0,124161.0,1.0
510397.197145,254841.28125,289102.84375,305638.46875,280768.15625,287931.15625,276570.75,249022.5,262752.375,-0.05810546875,0.89990234375,-0.472412109375,-4.943847179412842,-4.852294445037842,5.859374523162842,100.0,124162.0,1.0
510397.1971853,254685.984375,289080.9375,305444.5625,280511.53125,286326.5,276542.84375,248799.6875,262439.96875,-0.0595703125,0.890380859375,-0.471435546875,-5.249022960662842,-4.364013195037842,6.042479991912842,100.0,124163.0,1.0
510397.1997257,253932.734375,288727.5,305520.46875,281305.9375,288666.0,277197.0625,249260.9375,263151.84375,-0.0634765625,0.89013671875,-0.46142578125,-4.821776866912842,-4.455565929412842,6.164550304412842,100.0,124164.0,1.0
510397.2021154,253560.96875,288496.3125,305768.5625,282119.625,291882.78125,277669.65625,249810.171875,263966.4375,-0.066650390625,0.87060546875,-0.4658203125,-4.058837413787842,-4.974364757537842,6.042479991912842,100.0,124165.0,1.0
510397.2046261,254122.625,288724.375,305834.5625,281774.59375,291451.84375,277284.9375,249669.796875,263725.03125,-0.046875,0.898193359375,-0.454833984375,-3.631591558456421,-4.821776866912842,5.950927257537842,100.0,124166.0,1.0
510397.2046617,254827.59375,289108.90625,305625.0625,280737.65625,287939.9375,276560.28125,249022.40625,262747.71875,-0.0537109375,0.91015625,-0.460205078125,-4.577636241912842,-3.967284917831421,6.530761241912842,100.0,124167.0,1.0
510397.2072435,254670.15625,289070.46875,305421.84375,280475.78125,286307.625,276515.9375,248787.0,262410.46875,-0.0869140625,0.864013671875,-0.471923828125,-4.760741710662842,-3.845214605331421,6.439208507537842,100.0,124168.0,1.0
510397.2108787,253918.6875,288696.40625,305498.125,281276.875,288613.15625,277167.625,249244.84375,263117.0625,-0.082275390625,0.839599609375,-0.4736328125,-3.540038824081421,-4.699706554412842,5.493163585662842,100.0,124169.0,1.0
510397.2472566,253550.78125,288481.71875,305763.28125,282101.8125,291860.59375,277665.71875,249817.234375,263952.3125,-0.06591796875,0.858642578125,-0.472412109375,-2.044677495956421,-4.577636241912842,5.279540538787842,100.0,124170.0,1.0
510397.2472975,254116.71875,288717.59375,305840.71875,281774.40625,291494.03125,277298.625,249697.421875,263726.8125,-0.060546875,0.88427734375,-0.46337890625,-1.1291502714157104,-4.272460460662842,5.523681163787842,100.0,124171.0,1.0
510397.2585645,254841.734375,289112.125,305646.53125,280761.78125,288015.46875,276582.28125,249055.046875,262749.96875,-0.065673828125,0.888671875,-0.460205078125,-1.5258787870407104,-4.486083507537842,5.737304210662842,100.0,124172.0,1.0
510397.2586111,254685.53125,289077.0,305435.8125,280479.8125,286340.0,276513.90625,248800.046875,262396.25,-0.057373046875,0.8935546875,-0.459228515625,-1.6479490995407104,-4.302978038787842,5.767821788787842,100.0,124173.0,1.0
510397.2586208,253934.25,288711.25,305510.8125,281280.4375,288623.875,277160.21875,249261.125,263108.5625,-0.049072265625,0.901123046875,-0.456787109375,-1.7395018339157104,-3.784179449081421,6.072997570037842,100.0,124174.0,1.0
510397.2696855,253550.421875,288459.1875,305760.625,282114.25,291866.59375,277650.78125,249818.84375,263944.625,-0.053955078125,0.89794921875,-0.461181640625,-2.258300542831421,-3.479003667831421,6.439208507537842,100.0,124175.0,1.0
510397.2697262,254096.25,288686.5625,305827.59375,281788.46875,291525.875,277285.375,249684.640625,263720.5625,-0.067138671875,0.87939453125,-0.472900390625,-2.746581792831421,-3.112792730331421,6.408690929412842,100.0,124176.0,1.0
510397.2697352,254826.703125,289094.0,305636.4375,280768.21875,288063.5,276576.5625,249040.828125,262748.625,-0.068359375,0.878662109375,-0.470947265625,-2.593993902206421,-3.051757574081421,6.286620616912842,100.0,124177.0,1.0
510397.269744,254670.6875,289054.84375,305416.5625,280465.5,286372.09375,276501.03125,248786.015625,262390.0,-0.071044921875,0.874267578125,-0.469482421875,-1.9531248807907104,-3.112792730331421,6.042479991912842,100.0,124178.0,1.0
510397.2697529,253911.890625,288675.03125,305475.125,281249.34375,288619.96875,277134.5625,249234.484375,263090.59375,-0.0634765625,0.883056640625,-0.46435546875,-1.4648436307907104,-3.173827886581421,5.798339366912842,100.0,124179.0,1.0
510397.272188,253517.34375,288421.375,305727.0,282094.0625,291901.375,277638.71875,249809.71875,263941.3125,-0.06298828125,0.890869140625,-0.459228515625,-1.4038084745407104,-2.868652105331421,5.615233898162842,100.0,124180.0,1.0
510397.2770966,254057.359375,288648.375,305801.46875,281780.78125,291641.09375,277290.3125,249691.625,263731.8125,-0.068115234375,0.887451171875,-0.462158203125,-1.5869139432907104,-2.807616949081421,5.493163585662842,100.0,124181.0,1.0
510397.2796994,254821.609375,289095.78125,305643.40625,280787.0,288249.4375,276612.3125,249078.375,262782.84375,-0.06982421875,0.8779296875,-0.46435546875,-1.4648436307907104,-2.838134527206421,5.249022960662842,100.0,124182.0,1.0
510397.282214,254672.03125,289070.46875,305420.875,280472.65625,286529.15625,276521.5,248808.71875,262405.5625,-0.07275390625,0.86767578125,-0.462646484375,-0.8544921278953552,-3.082275152206421,4.943847179412842,100.0,124183.0,1.0
510397.2845865,253929.15625,288719.1875,305495.0625,281271.25,288757.71875,277165.65625,249266.9375,263111.875,-0.067138671875,0.876708984375,-0.459716796875,-0.3967284858226776,-3.326415777206421,4.608153820037842,100.0,124184.0,1.0
510397.2872231,253535.140625,288463.9375,305757.125,282135.8125,292048.96875,277685.03125,249855.765625,263976.71875,-0.048583984375,0.910400390625,-0.445556640625,-0.5493163466453552,-3.204345464706421,4.730224132537842,100.0,124185.0,1.0
510397.289728,254065.9375,288671.53125,305832.75,281835.40625,291829.5,277338.3125,249736.953125,263779.5625,-0.074951171875,0.89208984375,-0.448974609375,-1.1901854276657104,-3.051757574081421,5.126952648162842,100.0,124186.0,1.0
510397.292055,254817.859375,289115.0,305660.9375,280819.65625,288448.03125,276650.15625,249118.25,262821.21875,-0.068359375,0.8837890625,-0.459228515625,-1.0375975370407104,-3.295898199081421,4.547118663787842,100.0,124187.0,1.0
510397.2947531,254670.6875,289087.46875,305429.28125,280490.28125,286697.625,276553.5,248844.9375,262431.5625,-0.07861328125,0.88037109375,-0.45654296875,-0.7324218153953552,-3.204345464706421,4.333495616912842,100.0,124188.0,1.0
510397.2947953,253888.109375,288683.78125,305461.5625,281247.0,288854.8125,277150.28125,249262.015625,263092.65625,-0.075439453125,0.8740234375,-0.4580078125,-0.5493163466453552,-3.723144292831421,3.936767339706421,100.0,124189.0,1.0
510397.2971706,253504.015625,288448.90625,305743.71875,282138.40625,292177.0,277685.65625,249869.71875,263985.125,-0.064453125,0.88916015625,-0.44970703125,-0.4272460639476776,-3.753661870956421,3.875732183456421,100.0,124190.0,1.0
510397.2997237,254042.15625,288680.9375,305832.75,281853.1875,292009.71875,277352.875,249768.421875,263802.0,-0.074951171875,0.883544921875,-0.4560546875,-0.3356933295726776,-3.814697027206421,3.906249761581421,100.0,124191.0,1.0
510397.3021618,254773.953125,289093.28125,305633.5625,280804.875,288597.59375,276632.0,249105.828125,262798.40625,-0.066650390625,0.8876953125,-0.4599609375,-0.0610351525247097,-3.936767339706421,3.753661870956421,100.0,124192.0,1.0
510397.3022018,254674.359375,289110.96875,305441.15625,280497.25,286845.9375,276561.0,248856.828125,262431.3125,-0.068359375,0.887939453125,-0.456787109375,0.03051757626235485,-3.784179449081421,3.906249761581421,100.0,124193.0,1.0
510397.3171029,253929.234375,288734.21875,305501.59375,281277.125,288991.625,277174.6875,249301.625,263122.875,-0.062744140625,0.890869140625,-0.458251953125,0.03051757626235485,-3.936767339706421,3.906249761581421,100.0,124194.0,1.0
510397.3218217,253484.078125,288424.875,305718.6875,282114.0625,292231.375,277644.875,249844.765625,263952.3125,-0.061279296875,0.8896484375,-0.457763671875,-0.2136230319738388,-3.723144292831421,4.302978038787842,100.0,124195.0,1.0
510397.3218611,254011.5,288648.5625,305804.5,281834.78125,292083.9375,277324.1875,249743.921875,263776.34375,-0.06787109375,0.87841796875,-0.455810546875,-0.3967284858226776,-3.540038824081421,4.455565929412842,100.0,124196.0,1.0
510397.3218705,254797.5625,289124.21875,305654.5625,280832.78125,288738.875,276669.5625,249136.40625,262833.0,-0.0712890625,0.868408203125,-0.460693359375,-0.3356933295726776,-3.845214605331421,4.241942882537842,100.0,124197.0,1.0
510397.3218807,254704.9375,289138.4375,305453.78125,280508.40625,286947.78125,276585.3125,248879.796875,262456.96875,-0.074951171875,0.8642578125,-0.4609375,0.0,-4.028319835662842,3.997802495956421,100.0,124198.0,1.0
510397.328461,253924.6875,288715.34375,305476.03125,281250.0625,289008.15625,277147.25,249282.3125,263109.0,-0.07666015625,0.86572265625,-0.461669921875,0.2746581733226776,-4.150390148162842,3.692626714706421,100.0,124199.0,1.0
510397.3309706,253479.25,288403.3125,305702.9375,282107.1875,292254.78125,277627.28125,249833.0625,263957.9375,-0.097412109375,0.861328125,-0.467041015625,0.7019042372703552,-4.608153820037842,3.265380620956421,100.0,124200.0,1.0
510397.3447356,254027.953125,288653.03125,305822.75,281870.34375,292174.5,277347.15625,249768.953125,263822.3125,-0.07861328125,0.862060546875,-0.47265625,1.0070799589157104,-5.584716320037842,2.532958745956421,100.0,124201.0,1.0
510397.3496544,254798.8125,289113.84375,305660.03125,280847.8125,288819.6875,276672.3125,249151.6875,262858.3125,-0.0703125,0.87109375,-0.46484375,1.4038084745407104,-5.371093273162842,2.593993902206421,100.0,124202.0,1.0
510397.349694,254662.015625,289081.28125,305404.78125,280456.84375,286924.96875,276526.59375,248831.515625,262409.75,-0.057373046875,0.879150390625,-0.45703125,1.5869139432907104,-5.371093273162842,2.777099370956421,100.0,124203.0,1.0
510397.352221,253899.828125,288679.3125,305439.09375,281207.5,288955.21875,277103.625,249247.984375,263069.6875,-0.0546875,0.880859375,-0.45751953125,1.5563963651657104,-5.126952648162842,3.051757574081421,100.0,124204.0,1.0
510397.354687,253458.15625,288369.15625,305673.53125,282083.78125,292206.4375,277592.40625,249813.84375,263934.6875,-0.059814453125,0.87939453125,-0.462158203125,1.4038084745407104,-4.882812023162842,3.265380620956421,100.0,124205.0,1.0
510397.35721,253970.90625,288583.65625,305761.40625,281828.6875,292133.125,277289.125,249722.90625,263776.875,-0.0615234375,0.87744140625,-0.468017578125,1.4343260526657104,-4.852294445037842,3.265380620956421,100.0,124206.0,1.0
510397.3684964,254763.234375,289065.1875,305616.21875,280817.40625,288823.34375,276636.375,249117.890625,262824.15625,-0.062744140625,0.876953125,-0.471435546875,1.6174315214157104,-4.791259288787842,3.143310308456421,100.0,124207.0,1.0
510397.3685371,254678.5625,289084.4375,305403.78125,280462.8125,286955.8125,276528.5625,248832.0625,262408.40625,-0.06005859375,0.87841796875,-0.4736328125,1.8005369901657104,-4.760741710662842,3.051757574081421,100.0,124208.0,1.0
510397.370955,253924.6875,288685.59375,305443.40625,281216.78125,288964.78125,277101.84375,249246.453125,263062.6875,-0.0595703125,0.884033203125,-0.47314453125,2.136230230331421,-4.638671398162842,3.082275152206421,100.0,124209.0,1.0
510397.3846394,253462.625,288361.03125,305669.875,282085.09375,292216.25,277583.28125,249797.296875,263912.6875,-0.058837890625,0.888916015625,-0.467041015625,2.441406011581421,-5.035399913787842,2.838134527206421,100.0,124210.0,1.0
510397.3846791,253973.140625,288594.125,305776.71875,281848.09375,292221.4375,277314.875,249740.875,263785.09375,-0.051025390625,0.88818359375,-0.472900390625,2.349853277206421,-5.187987804412842,2.441406011581421,100.0,124211.0,1.0
510397.3872252,254773.953125,289093.53125,305639.375,280842.875,288949.34375,276681.71875,249155.359375,262850.96875,-0.04541015625,0.891357421875,-0.4765625,2.593993902206421,-4.791259288787842,2.227782964706421,100.0,124212.0,1.0
510397.3872677,254702.875,289125.46875,305432.9375,280484.375,287069.5625,276570.40625,248874.34375,262438.625,-0.046630859375,0.894287109375,-0.474609375,2.990722417831421,-4.272460460662842,2.105712652206421,100.0,124213.0,1.0
510397.3896996,253932.90625,288697.1875,305449.9375,281212.84375,289012.375,277095.75,249248.6875,263059.3125,-0.0400390625,0.896484375,-0.4775390625,3.021239995956421,-4.180907726287842,1.9836424589157104,100.0,124214.0,1.0
510397.3947427,253451.1875,288344.03125,305661.375,282075.8125,292241.5625,277549.5,249776.203125,263892.21875,-0.037109375,0.899169921875,-0.479736328125,3.143310308456421,-3.906249761581421,1.8005369901657104,100.0,124215.0,1.0
510397.3995792,253964.375,288579.09375,305779.125,281858.09375,292288.15625,277292.4375,249722.46875,263776.0,-0.0361328125,0.898193359375,-0.47705078125,3.295898199081421,-3.723144292831421,1.8615721464157104,100.0,124216.0,1.0
510397.4022111,254751.96875,289076.90625,305634.46875,280841.0,289032.3125,276646.125,249126.125,262826.21875,-0.03564453125,0.8994140625,-0.47412109375,3.479003667831421,-3.906249761581421,1.7395018339157104,100.0,124217.0,1.0
510397.4060644,254674.53125,289104.71875,305416.65625,280459.34375,287106.5625,276518.71875,248827.765625,262382.5,-0.02685546875,0.903564453125,-0.486572265625,3.509521245956421,-3.692626714706421,1.8615721464157104,100.0,124218.0,1.0
510397.4184059,253933.625,288713.90625,305464.125,281207.65625,289044.625,277088.15625,249245.296875,263034.8125,-0.024658203125,0.907958984375,-0.49462890625,3.387450933456421,-2.441406011581421,1.9226073026657104,100.0,124219.0,1.0
510397.4184475,253475.59375,288396.25,305711.875,282114.15625,292318.0,277598.21875,249826.71875,263915.65625,-0.033203125,0.914306640625,-0.48388671875,3.356933355331421,-1.8615721464157104,1.9226073026657104,100.0,124220.0,1.0
510397.4210134,253980.015625,288627.90625,305831.6875,281914.15625,292404.90625,277352.34375,249789.078125,263816.125,-0.037109375,0.919677734375,-0.47802734375,2.624511480331421,-1.9531248807907104,1.6784666776657104,100.0,124221.0,1.0
510397.4210548,254785.671875,289130.5625,305690.0625,280899.21875,289151.84375,276712.90625,249190.3125,262869.03125,-0.0361328125,0.918212890625,-0.47509765625,2.227782964706421,-2.166747808456421,1.6479490995407104,100.0,124222.0,1.0
510397.422404,254720.9375,289158.1875,305466.8125,280499.125,287186.40625,276577.625,248884.71875,262416.90625,-0.045654296875,0.90869140625,-0.468017578125,2.105712652206421,-2.258300542831421,1.8310545682907104,100.0,124223.0,1.0
510397.4297722,253947.03125,288723.125,305474.59375,281206.15625,289045.09375,277098.15625,249256.734375,263025.59375,-0.04541015625,0.904052734375,-0.462890625,2.288818120956421,-2.655029058456421,1.6784666776657104,100.0,124224.0,1.0
510397.4345942,253478.71875,288390.34375,305715.65625,282112.375,292314.4375,277594.90625,249837.703125,263923.15625,-0.048095703125,0.904052734375,-0.461181640625,2.105712652206421,-2.868652105331421,2.044677495956421,100.0,124225.0,1.0
510397.4384066,253961.6875,288597.78125,305820.4375,281907.625,292428.15625,277341.0,249790.953125,263824.28125,-0.0478515625,0.906494140625,-0.47216796875,1.8310545682907104,-2.685546636581421,2.441406011581421,100.0,124226.0,1.0
510397.4384475,254777.09375,289113.03125,305684.53125,280896.09375,289209.5,276711.125,249198.453125,262879.59375,-0.047119140625,0.909423828125,-0.486572265625,1.1596678495407104,-1.5563963651657104,2.349853277206421,100.0,124227.0,1.0
510397.4421944,254733.359375,289157.46875,305470.125,280493.5625,287217.78125,276580.40625,248885.4375,262418.625,-0.0537109375,0.911376953125,-0.48291015625,0.5187987685203552,-0.9765624403953552,2.319335699081421,100.0,124228.0,1.0
510397.5087028,253968.21875,288727.96875,305476.46875,281196.65625,289021.84375,277099.78125,249251.46875,263015.21875,-0.060791015625,0.908935546875,-0.48193359375,-0.03051757626235485,-1.4343260526657104,2.319335699081421,100.0,124229.0,1.0
510397.513396,253475.40625,288365.0625,305693.5625,282092.09375,292243.8125,277574.78125,249800.421875,263879.25,-0.055908203125,0.900146484375,-0.477294921875,-0.2441406100988388,-1.9226073026657104,2.349853277206421,100.0,124230.0,1.0
510397.5134351,253981.359375,288607.875,305835.34375,281933.125,292431.28125,277366.84375,249795.6875,263830.0,-0.05859375,0.9013671875,-0.47021484375,-0.6103515028953552,-1.9531248807907104,2.288818120956421,100.0,124231.0,1.0
510397.5183338,254804.4375,289133.96875,305709.21875,280925.21875,289241.34375,276743.03125,249216.421875,262901.0625,-0.0615234375,0.9052734375,-0.468994140625,-1.1291502714157104,-1.7700194120407104,2.075195074081421,100.0,124232.0,1.0
510397.5209888,254766.265625,289185.0,305491.3125,280507.6875,287223.875,276600.34375,248906.53125,262440.4375,-0.06787109375,0.902587890625,-0.469482421875,-1.5258787870407104,-1.5869139432907104,1.8920897245407104,100.0,124233.0,1.0
510397.5233708,253991.46875,288740.90625,305481.75,281188.96875,288979.8125,277090.3125,249250.484375,263023.53125,-0.06640625,0.898681640625,-0.466552734375,-1.7700194120407104,-1.8005369901657104,1.7700194120407104,100.0,124234.0,1.0
510397.5250406,253493.03125,288380.15625,305705.625,282091.8125,292229.65625,277569.53125,249811.25,263905.90625,-0.06494140625,0.894775390625,-0.46484375,-2.136230230331421,-2.166747808456421,1.8005369901657104,100.0,124235.0,1.0
510397.532223,253973.59375,288600.5625,305836.0625,281933.125,292453.90625,277354.6875,249800.0625,263849.65625,-0.07080078125,0.890625,-0.46630859375,-2.014159917831421,-2.532958745956421,1.8005369901657104,100.0,124236.0,1.0
510397.5422276,254800.78125,289133.6875,305714.65625,280930.6875,289290.40625,276734.90625,249218.5625,262924.5625,-0.06640625,0.8974609375,-0.461669921875,-2.044677495956421,-2.777099370956421,1.4953612089157104,100.0,124237.0,1.0
510397.5447702,254785.140625,289203.34375,305504.65625,280509.59375,287250.15625,276589.15625,248902.15625,262450.8125,-0.064453125,0.89404296875,-0.462890625,-2.410888433456421,-3.173827886581421,1.5258787870407104,100.0,124238.0,1.0
510397.549749,254015.515625,288762.5625,305494.53125,281191.125,288982.84375,277084.75,249249.859375,263024.15625,-0.06494140625,0.89697265625,-0.465087890625,-2.655029058456421,-3.143310308456421,1.5258787870407104,100.0,124239.0,1.0
510397.5595798,253512.515625,288399.46875,305725.3125,282110.21875,292253.625,277577.84375,249820.359375,263916.34375,-0.06640625,0.8994140625,-0.4619140625,-2.990722417831421,-3.265380620956421,1.4343260526657104,100.0,124240.0,1.0
510397.5620953,253972.78125,288603.3125,305847.6875,281953.3125,292517.125,277355.125,249805.609375,263860.46875,-0.065673828125,0.8974609375,-0.4619140625,-3.112792730331421,-3.570556402206421,1.2207030057907104,100.0,124241.0,1.0
510397.5647311,254794.34375,289130.90625,305719.21875,280942.5625,289364.0,276724.8125,249219.734375,262925.8125,-0.065673828125,0.893310546875,-0.45947265625,-3.265380620956421,-3.784179449081421,1.0681151151657104,100.0,124242.0,1.0
510397.5671011,254784.421875,289203.875,305507.3125,280515.65625,287308.625,276575.21875,248899.203125,262449.375,-0.0673828125,0.885009765625,-0.459716796875,-3.082275152206421,-4.089354991912842,1.0375975370407104,100.0,124243.0,1.0
510397.5721641,254023.75,288774.8125,305505.09375,281196.40625,289023.8125,277075.71875,249258.078125,263027.5625,-0.068115234375,0.886474609375,-0.457763671875,-2.990722417831421,-4.211425304412842,1.0375975370407104,100.0,124244.0,1.0
510397.5822322,253497.21875,288391.15625,305719.03125,282109.78125,292281.15625,277560.9375,249819.921875,263912.875,-0.0654296875,0.894287109375,-0.452880859375,-3.112792730331421,-4.516601085662842,0.9765624403953552,100.0,124245.0,1.0
510397.584626,253979.21875,288621.65625,305877.65625,282002.6875,292627.1875,277384.4375,249840.03125,263904.90625,-0.063720703125,0.891845703125,-0.453125,-3.234863042831421,-4.791259288787842,0.7934569716453552,100.0,124246.0,1.0
510397.5870872,254817.953125,289180.0,305776.625,281016.53125,289543.53125,276786.75,249285.171875,263003.4375,-0.064453125,0.895263671875,-0.451904296875,-3.326415777206421,-4.974364757537842,0.7629393935203552,100.0,124247.0,1.0
510397.5922452,254823.125,289272.1875,305571.6875,280579.9375,287470.09375,276641.5625,248974.65625,262525.8125,-0.066162109375,0.898193359375,-0.44921875,-3.662109136581421,-5.279540538787842,0.9155272841453552,100.0,124248.0,1.0
510397.5945773,254027.671875,288798.21875,305522.6875,281211.875,289093.8125,277092.09375,249278.828125,263049.46875,-0.06884765625,0.903076171875,-0.447265625,-4.028319835662842,-5.615233898162842,1.0681151151657104,100.0,124249.0,1.0
510397.5971951,253484.078125,288389.0,305718.9375,282114.0625,292326.9375,277560.9375,249820.359375,263918.40625,-0.066162109375,0.892333984375,-0.450439453125,-4.394530773162842,-5.950927257537842,1.2207030057907104,100.0,124250.0,1.0
510397.5997136,253966.25,288620.40625,305880.34375,282019.75,292717.3125,277398.9375,249856.125,263927.71875,-0.068603515625,0.8828125,-0.450927734375,-4.241942882537842,-6.072997570037842,1.5258787870407104,100.0,124251.0,1.0
510397.609642,254828.140625,289194.40625,305789.40625,281040.65625,289654.3125,276811.71875,249308.515625,263026.9375,-0.06884765625,0.880126953125,-0.44873046875,-3.997802495956421,-6.195067882537842,1.5563963651657104,100.0,124252.0,1.0
510397.6096829,254827.0625,289272.8125,305565.15625,280574.5625,287537.78125,276633.0625,248970.28125,262516.4375,-0.0703125,0.885009765625,-0.44873046875,-3.845214605331421,-6.439208507537842,1.6479490995407104,100.0,124253.0,1.0
510397.6195738,254042.25,288801.90625,305524.03125,281207.21875,289133.96875,277086.71875,249283.03125,263053.59375,-0.0732421875,0.8896484375,-0.4453125,-3.875732183456421,-6.622313976287842,1.5869139432907104,100.0,124254.0,1.0
510397.6247424,253493.734375,288383.90625,305721.0,282116.125,292353.21875,277559.40625,249825.453125,263924.59375,-0.07373046875,0.892333984375,-0.443359375,-3.967284917831421,-6.927489757537842,1.7700194120407104,100.0,124255.0,1.0
510397.6300438,253954.09375,288599.125,305873.0,282015.28125,292756.09375,277386.5,249845.390625,263922.625,-0.07763671875,0.899658203125,-0.44091796875,-4.180907726287842,-7.232665538787842,1.8310545682907104,100.0,124256.0,1.0
510397.6420881,254819.90625,289193.15625,305790.375,281033.9375,289733.6875,276816.0,249316.109375,263042.125,-0.072509765625,0.8974609375,-0.43701171875,-4.608153820037842,-7.812499523162842,1.7395018339157104,100.0,124257.0,1.0
510397.6472144,254838.59375,289289.6875,305575.90625,280567.5,287606.09375,276653.71875,248986.46875,262537.0,-0.070556640625,0.892822265625,-0.436767578125,-4.730224132537842,-7.965087413787842,2.014159917831421,100.0,124258.0,1.0
510397.6495581,254065.5,288828.1875,305539.15625,281206.5,289170.53125,277101.75,249299.65625,263073.15625,-0.065185546875,0.891357421875,-0.43701171875,-4.882812023162842,-8.178709983825684,2.197265386581421,100.0,124259.0,1.0
510397.6545999,253489.265625,288384.375,305712.34375,282101.375,292365.84375,277549.40625,249831.453125,263940.6875,-0.07080078125,0.896484375,-0.43603515625,-5.004882335662842,-8.422850608825684,2.166747808456421,100.0,124260.0,1.0
510397.6570242,253938.09375,288584.8125,305858.875,282005.1875,292782.75,277376.125,249846.296875,263941.21875,-0.066162109375,0.897216796875,-0.433837890625,-5.126952648162842,-8.697508811950684,1.8310545682907104,100.0,124261.0,1.0
510397.6570361,254795.140625,289167.5625,305766.34375,281007.84375,289754.78125,276791.9375,249288.21875,263028.0,-0.064208984375,0.89306640625,-0.430419921875,-5.523681163787842,-8.850096702575684,1.9226073026657104,100.0,124262.0,1.0
510397.6596967,254809.984375,289258.9375,305542.28125,280520.84375,287589.28125,276610.90625,248945.78125,262498.71875,-0.0615234375,0.889892578125,-0.43701171875,-5.645751476287842,-8.972167015075684,2.105712652206421,100.0,124263.0,1.0
510397.6621558,254050.296875,288802.78125,305513.3125,281162.6875,289111.25,277061.78125,249264.703125,263029.875,-0.06005859375,0.891357421875,-0.43896484375,-5.432128429412842,-8.789061546325684,2.410888433456421,100.0,124264.0,1.0
510397.6671416,253492.484375,288369.78125,305710.90625,282092.15625,292312.71875,277531.78125,249812.578125,263907.96875,-0.059814453125,0.892333984375,-0.438232421875,-5.401610851287842,-8.850096702575684,2.502441167831421,100.0,124265.0,1.0
510397.6696608,253929.953125,288568.0,305860.9375,282011.34375,292775.6875,277369.59375,249838.78125,263924.84375,-0.058837890625,0.8935546875,-0.436279296875,-5.249022960662842,-8.880614280700684,2.319335699081421,100.0,124266.0,1.0
510397.6696759,254816.609375,289187.25,305794.15625,281037.25,289796.1875,276819.125,249315.921875,263046.875,-0.05419921875,0.891357421875,-0.43359375,-5.065917491912842,-8.789061546325684,2.502441167831421,100.0,124267.0,1.0
510397.6721305,254872.390625,289319.125,305594.3125,280563.40625,287625.84375,276660.15625,248991.5625,262531.25,-0.05810546875,0.89453125,-0.431396484375,-5.126952648162842,-8.697508811950684,2.563476324081421,100.0,124268.0,1.0
510397.6747118,254118.421875,288862.96875,305560.78125,281196.75,289097.65625,277104.15625,249302.609375,263058.59375,-0.06689453125,0.89892578125,-0.43115234375,-5.249022960662842,-8.758543968200684,2.471923589706421,100.0,124269.0,1.0
510397.6747272,253545.234375,288408.25,305745.3125,282120.78125,292272.125,277564.59375,249838.6875,263939.96875,-0.06640625,0.898193359375,-0.4326171875,-5.310058116912842,-8.911131858825684,2.227782964706421,100.0,124270.0,1.0
510397.6769601,253950.34375,288580.625,305875.0625,282028.875,292755.28125,277390.34375,249849.328125,263949.53125,-0.060791015625,0.899169921875,-0.4287109375,-5.279540538787842,-8.789061546325684,2.319335699081421,100.0,124271.0,1.0
510397.6821829,254843.421875,289215.125,305819.0,281062.65625,289830.0625,276854.875,249336.046875,263081.21875,-0.067626953125,0.900390625,-0.4248046875,-5.462646007537842,-8.850096702575684,2.593993902206421,100.0,124272.0,1.0
510397.6846047,254925.140625,289375.34375,305637.0625,280589.59375,287663.03125,276706.03125,249026.78125,262573.1875,-0.0673828125,0.902099609375,-0.423828125,-5.554198741912842,-8.972167015075684,2.471923589706421,100.0,124273.0,1.0
510397.687029,254130.671875,288876.46875,305560.34375,281179.3125,289066.8125,277099.96875,249298.578125,263056.4375,-0.06298828125,0.902587890625,-0.4267578125,-5.645751476287842,-9.002684593200684,2.685546636581421,100.0,124274.0,1.0
510397.6895532,253544.171875,288407.34375,305740.21875,282108.53125,292235.40625,277552.0,249833.421875,263937.90625,-0.06494140625,0.904052734375,-0.42529296875,-5.493163585662842,-8.819579124450684,3.051757574081421,100.0,124275.0,1.0
510397.6921768,253976.265625,288606.0,305904.46875,282061.6875,292795.34375,277422.4375,249887.6875,263989.40625,-0.0791015625,0.908447265625,-0.42431640625,-5.645751476287842,-8.941649436950684,3.082275152206421,100.0,124276.0,1.0
510397.692199,254893.859375,289268.875,305869.78125,281109.84375,289919.3125,276909.96875,249396.03125,263138.15625,-0.08251953125,0.908935546875,-0.4248046875,-5.920409679412842,-9.490965843200684,2.716064214706421,100.0,124277.0,1.0
510397.6946748,254946.78125,289400.375,305652.15625,280595.40625,287707.03125,276718.8125,249044.578125,262585.96875,-0.07568359375,0.91015625,-0.423095703125,-5.950927257537842,-9.643553733825684,2.471923589706421,100.0,124278.0,1.0
510397.6972379,254152.578125,288890.3125,305564.8125,281178.34375,289047.78125,277095.3125,249301.625,263052.40625,-0.068115234375,0.910400390625,-0.419921875,-6.011962413787842,-9.735106468200684,2.716064214706421,100.0,124279.0,1.0
510397.7047059,253553.90625,288399.75,305731.1875,282107.28125,292167.96875,277536.15625,249823.765625,263921.625,-0.06689453125,0.911865234375,-0.418701171875,-6.103515148162842,-9.765624046325684,2.929687261581421,100.0,124280.0,1.0
510397.7072159,253974.484375,288601.34375,305903.40625,282071.6875,292755.03125,277418.0625,249889.203125,263985.375,-0.067626953125,0.908203125,-0.42138671875,-6.317138195037842,-9.979247093200684,2.899169683456421,100.0,124281.0,1.0
510397.7096689,254884.203125,289264.9375,305864.875,281110.9375,289895.625,276900.03125,249394.34375,263130.375,-0.064208984375,0.910400390625,-0.4228515625,-6.469726085662842,-10.162352561950684,2.655029058456421,100.0,124282.0,1.0
510397.7097096,254943.109375,289399.3125,305644.84375,280579.40625,287652.46875,276694.40625,249030.625,262566.59375,-0.05712890625,0.9130859375,-0.42041015625,-6.713866710662842,-10.253905296325684,2.593993902206421,100.0,124283.0,1.0
510397.7122377,254148.640625,288887.90625,305559.1875,281158.6875,288950.03125,277069.71875,249281.6875,263030.0625,-0.056396484375,0.91015625,-0.42236328125,-6.866454601287842,-10.314940452575684,2.624511480331421,100.0,124284.0,1.0
510397.7159891,253530.3125,288392.21875,305725.65625,282094.6875,292070.96875,277511.84375,249813.484375,263910.09375,-0.0556640625,0.909912109375,-0.422119140625,-6.896972179412842,-10.223387718200684,2.746581792831421,100.0,124285.0,1.0
510397.7160283,253930.046875,288574.96875,305888.90625,282063.375,292672.6875,277391.96875,249867.75,263971.25,-0.05224609375,0.910888671875,-0.422607421875,-6.835937023162842,-10.040282249450684,2.685546636581421,100.0,124286.0,1.0
510397.7160383,254845.9375,289261.375,305865.84375,281107.8125,289855.65625,276898.78125,249381.90625,263125.71875,-0.04638671875,0.905517578125,-0.42529296875,-6.805419445037842,-9.918211936950684,2.624511480331421,100.0,124287.0,1.0
510397.7235221,254929.25,289427.46875,305662.90625,280581.90625,287620.75,276716.40625,249034.75,262572.75,-0.048583984375,0.90478515625,-0.4248046875,-6.530761241912842,-9.552000999450684,2.807616949081421,100.0,124288.0,1.0
510397.7235614,254147.21875,288921.15625,305575.71875,281158.21875,288894.6875,277090.375,249294.203125,263037.125,-0.0537109375,0.906494140625,-0.42041015625,-6.561278820037842,-9.460448265075684,2.593993902206421,100.0,124289.0,1.0
510397.7273185,253520.375,288400.625,305727.53125,282094.125,292004.90625,277520.34375,249815.453125,263913.40625,-0.0537109375,0.904296875,-0.417724609375,-6.713866710662842,-9.338377952575684,2.471923589706421,100.0,124290.0,1.0
510397.7273597,253930.484375,288585.4375,305903.21875,282087.15625,292669.03125,277417.78125,249881.515625,263992.8125,-0.056396484375,0.904541015625,-0.418212890625,-6.683349132537842,-9.094237327575684,2.319335699081421,100.0,124291.0,1.0
510397.7273701,254856.65625,289268.59375,305876.65625,281126.5625,289886.125,276922.9375,249386.296875,263137.625,-0.060791015625,0.904296875,-0.41943359375,-6.622313976287842,-8.941649436950684,2.136230230331421,100.0,124292.0,1.0
510397.7321994,254963.046875,289448.75,305677.1875,280593.875,287644.875,276739.8125,249034.125,262575.34375,-0.0556640625,0.905517578125,-0.415283203125,-6.469726085662842,-9.002684593200684,1.6784666776657104,100.0,124293.0,1.0
510397.7409266,254167.328125,288921.4375,305566.34375,281142.59375,288855.53125,277083.9375,249268.8125,263011.03125,-0.053466796875,0.905517578125,-0.419189453125,-6.622313976287842,-8.850096702575684,1.7089842557907104,100.0,124294.0,1.0
510397.7409655,253532.1875,288387.5,305707.78125,282074.65625,291928.375,277500.125,249781.203125,263870.5,-0.05810546875,0.9013671875,-0.414794921875,-6.530761241912842,-8.544920921325684,1.4343260526657104,100.0,124295.0,1.0
510397.7433181,253917.265625,288552.8125,305869.25,282065.25,292609.03125,277390.625,249845.9375,263955.25,-0.05517578125,0.9013671875,-0.4150390625,-6.530761241912842,-8.483885765075684,1.1291502714157104,100.0,124296.0,1.0
510397.7484218,254848.171875,289239.0,305847.6875,281106.625,289840.625,276906.84375,249344.265625,263098.90625,-0.058349609375,0.903076171875,-0.41162109375,-6.286620616912842,-8.117674827575684,0.9460448622703552,100.0,124297.0,1.0
510397.7534862,254964.578125,289435.53125,305653.9375,280563.59375,287581.84375,276730.6875,249003.0,262536.625,-0.06298828125,0.904541015625,-0.411376953125,-6.164550304412842,-7.934569835662842,0.7324218153953552,100.0,124298.0,1.0
510397.7559186,254180.828125,288915.90625,305550.5,281119.25,288754.875,277078.5,249252.1875,262981.78125,-0.063232421875,0.90234375,-0.4111328125,-6.164550304412842,-7.843017101287842,0.3967284858226776,100.0,124299.0,1.0
510397.7559606,253531.015625,288359.0625,305683.46875,282054.25,291789.53125,277483.6875,249758.21875,263850.46875,-0.064208984375,0.900634765625,-0.411376953125,-5.981444835662842,-7.690429210662842,0.03051757626235485,100.0,124300.0,1.0
510397.7583406,253905.8125,288514.8125,305844.5625,282053.0,292482.96875,277369.53125,249813.65625,263935.65625,-0.06591796875,0.9013671875,-0.40966796875,-5.615233898162842,-7.507323741912842,-0.3662109076976776,100.0,124301.0,1.0
510397.7610485,254844.765625,289230.59375,305838.125,281105.46875,289773.75,276907.09375,249346.59375,263106.96875,-0.06396484375,0.901123046875,-0.41259765625,-5.645751476287842,-7.446288585662842,-0.6713866591453552,100.0,124302.0,1.0
510397.7610909,254966.265625,289432.125,305640.8125,280546.40625,287490.375,276722.21875,248996.75,262531.1875,-0.062744140625,0.90185546875,-0.4111328125,-5.218505382537842,-7.141112804412842,-0.7629393935203552,100.0,124303.0,1.0
510397.7633556,254186.375,288912.9375,305534.40625,281084.5625,288615.65625,277047.90625,249224.46875,262963.0,-0.066162109375,0.8994140625,-0.40185546875,-4.913329601287842,-7.110595226287842,-0.9765624403953552,100.0,124304.0,1.0
510397.7658593,253519.40625,288343.25,305655.90625,282015.46875,291643.53125,277447.21875,249720.859375,263822.3125,-0.0654296875,0.90185546875,-0.41015625,-5.004882335662842,-7.171630382537842,-1.3427733182907104,100.0,124305.0,1.0
510397.7683464,253885.25,288497.1875,305825.625,282033.53125,292399.0,277359.59375,249799.0,263929.21875,-0.063232421875,0.899658203125,-0.418212890625,-4.791259288787842,-6.530761241912842,-1.3427733182907104,100.0,124306.0,1.0
510397.7734679,254820.984375,289205.5625,305815.78125,281077.84375,289712.96875,276892.34375,249325.046875,263093.1875,-0.064697265625,0.898681640625,-0.41845703125,-3.997802495956421,-5.676269054412842,-1.1901854276657104,100.0,124307.0,1.0
510397.7760506,254966.359375,289427.21875,305631.34375,280520.84375,287423.78125,276711.84375,248980.75,262511.5,-0.067626953125,0.90087890625,-0.416259765625,-3.662109136581421,-5.554198741912842,-1.3122557401657104,100.0,124308.0,1.0
510397.7760892,254188.78125,288911.15625,305520.90625,281056.3125,288521.96875,277040.9375,249218.65625,262937.96875,-0.0673828125,0.898681640625,-0.418212890625,-3.265380620956421,-5.401610851287842,-1.2512205839157104,100.0,124309.0,1.0
510397.7809606,253500.4375,288320.53125,305628.28125,281982.75,291534.53125,277423.4375,249697.34375,263790.5625,-0.072021484375,0.8974609375,-0.41748046875,-2.929687261581421,-5.096435070037842,-1.0375975370407104,100.0,124310.0,1.0
510397.7835191,253871.03125,288480.03125,305811.3125,282023.96875,292337.0625,277354.125,249785.3125,263920.03125,-0.072509765625,0.89794921875,-0.416748046875,-2.502441167831421,-4.852294445037842,-1.0375975370407104,100.0,124311.0,1.0
510397.7835658,254840.390625,289228.8125,305839.65625,281100.8125,289722.6875,276931.25,249353.75,263125.03125,-0.0703125,0.89892578125,-0.41748046875,-2.075195074081421,-4.516601085662842,-1.0681151151657104,100.0,124312.0,1.0
510397.7859392,254971.015625,289433.1875,305629.46875,280507.625,287392.125,276720.5,248976.546875,262508.46875,-0.0712890625,0.901123046875,-0.4189453125,-1.7700194120407104,-4.119872570037842,-0.9155272841453552,100.0,124313.0,1.0
510397.7910052,254161.609375,288879.0625,305478.625,281001.59375,288414.9375,276999.0,249156.15625,262885.21875,-0.07275390625,0.90380859375,-0.41845703125,-1.5563963651657104,-3.875732183456421,-0.9155272841453552,100.0,124314.0,1.0
510397.7933405,253475.140625,288285.46875,305592.78125,281945.46875,291436.0,277397.5,249651.03125,263752.03125,-0.07666015625,0.906494140625,-0.419921875,-1.4038084745407104,-3.662109136581421,-0.7934569716453552,100.0,124315.0,1.0
510397.7997774,253825.171875,288427.90625,305770.34375,281998.84375,292274.1875,277329.5625,249740.171875,263887.5625,-0.075927734375,0.904541015625,-0.419921875,-1.2207030057907104,-3.417968511581421,-0.8544921278953552,100.0,124316.0,1.0
510397.7998188,254778.0625,289159.53125,305781.28125,281061.03125,289654.40625,276886.09375,249279.546875,263065.65625,-0.07763671875,0.90185546875,-0.41845703125,-0.9765624403953552,-3.143310308456421,-0.8850097060203552,100.0,124317.0,1.0
510397.8047482,254946.953125,289407.375,305601.8125,280482.5625,287338.65625,276703.25,248939.96875,262479.125,-0.078369140625,0.899658203125,-0.41943359375,-0.5798339247703552,-2.868652105331421,-0.9155272841453552,100.0,124318.0,1.0
510397.8096854,254175.828125,288890.5,305484.625,281000.59375,288363.09375,277017.53125,249159.640625,262882.8125,-0.0791015625,0.900390625,-0.419189453125,-0.0915527269244194,-2.563476324081421,-0.7934569716453552,100.0,124319.0,1.0
510397.8112965,253493.734375,288306.21875,305609.34375,281957.71875,291397.75,277425.9375,249669.265625,263765.0,-0.0771484375,0.900146484375,-0.42138671875,0.1831054538488388,-2.349853277206421,-0.8544921278953552,100.0,124320.0,1.0
510397.8596696,253845.015625,288446.78125,305797.625,282032.71875,292273.03125,277367.375,249769.484375,263918.5,-0.075439453125,0.900390625,-0.423095703125,0.5187987685203552,-2.075195074081421,-0.8544921278953552,100.0,124321.0,1.0
510397.8785993,254776.453125,289160.96875,305791.0,281071.5,289663.6875,276901.28125,249296.265625,263083.53125,-0.07275390625,0.90087890625,-0.425048828125,0.8544921278953552,-1.8920897245407104,-0.8239745497703552,100.0,124322.0,1.0
510397.878639,254941.59375,289396.375,305592.78125,280466.65625,287296.09375,276689.21875,248921.28125,262459.65625,-0.07275390625,0.902099609375,-0.42529296875,1.1901854276657104,-1.6174315214157104,-0.6713866591453552,100.0,124323.0,1.0
510397.878649,254171.71875,288877.8125,305465.46875,280969.9375,288270.46875,276985.875,249122.28125,262842.40625,-0.07373046875,0.90380859375,-0.429931640625,1.4648436307907104,-1.3122557401657104,-0.5798339247703552,100.0,124324.0,1.0
510397.8860674,253484.265625,288287.71875,305585.90625,281926.6875,291292.59375,277389.71875,249627.25,263721.90625,-0.073486328125,0.904541015625,-0.427734375,1.6479490995407104,-0.7934569716453552,-0.5493163466453552,100.0,124325.0,1.0
510397.8861077,253813.28125,288409.40625,305762.125,282003.5625,292208.65625,277329.46875,249730.515625,263879.875,-0.074951171875,0.903564453125,-0.42529296875,1.8920897245407104,-0.4272460639476776,-0.4272460639476776,100.0,124326.0,1.0
510397.8861181,254772.4375,289145.5625,305780.90625,281071.3125,289648.9375,276892.8125,249288.484375,263077.09375,-0.072998046875,0.902587890625,-0.42822265625,2.044677495956421,-0.2746581733226776,-0.2136230319738388,100.0,124327.0,1.0
510397.8883971,254960.734375,289402.625,305597.34375,280469.6875,287278.9375,276695.5625,248927.28125,262464.5625,-0.07373046875,0.9013671875,-0.42578125,2.197265386581421,0.0610351525247097,-0.2136230319738388,100.0,124328.0,1.0
510397.8884312,254194.328125,288887.46875,305464.40625,280958.21875,288213.5,276985.96875,249113.421875,262835.34375,-0.07666015625,0.901123046875,-0.431884765625,2.563476324081421,0.3662109076976776,-0.2441406100988388,100.0,124329.0,1.0
510397.8909446,253503.578125,288304.71875,305590.5625,281925.15625,291252.09375,277404.5625,249630.28125,263729.21875,-0.078125,0.89990234375,-0.43115234375,2.563476324081421,0.5493163466453552,-0.2441406100988388,100.0,124330.0,1.0
510397.8935005,253816.3125,288416.09375,305767.6875,282011.34375,292211.875,277351.28125,249741.59375,263894.90625,-0.07861328125,0.9013671875,-0.429931640625,2.685546636581421,0.8239745497703552,-0.2746581733226776,100.0,124331.0,1.0
510397.8935422,254759.734375,289133.96875,305771.96875,281070.59375,289648.40625,276896.90625,249282.578125,263077.90625,-0.080322265625,0.901123046875,-0.431884765625,2.838134527206421,1.0681151151657104,-0.2441406100988388,100.0,124332.0,1.0
510397.8960378,254964.03125,289405.125,305598.0625,280465.3125,287260.4375,276699.3125,248926.109375,262467.25,-0.08154296875,0.900146484375,-0.434326171875,2.868652105331421,1.2512205839157104,-0.1220703050494194,100.0,124333.0,1.0
510397.8960793,254213.90625,288904.28125,305477.0,280956.15625,288173.71875,276998.84375,249123.703125,262837.65625,-0.082763671875,0.90234375,-0.432373046875,2.960204839706421,1.3427733182907104,-0.1831054538488388,100.0,124334.0,1.0
510397.9034909,253500.625,288298.4375,305584.46875,281907.1875,291192.8125,277397.78125,249619.28125,263707.3125,-0.080810546875,0.90087890625,-0.43212890625,2.990722417831421,1.4953612089157104,-0.1525878757238388,100.0,124335.0,1.0
510397.9059102,253808.359375,288405.90625,305767.6875,282013.6875,292187.5625,277357.8125,249744.1875,263893.5625,-0.084716796875,0.90087890625,-0.431396484375,2.990722417831421,1.5869139432907104,-0.1220703050494194,100.0,124336.0,1.0
510397.9084709,254755.1875,289125.5625,305775.375,281081.34375,289644.8125,276906.21875,249289.734375,263086.125,-0.0849609375,0.900390625,-0.429931640625,2.868652105331421,1.6174315214157104,-0.1525878757238388,100.0,124337.0,1.0
510397.9109803,254958.21875,289391.90625,305583.6875,280448.59375,287204.0,276682.25,248902.15625,262441.59375,-0.085693359375,0.8994140625,-0.431640625,2.746581792831421,1.7395018339157104,-0.0915527269244194,100.0,124338.0,1.0
510397.9159821,254227.328125,288910.875,305476.21875,280939.90625,288103.1875,276987.75,249114.578125,262822.65625,-0.086669921875,0.89892578125,-0.431640625,2.655029058456421,1.7700194120407104,-0.0915527269244194,100.0,124339.0,1.0
510397.9259784,253513.59375,288297.65625,305586.09375,281898.875,291117.53125,277388.1875,249610.53125,263693.71875,-0.087158203125,0.901611328125,-0.43310546875,2.471923589706421,1.8005369901657104,-0.0610351525247097,100.0,124340.0,1.0
510397.9283358,253796.46875,288381.875,305754.34375,282003.375,292130.25,277334.125,249719.78125,263876.21875,-0.087646484375,0.8994140625,-0.432373046875,2.441406011581421,1.9226073026657104,0.1220703050494194,100.0,124341.0,1.0
510397.9309499,254751.421875,289109.0,305771.0625,281080.09375,289610.5,276895.65625,249280.078125,263087.46875,-0.08740234375,0.8994140625,-0.433837890625,2.380370855331421,1.9531248807907104,0.1831054538488388,100.0,124342.0,1.0
510397.9335095,254977.171875,289393.15625,305590.46875,280447.25,287142.40625,276684.46875,248902.875,262447.125,-0.08740234375,0.900390625,-0.432373046875,2.197265386581421,1.9531248807907104,0.2746581733226776,100.0,124343.0,1.0
510397.9335505,254213.203125,288877.625,305437.21875,280885.96875,287942.96875,276946.34375,249058.53125,262768.09375,-0.084228515625,0.8994140625,-0.43310546875,2.136230230331421,1.8920897245407104,0.3662109076976776,100.0,124344.0,1.0
510397.9358528,253491.0625,288265.0,305542.1875,281844.15625,290942.9375,277344.40625,249547.9375,263636.4375,-0.083740234375,0.898681640625,-0.43310546875,1.8920897245407104,1.8310545682907104,0.5493163466453552,100.0,124345.0,1.0
510397.9383324,253782.796875,288364.15625,305731.75,281976.75,292002.125,277311.03125,249686.34375,263844.28125,-0.08642578125,0.899169921875,-0.43408203125,1.7395018339157104,1.8920897245407104,0.6408690810203552,100.0,124346.0,1.0
510397.947204,254758.40625,289103.46875,305768.75,281070.59375,289507.21875,276889.59375,249264.515625,263068.5,-0.08544921875,0.899658203125,-0.431640625,1.7700194120407104,1.9226073026657104,0.6713866591453552,100.0,124347.0,1.0
510397.9545894,254972.265625,289372.21875,305564.46875,280406.21875,286983.90625,276647.03125,248859.0625,262397.5,-0.08251953125,0.904541015625,-0.4326171875,1.4648436307907104,1.8310545682907104,0.8239745497703552,100.0,124348.0,1.0
510397.9597483,254230.453125,288880.84375,305427.03125,280858.25,287764.96875,276921.59375,249029.109375,262731.28125,-0.07861328125,0.90478515625,-0.43505859375,1.0681151151657104,1.8615721464157104,0.9155272841453552,100.0,124349.0,1.0
510397.9620482,253509.828125,288275.03125,305540.125,281827.15625,290767.96875,277330.28125,249524.875,263606.90625,-0.07861328125,0.90380859375,-0.43212890625,0.9460448622703552,2.014159917831421,0.9155272841453552,100.0,124350.0,1.0
510397.9647684,253785.203125,288360.59375,305725.9375,281972.375,291863.46875,277304.15625,249664.796875,263829.625,-0.080322265625,0.903564453125,-0.43408203125,0.7934569716453552,2.044677495956421,1.0681151151657104,100.0,124351.0,1.0
510397.9648097,254732.390625,289081.125,305742.1875,281053.625,289379.28125,276869.8125,249230.28125,263045.90625,-0.0830078125,0.905029296875,-0.43701171875,0.5798339247703552,2.105712652206421,1.2207030057907104,100.0,124352.0,1.0
510397.9671959,254985.5,289390.1875,305569.71875,280407.375,286871.34375,276654.625,248849.40625,262393.9375,-0.0791015625,0.905517578125,-0.435791015625,0.4577636420726776,1.9836424589157104,1.3122557401657104,100.0,124353.0,1.0
510397.9697075,254252.359375,288911.34375,305433.28125,280848.625,287629.40625,276931.5,249011.859375,262718.65625,-0.07763671875,0.904052734375,-0.437744140625,0.3662109076976776,2.014159917831421,1.4038084745407104,100.0,124354.0,1.0
510397.9747039,253503.3125,288280.21875,305522.34375,281798.1875,290622.84375,277322.9375,249490.90625,263581.71875,-0.076171875,0.905029296875,-0.43798828125,0.3051757514476776,2.197265386581421,1.4343260526657104,100.0,124355.0,1.0
510397.9772944,253761.0625,288345.65625,305703.40625,281950.375,291765.5625,277293.15625,249631.984375,263805.75,-0.074462890625,0.904296875,-0.439453125,0.0915527269244194,2.197265386581421,1.5563963651657104,100.0,124356.0,1.0
510397.9773348,254715.03125,289067.625,305727.875,281041.09375,289329.3125,276867.5,249211.234375,263033.8125,-0.072265625,0.904296875,-0.435791015625,-0.1220703050494194,2.471923589706421,1.7395018339157104,100.0,124357.0,1.0
510397.9795738,254970.296875,289371.96875,305547.5625,280379.75,286804.71875,276634.6875,248817.390625,262368.625,-0.07177734375,0.904541015625,-0.43798828125,-0.1525878757238388,2.563476324081421,1.8310545682907104,100.0,124358.0,1.0
510397.9820871,254276.046875,288925.90625,305441.15625,280844.40625,287571.3125,276927.9375,249002.921875,262714.625,-0.06982421875,0.90234375,-0.437744140625,-0.3356933295726776,2.655029058456421,1.9226073026657104,100.0,124359.0,1.0
510397.9846751,253540.671875,288314.375,305552.65625,281817.15625,290603.8125,277347.78125,249508.515625,263598.875,-0.072265625,0.90234375,-0.4375,-0.5187987685203552,2.685546636581421,2.014159917831421,100.0,124360.0,1.0
510397.9872919,253790.296875,288383.84375,305745.25,281993.46875,291813.65625,277346.1875,249673.5625,263852.34375,-0.06982421875,0.902587890625,-0.4365234375,-0.5493163466453552,2.685546636581421,2.014159917831421,100.0,124361.0,1.0
510397.9873305,254723.796875,289083.0,305753.46875,281073.8125,289391.96875,276892.53125,249227.78125,263070.375,-0.07080078125,0.90185546875,-0.436767578125,-0.6408690810203552,2.838134527206421,2.075195074081421,100.0,124362.0,1.0
510397.9897124,254982.359375,289385.46875,305568.125,280398.4375,286847.09375,276645.125,248827.59375,262398.21875,-0.071533203125,0.90185546875,-0.439697265625,-0.7629393935203552,2.868652105331421,2.166747808456421,100.0,124363.0,1.0
510397.9922797,254273.546875,288922.78125,305441.34375,280833.6875,287572.09375,276925.25,249002.734375,262723.40625,-0.069580078125,0.90185546875,-0.44091796875,-0.9155272841453552,2.899169683456421,2.105712652206421,100.0,124364.0,1.0
510397.9923186,253529.765625,288298.8125,305543.34375,281804.1875,290598.71875,277341.09375,249502.4375,263598.53125,-0.0712890625,0.90234375,-0.43896484375,-0.9765624403953552,2.990722417831421,2.044677495956421,100.0,124365.0,1.0
510397.9946466,253763.125,288350.84375,305726.0,281988.28125,291843.875,277328.21875,249660.421875,263852.875,-0.070068359375,0.90185546875,-0.4404296875,-1.0375975370407104,3.112792730331421,1.9836424589157104,100.0,124366.0,1.0
510398.0170999,254717.90625,289068.78125,305755.0625,281098.875,289475.84375,276896.09375,249241.453125,263098.71875,-0.068115234375,0.902099609375,-0.44140625,-1.1596678495407104,3.143310308456421,1.9836424589157104,100.0,124367.0,1.0
510398.0248302,254987.90625,289384.125,305568.3125,280411.40625,286912.46875,276645.40625,248830.53125,262406.90625,-0.071533203125,0.902099609375,-0.4404296875,-1.2512205839157104,3.234863042831421,1.8920897245407104,100.0,124368.0,1.0
510398.0248699,254292.859375,288942.71875,305449.75,280843.25,287611.625,276928.90625,249001.484375,262719.03125,-0.070068359375,0.902099609375,-0.441650390625,-1.3732908964157104,3.204345464706421,1.7700194120407104,100.0,124369.0,1.0
510398.0248796,253543.890625,288325.53125,305555.5,281816.1875,290649.65625,277349.5625,249511.28125,263603.78125,-0.069580078125,0.9033203125,-0.4375,-1.3732908964157104,3.143310308456421,1.6479490995407104,100.0,124370.0,1.0
510398.0270819,253772.421875,288377.03125,305745.9375,282018.5,291936.3125,277350.21875,249683.125,263875.6875,-0.070068359375,0.905029296875,-0.4384765625,-1.4343260526657104,3.295898199081421,1.5258787870407104,100.0,124371.0,1.0
510398.0296975,254727.203125,289095.59375,305778.9375,281133.46875,289599.125,276926.3125,249272.296875,263124.84375,-0.071044921875,0.9052734375,-0.43798828125,-1.5869139432907104,3.356933355331421,1.5563963651657104,100.0,124372.0,1.0
510398.0322414,255014.109375,289418.625,305597.0,280439.125,287020.03125,276678.5,248863.078125,262429.875,-0.071044921875,0.905517578125,-0.439697265625,-1.7089842557907104,3.234863042831421,1.4038084745407104,100.0,124373.0,1.0
510398.0347249,254313.6875,288967.84375,305460.46875,280847.53125,287670.625,276941.53125,249020.53125,262726.53125,-0.0712890625,0.906005859375,-0.437255859375,-1.6784666776657104,3.295898199081421,1.4038084745407104,100.0,124374.0,1.0
510398.0370571,253568.578125,288350.65625,305572.59375,281834.9375,290704.65625,277367.1875,249535.15625,263625.78125,-0.0712890625,0.9033203125,-0.435546875,-1.7089842557907104,3.326415777206421,1.3732908964157104,100.0,124375.0,1.0
510398.0397119,253777.421875,288378.03125,305755.0625,282040.59375,292014.90625,277365.9375,249702.4375,263896.6875,-0.072021484375,0.904052734375,-0.438232421875,-1.7700194120407104,3.265380620956421,1.2512205839157104,100.0,124376.0,1.0
510398.0422489,254731.046875,289089.0625,305786.0,281157.5,289693.90625,276935.53125,249285.703125,263136.1875,-0.07177734375,0.903076171875,-0.438720703125,-1.7700194120407104,3.143310308456421,1.1291502714157104,100.0,124377.0,1.0
510398.0446758,255026.359375,289423.28125,305608.09375,280454.3125,287095.46875,276682.78125,248879.171875,262438.8125,-0.073486328125,0.903076171875,-0.43896484375,-1.6784666776657104,3.204345464706421,1.0375975370407104,100.0,124378.0,1.0
510398.0447183,254335.140625,288980.8125,305474.5,280855.75,287708.53125,276947.875,249028.9375,262728.59375,-0.07421875,0.903076171875,-0.435791015625,-1.6479490995407104,3.082275152206421,0.9460448622703552,100.0,124379.0,1.0
510398.0672028,253571.078125,288347.875,305568.03125,281825.03125,290719.5,277365.3125,249527.203125,263605.84375,-0.076416015625,0.9033203125,-0.43798828125,-1.7700194120407104,3.112792730331421,0.9460448622703552,100.0,124380.0,1.0
510398.0722215,253751.59375,288353.15625,305737.46875,282031.28125,292057.125,277356.90625,249696.984375,263883.09375,-0.075439453125,0.900634765625,-0.43701171875,-1.6784666776657104,2.838134527206421,0.9765624403953552,100.0,124381.0,1.0
510398.0722634,254707.4375,289067.625,305776.875,281157.59375,289766.6875,276933.3125,249289.109375,263145.125,-0.076904296875,0.90087890625,-0.435546875,-1.6479490995407104,2.716064214706421,0.7934569716453552,100.0,124382.0,1.0
510398.0747352,255026.078125,289423.625,305609.4375,280458.0,287157.6875,276683.84375,248883.46875,262452.84375,-0.075439453125,0.8994140625,-0.434326171875,-1.7700194120407104,2.624511480331421,0.7324218153953552,100.0,124383.0,1.0
510398.0772018,254344.71875,288986.875,305476.03125,280851.28125,287728.3125,276945.5625,249028.75,262730.28125,-0.07666015625,0.89990234375,-0.43310546875,-1.7395018339157104,2.441406011581421,0.7629393935203552,100.0,124384.0,1.0
510398.0797254,253593.703125,288369.34375,305585.65625,281841.03125,290743.28125,277383.1875,249544.8125,263626.15625,-0.076416015625,0.900390625,-0.435302734375,-1.6174315214157104,2.197265386581421,0.7934569716453552,100.0,124385.0,1.0
510398.0897087,253770.1875,288374.96875,305762.65625,282065.09375,292120.40625,277385.4375,249724.34375,263921.53125,-0.078125,0.898681640625,-0.432861328125,-1.4953612089157104,2.075195074081421,0.9155272841453552,100.0,124386.0,1.0
510398.0921039,254721.46875,289083.96875,305801.65625,281196.40625,289861.28125,276957.71875,249318.875,263182.6875,-0.078125,0.899658203125,-0.4306640625,-1.4953612089157104,1.9836424589157104,0.8239745497703552,100.0,124387.0,1.0
510398.0939442,255047.359375,289439.8125,305633.03125,280483.90625,287224.9375,276696.0,248905.46875,262476.625,-0.078125,0.896484375,-0.430908203125,-1.4343260526657104,1.7700194120407104,0.7629393935203552,100.0,124388.0,1.0
510398.1222599,254357.234375,288994.75,305484.34375,280852.28125,287744.84375,276942.875,249029.203125,262732.59375,-0.078857421875,0.896728515625,-0.429931640625,-1.3732908964157104,1.5563963651657104,0.7934569716453552,100.0,124389.0,1.0
510398.1223009,253570.1875,288343.6875,305561.5,281813.84375,290714.9375,277354.5,249507.34375,263595.125,-0.078125,0.89697265625,-0.429931640625,-1.4038084745407104,1.3427733182907104,0.7019042372703552,100.0,124390.0,1.0
510398.1272057,253746.765625,288358.4375,305755.6875,282062.84375,292150.625,277379.15625,249718.4375,263922.15625,-0.0791015625,0.900146484375,-0.4306640625,-1.2207030057907104,1.1596678495407104,0.6713866591453552,100.0,124391.0,1.0
510398.1347539,254699.484375,289061.34375,305794.9375,281200.0625,289914.84375,276955.03125,249321.296875,263194.125,-0.079833984375,0.899658203125,-0.429443359375,-1.2512205839157104,0.9765624403953552,0.5493163466453552,100.0,124392.0,1.0
510398.1371523,255037.078125,289427.46875,305622.125,280477.03125,287260.625,276691.625,248903.671875,262476.625,-0.08203125,0.90087890625,-0.4306640625,-1.2207030057907104,0.6713866591453552,0.4882812201976776,100.0,124393.0,1.0
510398.1371855,254353.125,288987.5,305468.875,280830.1875,287745.375,276927.5,249020.171875,262719.09375,-0.078369140625,0.90283203125,-0.4326171875,-1.1596678495407104,0.4882812201976776,0.4577636420726776,100.0,124394.0,1.0
510398.1485944,253586.984375,288360.59375,305569.90625,281815.1875,290745.5,277371.5625,249531.671875,263609.0625,-0.077392578125,0.901611328125,-0.430908203125,-0.9765624403953552,0.4272460639476776,0.3662109076976776,100.0,124395.0,1.0
510398.148635,253761.25,288368.375,305766.4375,282083.84375,292202.9375,277402.15625,249739.71875,263938.625,-0.080322265625,0.900634765625,-0.430908203125,-0.9765624403953552,0.1831054538488388,0.4577636420726776,100.0,124396.0,1.0
510398.1486436,254728.1875,289093.46875,305826.96875,281246.03125,290009.96875,276997.21875,249359.296875,263233.90625,-0.078125,0.900146484375,-0.427978515625,-0.9765624403953552,0.03051757626235485,0.4272460639476776,100.0,124397.0,1.0
510398.1486527,255041.734375,289437.125,305625.875,280481.5,287312.5625,276696.09375,248908.859375,262484.15625,-0.07763671875,0.89990234375,-0.428955078125,-0.9155272841453552,-0.1220703050494194,0.4272460639476776,100.0,124398.0,1.0
510398.1499477,254357.953125,288994.03125,305464.125,280819.375,287748.15625,276917.75,249007.65625,262707.65625,-0.075927734375,0.8994140625,-0.428466796875,-0.9460448622703552,-0.1525878757238388,0.4272460639476776,100.0,124399.0,1.0
510398.1570864,253573.484375,288351.03125,305550.5,281789.96875,290722.71875,277349.40625,249511.28125,263589.5,-0.07958984375,0.898681640625,-0.430419921875,-0.9765624403953552,-0.2746581733226776,0.5493163466453552,100.0,124400.0,1.0
510398.1595626,253722.359375,288334.21875,305733.4375,282059.34375,292199.8125,277377.65625,249709.859375,263915.90625,-0.080322265625,0.899658203125,-0.430908203125,-1.0070799589157104,-0.3967284858226776,0.3967284858226776,100.0,124401.0,1.0
510398.16227,254685.890625,289052.78125,305793.15625,281222.34375,290034.8125,276968.53125,249328.265625,263215.3125,-0.077880859375,0.901123046875,-0.43212890625,-0.8850097060203552,-0.5798339247703552,0.4272460639476776,100.0,124402.0,1.0
510398.1623116,255044.859375,289439.5625,305627.65625,280482.125,287352.25,276695.65625,248909.03125,262493.90625,-0.07666015625,0.903076171875,-0.428955078125,-0.8850097060203552,-0.6103515028953552,0.5493163466453552,100.0,124403.0,1.0
510398.1645784,254371.265625,289010.65625,305467.8125,280810.625,287758.6875,276919.1875,249008.09375,262707.5,-0.07275390625,0.901611328125,-0.43212890625,-0.8544921278953552,-0.7019042372703552,0.3967284858226776,100.0,124404.0,1.0
510398.1696003,253581.71875,288365.5,305551.40625,281785.15625,290723.96875,277344.75,249502.609375,263577.59375,-0.0703125,0.900634765625,-0.4365234375,-0.7629393935203552,-0.7019042372703552,0.5187987685203552,100.0,124405.0,1.0
510398.1747703,253729.328125,288341.8125,305738.0,282071.0625,292231.46875,277379.4375,249709.046875,263915.90625,-0.070556640625,0.900146484375,-0.435302734375,-0.6713866591453552,-0.7629393935203552,0.5798339247703552,100.0,124406.0,1.0
510398.1771014,254692.78125,289057.0625,305799.875,281239.75,290098.3125,276977.8125,249335.59375,263224.34375,-0.072998046875,0.902099609375,-0.4326171875,-0.5187987685203552,-0.7629393935203552,0.6103515028953552,100.0,124407.0,1.0
510398.1793817,255090.8125,289479.34375,305665.46875,280524.5,287431.1875,276732.21875,248944.171875,262528.3125,-0.0732421875,0.902099609375,-0.432373046875,-0.5187987685203552,-0.7324218153953552,0.5493163466453552,100.0,124408.0,1.0
510398.179422,254401.125,289033.5625,305484.625,280823.65625,287782.21875,276933.75,249024.8125,262720.375,-0.07568359375,0.90478515625,-0.43212890625,-0.5798339247703552,-0.7324218153953552,0.6103515028953552,100.0,124409.0,1.0
510398.1850159,253592.4375,288369.53125,305554.53125,281782.65625,290722.28125,277347.96875,249507.796875,263583.3125,-0.07958984375,0.90576171875,-0.4296875,-0.5493163466453552,-0.6408690810203552,0.6713866591453552,100.0,124410.0,1.0
510398.2137865,253724.046875,288337.96875,305746.3125,282080.1875,292279.46875,277389.71875,249727.46875,263941.125,-0.08349609375,0.905517578125,-0.42919921875,-0.5493163466453552,-0.7934569716453552,0.5187987685203552,100.0,124411.0,1.0
510398.2259032,254669.4375,289028.90625,305791.375,281241.90625,290148.53125,276970.03125,249330.234375,263232.3125,-0.086669921875,0.906005859375,-0.43017578125,-0.6103515028953552,-0.9460448622703552,0.4272460639476776,100.0,124412.0,1.0
510398.2259144,255052.109375,289440.4375,305634.0,280492.78125,287442.71875,276700.21875,248907.875,262504.34375,-0.087646484375,0.90478515625,-0.430419921875,-0.7019042372703552,-1.1291502714157104,0.1831054538488388,100.0,124413.0,1.0
510398.228382,254400.421875,289033.8125,305482.28125,280810.15625,287793.28125,276923.65625,249015.703125,262718.65625,-0.087646484375,0.90625,-0.4296875,-0.6408690810203552,-1.3427733182907104,0.0,100.0,124414.0,1.0
510398.2322578,253605.046875,288386.34375,305565.25,281782.46875,290743.375,277355.46875,249514.859375,263591.71875,-0.0849609375,0.906494140625,-0.428955078125,-0.5187987685203552,-1.4953612089157104,-0.1831054538488388,100.0,124415.0,1.0
510398.2322709,253733.53125,288357.71875,305766.6875,282103.96875,292343.65625,277412.6875,249753.9375,263970.625,-0.08203125,0.906494140625,-0.4287109375,-0.6103515028953552,-1.5563963651657104,-0.1831054538488388,100.0,124416.0,1.0
510398.2322734,254670.6875,289047.5,305815.15625,281274.46875,290252.09375,276997.59375,249370.375,263275.3125,-0.07958984375,0.906494140625,-0.4287109375,-0.6713866591453552,-1.5563963651657104,-0.2136230319738388,100.0,124417.0,1.0
510398.2345754,255037.796875,289433.5625,305632.21875,280490.96875,287504.96875,276699.15625,248922.265625,262513.5625,-0.078125,0.90869140625,-0.42626953125,-0.7934569716453552,-1.5869139432907104,0.0,100.0,124418.0,1.0
510398.2371777,254394.875,289032.9375,305477.0,280796.65625,287809.375,276918.09375,249018.03125,262710.78125,-0.075439453125,0.908447265625,-0.42919921875,-1.0070799589157104,-1.6479490995407104,-0.0610351525247097,100.0,124419.0,1.0
510398.2396894,253596.109375,288387.84375,305560.0625,281773.4375,290740.6875,277350.21875,249515.484375,263585.28125,-0.078125,0.9072265625,-0.4306640625,-0.8544921278953552,-1.5563963651657104,-0.2136230319738388,100.0,124420.0,1.0
510398.2422203,253709.828125,288349.40625,305759.71875,282106.84375,292372.46875,277412.875,249759.921875,263970.625,-0.080322265625,0.905029296875,-0.429931640625,-0.8544921278953552,-1.5258787870407104,-0.1831054538488388,100.0,124421.0,1.0
510398.2446826,254640.5625,289031.125,305804.15625,281281.4375,290310.1875,276998.3125,249382.0,263277.71875,-0.076171875,0.90478515625,-0.427978515625,-1.0070799589157104,-1.6174315214157104,-0.3967284858226776,100.0,124422.0,1.0
510398.2471447,255044.328125,289445.625,305643.65625,280512.53125,287555.90625,276707.28125,248941.046875,262527.15625,-0.072021484375,0.905029296875,-0.425048828125,-0.9460448622703552,-1.4648436307907104,-0.3356933295726776,100.0,124423.0,1.0
510398.2496618,254413.734375,289055.71875,305490.34375,280809.0,287820.3125,276921.0625,249031.796875,262717.78125,-0.068115234375,0.90673828125,-0.428955078125,-0.9460448622703552,-1.3122557401657104,-0.1831054538488388,100.0,124424.0,1.0
510398.2523785,253613.90625,288409.59375,305571.34375,281789.4375,290743.375,277351.46875,249530.140625,263595.125,-0.067626953125,0.904052734375,-0.43115234375,-0.9155272841453552,-1.0986326932907104,-0.03051757626235485,100.0,124425.0,1.0
510398.2607956,253696.328125,288340.75,305748.625,282111.9375,292384.0,277394.1875,249749.546875,263967.78125,-0.0703125,0.90380859375,-0.4326171875,-1.0070799589157104,-0.8850097060203552,-0.03051757626235485,100.0,124426.0,1.0
510398.2633922,254635.90625,289030.15625,305811.3125,281299.59375,290368.5,276993.375,249389.515625,263296.3125,-0.072998046875,0.905029296875,-0.431884765625,-1.0375975370407104,-0.7629393935203552,-0.0915527269244194,100.0,124427.0,1.0
510398.2659726,255053.984375,289451.0,305657.71875,280527.1875,287604.90625,276709.6875,248953.921875,262541.46875,-0.0703125,0.90185546875,-0.430419921875,-1.0681151151657104,-0.7019042372703552,-0.0610351525247097,100.0,124428.0,1.0
510398.2659933,254424.28125,289059.125,305496.25,280803.0,287831.75,276919.4375,249037.609375,262713.84375,-0.0693359375,0.898681640625,-0.430419921875,-1.0375975370407104,-0.4577636420726776,-0.0610351525247097,100.0,124429.0,1.0
510398.268422,253614.265625,288405.8125,305568.65625,281771.90625,290741.59375,277345.375,249535.421875,263582.34375,-0.0712890625,0.89892578125,-0.427734375,-0.8850097060203552,-0.1831054538488388,0.1220703050494194,100.0,124430.0,1.0
510398.2709253,253704.109375,288340.5625,305760.625,282124.53125,292422.78125,277412.34375,249777.09375,263980.5625,-0.071044921875,0.8984375,-0.428955078125,-0.8239745497703552,-0.0610351525247097,0.1220703050494194,100.0,124431.0,1.0
510398.2733153,254628.140625,289011.03125,305807.375,281307.71875,290416.5,277005.71875,249399.875,263300.78125,-0.07373046875,0.896728515625,-0.427734375,-0.7934569716453552,0.1831054538488388,0.2136230319738388,100.0,124432.0,1.0
510398.273337,255053.0,289440.71875,305648.59375,280516.65625,287631.75,276711.84375,248964.5625,262539.65625,-0.076171875,0.898681640625,-0.42822265625,-0.6713866591453552,0.1831054538488388,0.2136230319738388,100.0,124433.0,1.0
510398.2759347,254426.171875,289043.46875,305475.125,280776.90625,287796.875,276896.65625,249028.125,262692.28125,-0.078857421875,0.8984375,-0.427490234375,-0.7324218153953552,0.1831054538488388,0.1831054538488388,100.0,124434.0,1.0
510398.2784714,253636.703125,288408.40625,305568.9375,281772.28125,290701.625,277347.4375,249538.640625,263582.6875,-0.08056640625,0.89794921875,-0.425048828125,-0.6713866591453552,0.2746581733226776,0.2441406100988388,100.0,124435.0,1.0
510398.2809607,253707.25,288328.5,305756.21875,282128.75,292404.1875,277411.4375,249779.859375,263984.65625,-0.08056640625,0.89892578125,-0.426025390625,-0.7934569716453552,0.2746581733226776,0.2746581733226776,100.0,124436.0,1.0
510398.2833161,254630.8125,288997.25,305804.875,281314.0625,290419.90625,276996.15625,249402.65625,263309.03125,-0.081298828125,0.89990234375,-0.42919921875,-0.8239745497703552,0.2746581733226776,0.3051757514476776,100.0,124437.0,1.0
510398.2897759,255077.578125,289447.40625,305660.65625,280531.9375,287630.9375,276710.0625,248969.484375,262552.375,-0.08251953125,0.89794921875,-0.42822265625,-0.7324218153953552,0.3051757514476776,0.2136230319738388,100.0,124438.0,1.0
510398.2898338,254468.8125,289071.0,305501.25,280797.8125,287777.28125,276914.4375,249043.421875,262708.28125,-0.0830078125,0.898193359375,-0.42724609375,-0.7019042372703552,0.2746581733226776,0.3051757514476776,100.0,124439.0,1.0
510398.2972374,253645.375,288405.375,305564.09375,281760.28125,290642.34375,277338.65625,249525.59375,263560.875,-0.081787109375,0.89892578125,-0.425048828125,-0.6713866591453552,0.2746581733226776,0.2746581733226776,100.0,124440.0,1.0
510398.2972788,253688.734375,288304.09375,305737.09375,282111.46875,292366.90625,277392.125,249753.3125,263958.8125,-0.08154296875,0.898681640625,-0.4248046875,-0.6103515028953552,0.2441406100988388,0.3356933295726776,100.0,124441.0,1.0
510398.2995455,254621.078125,288981.53125,305801.28125,281320.84375,290433.5,276996.34375,249394.34375,263305.4375,-0.08349609375,0.89794921875,-0.42626953125,-0.6408690810203552,0.2441406100988388,0.3967284858226776,100.0,124442.0,1.0
510398.3059424,255078.65625,289436.6875,305659.6875,280531.5625,287634.40625,276706.90625,248958.5625,262543.25,-0.083984375,0.8974609375,-0.427490234375,-0.6713866591453552,0.2441406100988388,0.3356933295726776,100.0,124443.0,1.0
510398.3085004,254474.984375,289067.34375,305494.71875,280779.84375,287749.84375,276903.625,249029.203125,262690.15625,-0.0830078125,0.8984375,-0.42919921875,-0.5798339247703552,0.2746581733226776,0.3051757514476776,100.0,124444.0,1.0
510398.3085424,253641.890625,288395.28125,305546.84375,281735.53125,290602.5625,277318.71875,249497.6875,263535.84375,-0.083984375,0.89990234375,-0.431640625,-0.5187987685203552,0.2441406100988388,0.2441406100988388,100.0,124445.0,1.0
510398.3422184,253692.671875,288316.15625,305744.96875,282122.9375,292397.75,277403.84375,249767.34375,263973.65625,-0.084228515625,0.900634765625,-0.428466796875,-0.5493163466453552,0.2136230319738388,0.2746581733226776,100.0,124446.0,1.0
510398.3447552,254634.03125,289002.78125,305825.25,281353.40625,290514.40625,277025.9375,249434.125,263344.40625,-0.081787109375,0.903076171875,-0.430419921875,-0.5187987685203552,0.2136230319738388,0.2441406100988388,100.0,124447.0,1.0
510398.3447962,255084.828125,289447.40625,305666.46875,280541.84375,287684.84375,276715.15625,248978.0625,262560.21875,-0.08154296875,0.90185546875,-0.428466796875,-0.4882812201976776,0.1831054538488388,0.1831054538488388,100.0,124448.0,1.0
510398.3471709,254485.625,289086.84375,305498.90625,280780.40625,287765.9375,276902.1875,249039.65625,262698.1875,-0.08154296875,0.900390625,-0.430419921875,-0.3662109076976776,0.3356933295726776,0.1831054538488388,100.0,124449.0,1.0
510398.3495873,253660.84375,288428.4375,305562.9375,281745.0,290623.125,277327.59375,249518.890625,263552.28125,-0.08154296875,0.90283203125,-0.43017578125,-0.3967284858226776,0.3967284858226776,0.2136230319738388,100.0,124450.0,1.0
510398.3522491,253703.3125,288336.25,305760.78125,282142.875,292443.34375,277420.5625,249783.265625,263986.1875,-0.082275390625,0.903076171875,-0.42919921875,-0.3662109076976776,0.3356933295726776,0.1831054538488388,100.0,124451.0,1.0
510398.354607,254609.984375,288990.90625,305814.15625,281354.90625,290562.78125,277015.09375,249425.546875,263333.59375,-0.08349609375,0.90234375,-0.43115234375,-0.3356933295726776,0.3662109076976776,0.3967284858226776,100.0,124452.0,1.0
510398.3546394,255069.890625,289442.21875,305655.375,280536.03125,287716.75,276702.625,248965.8125,262545.40625,-0.085205078125,0.903564453125,-0.43115234375,-0.3662109076976776,0.3662109076976776,0.3356933295726776,100.0,124453.0,1.0
510398.3561456,254485.890625,289087.46875,305489.1875,280765.5625,287762.8125,276890.90625,249021.953125,262672.78125,-0.081787109375,0.903564453125,-0.430908203125,-0.4272460639476776,0.3662109076976776,0.3051757514476776,100.0,124454.0,1.0
510398.3634719,253660.84375,288429.0625,305554.25,281732.5625,290606.03125,277319.53125,249504.75,263525.46875,-0.081787109375,0.90576171875,-0.4326171875,-0.3662109076976776,0.4272460639476776,0.1525878757238388,100.0,124455.0,1.0
510398.3659773,253691.78125,288330.1875,305756.15625,282145.0,292453.90625,277418.96875,249776.546875,263975.625,-0.081298828125,0.906005859375,-0.4326171875,-0.5187987685203552,0.3967284858226776,0.2136230319738388,100.0,124456.0,1.0
510398.3683405,254608.640625,288993.6875,305830.0,281376.125,290622.75,277036.125,249446.375,263359.4375,-0.084228515625,0.905029296875,-0.430419921875,-0.4882812201976776,0.4577636420726776,0.2136230319738388,100.0,124457.0,1.0
