Time,FZ,C3,CZ,C4,PZ,PO7,OZ,PO8,AccX,AccY,AccZ,Gyro1,Gyro2,Gyro3,Battery,Counter,Validation
558833.6945848,299293.625,286831.1875,351600.46875,348633.6875,395778.59375,296748.375,294282.71875,295902.15625,-0.12890625,0.802001953125,-0.59765625,29.083250045776367,10.833739280700684,-0.5187987685203552,100.0,24718.0,1.0
558833.6945965,299293.625,286831.1875,351600.46875,348633.6875,395778.59375,296748.375,294282.71875,295902.15625,-0.12890625,0.802001953125,-0.59765625,29.083250045776367,10.833739280700684,-0.5187987685203552,100.0,24719.0,0.0
558833.6945968,299293.625,286831.1875,351600.46875,348633.6875,395778.59375,296748.375,294282.71875,295902.15625,-0.12890625,0.802001953125,-0.59765625,29.083250045776367,10.833739280700684,-0.5187987685203552,100.0,24720.0,0.0
558833.694597,299293.625,286831.1875,351600.46875,348633.6875,395778.59375,296748.375,294282.71875,295902.15625,-0.12890625,0.802001953125,-0.59765625,29.083250045776367,10.833739280700684,-0.5187987685203552,100.0,24721.0,0.0
558833.6945973,299293.625,286831.1875,351600.46875,348633.6875,395778.59375,296748.375,294282.71875,295902.15625,-0.12890625,0.802001953125,-0.59765625,29.083250045776367,10.833739280700684,-0.5187987685203552,100.0,24722.0,0.0
558833.6945976,299293.625,286831.1875,351600.46875,348633.6875,395778.59375,296748.375,294282.71875,295902.15625,-0.12890625,0.802001953125,-0.59765625,29.083250045776367,10.833739280700684,-0.5187987685203552,100.0,24723.0,0.0
558833.6945978,299293.625,286831.1875,351600.46875,348633.6875,395778.59375,296748.375,294282.71875,295902.15625,-0.12890625,0.802001953125,-0.59765625,29.083250045776367,10.833739280700684,-0.5187987685203552,100.0,24724.0,0.0
558833.6945981,299293.625,286831.1875,351600.46875,348633.6875,395778.59375,296748.375,294282.71875,295902.15625,-0.12890625,0.802001953125,-0.59765625,29.083250045776367,10.833739280700684,-0.5187987685203552,100.0,24725.0,0.0
558833.6945983,299293.625,286831.1875,351600.46875,348633.6875,395778.59375,296748.375,294282.71875,295902.15625,-0.12890625,0.802001953125,-0.59765625,29.083250045776367,10.833739280700684,-0.5187987685203552,100.0,24726.0,0.0
558833.6945986,299293.625,286831.1875,351600.46875,348633.6875,395778.59375,296748.375,294282.71875,295902.15625,-0.12890625,0.802001953125,-0.59765625,29.083250045776367,10.833739280700684,-0.5187987685203552,100.0,24727.0,0.0
558833.6945988,299326.625,286932.3125,351669.65625,348799.78125,395652.375,296731.125,293997.5,295766.4375,-0.14453125,0.837646484375,-0.6142578125,9.429930686950684,7.171630382537842,-2.563476324081421,100.0,24728.0,1.0
558833.6946004,299537.1875,285282.9375,350187.75,347793.6875,390370.8125,294071.8125,292369.0625,294826.59375,-0.13916015625,0.836669921875,-0.6162109375,6.744384288787842,6.866454601287842,-2.471923589706421,100.0,24729.0,1.0
558833.6946022,299405.03125,285380.46875,350034.0625,347728.6875,388907.5,293966.03125,292112.625,294767.9375,-0.13623046875,0.830810546875,-0.6142578125,4.119872570037842,6.408690929412842,-2.319335699081421,100.0,24730.0,1.0
558833.6970754,299128.84375,287103.34375,351432.5625,348704.3125,393146.8125,296514.40625,293574.34375,295663.625,-0.130859375,0.822998046875,-0.61376953125,2.166747808456421,5.767821788787842,-2.044677495956421,100.0,24731.0,1.0
558833.6970841,299053.9375,288093.0,352456.375,349378.15625,397302.625,298253.09375,294753.90625,296307.53125,-0.125,0.81591796875,-0.615966796875,0.9765624403953552,5.523681163787842,-1.9531248807907104,100.0,24732.0,1.0
558833.697086,299334.3125,286945.1875,351652.21875,348785.40625,395343.71875,296638.875,293926.71875,295795.9375,-0.122314453125,0.808837890625,-0.61669921875,0.0915527269244194,5.920409679412842,-2.105712652206421,100.0,24733.0,1.0
558833.7935273,299557.28125,285334.96875,350215.5625,347796.46875,390134.4375,294005.84375,292269.53125,294901.0625,-0.12744140625,0.800537109375,-0.61474609375,-0.1525878757238388,6.256103038787842,-2.044677495956421,100.0,24734.0,1.0
558833.7994936,299411.1875,285402.71875,350037.375,347707.15625,388609.59375,293856.0625,291956.34375,294855.46875,-0.128173828125,0.794921875,-0.619873046875,-0.2441406100988388,6.439208507537842,-2.166747808456421,100.0,24735.0,1.0
558833.7995349,299125.71875,287098.875,351404.21875,348668.90625,392780.4375,296396.46875,293406.53125,295756.34375,-0.130615234375,0.78857421875,-0.62109375,-0.2441406100988388,6.866454601287842,-2.319335699081421,100.0,24736.0,1.0
558833.7995435,299037.9375,288092.71875,352423.1875,349350.8125,396957.625,298155.46875,294627.5625,296385.3125,-0.13037109375,0.78173828125,-0.624267578125,-0.1220703050494194,7.080077648162842,-2.319335699081421,100.0,24737.0,1.0
558833.7995515,299322.0625,286962.4375,351657.59375,348798.90625,395103.03125,296579.59375,293872.4375,295862.09375,-0.13134765625,0.776123046875,-0.62841796875,0.2441406100988388,7.171630382537842,-2.197265386581421,100.0,24738.0,1.0
558833.7995594,299570.4375,285343.8125,350241.46875,347839.5625,389936.21875,293944.125,292250.40625,294964.71875,-0.129150390625,0.771484375,-0.626220703125,0.6713866591453552,6.988524913787842,-2.166747808456421,100.0,24739.0,1.0
558833.8033467,299385.625,285304.90625,349966.5625,347693.5625,388240.0625,293686.8125,291883.84375,294857.34375,-0.129150390625,0.766357421875,-0.624267578125,1.2512205839157104,6.927489757537842,-1.9531248807907104,100.0,24740.0,1.0
558833.8033823,299043.90625,286878.125,351218.4375,348587.53125,392160.3125,296104.03125,293254.09375,295697.40625,-0.130126953125,0.7626953125,-0.619873046875,2.105712652206421,6.591796398162842,-1.8310545682907104,100.0,24741.0,1.0
558833.8033911,298939.40625,287843.28125,352221.84375,349268.1875,396256.125,297850.59375,294477.625,296326.5625,-0.128173828125,0.759521484375,-0.622314453125,3.082275152206421,6.164550304412842,-1.9226073026657104,100.0,24742.0,1.0
558833.803399,299246.96875,286769.125,351524.84375,348756.78125,394500.53125,296348.28125,293783.84375,295835.90625,-0.12646484375,0.7587890625,-0.618408203125,3.997802495956421,5.859374523162842,-1.8005369901657104,100.0,24743.0,1.0
558833.8731973,299500.0625,285178.84375,350139.46875,347803.34375,389381.1875,293735.8125,292185.0625,294937.0,-0.126708984375,0.7568359375,-0.618408203125,4.974364757537842,5.462646007537842,-1.5563963651657104,100.0,24744.0,1.0
558833.8732337,299330.8125,285138.34375,349858.46875,347664.25,387625.40625,293459.28125,291820.0,294822.03125,-0.123046875,0.75537109375,-0.618408203125,5.859374523162842,5.157470226287842,-1.4038084745407104,100.0,24745.0,1.0
558833.8732427,298977.125,286678.03125,351068.9375,348543.65625,391444.78125,295836.875,293197.15625,295618.03125,-0.12158203125,0.751708984375,-0.617919921875,6.530761241912842,5.004882335662842,-1.1291502714157104,100.0,24746.0,1.0
558833.8732511,298871.53125,287667.6875,352089.78125,349246.46875,395581.0,297626.46875,294485.6875,296223.3125,-0.125244140625,0.7490234375,-0.616455078125,6.835937023162842,4.669188976287842,-1.1291502714157104,100.0,24747.0,1.0
558833.8732607,298871.53125,287667.6875,352089.78125,349246.46875,395581.0,297626.46875,294485.6875,296223.3125,-0.125244140625,0.7490234375,-0.616455078125,6.835937023162842,4.669188976287842,-1.1291502714157104,100.0,24748.0,0.0
558833.8732624,298871.53125,287667.6875,352089.78125,349246.46875,395581.0,297626.46875,294485.6875,296223.3125,-0.125244140625,0.7490234375,-0.616455078125,6.835937023162842,4.669188976287842,-1.1291502714157104,100.0,24749.0,0.0
558833.8732638,298871.53125,287667.6875,352089.78125,349246.46875,395581.0,297626.46875,294485.6875,296223.3125,-0.125244140625,0.7490234375,-0.616455078125,6.835937023162842,4.669188976287842,-1.1291502714157104,100.0,24750.0,0.0
558833.8732653,298932.34375,286556.1875,350985.71875,348470.5,390832.59375,295683.46875,293338.6875,295551.21875,-0.13134765625,0.7451171875,-0.62158203125,7.080077648162842,4.425048351287842,-2.105712652206421,100.0,24751.0,1.0
558833.8808296,298828.34375,287601.34375,352039.8125,349175.3125,395055.5625,297536.875,294635.4375,296207.03125,-0.13525390625,0.74365234375,-0.626220703125,6.958007335662842,4.516601085662842,-2.685546636581421,100.0,24752.0,1.0
558833.8808664,299187.3125,286753.03125,351519.375,348752.9375,393747.90625,296283.21875,294106.15625,295778.78125,-0.13916015625,0.740478515625,-0.63134765625,6.896972179412842,4.577636241912842,-3.265380620956421,100.0,24753.0,1.0
558833.8808754,299477.90625,285301.34375,350235.40625,347818.09375,388938.53125,293799.65625,292615.46875,294864.9375,-0.140869140625,0.74267578125,-0.63330078125,6.988524913787842,4.882812023162842,-3.997802495956421,100.0,24754.0,1.0
558833.8808835,299306.3125,285228.84375,349911.03125,347615.15625,387143.3125,293469.75,292265.53125,294688.8125,-0.144287109375,0.7431640625,-0.636962890625,7.232665538787842,4.913329601287842,-4.638671398162842,100.0,24755.0,1.0
558833.8808913,298946.46875,286764.9375,351083.875,348449.3125,390915.75,295831.0,293618.78125,295491.0625,-0.142822265625,0.7421875,-0.6376953125,7.568358898162842,4.974364757537842,-5.096435070037842,100.0,24756.0,1.0
558833.8808992,298852.03125,287888.78125,352176.78125,349181.125,395293.21875,297767.0,294934.15625,296197.65625,-0.14306640625,0.74267578125,-0.640625,7.995604991912842,5.065917491912842,-5.493163585662842,100.0,24757.0,1.0
558833.8818834,299205.125,287090.28125,351689.875,348772.0625,394154.53125,296586.5625,294415.03125,295812.3125,-0.1474609375,0.7451171875,-0.642333984375,8.697508811950684,5.065917491912842,-5.767821788787842,100.0,24758.0,1.0
558833.8846734,299205.125,287090.28125,351689.875,348772.0625,394154.53125,296586.5625,294415.03125,295812.3125,-0.1474609375,0.7451171875,-0.642333984375,8.697508811950684,5.065917491912842,-5.767821788787842,100.0,24759.0,0.0
558833.8846807,299205.125,287090.28125,351689.875,348772.0625,394154.53125,296586.5625,294415.03125,295812.3125,-0.1474609375,0.7451171875,-0.642333984375,8.697508811950684,5.065917491912842,-5.767821788787842,100.0,24760.0,0.0
558833.8846823,299205.125,287090.28125,351689.875,348772.0625,394154.53125,296586.5625,294415.03125,295812.3125,-0.1474609375,0.7451171875,-0.642333984375,8.697508811950684,5.065917491912842,-5.767821788787842,100.0,24761.0,0.0
558833.8846839,299205.125,287090.28125,351689.875,348772.0625,394154.53125,296586.5625,294415.03125,295812.3125,-0.1474609375,0.7451171875,-0.642333984375,8.697508811950684,5.065917491912842,-5.767821788787842,100.0,24762.0,0.0
558833.8846854,299205.125,287090.28125,351689.875,348772.0625,394154.53125,296586.5625,294415.03125,295812.3125,-0.1474609375,0.7451171875,-0.642333984375,8.697508811950684,5.065917491912842,-5.767821788787842,100.0,24763.0,0.0
558833.8846868,299205.125,287090.28125,351689.875,348772.0625,394154.53125,296586.5625,294415.03125,295812.3125,-0.1474609375,0.7451171875,-0.642333984375,8.697508811950684,5.065917491912842,-5.767821788787842,100.0,24764.0,0.0
558833.8846882,299205.125,287090.28125,351689.875,348772.0625,394154.53125,296586.5625,294415.03125,295812.3125,-0.1474609375,0.7451171875,-0.642333984375,8.697508811950684,5.065917491912842,-5.767821788787842,100.0,24765.0,0.0
558833.8846897,299205.125,287090.28125,351689.875,348772.0625,394154.53125,296586.5625,294415.03125,295812.3125,-0.1474609375,0.7451171875,-0.642333984375,8.697508811950684,5.065917491912842,-5.767821788787842,100.0,24766.0,0.0
558833.8846912,299205.125,287090.28125,351689.875,348772.0625,394154.53125,296586.5625,294415.03125,295812.3125,-0.1474609375,0.7451171875,-0.642333984375,8.697508811950684,5.065917491912842,-5.767821788787842,100.0,24767.0,0.0
558833.8846925,299205.125,287090.28125,351689.875,348772.0625,394154.53125,296586.5625,294415.03125,295812.3125,-0.1474609375,0.7451171875,-0.642333984375,8.697508811950684,5.065917491912842,-5.767821788787842,100.0,24768.0,0.0
558833.8846939,299205.125,287090.28125,351689.875,348772.0625,394154.53125,296586.5625,294415.03125,295812.3125,-0.1474609375,0.7451171875,-0.642333984375,8.697508811950684,5.065917491912842,-5.767821788787842,100.0,24769.0,0.0
558833.8846952,299231.59375,284588.78125,349793.46875,347500.53125,386798.125,293501.03125,292456.75,294290.0625,-0.17041015625,0.748291015625,-0.650390625,19.226072311401367,0.0,-12.390135765075684,100.0,24770.0,1.0
558833.8896801,298831.5625,285947.3125,350866.625,348260.21875,390219.28125,295698.75,293630.9375,295004.875,-0.161865234375,0.76171875,-0.640869140625,18.524168014526367,-2.502441167831421,-12.023924827575684,100.0,24771.0,1.0
558833.8897161,298718.03125,287032.34375,351994.21875,349009.375,394517.53125,297634.59375,294954.0,295674.25,-0.1552734375,0.762939453125,-0.638671875,17.364500045776367,-3.967284917831421,-11.260985374450684,100.0,24772.0,1.0
558833.8897251,299057.3125,286203.90625,351531.90625,348638.40625,393400.375,296469.25,294472.90625,295272.90625,-0.1513671875,0.7578125,-0.640380859375,16.265867233276367,-5.493163585662842,-10.528563499450684,100.0,24773.0,1.0
558833.9519757,299377.75,284707.5,350218.15625,347730.40625,388536.09375,293934.03125,292932.5,294411.125,-0.15234375,0.755859375,-0.6455078125,15.045165061950684,-6.866454601287842,-10.009764671325684,100.0,24774.0,1.0
558833.952011,299220.9375,284565.71875,349808.75,347478.09375,386430.125,293451.15625,292411.25,294230.40625,-0.153076171875,0.7568359375,-0.646728515625,13.824461936950684,-8.209227561950684,-9.399413108825684,100.0,24775.0,1.0
558833.9670609,298849.625,286058.8125,350917.65625,348252.96875,389851.8125,295672.28125,293616.46875,294991.375,-0.155517578125,0.754638671875,-0.652587890625,12.725829124450684,-9.460448265075684,-8.880614280700684,100.0,24776.0,1.0
558833.9671013,298726.34375,287231.90625,352036.0625,349004.34375,394195.65625,297623.25,294895.875,295694.90625,-0.15673828125,0.750732421875,-0.6572265625,11.871336936950684,-10.528563499450684,-8.697508811950684,100.0,24777.0,1.0
558833.9671104,299057.875,286494.84375,351574.71875,348659.4375,393175.59375,296506.28125,294371.59375,295382.78125,-0.15771484375,0.74951171875,-0.662109375,11.352538108825684,-11.413573265075684,-8.483885765075684,100.0,24778.0,1.0
558833.9671185,299374.0,285031.15625,350245.78125,347757.84375,388311.25,293967.375,292779.875,294567.125,-0.154296875,0.74560546875,-0.66796875,11.016844749450684,-12.145995140075684,-8.422850608825684,100.0,24779.0,1.0
558833.9671462,299218.71875,284884.25,349797.75,347496.40625,386129.34375,293439.875,292190.59375,294395.90625,-0.152099609375,0.741455078125,-0.673095703125,11.199950218200684,-12.695311546325684,-8.270262718200684,100.0,24780.0,1.0
558833.967155,298863.84375,286391.21875,350890.9375,348277.125,389519.9375,295639.75,293330.625,295183.5,-0.15087890625,0.741943359375,-0.674560546875,11.657713890075684,-13.000487327575684,-7.843017101287842,100.0,24781.0,1.0
558833.9694248,298766.46875,287626.09375,352052.40625,349057.1875,393946.75,297640.21875,294617.71875,295928.53125,-0.15087890625,0.74267578125,-0.67724609375,12.390135765075684,-13.214110374450684,-7.537841320037842,100.0,24782.0,1.0
558833.9720385,298766.46875,287626.09375,352052.40625,349057.1875,393946.75,297640.21875,294617.71875,295928.53125,-0.15087890625,0.74267578125,-0.67724609375,12.390135765075684,-13.214110374450684,-7.537841320037842,100.0,24783.0,0.0
558833.972046,298766.46875,287626.09375,352052.40625,349057.1875,393946.75,297640.21875,294617.71875,295928.53125,-0.15087890625,0.74267578125,-0.67724609375,12.390135765075684,-13.214110374450684,-7.537841320037842,100.0,24784.0,0.0
558833.9720475,298766.46875,287626.09375,352052.40625,349057.1875,393946.75,297640.21875,294617.71875,295928.53125,-0.15087890625,0.74267578125,-0.67724609375,12.390135765075684,-13.214110374450684,-7.537841320037842,100.0,24785.0,0.0
558833.9720489,298766.46875,287626.09375,352052.40625,349057.1875,393946.75,297640.21875,294617.71875,295928.53125,-0.15087890625,0.74267578125,-0.67724609375,12.390135765075684,-13.214110374450684,-7.537841320037842,100.0,24786.0,0.0
558833.9720503,298766.46875,287626.09375,352052.40625,349057.1875,393946.75,297640.21875,294617.71875,295928.53125,-0.15087890625,0.74267578125,-0.67724609375,12.390135765075684,-13.214110374450684,-7.537841320037842,100.0,24787.0,0.0
558833.9720517,298766.46875,287626.09375,352052.40625,349057.1875,393946.75,297640.21875,294617.71875,295928.53125,-0.15087890625,0.74267578125,-0.67724609375,12.390135765075684,-13.214110374450684,-7.537841320037842,100.0,24788.0,0.0
558833.9720532,298766.46875,287626.09375,352052.40625,349057.1875,393946.75,297640.21875,294617.71875,295928.53125,-0.15087890625,0.74267578125,-0.67724609375,12.390135765075684,-13.214110374450684,-7.537841320037842,100.0,24789.0,0.0
558833.9720545,298766.46875,287626.09375,352052.40625,349057.1875,393946.75,297640.21875,294617.71875,295928.53125,-0.15087890625,0.74267578125,-0.67724609375,12.390135765075684,-13.214110374450684,-7.537841320037842,100.0,24790.0,0.0
558833.9720559,298766.46875,287626.09375,352052.40625,349057.1875,393946.75,297640.21875,294617.71875,295928.53125,-0.15087890625,0.74267578125,-0.67724609375,12.390135765075684,-13.214110374450684,-7.537841320037842,100.0,24791.0,0.0
558833.9720573,298766.46875,287626.09375,352052.40625,349057.1875,393946.75,297640.21875,294617.71875,295928.53125,-0.15087890625,0.74267578125,-0.67724609375,12.390135765075684,-13.214110374450684,-7.537841320037842,100.0,24792.0,0.0
558833.9720587,298766.46875,287626.09375,352052.40625,349057.1875,393946.75,297640.21875,294617.71875,295928.53125,-0.15087890625,0.74267578125,-0.67724609375,12.390135765075684,-13.214110374450684,-7.537841320037842,100.0,24793.0,0.0
558833.9720601,298766.46875,287626.09375,352052.40625,349057.1875,393946.75,297640.21875,294617.71875,295928.53125,-0.15087890625,0.74267578125,-0.67724609375,12.390135765075684,-13.214110374450684,-7.537841320037842,100.0,24794.0,0.0
558833.9720615,298766.46875,287626.09375,352052.40625,349057.1875,393946.75,297640.21875,294617.71875,295928.53125,-0.15087890625,0.74267578125,-0.67724609375,12.390135765075684,-13.214110374450684,-7.537841320037842,100.0,24795.0,0.0
558833.9720628,298766.46875,287626.09375,352052.40625,349057.1875,393946.75,297640.21875,294617.71875,295928.53125,-0.15087890625,0.74267578125,-0.67724609375,12.390135765075684,-13.214110374450684,-7.537841320037842,100.0,24796.0,0.0
558833.9720642,298766.46875,287626.09375,352052.40625,349057.1875,393946.75,297640.21875,294617.71875,295928.53125,-0.15087890625,0.74267578125,-0.67724609375,12.390135765075684,-13.214110374450684,-7.537841320037842,100.0,24797.0,0.0
558833.9720656,298766.46875,287626.09375,352052.40625,349057.1875,393946.75,297640.21875,294617.71875,295928.53125,-0.15087890625,0.74267578125,-0.67724609375,12.390135765075684,-13.214110374450684,-7.537841320037842,100.0,24798.0,0.0
558833.972067,298766.46875,287626.09375,352052.40625,349057.1875,393946.75,297640.21875,294617.71875,295928.53125,-0.15087890625,0.74267578125,-0.67724609375,12.390135765075684,-13.214110374450684,-7.537841320037842,100.0,24799.0,0.0
558833.9720683,298766.46875,287626.09375,352052.40625,349057.1875,393946.75,297640.21875,294617.71875,295928.53125,-0.15087890625,0.74267578125,-0.67724609375,12.390135765075684,-13.214110374450684,-7.537841320037842,100.0,24800.0,0.0
558833.9720697,298766.46875,287626.09375,352052.40625,349057.1875,393946.75,297640.21875,294617.71875,295928.53125,-0.15087890625,0.74267578125,-0.67724609375,12.390135765075684,-13.214110374450684,-7.537841320037842,100.0,24801.0,0.0
558833.9720711,298766.46875,287626.09375,352052.40625,349057.1875,393946.75,297640.21875,294617.71875,295928.53125,-0.15087890625,0.74267578125,-0.67724609375,12.390135765075684,-13.214110374450684,-7.537841320037842,100.0,24802.0,0.0
558833.9720725,298766.46875,287626.09375,352052.40625,349057.1875,393946.75,297640.21875,294617.71875,295928.53125,-0.15087890625,0.74267578125,-0.67724609375,12.390135765075684,-13.214110374450684,-7.537841320037842,100.0,24803.0,0.0
558833.9720739,298766.46875,287626.09375,352052.40625,349057.1875,393946.75,297640.21875,294617.71875,295928.53125,-0.15087890625,0.74267578125,-0.67724609375,12.390135765075684,-13.214110374450684,-7.537841320037842,100.0,24804.0,0.0
558833.9720753,298766.46875,287626.09375,352052.40625,349057.1875,393946.75,297640.21875,294617.71875,295928.53125,-0.15087890625,0.74267578125,-0.67724609375,12.390135765075684,-13.214110374450684,-7.537841320037842,100.0,24805.0,0.0
558833.9720767,298766.46875,287626.09375,352052.40625,349057.1875,393946.75,297640.21875,294617.71875,295928.53125,-0.15087890625,0.74267578125,-0.67724609375,12.390135765075684,-13.214110374450684,-7.537841320037842,100.0,24806.0,0.0
558833.972078,298766.46875,287626.09375,352052.40625,349057.1875,393946.75,297640.21875,294617.71875,295928.53125,-0.15087890625,0.74267578125,-0.67724609375,12.390135765075684,-13.214110374450684,-7.537841320037842,100.0,24807.0,0.0
558833.9720794,298766.46875,287626.09375,352052.40625,349057.1875,393946.75,297640.21875,294617.71875,295928.53125,-0.15087890625,0.74267578125,-0.67724609375,12.390135765075684,-13.214110374450684,-7.537841320037842,100.0,24808.0,0.0
558833.9720808,298766.46875,287626.09375,352052.40625,349057.1875,393946.75,297640.21875,294617.71875,295928.53125,-0.15087890625,0.74267578125,-0.67724609375,12.390135765075684,-13.214110374450684,-7.537841320037842,100.0,24809.0,0.0
558833.9720822,298766.46875,287626.09375,352052.40625,349057.1875,393946.75,297640.21875,294617.71875,295928.53125,-0.15087890625,0.74267578125,-0.67724609375,12.390135765075684,-13.214110374450684,-7.537841320037842,100.0,24810.0,0.0
558833.9720836,298766.46875,287626.09375,352052.40625,349057.1875,393946.75,297640.21875,294617.71875,295928.53125,-0.15087890625,0.74267578125,-0.67724609375,12.390135765075684,-13.214110374450684,-7.537841320037842,100.0,24811.0,0.0
558833.972085,298766.46875,287626.09375,352052.40625,349057.1875,393946.75,297640.21875,294617.71875,295928.53125,-0.15087890625,0.74267578125,-0.67724609375,12.390135765075684,-13.214110374450684,-7.537841320037842,100.0,24812.0,0.0
558833.9720863,298766.46875,287626.09375,352052.40625,349057.1875,393946.75,297640.21875,294617.71875,295928.53125,-0.15087890625,0.74267578125,-0.67724609375,12.390135765075684,-13.214110374450684,-7.537841320037842,100.0,24813.0,0.0
558833.9720877,298766.46875,287626.09375,352052.40625,349057.1875,393946.75,297640.21875,294617.71875,295928.53125,-0.15087890625,0.74267578125,-0.67724609375,12.390135765075684,-13.214110374450684,-7.537841320037842,100.0,24814.0,0.0
558833.9720891,298766.46875,287626.09375,352052.40625,349057.1875,393946.75,297640.21875,294617.71875,295928.53125,-0.15087890625,0.74267578125,-0.67724609375,12.390135765075684,-13.214110374450684,-7.537841320037842,100.0,24815.0,0.0
558833.9720905,298766.46875,287626.09375,352052.40625,349057.1875,393946.75,297640.21875,294617.71875,295928.53125,-0.15087890625,0.74267578125,-0.67724609375,12.390135765075684,-13.214110374450684,-7.537841320037842,100.0,24816.0,0.0
558833.9720919,298766.46875,287626.09375,352052.40625,349057.1875,393946.75,297640.21875,294617.71875,295928.53125,-0.15087890625,0.74267578125,-0.67724609375,12.390135765075684,-13.214110374450684,-7.537841320037842,100.0,24817.0,0.0
558833.9720932,298766.46875,287626.09375,352052.40625,349057.1875,393946.75,297640.21875,294617.71875,295928.53125,-0.15087890625,0.74267578125,-0.67724609375,12.390135765075684,-13.214110374450684,-7.537841320037842,100.0,24818.0,0.0
558833.9720946,298766.46875,287626.09375,352052.40625,349057.1875,393946.75,297640.21875,294617.71875,295928.53125,-0.15087890625,0.74267578125,-0.67724609375,12.390135765075684,-13.214110374450684,-7.537841320037842,100.0,24819.0,0.0
558833.972096,298766.46875,287626.09375,352052.40625,349057.1875,393946.75,297640.21875,294617.71875,295928.53125,-0.15087890625,0.74267578125,-0.67724609375,12.390135765075684,-13.214110374450684,-7.537841320037842,100.0,24820.0,0.0
558833.9720974,298766.46875,287626.09375,352052.40625,349057.1875,393946.75,297640.21875,294617.71875,295928.53125,-0.15087890625,0.74267578125,-0.67724609375,12.390135765075684,-13.214110374450684,-7.537841320037842,100.0,24821.0,0.0
558833.9720987,298766.46875,287626.09375,352052.40625,349057.1875,393946.75,297640.21875,294617.71875,295928.53125,-0.15087890625,0.74267578125,-0.67724609375,12.390135765075684,-13.214110374450684,-7.537841320037842,100.0,24822.0,0.0
558833.9721001,298766.46875,287626.09375,352052.40625,349057.1875,393946.75,297640.21875,294617.71875,295928.53125,-0.15087890625,0.74267578125,-0.67724609375,12.390135765075684,-13.214110374450684,-7.537841320037842,100.0,24823.0,0.0
558833.9721015,298766.46875,287626.09375,352052.40625,349057.1875,393946.75,297640.21875,294617.71875,295928.53125,-0.15087890625,0.74267578125,-0.67724609375,12.390135765075684,-13.214110374450684,-7.537841320037842,100.0,24824.0,0.0
558833.9721029,298766.46875,287626.09375,352052.40625,349057.1875,393946.75,297640.21875,294617.71875,295928.53125,-0.15087890625,0.74267578125,-0.67724609375,12.390135765075684,-13.214110374450684,-7.537841320037842,100.0,24825.0,0.0
558833.9721043,298766.46875,287626.09375,352052.40625,349057.1875,393946.75,297640.21875,294617.71875,295928.53125,-0.15087890625,0.74267578125,-0.67724609375,12.390135765075684,-13.214110374450684,-7.537841320037842,100.0,24826.0,0.0
558833.9721057,298766.46875,287626.09375,352052.40625,349057.1875,393946.75,297640.21875,294617.71875,295928.53125,-0.15087890625,0.74267578125,-0.67724609375,12.390135765075684,-13.214110374450684,-7.537841320037842,100.0,24827.0,0.0
558833.972107,298766.46875,287626.09375,352052.40625,349057.1875,393946.75,297640.21875,294617.71875,295928.53125,-0.15087890625,0.74267578125,-0.67724609375,12.390135765075684,-13.214110374450684,-7.537841320037842,100.0,24828.0,0.0
558833.9721085,298766.46875,287626.09375,352052.40625,349057.1875,393946.75,297640.21875,294617.71875,295928.53125,-0.15087890625,0.74267578125,-0.67724609375,12.390135765075684,-13.214110374450684,-7.537841320037842,100.0,24829.0,0.0
558833.9721098,298766.46875,287626.09375,352052.40625,349057.1875,393946.75,297640.21875,294617.71875,295928.53125,-0.15087890625,0.74267578125,-0.67724609375,12.390135765075684,-13.214110374450684,-7.537841320037842,100.0,24830.0,0.0
558833.9721112,298766.46875,287626.09375,352052.40625,349057.1875,393946.75,297640.21875,294617.71875,295928.53125,-0.15087890625,0.74267578125,-0.67724609375,12.390135765075684,-13.214110374450684,-7.537841320037842,100.0,24831.0,0.0
558833.9721126,298796.71875,286701.1875,351762.90625,348760.375,390216.875,296838.59375,294281.84375,295479.625,-0.073974609375,0.75146484375,-0.703125,1.9836424589157104,3.448486089706421,3.448486089706421,100.0,24832.0,1.0
558834.0367175,299025.3125,286094.65625,351422.09375,348507.4375,389804.59375,296018.75,294037.84375,295223.5625,-0.068115234375,0.75439453125,-0.70458984375,1.3427733182907104,2.349853277206421,2.777099370956421,100.0,24833.0,1.0
558834.0367493,299302.9375,284470.3125,349968.625,347538.8125,384857.375,293354.21875,292503.25,294321.15625,-0.067138671875,0.755859375,-0.703125,0.6103515028953552,1.6784666776657104,2.014159917831421,100.0,24834.0,1.0
558834.0481329,299216.65625,284070.9375,349340.15625,347150.5,381961.46875,292435.75,291802.84375,293980.34375,-0.063720703125,0.7578125,-0.704345703125,-0.3662109076976776,0.9155272841453552,1.3427733182907104,100.0,24835.0,1.0
558834.0532538,298935.8125,285485.0625,350401.15625,347881.84375,384748.46875,294406.71875,292897.375,294637.9375,-0.05908203125,0.76416015625,-0.704833984375,-1.4953612089157104,0.3051757514476776,0.7324218153953552,100.0,24836.0,1.0
558834.0557641,298815.46875,286892.96875,351737.15625,348756.4375,389388.25,296625.28125,294355.15625,295461.1875,-0.054443359375,0.770751953125,-0.70361328125,-3.021239995956421,0.0610351525247097,0.2746581733226776,100.0,24837.0,1.0
558834.060764,299032.28125,286340.6875,351422.28125,348528.1875,389066.46875,295858.0625,294094.78125,295302.59375,-0.055419921875,0.775634765625,-0.69921875,-4.699706554412842,0.0915527269244194,0.0915527269244194,100.0,24838.0,1.0
558834.1193982,299306.3125,284741.75,349974.78125,347574.1875,384172.9375,293209.40625,292551.1875,294434.96875,-0.056884765625,0.77685546875,-0.696533203125,-6.530761241912842,0.1831054538488388,0.2441406100988388,100.0,24839.0,1.0
558834.1218634,299232.21875,284357.21875,349350.71875,347184.03125,381280.375,292280.28125,291796.75,294118.84375,-0.055419921875,0.7744140625,-0.69189453125,-8.605956077575684,0.4882812201976776,0.2441406100988388,100.0,24840.0,1.0
558834.1244963,298967.375,285800.0625,350420.21875,347917.25,384100.09375,294254.5625,292828.78125,294805.5625,-0.057373046875,0.772705078125,-0.693115234375,-10.192870140075684,1.1901854276657104,0.4272460639476776,100.0,24841.0,1.0
558834.1270004,298839.0,287243.90625,351769.8125,348805.15625,388843.65625,296507.34375,294249.71875,295624.46875,-0.064453125,0.775390625,-0.68994140625,-11.840819358825684,1.8920897245407104,0.5798339247703552,100.0,24842.0,1.0
558834.2071723,299056.78125,286748.5625,351502.75,348597.03125,388710.8125,295832.78125,294009.3125,295496.0625,-0.068115234375,0.774169921875,-0.688232421875,-13.488768577575684,2.685546636581421,0.7019042372703552,100.0,24843.0,1.0
558834.2072128,299351.84375,285178.6875,350098.15625,347655.84375,383965.875,293241.40625,292476.96875,294665.9375,-0.071044921875,0.76953125,-0.689208984375,-15.075682640075684,3.631591558456421,1.0070799589157104,100.0,24844.0,1.0
558834.2072227,299293.8125,284802.46875,349486.96875,347285.59375,381136.25,292324.71875,291731.5,294361.9375,-0.073974609375,0.767578125,-0.69189453125,-16.326902389526367,4.608153820037842,1.1901854276657104,100.0,24845.0,1.0
558834.2072306,299022.90625,286265.78125,350548.40625,348032.9375,383991.46875,294307.59375,292780.59375,295051.34375,-0.0771484375,0.76904296875,-0.689208984375,-17.547605514526367,5.645751476287842,1.4343260526657104,100.0,24846.0,1.0
558834.2072385,298889.6875,287746.8125,351919.5625,348901.4375,388864.65625,296614.375,294288.28125,295842.78125,-0.080078125,0.76904296875,-0.68798828125,-18.951414108276367,6.500243663787842,1.4953612089157104,100.0,24847.0,1.0
558834.2072464,299126.25,287298.53125,351708.03125,348678.1875,388932.1875,296027.0625,294133.78125,295698.9375,-0.083251953125,0.76904296875,-0.687744140625,-20.202634811401367,7.476806163787842,1.4648436307907104,100.0,24848.0,1.0
558834.2072545,299433.46875,285746.875,350327.125,347733.15625,384301.4375,293498.1875,292594.375,294917.6875,-0.088134765625,0.768310546875,-0.687255859375,-21.484373092651367,8.270262718200684,1.4953612089157104,100.0,24849.0,1.0
558834.2072624,299372.40625,285371.0,349690.65625,347343.4375,381478.65625,292589.90625,291776.1875,294648.5,-0.088134765625,0.77197265625,-0.690185546875,-22.705076217651367,9.063719749450684,1.3427733182907104,100.0,24850.0,1.0
558834.2072715,299080.125,286805.0,350697.90625,348053.4375,384298.84375,294548.8125,292732.84375,295351.84375,-0.088134765625,0.77294921875,-0.692626953125,-23.986814498901367,9.704588890075684,1.2512205839157104,100.0,24851.0,1.0
558834.2093125,298931.71875,288255.625,352029.8125,348965.46875,389199.15625,296871.6875,294167.125,296202.03125,-0.088623046875,0.77490234375,-0.69091796875,-25.146482467651367,10.009764671325684,1.1291502714157104,100.0,24852.0,1.0
558834.21199,299151.8125,287786.59375,351789.125,348822.78125,389335.3125,296311.625,293995.0,296055.75,-0.087646484375,0.77099609375,-0.694091796875,-26.031492233276367,10.345458030700684,0.9155272841453552,100.0,24853.0,1.0
558834.2143433,299464.65625,286204.625,350384.53125,347930.75,384725.3125,293767.90625,292505.03125,295188.59375,-0.088134765625,0.768310546875,-0.694580078125,-26.489255905151367,10.467528343200684,0.7934569716453552,100.0,24854.0,1.0
558834.2259677,299402.53125,285748.5625,349705.5,347543.96875,381826.8125,292798.3125,291797.9375,294821.40625,-0.08984375,0.77197265625,-0.691162109375,-27.008054733276367,10.803221702575684,0.3356933295726776,100.0,24855.0,1.0
558834.2260068,299109.625,287108.34375,350689.6875,348232.5,384556.6875,294729.75,292855.6875,295476.5,-0.093505859375,0.771484375,-0.682861328125,-27.648923873901367,10.742186546325684,0.0915527269244194,100.0,24856.0,1.0
558834.2260155,298952.71875,288526.0625,352038.375,349172.625,389468.875,297065.96875,294333.5,296277.21875,-0.092529296875,0.779296875,-0.67724609375,-28.167722702026367,10.620116233825684,-0.1525878757238388,100.0,24857.0,1.0
558834.2260236,299179.0,288038.28125,351846.6875,349041.625,389705.28125,296537.375,294196.625,296136.65625,-0.09619140625,0.77734375,-0.67138671875,-28.900144577026367,10.467528343200684,-0.2136230319738388,100.0,24858.0,1.0
558834.2260315,299499.875,286405.875,350458.28125,348092.59375,385144.1875,293974.4375,292665.1875,295317.625,-0.096923828125,0.7744140625,-0.666748046875,-29.541013717651367,9.948729515075684,-0.1525878757238388,100.0,24859.0,1.0
558834.2260394,299451.625,285879.1875,349761.28125,347658.6875,382233.09375,292946.53125,291799.90625,294967.84375,-0.094970703125,0.774658203125,-0.662353515625,-30.029294967651367,9.582518577575684,-0.2136230319738388,100.0,24860.0,1.0
558834.2260478,299147.90625,287174.40625,350691.90625,348286.6875,384947.03125,294816.3125,292711.75,295581.28125,-0.099853515625,0.776123046875,-0.662353515625,-30.731199264526367,8.972167015075684,-0.1525878757238388,100.0,24861.0,1.0
558834.2260558,298985.71875,288615.03125,352014.15625,349209.90625,389907.78125,297174.59375,294202.71875,296402.375,-0.103515625,0.781005859375,-0.659423828125,-31.707761764526367,7.629394054412842,-0.1831054538488388,100.0,24862.0,1.0
558834.2260638,299214.59375,288177.75,351834.34375,349155.28125,390235.46875,296698.21875,294121.6875,296276.5,-0.103271484375,0.7802734375,-0.6533203125,-32.196041107177734,6.835937023162842,-0.1220703050494194,100.0,24863.0,1.0
558834.2260718,299543.96875,286556.34375,350455.0625,348276.6875,385688.84375,294128.40625,292606.875,295414.09375,-0.104248046875,0.7783203125,-0.654541015625,-32.592769622802734,5.828856945037842,0.1220703050494194,100.0,24864.0,1.0
558834.2260796,299504.09375,286011.0625,349746.53125,347880.59375,382678.5,293062.59375,291775.46875,295019.875,-0.105224609375,0.778076171875,-0.65625,-32.623287200927734,4.882812023162842,0.3662109076976776,100.0,24865.0,1.0
558834.2260875,299189.28125,287242.625,350650.6875,348530.59375,385249.40625,294894.28125,292671.875,295642.78125,-0.10595703125,0.7763671875,-0.65234375,-32.470699310302734,3.967284917831421,0.6713866591453552,100.0,24866.0,1.0
558834.2260953,298999.75,288627.8125,351969.53125,349362.78125,390171.34375,297247.90625,294149.6875,296462.03125,-0.106689453125,0.77197265625,-0.647216796875,-32.104488372802734,3.082275152206421,0.9155272841453552,100.0,24867.0,1.0
558834.2261032,299214.6875,288197.3125,351815.21875,349248.625,390545.625,296805.34375,294074.40625,296319.5,-0.105712890625,0.7724609375,-0.647216796875,-31.402585983276367,2.532958745956421,1.1596678495407104,100.0,24868.0,1.0
558834.233127,299564.4375,286585.6875,350472.15625,348355.96875,385988.90625,294251.4375,292542.40625,295484.25,-0.108642578125,0.77099609375,-0.642333984375,-30.273435592651367,2.014159917831421,1.3732908964157104,100.0,24869.0,1.0
558834.2331667,299530.46875,286026.0,349758.875,347860.75,382880.5625,293148.59375,291637.4375,295127.4375,-0.109375,0.76611328125,-0.6396484375,-29.052732467651367,1.5563963651657104,1.7395018339157104,100.0,24870.0,1.0
558834.2331755,299211.46875,287266.5,350639.0625,348456.125,385346.40625,294950.78125,292472.78125,295765.09375,-0.111328125,0.76220703125,-0.636962890625,-27.862546920776367,1.4648436307907104,1.9531248807907104,100.0,24871.0,1.0
558834.2331835,299015.84375,288652.5,351946.375,349331.125,390217.65625,297308.96875,293922.3125,296606.84375,-0.1083984375,0.762451171875,-0.63671875,-26.397703170776367,1.3122557401657104,2.075195074081421,100.0,24872.0,1.0
558834.2331913,299235.5,288197.25,351809.21875,349265.34375,390602.375,296892.78125,293874.21875,296485.96875,-0.105224609375,0.763427734375,-0.64013671875,-25.238035202026367,1.4953612089157104,2.502441167831421,100.0,24873.0,1.0
558834.2995694,299606.1875,286566.46875,350483.0625,348400.5,386045.125,294350.59375,292395.78125,295641.25,-0.091064453125,0.761962890625,-0.64404296875,-24.169919967651367,1.8615721464157104,3.234863042831421,100.0,24874.0,1.0
558834.2996288,299606.1875,286566.46875,350483.0625,348400.5,386045.125,294350.59375,292395.78125,295641.25,-0.091064453125,0.761962890625,-0.64404296875,-24.169919967651367,1.8615721464157104,3.234863042831421,100.0,24875.0,0.0
558834.2996306,299606.1875,286566.46875,350483.0625,348400.5,386045.125,294350.59375,292395.78125,295641.25,-0.091064453125,0.761962890625,-0.64404296875,-24.169919967651367,1.8615721464157104,3.234863042831421,100.0,24876.0,0.0
558834.2996321,299606.1875,286566.46875,350483.0625,348400.5,386045.125,294350.59375,292395.78125,295641.25,-0.091064453125,0.761962890625,-0.64404296875,-24.169919967651367,1.8615721464157104,3.234863042831421,100.0,24877.0,0.0
558834.2996335,299606.1875,286566.46875,350483.0625,348400.5,386045.125,294350.59375,292395.78125,295641.25,-0.091064453125,0.761962890625,-0.64404296875,-24.169919967651367,1.8615721464157104,3.234863042831421,100.0,24878.0,0.0
558834.299635,299606.1875,286566.46875,350483.0625,348400.5,386045.125,294350.59375,292395.78125,295641.25,-0.091064453125,0.761962890625,-0.64404296875,-24.169919967651367,1.8615721464157104,3.234863042831421,100.0,24879.0,0.0
558834.2996364,299606.1875,286566.46875,350483.0625,348400.5,386045.125,294350.59375,292395.78125,295641.25,-0.091064453125,0.761962890625,-0.64404296875,-24.169919967651367,1.8615721464157104,3.234863042831421,100.0,24880.0,0.0
558834.2996377,299606.1875,286566.46875,350483.0625,348400.5,386045.125,294350.59375,292395.78125,295641.25,-0.091064453125,0.761962890625,-0.64404296875,-24.169919967651367,1.8615721464157104,3.234863042831421,100.0,24881.0,0.0
558834.2996391,299606.1875,286566.46875,350483.0625,348400.5,386045.125,294350.59375,292395.78125,295641.25,-0.091064453125,0.761962890625,-0.64404296875,-24.169919967651367,1.8615721464157104,3.234863042831421,100.0,24882.0,0.0
558834.2996405,299606.1875,286566.46875,350483.0625,348400.5,386045.125,294350.59375,292395.78125,295641.25,-0.091064453125,0.761962890625,-0.64404296875,-24.169919967651367,1.8615721464157104,3.234863042831421,100.0,24883.0,0.0
558834.2996419,299606.1875,286566.46875,350483.0625,348400.5,386045.125,294350.59375,292395.78125,295641.25,-0.091064453125,0.761962890625,-0.64404296875,-24.169919967651367,1.8615721464157104,3.234863042831421,100.0,24884.0,0.0
558834.2996433,299606.1875,286566.46875,350483.0625,348400.5,386045.125,294350.59375,292395.78125,295641.25,-0.091064453125,0.761962890625,-0.64404296875,-24.169919967651367,1.8615721464157104,3.234863042831421,100.0,24885.0,0.0
558834.2996447,299606.1875,286566.46875,350483.0625,348400.5,386045.125,294350.59375,292395.78125,295641.25,-0.091064453125,0.761962890625,-0.64404296875,-24.169919967651367,1.8615721464157104,3.234863042831421,100.0,24886.0,0.0
558834.2996461,299606.1875,286566.46875,350483.0625,348400.5,386045.125,294350.59375,292395.78125,295641.25,-0.091064453125,0.761962890625,-0.64404296875,-24.169919967651367,1.8615721464157104,3.234863042831421,100.0,24887.0,0.0
558834.2996474,299606.1875,286566.46875,350483.0625,348400.5,386045.125,294350.59375,292395.78125,295641.25,-0.091064453125,0.761962890625,-0.64404296875,-24.169919967651367,1.8615721464157104,3.234863042831421,100.0,24888.0,0.0
558834.2996488,299606.1875,286566.46875,350483.0625,348400.5,386045.125,294350.59375,292395.78125,295641.25,-0.091064453125,0.761962890625,-0.64404296875,-24.169919967651367,1.8615721464157104,3.234863042831421,100.0,24889.0,0.0
558834.2996502,299606.1875,286566.46875,350483.0625,348400.5,386045.125,294350.59375,292395.78125,295641.25,-0.091064453125,0.761962890625,-0.64404296875,-24.169919967651367,1.8615721464157104,3.234863042831421,100.0,24890.0,0.0
558834.2996515,299606.1875,286566.46875,350483.0625,348400.5,386045.125,294350.59375,292395.78125,295641.25,-0.091064453125,0.761962890625,-0.64404296875,-24.169919967651367,1.8615721464157104,3.234863042831421,100.0,24891.0,0.0
558834.2996529,299606.1875,286566.46875,350483.0625,348400.5,386045.125,294350.59375,292395.78125,295641.25,-0.091064453125,0.761962890625,-0.64404296875,-24.169919967651367,1.8615721464157104,3.234863042831421,100.0,24892.0,0.0
558834.2996542,299606.1875,286566.46875,350483.0625,348400.5,386045.125,294350.59375,292395.78125,295641.25,-0.091064453125,0.761962890625,-0.64404296875,-24.169919967651367,1.8615721464157104,3.234863042831421,100.0,24893.0,0.0
558834.2996556,299606.1875,286566.46875,350483.0625,348400.5,386045.125,294350.59375,292395.78125,295641.25,-0.091064453125,0.761962890625,-0.64404296875,-24.169919967651367,1.8615721464157104,3.234863042831421,100.0,24894.0,0.0
558834.299657,299606.1875,286566.46875,350483.0625,348400.5,386045.125,294350.59375,292395.78125,295641.25,-0.091064453125,0.761962890625,-0.64404296875,-24.169919967651367,1.8615721464157104,3.234863042831421,100.0,24895.0,0.0
558834.2996583,299606.1875,286566.46875,350483.0625,348400.5,386045.125,294350.59375,292395.78125,295641.25,-0.091064453125,0.761962890625,-0.64404296875,-24.169919967651367,1.8615721464157104,3.234863042831421,100.0,24896.0,0.0
558834.2996597,299606.1875,286566.46875,350483.0625,348400.5,386045.125,294350.59375,292395.78125,295641.25,-0.091064453125,0.761962890625,-0.64404296875,-24.169919967651367,1.8615721464157104,3.234863042831421,100.0,24897.0,0.0
558834.299661,299606.1875,286566.46875,350483.0625,348400.5,386045.125,294350.59375,292395.78125,295641.25,-0.091064453125,0.761962890625,-0.64404296875,-24.169919967651367,1.8615721464157104,3.234863042831421,100.0,24898.0,0.0
558834.2996624,299606.1875,286566.46875,350483.0625,348400.5,386045.125,294350.59375,292395.78125,295641.25,-0.091064453125,0.761962890625,-0.64404296875,-24.169919967651367,1.8615721464157104,3.234863042831421,100.0,24899.0,0.0
558834.2996638,299606.1875,286566.46875,350483.0625,348400.5,386045.125,294350.59375,292395.78125,295641.25,-0.091064453125,0.761962890625,-0.64404296875,-24.169919967651367,1.8615721464157104,3.234863042831421,100.0,24900.0,0.0
558834.2996651,299606.1875,286566.46875,350483.0625,348400.5,386045.125,294350.59375,292395.78125,295641.25,-0.091064453125,0.761962890625,-0.64404296875,-24.169919967651367,1.8615721464157104,3.234863042831421,100.0,24901.0,0.0
558834.2996666,299606.1875,286566.46875,350483.0625,348400.5,386045.125,294350.59375,292395.78125,295641.25,-0.091064453125,0.761962890625,-0.64404296875,-24.169919967651367,1.8615721464157104,3.234863042831421,100.0,24902.0,0.0
558834.299668,299606.1875,286566.46875,350483.0625,348400.5,386045.125,294350.59375,292395.78125,295641.25,-0.091064453125,0.761962890625,-0.64404296875,-24.169919967651367,1.8615721464157104,3.234863042831421,100.0,24903.0,0.0
558834.2996693,299606.1875,286566.46875,350483.0625,348400.5,386045.125,294350.59375,292395.78125,295641.25,-0.091064453125,0.761962890625,-0.64404296875,-24.169919967651367,1.8615721464157104,3.234863042831421,100.0,24904.0,0.0
558834.2996707,299606.1875,286566.46875,350483.0625,348400.5,386045.125,294350.59375,292395.78125,295641.25,-0.091064453125,0.761962890625,-0.64404296875,-24.169919967651367,1.8615721464157104,3.234863042831421,100.0,24905.0,0.0
558834.2996721,299606.1875,286566.46875,350483.0625,348400.5,386045.125,294350.59375,292395.78125,295641.25,-0.091064453125,0.761962890625,-0.64404296875,-24.169919967651367,1.8615721464157104,3.234863042831421,100.0,24906.0,0.0
558834.2996734,299606.1875,286566.46875,350483.0625,348400.5,386045.125,294350.59375,292395.78125,295641.25,-0.091064453125,0.761962890625,-0.64404296875,-24.169919967651367,1.8615721464157104,3.234863042831421,100.0,24907.0,0.0
558834.2996748,299606.1875,286566.46875,350483.0625,348400.5,386045.125,294350.59375,292395.78125,295641.25,-0.091064453125,0.761962890625,-0.64404296875,-24.169919967651367,1.8615721464157104,3.234863042831421,100.0,24908.0,0.0
558834.2996761,299606.1875,286566.46875,350483.0625,348400.5,386045.125,294350.59375,292395.78125,295641.25,-0.091064453125,0.761962890625,-0.64404296875,-24.169919967651367,1.8615721464157104,3.234863042831421,100.0,24909.0,0.0
558834.2996775,299606.1875,286566.46875,350483.0625,348400.5,386045.125,294350.59375,292395.78125,295641.25,-0.091064453125,0.761962890625,-0.64404296875,-24.169919967651367,1.8615721464157104,3.234863042831421,100.0,24910.0,0.0
558834.2996789,299606.1875,286566.46875,350483.0625,348400.5,386045.125,294350.59375,292395.78125,295641.25,-0.091064453125,0.761962890625,-0.64404296875,-24.169919967651367,1.8615721464157104,3.234863042831421,100.0,24911.0,0.0
558834.2996802,299606.1875,286566.46875,350483.0625,348400.5,386045.125,294350.59375,292395.78125,295641.25,-0.091064453125,0.761962890625,-0.64404296875,-24.169919967651367,1.8615721464157104,3.234863042831421,100.0,24912.0,0.0
558834.2996816,299606.1875,286566.46875,350483.0625,348400.5,386045.125,294350.59375,292395.78125,295641.25,-0.091064453125,0.761962890625,-0.64404296875,-24.169919967651367,1.8615721464157104,3.234863042831421,100.0,24913.0,0.0
558834.2996829,299606.1875,286566.46875,350483.0625,348400.5,386045.125,294350.59375,292395.78125,295641.25,-0.091064453125,0.761962890625,-0.64404296875,-24.169919967651367,1.8615721464157104,3.234863042831421,100.0,24914.0,0.0
558834.2996843,299606.1875,286566.46875,350483.0625,348400.5,386045.125,294350.59375,292395.78125,295641.25,-0.091064453125,0.761962890625,-0.64404296875,-24.169919967651367,1.8615721464157104,3.234863042831421,100.0,24915.0,0.0
558834.2996857,299606.1875,286566.46875,350483.0625,348400.5,386045.125,294350.59375,292395.78125,295641.25,-0.091064453125,0.761962890625,-0.64404296875,-24.169919967651367,1.8615721464157104,3.234863042831421,100.0,24916.0,0.0
558834.2996871,299606.1875,286566.46875,350483.0625,348400.5,386045.125,294350.59375,292395.78125,295641.25,-0.091064453125,0.761962890625,-0.64404296875,-24.169919967651367,1.8615721464157104,3.234863042831421,100.0,24917.0,0.0
558834.2996884,298943.6875,286552.0625,350896.21875,348755.53125,387443.625,295667.71875,293474.5,296178.34375,-0.106201171875,0.780029296875,-0.6328125,5.584716320037842,-1.6174315214157104,-3.753661870956421,100.0,24918.0,1.0
558834.2996973,299302.125,284812.46875,349525.59375,347849.3125,382678.6875,292996.0625,292002.125,295272.1875,-0.106689453125,0.779541015625,-0.633056640625,5.920409679412842,-1.7700194120407104,-3.875732183456421,100.0,24919.0,1.0
558834.2997066,299296.65625,283881.75,348556.96875,347248.125,378542.625,291384.25,290926.21875,294684.34375,-0.107666015625,0.780029296875,-0.631591796875,6.317138195037842,-2.136230230331421,-4.058837413787842,100.0,24920.0,1.0
558834.3019386,298957.46875,284787.6875,349165.46875,347723.59375,379841.90625,292709.34375,291584.15625,295124.21875,-0.111083984375,0.780517578125,-0.62939453125,6.408690929412842,-2.746581792831421,-4.089354991912842,100.0,24921.0,1.0
558834.3019736,298705.0625,286172.78125,350465.625,348642.4375,384329.9375,295048.6875,293064.8125,295969.5625,-0.111328125,0.779541015625,-0.62744140625,6.378173351287842,-3.204345464706421,-4.058837413787842,100.0,24922.0,1.0
558834.3043462,298851.25,285872.46875,350468.21875,348649.3125,384966.71875,294857.78125,293192.6875,295938.625,-0.1064453125,0.7666015625,-0.63427734375,6.530761241912842,-3.814697027206421,-4.180907726287842,100.0,24923.0,1.0
558834.3093519,299199.5625,284145.3125,349097.4375,347741.125,380141.84375,292183.71875,291717.375,295027.9375,-0.10693359375,0.766357421875,-0.6318359375,7.629394054412842,-4.333495616912842,-4.180907726287842,100.0,24924.0,1.0
558834.3143701,299197.6875,283193.3125,348109.3125,347127.34375,375869.375,290534.78125,290603.90625,294439.0,-0.111083984375,0.7666015625,-0.63427734375,8.392333030700684,-4.730224132537842,-4.028319835662842,100.0,24925.0,1.0
558834.3182386,298874.21875,284103.375,348714.9375,347595.9375,377055.25,291846.84375,291235.8125,294899.375,-0.11328125,0.76806640625,-0.634765625,9.338377952575684,-5.462646007537842,-3.875732183456421,100.0,24926.0,1.0
558834.3182521,298616.46875,285523.53125,350033.15625,348512.34375,381525.34375,294212.28125,292722.65625,295752.75,-0.11376953125,0.77099609375,-0.6357421875,10.467528343200684,-5.950927257537842,-3.631591558456421,100.0,24927.0,1.0
558834.3806845,298777.65625,285326.46875,350123.46875,348556.59375,382331.34375,294138.5,292915.25,295781.09375,-0.1123046875,0.774169921875,-0.633544921875,11.077879905700684,-6.286620616912842,-3.448486089706421,100.0,24928.0,1.0
558834.3832327,299152.8125,283717.3125,348851.1875,347680.6875,377757.71875,291595.34375,291521.3125,294927.0,-0.1162109375,0.779296875,-0.63037109375,11.566161155700684,-6.805419445037842,-3.173827886581421,100.0,24929.0,1.0
558834.3908806,299182.5,282876.625,347943.46875,347081.125,373712.4375,290050.03125,290482.03125,294351.3125,-0.112548828125,0.7763671875,-0.63232421875,11.657713890075684,-7.354735851287842,-2.838134527206421,100.0,24930.0,1.0
558834.3909215,298874.9375,283888.625,348615.15625,347562.03125,375119.15625,291450.03125,291160.375,294796.1875,-0.107666015625,0.764892578125,-0.63671875,11.871336936950684,-7.598876476287842,-2.319335699081421,100.0,24931.0,1.0
558834.3909303,298639.25,285441.96875,350029.3125,348512.96875,379866.03125,293948.875,292727.75,295664.15625,-0.1201171875,0.766845703125,-0.63720703125,12.268065452575684,-7.537841320037842,-2.075195074081421,100.0,24932.0,1.0
558834.3909381,298805.46875,285366.53125,350201.6875,348587.90625,380993.375,294013.53125,292987.03125,295714.75,-0.127685546875,0.772216796875,-0.636962890625,12.451170921325684,-7.965087413787842,-2.471923589706421,100.0,24933.0,1.0
558834.390946,299195.46875,283846.59375,348985.03125,347738.4375,376713.375,291567.6875,291600.25,294913.21875,-0.119140625,0.77392578125,-0.63720703125,12.207030296325684,-8.453368186950684,-2.319335699081421,100.0,24934.0,1.0
558834.3909539,299239.28125,283040.15625,348094.71875,347144.25,372808.4375,290048.6875,290541.125,294385.8125,-0.118896484375,0.76953125,-0.635986328125,11.566161155700684,-8.178709983825684,-1.8005369901657104,100.0,24935.0,1.0
558834.3909618,298932.96875,284062.625,348766.90625,347616.21875,374147.75,291461.65625,291298.78125,294834.8125,-0.11865234375,0.766845703125,-0.63916015625,10.833739280700684,-7.934569835662842,-1.7700194120407104,100.0,24936.0,1.0
558834.390971,298692.625,285637.78125,350196.78125,348576.71875,378834.71875,294011.375,293000.90625,295707.96875,-0.116943359375,0.766357421875,-0.637939453125,10.192870140075684,-8.117674827575684,-1.5258787870407104,100.0,24937.0,1.0
558834.3930793,298846.40625,285586.90625,350386.40625,348660.59375,379973.5,294136.90625,293385.78125,295760.34375,-0.10888671875,0.764892578125,-0.643798828125,9.521483421325684,-7.720946788787842,-1.3427733182907104,100.0,24938.0,1.0
558834.4007941,298846.40625,285586.90625,350386.40625,348660.59375,379973.5,294136.90625,293385.78125,295760.34375,-0.10888671875,0.764892578125,-0.643798828125,9.521483421325684,-7.720946788787842,-1.3427733182907104,100.0,24939.0,0.0
558834.4008018,298846.40625,285586.90625,350386.40625,348660.59375,379973.5,294136.90625,293385.78125,295760.34375,-0.10888671875,0.764892578125,-0.643798828125,9.521483421325684,-7.720946788787842,-1.3427733182907104,100.0,24940.0,0.0
558834.4008034,298846.40625,285586.90625,350386.40625,348660.59375,379973.5,294136.90625,293385.78125,295760.34375,-0.10888671875,0.764892578125,-0.643798828125,9.521483421325684,-7.720946788787842,-1.3427733182907104,100.0,24941.0,0.0
558834.4008048,298846.40625,285586.90625,350386.40625,348660.59375,379973.5,294136.90625,293385.78125,295760.34375,-0.10888671875,0.764892578125,-0.643798828125,9.521483421325684,-7.720946788787842,-1.3427733182907104,100.0,24942.0,0.0
558834.4008063,298846.40625,285586.90625,350386.40625,348660.59375,379973.5,294136.90625,293385.78125,295760.34375,-0.10888671875,0.764892578125,-0.643798828125,9.521483421325684,-7.720946788787842,-1.3427733182907104,100.0,24943.0,0.0
558834.4008076,298846.40625,285586.90625,350386.40625,348660.59375,379973.5,294136.90625,293385.78125,295760.34375,-0.10888671875,0.764892578125,-0.643798828125,9.521483421325684,-7.720946788787842,-1.3427733182907104,100.0,24944.0,0.0
558834.400809,298846.40625,285586.90625,350386.40625,348660.59375,379973.5,294136.90625,293385.78125,295760.34375,-0.10888671875,0.764892578125,-0.643798828125,9.521483421325684,-7.720946788787842,-1.3427733182907104,100.0,24945.0,0.0
558834.4008103,298846.40625,285586.90625,350386.40625,348660.59375,379973.5,294136.90625,293385.78125,295760.34375,-0.10888671875,0.764892578125,-0.643798828125,9.521483421325684,-7.720946788787842,-1.3427733182907104,100.0,24946.0,0.0
558834.4008117,298846.40625,285586.90625,350386.40625,348660.59375,379973.5,294136.90625,293385.78125,295760.34375,-0.10888671875,0.764892578125,-0.643798828125,9.521483421325684,-7.720946788787842,-1.3427733182907104,100.0,24947.0,0.0
558834.400813,298846.40625,285586.90625,350386.40625,348660.59375,379973.5,294136.90625,293385.78125,295760.34375,-0.10888671875,0.764892578125,-0.643798828125,9.521483421325684,-7.720946788787842,-1.3427733182907104,100.0,24948.0,0.0
558834.4008144,298846.40625,285586.90625,350386.40625,348660.59375,379973.5,294136.90625,293385.78125,295760.34375,-0.10888671875,0.764892578125,-0.643798828125,9.521483421325684,-7.720946788787842,-1.3427733182907104,100.0,24949.0,0.0
558834.4008158,298846.40625,285586.90625,350386.40625,348660.59375,379973.5,294136.90625,293385.78125,295760.34375,-0.10888671875,0.764892578125,-0.643798828125,9.521483421325684,-7.720946788787842,-1.3427733182907104,100.0,24950.0,0.0
558834.4008172,298846.40625,285586.90625,350386.40625,348660.59375,379973.5,294136.90625,293385.78125,295760.34375,-0.10888671875,0.764892578125,-0.643798828125,9.521483421325684,-7.720946788787842,-1.3427733182907104,100.0,24951.0,0.0
558834.4008185,298846.40625,285586.90625,350386.40625,348660.59375,379973.5,294136.90625,293385.78125,295760.34375,-0.10888671875,0.764892578125,-0.643798828125,9.521483421325684,-7.720946788787842,-1.3427733182907104,100.0,24952.0,0.0
558834.4008199,298846.40625,285586.90625,350386.40625,348660.59375,379973.5,294136.90625,293385.78125,295760.34375,-0.10888671875,0.764892578125,-0.643798828125,9.521483421325684,-7.720946788787842,-1.3427733182907104,100.0,24953.0,0.0
558834.4008212,298846.40625,285586.90625,350386.40625,348660.59375,379973.5,294136.90625,293385.78125,295760.34375,-0.10888671875,0.764892578125,-0.643798828125,9.521483421325684,-7.720946788787842,-1.3427733182907104,100.0,24954.0,0.0
558834.4008226,298846.40625,285586.90625,350386.40625,348660.59375,379973.5,294136.90625,293385.78125,295760.34375,-0.10888671875,0.764892578125,-0.643798828125,9.521483421325684,-7.720946788787842,-1.3427733182907104,100.0,24955.0,0.0
558834.4008239,298846.40625,285586.90625,350386.40625,348660.59375,379973.5,294136.90625,293385.78125,295760.34375,-0.10888671875,0.764892578125,-0.643798828125,9.521483421325684,-7.720946788787842,-1.3427733182907104,100.0,24956.0,0.0
558834.4008253,298846.40625,285586.90625,350386.40625,348660.59375,379973.5,294136.90625,293385.78125,295760.34375,-0.10888671875,0.764892578125,-0.643798828125,9.521483421325684,-7.720946788787842,-1.3427733182907104,100.0,24957.0,0.0
558834.4008266,298846.40625,285586.90625,350386.40625,348660.59375,379973.5,294136.90625,293385.78125,295760.34375,-0.10888671875,0.764892578125,-0.643798828125,9.521483421325684,-7.720946788787842,-1.3427733182907104,100.0,24958.0,0.0
558834.400828,298846.40625,285586.90625,350386.40625,348660.59375,379973.5,294136.90625,293385.78125,295760.34375,-0.10888671875,0.764892578125,-0.643798828125,9.521483421325684,-7.720946788787842,-1.3427733182907104,100.0,24959.0,0.0
558834.4008294,298846.40625,285586.90625,350386.40625,348660.59375,379973.5,294136.90625,293385.78125,295760.34375,-0.10888671875,0.764892578125,-0.643798828125,9.521483421325684,-7.720946788787842,-1.3427733182907104,100.0,24960.0,0.0
558834.4008307,299197.25,286035.1875,350115.875,347994.25,376671.15625,293518.90625,292149.21875,295450.90625,-0.101318359375,0.781494140625,-0.6552734375,-5.706786632537842,4.241942882537842,4.852294445037842,100.0,24961.0,1.0
558834.4682613,298975.875,287818.25,351677.96875,349003.375,382193.3125,296309.59375,293807.34375,296406.6875,-0.097900390625,0.78125,-0.6552734375,-6.103515148162842,4.760741710662842,4.516601085662842,100.0,24962.0,1.0
558834.4705762,299128.5,288063.65625,352082.625,349193.28125,384541.5,296856.5625,294299.71875,296591.5625,-0.10205078125,0.78173828125,-0.658203125,-6.317138195037842,5.371093273162842,4.364013195037842,100.0,24963.0,1.0
558834.6495882,299532.53125,286769.59375,351023.25,348398.53125,381305.59375,294771.78125,293111.03125,295861.375,-0.10205078125,0.77880859375,-0.658447265625,-6.378173351287842,5.828856945037842,4.272460460662842,100.0,24964.0,1.0
558834.6496295,299641.15625,286102.4375,350215.28125,347783.3125,378119.65625,293435.40625,292123.71875,295344.25,-0.102294921875,0.776611328125,-0.657958984375,-6.134032726287842,6.134032726287842,3.936767339706421,100.0,24965.0,1.0
558834.6496388,299388.75,287235.03125,350925.71875,348213.71875,380156.96875,294965.15625,292789.4375,295812.21875,-0.108642578125,0.765625,-0.6572265625,-5.645751476287842,6.561278820037842,3.509521245956421,100.0,24966.0,1.0
558834.649648,299141.53125,288957.90625,352428.1875,349176.46875,385806.40625,297739.90625,294415.84375,296745.0,-0.104736328125,0.760498046875,-0.65576171875,-4.302978038787842,6.469726085662842,2.716064214706421,100.0,24967.0,1.0
558834.6496566,299248.03125,289082.8125,352739.6875,349320.21875,388185.71875,298217.0,294870.75,296899.3125,-0.102783203125,0.77197265625,-0.656494140625,-2.960204839706421,6.408690929412842,2.105712652206421,100.0,24968.0,1.0
558834.6496645,299601.09375,287567.1875,351514.09375,348458.09375,384736.46875,295937.1875,293593.5,296106.4375,-0.099609375,0.7861328125,-0.653564453125,-2.502441167831421,6.256103038787842,2.319335699081421,100.0,24969.0,1.0
558834.6496724,299655.5625,286556.4375,350449.0,347758.03125,380992.125,294247.6875,292450.96875,295481.59375,-0.0947265625,0.79248046875,-0.6474609375,-2.349853277206421,5.706786632537842,2.624511480331421,100.0,24970.0,1.0
558834.6496802,299347.71875,287338.5625,350901.5625,348103.5,382338.78125,295410.78125,292989.71875,295796.375,-0.097412109375,0.79150390625,-0.640869140625,-2.380370855331421,4.974364757537842,2.838134527206421,100.0,24971.0,1.0
558834.6496881,299059.03125,288828.625,352240.09375,349025.0,387447.46875,297944.65625,294637.5,296536.5,-0.09619140625,0.79150390625,-0.64208984375,-2.746581792831421,4.486083507537842,3.051757574081421,100.0,24972.0,1.0
558834.6496959,299151.8125,288819.0625,352472.8125,349179.875,389446.1875,298288.78125,295164.46875,296560.09375,-0.09423828125,0.7939453125,-0.643798828125,-3.326415777206421,3.936767339706421,2.777099370956421,100.0,24973.0,1.0
558834.6497037,299506.3125,287224.5,351220.21875,348329.5,385723.8125,295924.875,293872.0,295753.03125,-0.0927734375,0.801025390625,-0.639892578125,-4.302978038787842,3.143310308456421,2.807616949081421,100.0,24974.0,1.0
558834.6497139,299571.25,286189.0625,350159.40625,347631.78125,381777.375,294191.71875,292686.1875,295134.78125,-0.095703125,0.795654296875,-0.640380859375,-5.920409679412842,2.410888433456421,2.899169683456421,100.0,24975.0,1.0
558834.6518378,299281.03125,287004.0,350640.78125,347983.78125,383001.8125,295354.8125,293176.125,295487.65625,-0.100830078125,0.786376953125,-0.641845703125,-7.202147960662842,1.7089842557907104,2.838134527206421,100.0,24976.0,1.0
558834.6568867,299281.03125,287004.0,350640.78125,347983.78125,383001.8125,295354.8125,293176.125,295487.65625,-0.100830078125,0.786376953125,-0.641845703125,-7.202147960662842,1.7089842557907104,2.838134527206421,100.0,24977.0,0.0
558834.6568948,299281.03125,287004.0,350640.78125,347983.78125,383001.8125,295354.8125,293176.125,295487.65625,-0.100830078125,0.786376953125,-0.641845703125,-7.202147960662842,1.7089842557907104,2.838134527206421,100.0,24978.0,0.0
558834.6568963,299281.03125,287004.0,350640.78125,347983.78125,383001.8125,295354.8125,293176.125,295487.65625,-0.100830078125,0.786376953125,-0.641845703125,-7.202147960662842,1.7089842557907104,2.838134527206421,100.0,24979.0,0.0
558834.6568978,299281.03125,287004.0,350640.78125,347983.78125,383001.8125,295354.8125,293176.125,295487.65625,-0.100830078125,0.786376953125,-0.641845703125,-7.202147960662842,1.7089842557907104,2.838134527206421,100.0,24980.0,0.0
558834.6568992,299257.15625,286909.0625,350492.1875,347920.03125,383529.125,295287.375,293183.90625,295365.875,-0.0869140625,0.7958984375,-0.639404296875,-8.880614280700684,-0.9460448622703552,2.441406011581421,100.0,24981.0,1.0
558834.6593707,298971.3125,288473.5,351879.15625,348861.65625,388567.5625,297859.0,294733.59375,296271.5,-0.086181640625,0.801513671875,-0.639404296875,-9.094237327575684,-0.7934569716453552,2.807616949081421,100.0,24982.0,1.0
558834.6609849,299066.71875,288578.28125,352196.71875,349042.96875,390675.78125,298299.5,295234.8125,296441.8125,-0.083984375,0.805419921875,-0.641357421875,-9.704588890075684,-0.4577636420726776,3.326415777206421,100.0,24983.0,1.0
558834.668217,299451.78125,287073.40625,351017.90625,348226.875,387022.53125,295982.4375,294000.375,295650.75,-0.085693359375,0.805908203125,-0.64111328125,-10.437010765075684,-0.0610351525247097,3.845214605331421,100.0,24984.0,1.0
558834.6707741,299545.75,286049.0625,349966.71875,347527.1875,382955.0625,294193.9375,292813.84375,295006.65625,-0.089111328125,0.798828125,-0.644775390625,-11.047362327575684,0.5187987685203552,3.845214605331421,100.0,24985.0,1.0
558834.7219781,299246.875,286823.6875,350404.1875,347853.40625,383954.0,295265.9375,293258.21875,295336.375,-0.09326171875,0.79541015625,-0.64501953125,-11.260985374450684,1.2817381620407104,3.631591558456421,100.0,24986.0,1.0
558834.7307085,298948.59375,288370.96875,351771.15625,348798.8125,388926.90625,297827.1875,294785.0,296231.09375,-0.09033203125,0.79833984375,-0.645751953125,-11.566161155700684,1.8920897245407104,3.326415777206421,100.0,24987.0,1.0
558834.7307285,299030.9375,288480.9375,352089.0,348997.375,391039.125,298286.1875,295236.78125,296415.25,-0.091552734375,0.8017578125,-0.6455078125,-11.901854515075684,2.502441167831421,3.204345464706421,100.0,24988.0,1.0
558834.7307318,299416.65625,286973.0,350921.5,348186.8125,387389.1875,295973.21875,293959.96875,295628.46875,-0.09326171875,0.8017578125,-0.6416015625,-12.390135765075684,3.143310308456421,3.204345464706421,100.0,24989.0,1.0
558834.7307348,299525.09375,285943.5625,349877.15625,347489.96875,383277.28125,294168.28125,292745.09375,294986.8125,-0.091552734375,0.802001953125,-0.639404296875,-12.634276390075684,3.509521245956421,3.112792730331421,100.0,24990.0,1.0
558834.7307381,299234.1875,286713.71875,350310.875,347815.15625,384212.75,295230.34375,293166.46875,295334.34375,-0.092041015625,0.799560546875,-0.64111328125,-12.725829124450684,3.845214605331421,3.082275152206421,100.0,24991.0,1.0
558834.7307411,298922.21875,288274.65625,351681.75,348754.90625,389187.34375,297812.78125,294698.46875,296233.75,-0.094482421875,0.796630859375,-0.6396484375,-12.756346702575684,4.180907726287842,2.716064214706421,100.0,24992.0,1.0
558834.7307443,299015.3125,288437.28125,352056.625,348993.0,391422.53125,298349.40625,295213.71875,296445.9375,-0.095703125,0.796630859375,-0.636962890625,-12.542723655700684,4.119872570037842,2.563476324081421,100.0,24993.0,1.0
558834.7332551,299418.71875,286966.71875,350932.5,348208.53125,387870.28125,296080.4375,293971.21875,295682.3125,-0.09228515625,0.79541015625,-0.6337890625,-12.542723655700684,3.814697027206421,2.777099370956421,100.0,24994.0,1.0
558834.7332734,299536.28125,285938.46875,349888.9375,347504.46875,383756.75,294253.84375,292737.875,295031.40625,-0.092041015625,0.79345703125,-0.630615234375,-12.664793968200684,3.387450933456421,2.777099370956421,100.0,24995.0,1.0
558834.7383129,299242.65625,286697.0,350299.78125,347811.125,384632.59375,295284.71875,293141.1875,295342.09375,-0.08984375,0.78955078125,-0.629150390625,-12.786864280700684,2.899169683456421,2.716064214706421,100.0,24996.0,1.0
558834.7383347,298922.9375,288265.375,351656.25,348748.125,389594.78125,297867.75,294690.15625,296210.34375,-0.091796875,0.789306640625,-0.623779296875,-13.122557640075684,2.227782964706421,2.746581792831421,100.0,24997.0,1.0
558834.7383386,299011.90625,288457.59375,352041.96875,348990.78125,391888.59375,298432.8125,295233.375,296413.125,-0.088134765625,0.784912109375,-0.62109375,-13.671874046325684,1.5869139432907104,2.960204839706421,100.0,24998.0,1.0
558834.7407291,299430.34375,287020.09375,350951.28125,348206.40625,388387.15625,296178.34375,294014.9375,295647.78125,-0.086181640625,0.783447265625,-0.618408203125,-14.404295921325684,1.0375975370407104,2.990722417831421,100.0,24999.0,1.0
558834.8973041,299430.34375,287020.09375,350951.28125,348206.40625,388387.15625,296178.34375,294014.9375,295647.78125,-0.086181640625,0.783447265625,-0.618408203125,-14.404295921325684,1.0375975370407104,2.990722417831421,100.0,25000.0,0.0
558834.8973119,299430.34375,287020.09375,350951.28125,348206.40625,388387.15625,296178.34375,294014.9375,295647.78125,-0.086181640625,0.783447265625,-0.618408203125,-14.404295921325684,1.0375975370407104,2.990722417831421,100.0,25001.0,0.0
558834.8973137,299430.34375,287020.09375,350951.28125,348206.40625,388387.15625,296178.34375,294014.9375,295647.78125,-0.086181640625,0.783447265625,-0.618408203125,-14.404295921325684,1.0375975370407104,2.990722417831421,100.0,25002.0,0.0
558834.8973152,299430.34375,287020.09375,350951.28125,348206.40625,388387.15625,296178.34375,294014.9375,295647.78125,-0.086181640625,0.783447265625,-0.618408203125,-14.404295921325684,1.0375975370407104,2.990722417831421,100.0,25003.0,0.0
558834.8973166,299430.34375,287020.09375,350951.28125,348206.40625,388387.15625,296178.34375,294014.9375,295647.78125,-0.086181640625,0.783447265625,-0.618408203125,-14.404295921325684,1.0375975370407104,2.990722417831421,100.0,25004.0,0.0
558834.8973179,299430.34375,287020.09375,350951.28125,348206.40625,388387.15625,296178.34375,294014.9375,295647.78125,-0.086181640625,0.783447265625,-0.618408203125,-14.404295921325684,1.0375975370407104,2.990722417831421,100.0,25005.0,0.0
558834.8973193,299327.25,286850.3125,350353.6875,347791.5625,385403.0,295397.4375,292999.46875,295394.6875,-0.07470703125,0.7734375,-0.633544921875,-22.491453170776367,1.5258787870407104,2.929687261581421,100.0,25006.0,1.0
558834.8973528,298986.5,288455.1875,351704.8125,348730.5,390330.59375,297993.28125,294466.28125,296349.0,-0.073974609375,0.77099609375,-0.6357421875,-22.674558639526367,2.380370855331421,2.777099370956421,100.0,25007.0,1.0
558834.8973617,299060.625,288727.15625,352143.15625,349008.125,392767.5625,298645.34375,294996.8125,296641.46875,-0.074462890625,0.7744140625,-0.636962890625,-22.644041061401367,3.479003667831421,2.746581792831421,100.0,25008.0,1.0
558834.8973696,299495.6875,287342.78125,351103.375,348253.96875,389392.53125,296437.78125,293785.8125,295919.21875,-0.075439453125,0.777099609375,-0.63916015625,-22.460935592651367,4.608153820037842,2.838134527206421,100.0,25009.0,1.0
558834.8973774,299658.125,286311.65625,350077.15625,347546.9375,385202.5625,294554.25,292507.1875,295293.90625,-0.077880859375,0.77197265625,-0.634765625,-21.820066452026367,5.798339366912842,2.929687261581421,100.0,25010.0,1.0
558834.8973853,299352.28125,286998.5625,350414.84375,347805.59375,385842.28125,295472.46875,292796.0625,295612.375,-0.078369140625,0.764404296875,-0.633056640625,-20.660398483276367,7.049560070037842,2.777099370956421,100.0,25011.0,1.0
558834.8973932,299006.71875,288567.65625,351748.15625,348744.53125,390748.84375,298070.1875,294310.875,296534.96875,-0.079833984375,0.759521484375,-0.6318359375,-19.256589889526367,8.392333030700684,2.441406011581421,100.0,25012.0,1.0
558834.8974012,299075.03125,288824.0625,352194.03125,349034.40625,393248.03125,298758.09375,294909.28125,296815.34375,-0.0830078125,0.76171875,-0.628662109375,-17.517087936401367,9.216307640075684,2.166747808456421,100.0,25013.0,1.0
558834.8974091,299509.46875,287426.09375,351160.75,348291.4375,389914.40625,296566.0,293726.0625,296108.25,-0.08349609375,0.76806640625,-0.624267578125,-16.235349655151367,9.857176780700684,1.9226073026657104,100.0,25014.0,1.0
558834.8974174,299665.03125,286351.59375,350112.1875,347564.53125,385668.5625,294637.84375,292454.25,295442.15625,-0.083251953125,0.76953125,-0.62353515625,-14.953612327575684,10.192870140075684,1.9531248807907104,100.0,25015.0,1.0
558834.8974254,299365.25,287011.4375,350430.3125,347812.03125,386232.53125,295517.15625,292779.4375,295711.90625,-0.0849609375,0.7724609375,-0.616943359375,-13.671874046325684,10.223387718200684,1.9836424589157104,100.0,25016.0,1.0
558834.9061572,299012.625,288570.6875,351751.375,348787.625,391077.5,298111.3125,294347.1875,296599.09375,-0.087158203125,0.776123046875,-0.614013671875,-12.664793968200684,9.948729515075684,2.014159917831421,100.0,25017.0,1.0
558834.98445,299012.625,288570.6875,351751.375,348787.625,391077.5,298111.3125,294347.1875,296599.09375,-0.087158203125,0.776123046875,-0.614013671875,-12.664793968200684,9.948729515075684,2.014159917831421,100.0,25018.0,0.0
558834.9844575,299012.625,288570.6875,351751.375,348787.625,391077.5,298111.3125,294347.1875,296599.09375,-0.087158203125,0.776123046875,-0.614013671875,-12.664793968200684,9.948729515075684,2.014159917831421,100.0,25019.0,0.0
558834.984459,299012.625,288570.6875,351751.375,348787.625,391077.5,298111.3125,294347.1875,296599.09375,-0.087158203125,0.776123046875,-0.614013671875,-12.664793968200684,9.948729515075684,2.014159917831421,100.0,25020.0,0.0
558834.9844605,299012.625,288570.6875,351751.375,348787.625,391077.5,298111.3125,294347.1875,296599.09375,-0.087158203125,0.776123046875,-0.614013671875,-12.664793968200684,9.948729515075684,2.014159917831421,100.0,25021.0,0.0
558834.9844619,299012.625,288570.6875,351751.375,348787.625,391077.5,298111.3125,294347.1875,296599.09375,-0.087158203125,0.776123046875,-0.614013671875,-12.664793968200684,9.948729515075684,2.014159917831421,100.0,25022.0,0.0
558834.9844633,299012.625,288570.6875,351751.375,348787.625,391077.5,298111.3125,294347.1875,296599.09375,-0.087158203125,0.776123046875,-0.614013671875,-12.664793968200684,9.948729515075684,2.014159917831421,100.0,25023.0,0.0
558834.9844647,299012.625,288570.6875,351751.375,348787.625,391077.5,298111.3125,294347.1875,296599.09375,-0.087158203125,0.776123046875,-0.614013671875,-12.664793968200684,9.948729515075684,2.014159917831421,100.0,25024.0,0.0
558834.9844661,299012.625,288570.6875,351751.375,348787.625,391077.5,298111.3125,294347.1875,296599.09375,-0.087158203125,0.776123046875,-0.614013671875,-12.664793968200684,9.948729515075684,2.014159917831421,100.0,25025.0,0.0
558834.9844675,299360.875,286972.8125,350378.90625,347805.78125,386749.84375,295519.59375,292845.0625,295558.375,-0.10498046875,0.783447265625,-0.60009765625,-5.187987804412842,1.3427733182907104,1.0375975370407104,100.0,25026.0,1.0
558834.9844999,298997.59375,288530.09375,351676.09375,348717.625,391541.59375,298100.21875,294384.90625,296424.03125,-0.104736328125,0.7861328125,-0.599609375,-4.577636241912842,0.6408690810203552,0.7629393935203552,100.0,25027.0,1.0
558834.9845085,299038.90625,288844.71875,352163.71875,349037.09375,394188.21875,298891.46875,295073.09375,296696.0,-0.101318359375,0.787353515625,-0.59521484375,-4.241942882537842,0.03051757626235485,0.6103515028953552,100.0,25028.0,1.0
558834.9845167,299472.625,287463.84375,351164.34375,348303.9375,390975.65625,296739.53125,293941.71875,295950.34375,-0.098388671875,0.788818359375,-0.597412109375,-3.967284917831421,-0.3051757514476776,0.4577636420726776,100.0,25029.0,1.0
558834.9845246,299653.21875,286337.5625,350084.03125,347538.71875,386604.90625,294720.09375,292631.28125,295218.375,-0.097900390625,0.790771484375,-0.59765625,-3.784179449081421,-0.2441406100988388,0.3662109076976776,100.0,25030.0,1.0
558834.9845325,299356.75,286927.65625,350330.4375,347732.28125,386920.59375,295476.5,292878.84375,295435.1875,-0.097900390625,0.792236328125,-0.600341796875,-3.753661870956421,-0.1831054538488388,0.2136230319738388,100.0,25031.0,1.0
558834.984541,298978.375,288473.78125,351619.40625,348649.9375,391688.59375,298041.5625,294406.09375,296312.09375,-0.096435546875,0.7939453125,-0.6005859375,-3.631591558456421,0.03051757626235485,-0.0610351525247097,100.0,25032.0,1.0
558834.9845491,299013.875,288811.90625,352127.0625,348985.3125,394401.8125,298868.59375,295112.34375,296615.875,-0.097412109375,0.7939453125,-0.6005859375,-3.601073980331421,0.2746581733226776,-0.2136230319738388,100.0,25033.0,1.0
558834.9845572,299454.1875,287447.28125,351145.84375,348267.5625,391245.40625,296744.8125,293989.65625,295897.25,-0.095458984375,0.795166015625,-0.6005859375,-3.540038824081421,0.7019042372703552,-0.3967284858226776,100.0,25034.0,1.0
558834.9845653,299642.84375,286307.875,350062.84375,347510.28125,386843.96875,294715.1875,292662.3125,295176.96875,-0.093994140625,0.797119140625,-0.599853515625,-3.753661870956421,1.0681151151657104,-0.5493163466453552,100.0,25035.0,1.0
558834.9845731,299341.375,286871.6875,350285.03125,347690.6875,387071.25,295444.21875,292882.34375,295390.9375,-0.092529296875,0.79638671875,-0.60009765625,-3.753661870956421,1.5563963651657104,-0.5798339247703552,100.0,25036.0,1.0
558834.9856206,298955.21875,288418.96875,351566.5,348605.25,391806.875,298019.5,294401.625,296276.6875,-0.0927734375,0.797607421875,-0.59814453125,-3.845214605331421,1.8920897245407104,-0.6408690810203552,100.0,25037.0,1.0
558834.9881119,298955.21875,288418.96875,351566.5,348605.25,391806.875,298019.5,294401.625,296276.6875,-0.0927734375,0.797607421875,-0.59814453125,-3.845214605331421,1.8920897245407104,-0.6408690810203552,100.0,25038.0,0.0
558834.9881171,298955.21875,288418.96875,351566.5,348605.25,391806.875,298019.5,294401.625,296276.6875,-0.0927734375,0.797607421875,-0.59814453125,-3.845214605331421,1.8920897245407104,-0.6408690810203552,100.0,25039.0,0.0
558834.9881187,298955.21875,288418.96875,351566.5,348605.25,391806.875,298019.5,294401.625,296276.6875,-0.0927734375,0.797607421875,-0.59814453125,-3.845214605331421,1.8920897245407104,-0.6408690810203552,100.0,25040.0,0.0
558834.9881201,298955.21875,288418.96875,351566.5,348605.25,391806.875,298019.5,294401.625,296276.6875,-0.0927734375,0.797607421875,-0.59814453125,-3.845214605331421,1.8920897245407104,-0.6408690810203552,100.0,25041.0,0.0
558834.9881215,298955.21875,288418.96875,351566.5,348605.25,391806.875,298019.5,294401.625,296276.6875,-0.0927734375,0.797607421875,-0.59814453125,-3.845214605331421,1.8920897245407104,-0.6408690810203552,100.0,25042.0,0.0
558834.9881229,298955.21875,288418.96875,351566.5,348605.25,391806.875,298019.5,294401.625,296276.6875,-0.0927734375,0.797607421875,-0.59814453125,-3.845214605331421,1.8920897245407104,-0.6408690810203552,100.0,25043.0,0.0
558834.9881242,298955.21875,288418.96875,351566.5,348605.25,391806.875,298019.5,294401.625,296276.6875,-0.0927734375,0.797607421875,-0.59814453125,-3.845214605331421,1.8920897245407104,-0.6408690810203552,100.0,25044.0,0.0
558834.9881256,299612.0,286215.875,350002.75,347456.1875,387205.375,294680.84375,292624.65625,295176.625,-0.1025390625,0.791015625,-0.590087890625,-2.990722417831421,1.4648436307907104,0.03051757626235485,100.0,25045.0,1.0
558834.9906328,299321.53125,286729.53125,350182.75,347610.3125,387284.5,295329.84375,292793.84375,295358.75,-0.104736328125,0.787353515625,-0.592041015625,-2.655029058456421,1.0681151151657104,0.0915527269244194,100.0,25046.0,1.0
558834.9906396,298932.4375,288272.53125,351453.84375,348521.8125,391951.96875,297891.90625,294300.59375,296229.65625,-0.103271484375,0.788818359375,-0.59326171875,-2.319335699081421,0.7324218153953552,0.2136230319738388,100.0,25047.0,1.0
558834.9930788,298952.625,288691.9375,352019.25,348901.71875,394831.96875,298836.40625,295069.25,296574.40625,-0.107177734375,0.7900390625,-0.595703125,-1.9836424589157104,0.3662109076976776,0.1831054538488388,100.0,25048.0,1.0
558834.9955964,299391.0,287360.9375,351075.8125,348210.34375,391821.4375,296766.625,293985.1875,295872.90625,-0.10693359375,0.78857421875,-0.595947265625,-1.5258787870407104,0.1220703050494194,0.0915527269244194,100.0,25049.0,1.0
558835.0018586,299606.1875,286181.03125,349970.03125,347438.125,387328.75,294657.59375,292624.59375,295127.0,-0.10791015625,0.787353515625,-0.599609375,-1.2207030057907104,0.0,0.0915527269244194,100.0,25050.0,1.0
558835.0644104,299317.3125,286672.40625,350127.21875,347574.65625,387316.6875,295263.0625,292771.65625,295291.9375,-0.105224609375,0.7880859375,-0.600341796875,-0.8850097060203552,-0.1220703050494194,0.0,100.0,25051.0,1.0
558835.0770169,298926.53125,288210.46875,351390.0,348479.28125,391943.40625,297813.9375,294272.1875,296157.6875,-0.10498046875,0.786865234375,-0.600830078125,-0.6408690810203552,-0.1525878757238388,0.03051757626235485,100.0,25052.0,1.0
558835.077058,298939.5,288634.0,351965.59375,348874.28125,394866.28125,298781.0625,295052.15625,296511.625,-0.104736328125,0.785888671875,-0.60107421875,-0.3051757514476776,-0.2136230319738388,-0.0610351525247097,100.0,25053.0,1.0
558835.0770668,299375.78125,287317.21875,351039.875,348194.6875,391905.75,296734.09375,293986.34375,295828.84375,-0.1064453125,0.786376953125,-0.600341796875,-0.2441406100988388,-0.2136230319738388,-0.0610351525247097,100.0,25054.0,1.0
558835.0770748,299599.9375,286129.875,349931.40625,347417.375,387388.84375,294607.71875,292623.15625,295089.8125,-0.106201171875,0.790283203125,-0.597900390625,-0.1220703050494194,-0.2746581733226776,-0.0610351525247097,100.0,25055.0,1.0
558835.0770827,299312.03125,286596.6875,350068.375,347540.84375,387305.40625,295171.96875,292745.5625,295248.59375,-0.10595703125,0.789794921875,-0.594482421875,0.1220703050494194,-0.2136230319738388,-0.1831054538488388,100.0,25056.0,1.0
558835.0770911,298903.53125,288116.3125,351314.90625,348431.625,391890.75,297698.96875,294219.0625,296108.25,-0.10498046875,0.79052734375,-0.5927734375,0.0915527269244194,-0.0915527269244194,-0.1525878757238388,100.0,25057.0,1.0
558835.077099,298911.6875,288560.6875,351909.90625,348840.46875,394862.8125,298698.53125,295011.125,296482.6875,-0.10546875,0.7939453125,-0.596435546875,0.1525878757238388,0.0,-0.2136230319738388,100.0,25058.0,1.0
558835.0794055,299359.96875,287264.90625,351004.3125,348179.84375,391960.125,296686.25,293968.0,295821.40625,-0.104248046875,0.79541015625,-0.597412109375,0.1220703050494194,0.0610351525247097,-0.3051757514476776,100.0,25059.0,1.0
558835.0794394,299587.0625,286060.78125,349883.59375,347393.59375,387404.9375,294538.6875,292585.34375,295073.34375,-0.10546875,0.79638671875,-0.597900390625,0.1220703050494194,0.03051757626235485,-0.3051757514476776,100.0,25060.0,1.0
558835.0832936,299298.28125,286500.375,349997.65625,347499.5625,387227.625,295059.3125,292671.78125,295212.125,-0.106689453125,0.799072265625,-0.59716796875,0.1220703050494194,0.1220703050494194,-0.2136230319738388,100.0,25061.0,1.0
558835.0833333,298909.0,288041.59375,351261.34375,348408.5625,391799.375,297604.46875,294158.90625,296092.0625,-0.107177734375,0.79931640625,-0.599365234375,0.1220703050494194,0.0915527269244194,-0.2136230319738388,100.0,25062.0,1.0
558835.0833644,298909.0,288041.59375,351261.34375,348408.5625,391799.375,297604.46875,294158.90625,296092.0625,-0.107177734375,0.79931640625,-0.599365234375,0.1220703050494194,0.0915527269244194,-0.2136230319738388,100.0,25063.0,0.0
558835.0833662,298909.0,288041.59375,351261.34375,348408.5625,391799.375,297604.46875,294158.90625,296092.0625,-0.107177734375,0.79931640625,-0.599365234375,0.1220703050494194,0.0915527269244194,-0.2136230319738388,100.0,25064.0,0.0
558835.0833677,298909.0,288041.59375,351261.34375,348408.5625,391799.375,297604.46875,294158.90625,296092.0625,-0.107177734375,0.79931640625,-0.599365234375,0.1220703050494194,0.0915527269244194,-0.2136230319738388,100.0,25065.0,0.0
558835.083369,298909.0,288041.59375,351261.34375,348408.5625,391799.375,297604.46875,294158.90625,296092.0625,-0.107177734375,0.79931640625,-0.599365234375,0.1220703050494194,0.0915527269244194,-0.2136230319738388,100.0,25066.0,0.0
558835.0833704,298909.0,288041.59375,351261.34375,348408.5625,391799.375,297604.46875,294158.90625,296092.0625,-0.107177734375,0.79931640625,-0.599365234375,0.1220703050494194,0.0915527269244194,-0.2136230319738388,100.0,25067.0,0.0
558835.0833718,298909.0,288041.59375,351261.34375,348408.5625,391799.375,297604.46875,294158.90625,296092.0625,-0.107177734375,0.79931640625,-0.599365234375,0.1220703050494194,0.0915527269244194,-0.2136230319738388,100.0,25068.0,0.0
558835.0833732,298909.0,288041.59375,351261.34375,348408.5625,391799.375,297604.46875,294158.90625,296092.0625,-0.107177734375,0.79931640625,-0.599365234375,0.1220703050494194,0.0915527269244194,-0.2136230319738388,100.0,25069.0,0.0
558835.0833746,298909.0,288041.59375,351261.34375,348408.5625,391799.375,297604.46875,294158.90625,296092.0625,-0.107177734375,0.79931640625,-0.599365234375,0.1220703050494194,0.0915527269244194,-0.2136230319738388,100.0,25070.0,0.0
558835.083376,298909.0,288041.59375,351261.34375,348408.5625,391799.375,297604.46875,294158.90625,296092.0625,-0.107177734375,0.79931640625,-0.599365234375,0.1220703050494194,0.0915527269244194,-0.2136230319738388,100.0,25071.0,0.0
558835.0833774,298909.0,288041.59375,351261.34375,348408.5625,391799.375,297604.46875,294158.90625,296092.0625,-0.107177734375,0.79931640625,-0.599365234375,0.1220703050494194,0.0915527269244194,-0.2136230319738388,100.0,25072.0,0.0
558835.0833788,298909.0,288041.59375,351261.34375,348408.5625,391799.375,297604.46875,294158.90625,296092.0625,-0.107177734375,0.79931640625,-0.599365234375,0.1220703050494194,0.0915527269244194,-0.2136230319738388,100.0,25073.0,0.0
558835.0833802,298909.0,288041.59375,351261.34375,348408.5625,391799.375,297604.46875,294158.90625,296092.0625,-0.107177734375,0.79931640625,-0.599365234375,0.1220703050494194,0.0915527269244194,-0.2136230319738388,100.0,25074.0,0.0
558835.0833816,298909.0,288041.59375,351261.34375,348408.5625,391799.375,297604.46875,294158.90625,296092.0625,-0.107177734375,0.79931640625,-0.599365234375,0.1220703050494194,0.0915527269244194,-0.2136230319738388,100.0,25075.0,0.0
558835.083383,298909.0,288041.59375,351261.34375,348408.5625,391799.375,297604.46875,294158.90625,296092.0625,-0.107177734375,0.79931640625,-0.599365234375,0.1220703050494194,0.0915527269244194,-0.2136230319738388,100.0,25076.0,0.0
558835.0833843,298909.0,288041.59375,351261.34375,348408.5625,391799.375,297604.46875,294158.90625,296092.0625,-0.107177734375,0.79931640625,-0.599365234375,0.1220703050494194,0.0915527269244194,-0.2136230319738388,100.0,25077.0,0.0
558835.0833857,298909.0,288041.59375,351261.34375,348408.5625,391799.375,297604.46875,294158.90625,296092.0625,-0.107177734375,0.79931640625,-0.599365234375,0.1220703050494194,0.0915527269244194,-0.2136230319738388,100.0,25078.0,0.0
558835.0833871,298909.0,288041.59375,351261.34375,348408.5625,391799.375,297604.46875,294158.90625,296092.0625,-0.107177734375,0.79931640625,-0.599365234375,0.1220703050494194,0.0915527269244194,-0.2136230319738388,100.0,25079.0,0.0
558835.0833885,298909.0,288041.59375,351261.34375,348408.5625,391799.375,297604.46875,294158.90625,296092.0625,-0.107177734375,0.79931640625,-0.599365234375,0.1220703050494194,0.0915527269244194,-0.2136230319738388,100.0,25080.0,0.0
558835.0833898,298909.0,288041.59375,351261.34375,348408.5625,391799.375,297604.46875,294158.90625,296092.0625,-0.107177734375,0.79931640625,-0.599365234375,0.1220703050494194,0.0915527269244194,-0.2136230319738388,100.0,25081.0,0.0
558835.0833912,298909.0,288041.59375,351261.34375,348408.5625,391799.375,297604.46875,294158.90625,296092.0625,-0.107177734375,0.79931640625,-0.599365234375,0.1220703050494194,0.0915527269244194,-0.2136230319738388,100.0,25082.0,0.0
558835.0833926,298909.0,288041.59375,351261.34375,348408.5625,391799.375,297604.46875,294158.90625,296092.0625,-0.107177734375,0.79931640625,-0.599365234375,0.1220703050494194,0.0915527269244194,-0.2136230319738388,100.0,25083.0,0.0
558835.083394,298909.0,288041.59375,351261.34375,348408.5625,391799.375,297604.46875,294158.90625,296092.0625,-0.107177734375,0.79931640625,-0.599365234375,0.1220703050494194,0.0915527269244194,-0.2136230319738388,100.0,25084.0,0.0
558835.0833953,298909.0,288041.59375,351261.34375,348408.5625,391799.375,297604.46875,294158.90625,296092.0625,-0.107177734375,0.79931640625,-0.599365234375,0.1220703050494194,0.0915527269244194,-0.2136230319738388,100.0,25085.0,0.0
558835.0833967,298909.0,288041.59375,351261.34375,348408.5625,391799.375,297604.46875,294158.90625,296092.0625,-0.107177734375,0.79931640625,-0.599365234375,0.1220703050494194,0.0915527269244194,-0.2136230319738388,100.0,25086.0,0.0
558835.0833981,298909.0,288041.59375,351261.34375,348408.5625,391799.375,297604.46875,294158.90625,296092.0625,-0.107177734375,0.79931640625,-0.599365234375,0.1220703050494194,0.0915527269244194,-0.2136230319738388,100.0,25087.0,0.0
558835.0833995,298909.0,288041.59375,351261.34375,348408.5625,391799.375,297604.46875,294158.90625,296092.0625,-0.107177734375,0.79931640625,-0.599365234375,0.1220703050494194,0.0915527269244194,-0.2136230319738388,100.0,25088.0,0.0
558835.0834008,298909.0,288041.59375,351261.34375,348408.5625,391799.375,297604.46875,294158.90625,296092.0625,-0.107177734375,0.79931640625,-0.599365234375,0.1220703050494194,0.0915527269244194,-0.2136230319738388,100.0,25089.0,0.0
558835.0834022,298909.0,288041.59375,351261.34375,348408.5625,391799.375,297604.46875,294158.90625,296092.0625,-0.107177734375,0.79931640625,-0.599365234375,0.1220703050494194,0.0915527269244194,-0.2136230319738388,100.0,25090.0,0.0
558835.0834036,298909.0,288041.59375,351261.34375,348408.5625,391799.375,297604.46875,294158.90625,296092.0625,-0.107177734375,0.79931640625,-0.599365234375,0.1220703050494194,0.0915527269244194,-0.2136230319738388,100.0,25091.0,0.0
558835.083405,298909.0,288041.59375,351261.34375,348408.5625,391799.375,297604.46875,294158.90625,296092.0625,-0.107177734375,0.79931640625,-0.599365234375,0.1220703050494194,0.0915527269244194,-0.2136230319738388,100.0,25092.0,0.0
558835.0834063,298909.0,288041.59375,351261.34375,348408.5625,391799.375,297604.46875,294158.90625,296092.0625,-0.107177734375,0.79931640625,-0.599365234375,0.1220703050494194,0.0915527269244194,-0.2136230319738388,100.0,25093.0,0.0
558835.0834077,298909.0,288041.59375,351261.34375,348408.5625,391799.375,297604.46875,294158.90625,296092.0625,-0.107177734375,0.79931640625,-0.599365234375,0.1220703050494194,0.0915527269244194,-0.2136230319738388,100.0,25094.0,0.0
558835.0834091,298909.0,288041.59375,351261.34375,348408.5625,391799.375,297604.46875,294158.90625,296092.0625,-0.107177734375,0.79931640625,-0.599365234375,0.1220703050494194,0.0915527269244194,-0.2136230319738388,100.0,25095.0,0.0
558835.0834105,298909.0,288041.59375,351261.34375,348408.5625,391799.375,297604.46875,294158.90625,296092.0625,-0.107177734375,0.79931640625,-0.599365234375,0.1220703050494194,0.0915527269244194,-0.2136230319738388,100.0,25096.0,0.0
558835.0834119,298909.0,288041.59375,351261.34375,348408.5625,391799.375,297604.46875,294158.90625,296092.0625,-0.107177734375,0.79931640625,-0.599365234375,0.1220703050494194,0.0915527269244194,-0.2136230319738388,100.0,25097.0,0.0
558835.0834133,298909.0,288041.59375,351261.34375,348408.5625,391799.375,297604.46875,294158.90625,296092.0625,-0.107177734375,0.79931640625,-0.599365234375,0.1220703050494194,0.0915527269244194,-0.2136230319738388,100.0,25098.0,0.0
558835.0834146,298909.0,288041.59375,351261.34375,348408.5625,391799.375,297604.46875,294158.90625,296092.0625,-0.107177734375,0.79931640625,-0.599365234375,0.1220703050494194,0.0915527269244194,-0.2136230319738388,100.0,25099.0,0.0
558835.083416,298909.0,288041.59375,351261.34375,348408.5625,391799.375,297604.46875,294158.90625,296092.0625,-0.107177734375,0.79931640625,-0.599365234375,0.1220703050494194,0.0915527269244194,-0.2136230319738388,100.0,25100.0,0.0
558835.0834174,298909.0,288041.59375,351261.34375,348408.5625,391799.375,297604.46875,294158.90625,296092.0625,-0.107177734375,0.79931640625,-0.599365234375,0.1220703050494194,0.0915527269244194,-0.2136230319738388,100.0,25101.0,0.0
558835.0834188,298909.0,288041.59375,351261.34375,348408.5625,391799.375,297604.46875,294158.90625,296092.0625,-0.107177734375,0.79931640625,-0.599365234375,0.1220703050494194,0.0915527269244194,-0.2136230319738388,100.0,25102.0,0.0
558835.0834202,298909.0,288041.59375,351261.34375,348408.5625,391799.375,297604.46875,294158.90625,296092.0625,-0.107177734375,0.79931640625,-0.599365234375,0.1220703050494194,0.0915527269244194,-0.2136230319738388,100.0,25103.0,0.0
558835.0834216,298909.0,288041.59375,351261.34375,348408.5625,391799.375,297604.46875,294158.90625,296092.0625,-0.107177734375,0.79931640625,-0.599365234375,0.1220703050494194,0.0915527269244194,-0.2136230319738388,100.0,25104.0,0.0
558835.083423,298909.0,288041.59375,351261.34375,348408.5625,391799.375,297604.46875,294158.90625,296092.0625,-0.107177734375,0.79931640625,-0.599365234375,0.1220703050494194,0.0915527269244194,-0.2136230319738388,100.0,25105.0,0.0
558835.0834243,298909.0,288041.59375,351261.34375,348408.5625,391799.375,297604.46875,294158.90625,296092.0625,-0.107177734375,0.79931640625,-0.599365234375,0.1220703050494194,0.0915527269244194,-0.2136230319738388,100.0,25106.0,0.0
558835.0834257,298909.0,288041.59375,351261.34375,348408.5625,391799.375,297604.46875,294158.90625,296092.0625,-0.107177734375,0.79931640625,-0.599365234375,0.1220703050494194,0.0915527269244194,-0.2136230319738388,100.0,25107.0,0.0
558835.0834271,298909.0,288041.59375,351261.34375,348408.5625,391799.375,297604.46875,294158.90625,296092.0625,-0.107177734375,0.79931640625,-0.599365234375,0.1220703050494194,0.0915527269244194,-0.2136230319738388,100.0,25108.0,0.0
558835.0834284,298909.0,288041.59375,351261.34375,348408.5625,391799.375,297604.46875,294158.90625,296092.0625,-0.107177734375,0.79931640625,-0.599365234375,0.1220703050494194,0.0915527269244194,-0.2136230319738388,100.0,25109.0,0.0
558835.0834298,298909.0,288041.59375,351261.34375,348408.5625,391799.375,297604.46875,294158.90625,296092.0625,-0.107177734375,0.79931640625,-0.599365234375,0.1220703050494194,0.0915527269244194,-0.2136230319738388,100.0,25110.0,0.0
558835.0834312,298909.0,288041.59375,351261.34375,348408.5625,391799.375,297604.46875,294158.90625,296092.0625,-0.107177734375,0.79931640625,-0.599365234375,0.1220703050494194,0.0915527269244194,-0.2136230319738388,100.0,25111.0,0.0
558835.0834326,298909.0,288041.59375,351261.34375,348408.5625,391799.375,297604.46875,294158.90625,296092.0625,-0.107177734375,0.79931640625,-0.599365234375,0.1220703050494194,0.0915527269244194,-0.2136230319738388,100.0,25112.0,0.0
558835.083434,298856.0625,288232.5625,351619.40625,348739.8125,394337.0,298254.8125,294837.3125,296401.03125,-0.092529296875,0.809814453125,-0.59423828125,-1.8005369901657104,3.051757574081421,1.6479490995407104,100.0,25113.0,1.0
558835.0834435,299282.625,287119.875,350887.53125,348185.84375,392114.09375,296553.46875,293995.09375,295841.71875,-0.09326171875,0.80859375,-0.593505859375,-1.7089842557907104,3.326415777206421,1.7089842557907104,100.0,25114.0,1.0
558835.0877865,299582.40625,285817.9375,349726.3125,347352.03125,387396.78125,294237.125,292543.03125,295040.1875,-0.0947265625,0.806396484375,-0.594970703125,-1.6784666776657104,3.570556402206421,1.8310545682907104,100.0,25115.0,1.0
558835.0878211,299344.21875,286031.0,349638.78125,347317.15625,386459.28125,294368.1875,292397.3125,295046.96875,-0.095947265625,0.8076171875,-0.593994140625,-1.6479490995407104,3.845214605331421,1.9531248807907104,100.0,25116.0,1.0
558835.1507497,298913.46875,287501.75,350796.6875,348167.25,390616.96875,296797.125,293776.40625,295873.0,-0.097412109375,0.80712890625,-0.595703125,-1.7089842557907104,4.089354991912842,2.014159917831421,100.0,25117.0,1.0
558835.1530338,298842.03125,288205.5625,351587.40625,348722.8125,394227.21875,298216.8125,294803.0625,296396.65625,-0.097900390625,0.804931640625,-0.593017578125,-1.8005369901657104,4.272460460662842,1.9531248807907104,100.0,25118.0,1.0
558835.1557306,299269.3125,287113.0,350876.90625,348183.6875,392078.75,296546.96875,293985.53125,295858.0625,-0.09521484375,0.80419921875,-0.590087890625,-1.8920897245407104,4.364013195037842,1.9226073026657104,100.0,25119.0,1.0
558835.1582716,299584.03125,285808.09375,349718.4375,347351.84375,387357.8125,294221.125,292533.84375,295061.5625,-0.095703125,0.80322265625,-0.5908203125,-1.8615721464157104,4.455565929412842,1.9531248807907104,100.0,25120.0,1.0
558835.1583021,299357.65625,286000.6875,349623.78125,347311.71875,386361.0,294326.96875,292377.46875,295066.09375,-0.09619140625,0.8046875,-0.58935546875,-1.8615721464157104,4.516601085662842,1.9226073026657104,100.0,25121.0,1.0
558835.1653981,298918.3125,287461.15625,350769.78125,348152.03125,390475.53125,296740.25,293744.3125,295883.1875,-0.094970703125,0.802001953125,-0.591796875,-2.075195074081421,4.455565929412842,1.8615721464157104,100.0,25122.0,1.0
558835.1654387,298836.5,288179.8125,351567.3125,348716.71875,394126.0,298188.46875,294786.1875,296408.375,-0.095703125,0.804443359375,-0.590576171875,-2.166747808456421,4.425048351287842,1.9836424589157104,100.0,25123.0,1.0
558835.1654475,299267.6875,287109.6875,350878.0625,348196.75,392050.875,296556.875,293998.6875,295879.25,-0.094970703125,0.80322265625,-0.593994140625,-2.258300542831421,4.302978038787842,2.075195074081421,100.0,25124.0,1.0
558835.1654559,299573.21875,285781.09375,349702.4375,347346.75,387308.625,294199.5,292531.25,295058.59375,-0.09521484375,0.8037109375,-0.59375,-2.349853277206421,4.150390148162842,2.166747808456421,100.0,25125.0,1.0
558835.2394879,299351.21875,285959.125,349589.15625,347292.125,386246.21875,294266.625,292354.65625,295047.15625,-0.0947265625,0.803955078125,-0.593017578125,-2.319335699081421,4.119872570037842,2.319335699081421,100.0,25126.0,1.0
558835.2426113,298918.9375,287437.09375,350738.9375,348136.3125,390339.53125,296681.6875,293727.875,295869.6875,-0.09375,0.804443359375,-0.59130859375,-2.319335699081421,4.089354991912842,2.410888433456421,100.0,25127.0,1.0
558835.2426339,298820.40625,288171.21875,351545.65625,348703.59375,394035.4375,298153.59375,294780.1875,296397.1875,-0.093994140625,0.8056640625,-0.594970703125,-2.258300542831421,3.936767339706421,2.441406011581421,100.0,25128.0,1.0
558835.2426378,299241.59375,287107.28125,350864.125,348186.8125,392015.03125,296539.8125,293999.5625,295869.78125,-0.0947265625,0.80517578125,-0.594970703125,-2.258300542831421,3.845214605331421,2.471923589706421,100.0,25129.0,1.0
558835.2426419,299569.1875,285779.84375,349699.59375,347347.75,387275.5625,294183.03125,292538.46875,295056.8125,-0.094482421875,0.80419921875,-0.59521484375,-2.227782964706421,3.936767339706421,2.532958745956421,100.0,25130.0,1.0
558835.2493935,299359.625,285934.875,349570.65625,347282.03125,386147.25,294216.375,292340.625,295034.28125,-0.09423828125,0.80859375,-0.5947265625,-2.166747808456421,3.845214605331421,2.563476324081421,100.0,25131.0,1.0
558835.2533638,298928.3125,287396.25,350707.1875,348115.375,390195.6875,296617.59375,293699.15625,295852.25,-0.09326171875,0.8095703125,-0.5966796875,-2.288818120956421,3.906249761581421,2.624511480331421,100.0,25132.0,1.0
558835.2533955,298829.34375,288155.65625,351529.84375,348694.03125,393942.53125,298125.875,294773.75,296395.59375,-0.093505859375,0.809814453125,-0.596923828125,-2.227782964706421,3.936767339706421,2.624511480331421,100.0,25133.0,1.0
558835.2534025,299249.46875,287115.5,350867.59375,348188.4375,391999.8125,296547.65625,294018.53125,295882.03125,-0.0927734375,0.806884765625,-0.597900390625,-2.288818120956421,3.967284917831421,2.624511480331421,100.0,25134.0,1.0
558835.2556544,299583.65625,285780.84375,349697.0,347345.59375,387249.71875,294172.65625,292545.53125,295061.71875,-0.091064453125,0.8076171875,-0.5966796875,-2.410888433456421,3.936767339706421,2.593993902206421,100.0,25135.0,1.0
558835.258142,299375.53125,285909.9375,349550.625,347268.15625,386050.0625,294166.21875,292323.1875,295023.46875,-0.09130859375,0.808349609375,-0.59619140625,-2.441406011581421,3.997802495956421,2.624511480331421,100.0,25136.0,1.0
558835.2632602,298940.1875,287370.65625,350679.5,348096.53125,390057.71875,296557.78125,293675.375,295837.25,-0.093505859375,0.8076171875,-0.59716796875,-2.471923589706421,4.089354991912842,2.624511480331421,100.0,25137.0,1.0
558835.3257901,298841.75,288164.4375,351526.09375,348698.125,393861.53125,298110.40625,294776.53125,296400.5,-0.091552734375,0.806640625,-0.594970703125,-2.563476324081421,4.211425304412842,2.655029058456421,100.0,25138.0,1.0
558835.3281861,299260.625,287140.71875,350883.59375,348209.78125,391987.125,296565.28125,294042.21875,295901.15625,-0.09130859375,0.80712890625,-0.595947265625,-2.685546636581421,4.150390148162842,2.593993902206421,100.0,25139.0,1.0
558835.3306322,299594.65625,285792.5625,349709.15625,347358.03125,387230.9375,294174.28125,292566.5625,295078.28125,-0.09130859375,0.805419921875,-0.595458984375,-2.868652105331421,4.211425304412842,2.624511480331421,100.0,25140.0,1.0
558835.3332902,299388.3125,285905.28125,349544.46875,347262.34375,385970.9375,294131.625,292325.4375,295031.25,-0.09033203125,0.805419921875,-0.593994140625,-2.868652105331421,4.241942882537842,2.685546636581421,100.0,25141.0,1.0
558835.4269569,298962.375,287367.0,350674.46875,348097.0625,389948.90625,296520.21875,293676.8125,295854.9375,-0.09228515625,0.80322265625,-0.593505859375,-2.929687261581421,4.180907726287842,2.624511480331421,100.0,25142.0,1.0
558835.4269788,298846.40625,288159.875,351519.1875,348693.5625,393785.09375,298092.625,294780.8125,296419.0,-0.093017578125,0.8046875,-0.59521484375,-2.929687261581421,4.089354991912842,2.685546636581421,100.0,25143.0,1.0
558835.426983,299257.59375,287145.625,350887.09375,348208.28125,391967.53125,296575.46875,294060.375,295922.4375,-0.091064453125,0.804931640625,-0.59716796875,-2.868652105331421,3.906249761581421,2.746581792831421,100.0,25144.0,1.0
558835.4269865,299609.6875,285803.71875,349724.875,347369.28125,387219.21875,294192.0625,292590.96875,295105.71875,-0.09228515625,0.8056640625,-0.593994140625,-2.868652105331421,3.906249761581421,2.685546636581421,100.0,25145.0,1.0
558835.42699,299402.34375,285889.8125,349535.625,347257.53125,385887.96875,294110.78125,292318.4375,295037.40625,-0.091064453125,0.805908203125,-0.593017578125,-2.838134527206421,3.936767339706421,2.716064214706421,100.0,25146.0,1.0
558835.4269936,298966.3125,287330.78125,350638.8125,348074.4375,389805.3125,296469.09375,293641.6875,295836.78125,-0.0927734375,0.804931640625,-0.595703125,-2.838134527206421,3.814697027206421,2.593993902206421,100.0,25147.0,1.0
558835.4269971,298839.53125,288137.96875,351490.84375,348680.875,393676.71875,298063.65625,294758.5625,296403.71875,-0.091064453125,0.8037109375,-0.593505859375,-2.655029058456421,3.662109136581421,2.624511480331421,100.0,25148.0,1.0
558835.4270006,299250.4375,287147.875,350878.15625,348215.96875,391936.25,296581.46875,294064.3125,295923.78125,-0.091796875,0.802734375,-0.591064453125,-2.685546636581421,3.570556402206421,2.502441167831421,100.0,25149.0,1.0
558835.4270041,299610.84375,285802.21875,349716.75,347376.875,387193.125,294184.71875,292592.3125,295106.78125,-0.09228515625,0.8017578125,-0.590576171875,-2.777099370956421,3.387450933456421,2.410888433456421,100.0,25150.0,1.0
558835.4270076,299409.0625,285861.9375,349510.9375,347249.65625,385795.6875,294064.84375,292294.40625,295024.25,-0.091064453125,0.802490234375,-0.589111328125,-2.716064214706421,3.265380620956421,2.349853277206421,100.0,25151.0,1.0
558835.4270113,298968.28125,287292.15625,350601.53125,348056.09375,389665.59375,296407.03125,293600.375,295818.03125,-0.093017578125,0.802490234375,-0.5927734375,-2.624511480331421,3.234863042831421,2.197265386581421,100.0,25152.0,1.0
558835.4270149,298851.59375,288135.09375,351482.90625,348686.4375,393598.6875,298050.5,294752.8125,296413.75,-0.091796875,0.80224609375,-0.592041015625,-2.685546636581421,3.173827886581421,2.044677495956421,100.0,25153.0,1.0
558835.4270185,299253.84375,287161.625,350883.0625,348221.15625,391924.8125,296593.96875,294077.0,295938.53125,-0.091552734375,0.801513671875,-0.591796875,-2.685546636581421,3.173827886581421,1.9531248807907104,100.0,25154.0,1.0
558835.4270221,299606.375,285799.78125,349708.0,347360.96875,387164.5,294173.90625,292590.875,295100.625,-0.0888671875,0.80078125,-0.592529296875,-2.807616949081421,3.051757574081421,1.8005369901657104,100.0,25155.0,1.0
558835.4270256,299424.25,285856.65625,349499.125,347233.90625,385716.125,294033.90625,292292.0,295019.34375,-0.088623046875,0.7998046875,-0.59130859375,-2.716064214706421,2.929687261581421,1.7395018339157104,100.0,25156.0,1.0
558835.4270371,299424.25,285856.65625,349499.125,347233.90625,385716.125,294033.90625,292292.0,295019.34375,-0.088623046875,0.7998046875,-0.59130859375,-2.716064214706421,2.929687261581421,1.7395018339157104,100.0,25157.0,0.0
558835.4270378,299424.25,285856.65625,349499.125,347233.90625,385716.125,294033.90625,292292.0,295019.34375,-0.088623046875,0.7998046875,-0.59130859375,-2.716064214706421,2.929687261581421,1.7395018339157104,100.0,25158.0,0.0
558835.4270385,299424.25,285856.65625,349499.125,347233.90625,385716.125,294033.90625,292292.0,295019.34375,-0.088623046875,0.7998046875,-0.59130859375,-2.716064214706421,2.929687261581421,1.7395018339157104,100.0,25159.0,0.0
558835.4270392,299424.25,285856.65625,349499.125,347233.90625,385716.125,294033.90625,292292.0,295019.34375,-0.088623046875,0.7998046875,-0.59130859375,-2.716064214706421,2.929687261581421,1.7395018339157104,100.0,25160.0,0.0
558835.4270398,299424.25,285856.65625,349499.125,347233.90625,385716.125,294033.90625,292292.0,295019.34375,-0.088623046875,0.7998046875,-0.59130859375,-2.716064214706421,2.929687261581421,1.7395018339157104,100.0,25161.0,0.0
558835.4270404,299424.25,285856.65625,349499.125,347233.90625,385716.125,294033.90625,292292.0,295019.34375,-0.088623046875,0.7998046875,-0.59130859375,-2.716064214706421,2.929687261581421,1.7395018339157104,100.0,25162.0,0.0
558835.427041,299424.25,285856.65625,349499.125,347233.90625,385716.125,294033.90625,292292.0,295019.34375,-0.088623046875,0.7998046875,-0.59130859375,-2.716064214706421,2.929687261581421,1.7395018339157104,100.0,25163.0,0.0
558835.4270416,299424.25,285856.65625,349499.125,347233.90625,385716.125,294033.90625,292292.0,295019.34375,-0.088623046875,0.7998046875,-0.59130859375,-2.716064214706421,2.929687261581421,1.7395018339157104,100.0,25164.0,0.0
558835.4270423,299424.25,285856.65625,349499.125,347233.90625,385716.125,294033.90625,292292.0,295019.34375,-0.088623046875,0.7998046875,-0.59130859375,-2.716064214706421,2.929687261581421,1.7395018339157104,100.0,25165.0,0.0
558835.4270429,299424.25,285856.65625,349499.125,347233.90625,385716.125,294033.90625,292292.0,295019.34375,-0.088623046875,0.7998046875,-0.59130859375,-2.716064214706421,2.929687261581421,1.7395018339157104,100.0,25166.0,0.0
558835.4270435,299424.25,285856.65625,349499.125,347233.90625,385716.125,294033.90625,292292.0,295019.34375,-0.088623046875,0.7998046875,-0.59130859375,-2.716064214706421,2.929687261581421,1.7395018339157104,100.0,25167.0,0.0
558835.4270441,299424.25,285856.65625,349499.125,347233.90625,385716.125,294033.90625,292292.0,295019.34375,-0.088623046875,0.7998046875,-0.59130859375,-2.716064214706421,2.929687261581421,1.7395018339157104,100.0,25168.0,0.0
558835.4270448,299424.25,285856.65625,349499.125,347233.90625,385716.125,294033.90625,292292.0,295019.34375,-0.088623046875,0.7998046875,-0.59130859375,-2.716064214706421,2.929687261581421,1.7395018339157104,100.0,25169.0,0.0
558835.4270454,299424.25,285856.65625,349499.125,347233.90625,385716.125,294033.90625,292292.0,295019.34375,-0.088623046875,0.7998046875,-0.59130859375,-2.716064214706421,2.929687261581421,1.7395018339157104,100.0,25170.0,0.0
558835.427046,299424.25,285856.65625,349499.125,347233.90625,385716.125,294033.90625,292292.0,295019.34375,-0.088623046875,0.7998046875,-0.59130859375,-2.716064214706421,2.929687261581421,1.7395018339157104,100.0,25171.0,0.0
558835.4270466,299424.25,285856.65625,349499.125,347233.90625,385716.125,294033.90625,292292.0,295019.34375,-0.088623046875,0.7998046875,-0.59130859375,-2.716064214706421,2.929687261581421,1.7395018339157104,100.0,25172.0,0.0
558835.4270473,299424.25,285856.65625,349499.125,347233.90625,385716.125,294033.90625,292292.0,295019.34375,-0.088623046875,0.7998046875,-0.59130859375,-2.716064214706421,2.929687261581421,1.7395018339157104,100.0,25173.0,0.0
558835.4270479,299424.25,285856.65625,349499.125,347233.90625,385716.125,294033.90625,292292.0,295019.34375,-0.088623046875,0.7998046875,-0.59130859375,-2.716064214706421,2.929687261581421,1.7395018339157104,100.0,25174.0,0.0
558835.4270485,299424.25,285856.65625,349499.125,347233.90625,385716.125,294033.90625,292292.0,295019.34375,-0.088623046875,0.7998046875,-0.59130859375,-2.716064214706421,2.929687261581421,1.7395018339157104,100.0,25175.0,0.0
558835.4270491,299424.25,285856.65625,349499.125,347233.90625,385716.125,294033.90625,292292.0,295019.34375,-0.088623046875,0.7998046875,-0.59130859375,-2.716064214706421,2.929687261581421,1.7395018339157104,100.0,25176.0,0.0
558835.4270498,299424.25,285856.65625,349499.125,347233.90625,385716.125,294033.90625,292292.0,295019.34375,-0.088623046875,0.7998046875,-0.59130859375,-2.716064214706421,2.929687261581421,1.7395018339157104,100.0,25177.0,0.0
558835.4270504,299424.25,285856.65625,349499.125,347233.90625,385716.125,294033.90625,292292.0,295019.34375,-0.088623046875,0.7998046875,-0.59130859375,-2.716064214706421,2.929687261581421,1.7395018339157104,100.0,25178.0,0.0
558835.427051,299424.25,285856.65625,349499.125,347233.90625,385716.125,294033.90625,292292.0,295019.34375,-0.088623046875,0.7998046875,-0.59130859375,-2.716064214706421,2.929687261581421,1.7395018339157104,100.0,25179.0,0.0
558835.4270516,299424.25,285856.65625,349499.125,347233.90625,385716.125,294033.90625,292292.0,295019.34375,-0.088623046875,0.7998046875,-0.59130859375,-2.716064214706421,2.929687261581421,1.7395018339157104,100.0,25180.0,0.0
558835.4270523,299424.25,285856.65625,349499.125,347233.90625,385716.125,294033.90625,292292.0,295019.34375,-0.088623046875,0.7998046875,-0.59130859375,-2.716064214706421,2.929687261581421,1.7395018339157104,100.0,25181.0,0.0
558835.4270529,299424.25,285856.65625,349499.125,347233.90625,385716.125,294033.90625,292292.0,295019.34375,-0.088623046875,0.7998046875,-0.59130859375,-2.716064214706421,2.929687261581421,1.7395018339157104,100.0,25182.0,0.0
558835.4270535,299424.25,285856.65625,349499.125,347233.90625,385716.125,294033.90625,292292.0,295019.34375,-0.088623046875,0.7998046875,-0.59130859375,-2.716064214706421,2.929687261581421,1.7395018339157104,100.0,25183.0,0.0
558835.4270542,299424.25,285856.65625,349499.125,347233.90625,385716.125,294033.90625,292292.0,295019.34375,-0.088623046875,0.7998046875,-0.59130859375,-2.716064214706421,2.929687261581421,1.7395018339157104,100.0,25184.0,0.0
558835.4270548,299424.25,285856.65625,349499.125,347233.90625,385716.125,294033.90625,292292.0,295019.34375,-0.088623046875,0.7998046875,-0.59130859375,-2.716064214706421,2.929687261581421,1.7395018339157104,100.0,25185.0,0.0
558835.4270554,299424.25,285856.65625,349499.125,347233.90625,385716.125,294033.90625,292292.0,295019.34375,-0.088623046875,0.7998046875,-0.59130859375,-2.716064214706421,2.929687261581421,1.7395018339157104,100.0,25186.0,0.0
558835.4270561,299424.25,285856.65625,349499.125,347233.90625,385716.125,294033.90625,292292.0,295019.34375,-0.088623046875,0.7998046875,-0.59130859375,-2.716064214706421,2.929687261581421,1.7395018339157104,100.0,25187.0,0.0
558835.4270567,299424.25,285856.65625,349499.125,347233.90625,385716.125,294033.90625,292292.0,295019.34375,-0.088623046875,0.7998046875,-0.59130859375,-2.716064214706421,2.929687261581421,1.7395018339157104,100.0,25188.0,0.0
558835.4270573,299424.25,285856.65625,349499.125,347233.90625,385716.125,294033.90625,292292.0,295019.34375,-0.088623046875,0.7998046875,-0.59130859375,-2.716064214706421,2.929687261581421,1.7395018339157104,100.0,25189.0,0.0
558835.4270579,299424.25,285856.65625,349499.125,347233.90625,385716.125,294033.90625,292292.0,295019.34375,-0.088623046875,0.7998046875,-0.59130859375,-2.716064214706421,2.929687261581421,1.7395018339157104,100.0,25190.0,0.0
558835.4270586,299424.25,285856.65625,349499.125,347233.90625,385716.125,294033.90625,292292.0,295019.34375,-0.088623046875,0.7998046875,-0.59130859375,-2.716064214706421,2.929687261581421,1.7395018339157104,100.0,25191.0,0.0
558835.4270592,299424.25,285856.65625,349499.125,347233.90625,385716.125,294033.90625,292292.0,295019.34375,-0.088623046875,0.7998046875,-0.59130859375,-2.716064214706421,2.929687261581421,1.7395018339157104,100.0,25192.0,0.0
558835.4270598,299424.25,285856.65625,349499.125,347233.90625,385716.125,294033.90625,292292.0,295019.34375,-0.088623046875,0.7998046875,-0.59130859375,-2.716064214706421,2.929687261581421,1.7395018339157104,100.0,25193.0,0.0
558835.4270605,299424.25,285856.65625,349499.125,347233.90625,385716.125,294033.90625,292292.0,295019.34375,-0.088623046875,0.7998046875,-0.59130859375,-2.716064214706421,2.929687261581421,1.7395018339157104,100.0,25194.0,0.0
558835.4270611,299424.25,285856.65625,349499.125,347233.90625,385716.125,294033.90625,292292.0,295019.34375,-0.088623046875,0.7998046875,-0.59130859375,-2.716064214706421,2.929687261581421,1.7395018339157104,100.0,25195.0,0.0
558835.4270617,299424.25,285856.65625,349499.125,347233.90625,385716.125,294033.90625,292292.0,295019.34375,-0.088623046875,0.7998046875,-0.59130859375,-2.716064214706421,2.929687261581421,1.7395018339157104,100.0,25196.0,0.0
558835.4270623,298985.625,287081.875,350351.4375,347847.0625,388495.0625,295996.03125,293381.78125,295685.34375,-0.08740234375,0.814208984375,-0.585205078125,-2.563476324081421,0.3051757514476776,1.0681151151657104,100.0,25197.0,1.0
558835.4270661,298788.84375,288057.3125,351311.59375,348547.40625,392749.75,297874.90625,294651.96875,296352.125,-0.08740234375,0.812255859375,-0.582763671875,-2.441406011581421,0.3356933295726776,0.9765624403953552,100.0,25198.0,1.0
558835.4270697,299176.6875,287271.15625,350890.65625,348210.96875,391741.25,296740.0625,294182.3125,295992.625,-0.08837890625,0.8115234375,-0.584716796875,-2.319335699081421,0.3356933295726776,1.0375975370407104,100.0,25199.0,1.0
558835.4270734,299607.28125,285890.09375,349751.71875,347363.125,387051.84375,294274.40625,292702.46875,295154.1875,-0.08642578125,0.810546875,-0.584716796875,-2.410888433456421,0.2441406100988388,1.0986326932907104,100.0,25200.0,1.0
558835.4270776,299464.3125,285753.3125,349386.40625,347114.375,385042.625,293806.375,292206.25,294953.09375,-0.085693359375,0.80859375,-0.58544921875,-2.441406011581421,0.3051757514476776,1.1596678495407104,100.0,25201.0,1.0
558835.4292565,298994.21875,287079.125,350337.0625,347833.40625,388421.3125,295966.34375,293379.90625,295673.375,-0.0869140625,0.80712890625,-0.583740234375,-2.258300542831421,0.3051757514476776,1.1291502714157104,100.0,25202.0,1.0
558835.4317289,298792.9375,288077.625,351308.8125,348546.0625,392715.59375,297875.375,294665.65625,296354.5625,-0.087646484375,0.805908203125,-0.58056640625,-2.166747808456421,0.3356933295726776,1.2207030057907104,100.0,25203.0,1.0
558835.4968505,299181.6875,287311.5625,350909.8125,348225.71875,391780.15625,296783.0,294217.53125,296013.1875,-0.08642578125,0.80419921875,-0.581298828125,-2.105712652206421,0.2136230319738388,1.0986326932907104,100.0,25204.0,1.0
558835.4993775,299614.6875,285919.40625,349765.125,347368.3125,387091.375,294307.9375,292724.625,295164.46875,-0.0869140625,0.802978515625,-0.5830078125,-1.9531248807907104,0.3356933295726776,1.1596678495407104,100.0,25205.0,1.0
558835.5044402,299480.03125,285760.09375,349383.53125,347105.8125,385021.875,293805.5625,292204.625,294949.25,-0.085205078125,0.80078125,-0.584716796875,-1.7700194120407104,0.2746581733226776,1.2817381620407104,100.0,25206.0,1.0
558835.5044527,299011.0,287073.9375,350326.40625,347817.125,388348.0625,295950.25,293360.5,295668.53125,-0.083251953125,0.80126953125,-0.583251953125,-1.5258787870407104,0.3967284858226776,1.3122557401657104,100.0,25207.0,1.0
558835.5044544,298799.46875,288078.3125,351304.53125,348533.28125,392666.625,297876.0,294646.78125,296355.53125,-0.08349609375,0.80322265625,-0.583740234375,-1.3122557401657104,0.3967284858226776,1.2207030057907104,100.0,25208.0,1.0
558835.504456,299180.78125,287338.46875,350919.625,348221.96875,391806.15625,296815.8125,294213.4375,296027.6875,-0.0810546875,0.802978515625,-0.583740234375,-1.1291502714157104,0.4882812201976776,1.2207030057907104,100.0,25209.0,1.0
558835.5094983,299624.0,285951.34375,349778.71875,347368.5625,387131.59375,294334.21875,292720.25,295184.03125,-0.08154296875,0.804443359375,-0.58251953125,-0.8850097060203552,0.6408690810203552,1.2817381620407104,100.0,25210.0,1.0
558835.5795501,299505.6875,285788.0,349393.46875,347105.71875,385024.09375,293806.1875,292191.75,294972.5,-0.0810546875,0.8037109375,-0.582763671875,-0.7324218153953552,0.6713866591453552,1.2512205839157104,100.0,25211.0,1.0
558835.5795898,299037.5625,287090.5625,350323.5625,347810.59375,388304.4375,295926.46875,293334.28125,295681.6875,-0.08203125,0.802734375,-0.58349609375,-0.4272460639476776,0.7324218153953552,1.2207030057907104,100.0,25212.0,1.0
558835.5795985,298820.65625,288108.0,351314.8125,348538.46875,392650.34375,297876.09375,294633.375,296372.34375,-0.08056640625,0.802734375,-0.582275390625,-0.3051757514476776,0.7629393935203552,1.1596678495407104,100.0,25213.0,1.0
558835.5796064,299177.3125,287370.40625,350935.71875,348224.46875,391846.5625,296839.59375,294211.28125,296038.21875,-0.08154296875,0.80322265625,-0.58447265625,-0.1525878757238388,0.9155272841453552,1.0986326932907104,100.0,25214.0,1.0
558835.5845051,299618.34375,285981.03125,349797.65625,347367.5,387181.75,294359.78125,292724.90625,295192.4375,-0.083251953125,0.805908203125,-0.58349609375,0.0915527269244194,1.0070799589157104,1.0375975370407104,100.0,25215.0,1.0
558835.5883398,299499.34375,285788.53125,349389.0,347084.4375,385004.15625,293794.5625,292171.8125,294959.96875,-0.083984375,0.804931640625,-0.583740234375,0.4882812201976776,1.1901854276657104,0.9765624403953552,100.0,25216.0,1.0
558835.5883802,299029.0625,287075.71875,350306.65625,347779.65625,388232.90625,295894.71875,293299.0625,295661.75,-0.08203125,0.8037109375,-0.583740234375,0.5187987685203552,1.2207030057907104,0.8239745497703552,100.0,25217.0,1.0
558835.5883888,298803.15625,288109.8125,351305.96875,348513.4375,392613.15625,297869.46875,294610.65625,296361.0,-0.086669921875,0.80322265625,-0.582275390625,0.7019042372703552,1.3732908964157104,0.7934569716453552,100.0,25218.0,1.0
558835.5906937,299171.21875,287412.0625,350958.53125,348227.78125,391902.1875,296887.6875,294228.0,296057.90625,-0.09033203125,0.80224609375,-0.58203125,0.9155272841453552,1.3732908964157104,0.5798339247703552,100.0,25219.0,1.0
558835.6020782,299613.25,286009.4375,349811.34375,347367.03125,387244.15625,294396.0,292734.28125,295210.0625,-0.091552734375,0.801513671875,-0.581787109375,1.0681151151657104,1.4038084745407104,0.3967284858226776,100.0,25220.0,1.0
558835.6021174,299499.875,285793.1875,349383.8125,347072.1875,384998.625,293787.21875,292151.625,294959.96875,-0.091064453125,0.802490234375,-0.5810546875,1.0986326932907104,1.3732908964157104,0.2746581733226776,100.0,25221.0,1.0
558835.6631795,299035.96875,287076.34375,350292.0,347760.4375,388173.28125,295865.0625,293263.40625,295651.71875,-0.087890625,0.8046875,-0.583740234375,1.1901854276657104,1.2207030057907104,0.2136230319738388,100.0,25222.0,1.0
558835.6632165,298810.46875,288133.125,351306.3125,348502.0625,392589.0,297863.28125,294591.53125,296357.15625,-0.086181640625,0.809326171875,-0.583984375,1.2207030057907104,1.2207030057907104,0.03051757626235485,100.0,25223.0,1.0
558835.665532,299175.96875,287449.53125,350979.09375,348230.8125,391950.28125,296912.4375,294235.78125,296059.40625,-0.084228515625,0.809814453125,-0.58447265625,1.1291502714157104,1.1291502714157104,0.0,100.0,25224.0,1.0
558835.6680201,299622.09375,286044.59375,349835.125,347370.0,387307.5625,294422.1875,292754.3125,295204.96875,-0.0830078125,0.8115234375,-0.58642578125,1.0986326932907104,0.9460448622703552,0.03051757626235485,100.0,25225.0,1.0
558835.6731485,299509.1875,285805.34375,349389.875,347057.15625,385006.03125,293781.59375,292157.0625,294939.59375,-0.08154296875,0.811767578125,-0.592041015625,1.0681151151657104,0.9155272841453552,0.0,100.0,25226.0,1.0
558835.6731614,299040.6875,287069.0,350280.71875,347733.96875,388123.65625,295831.34375,293242.65625,295619.53125,-0.081298828125,0.814208984375,-0.5888671875,0.9765624403953552,1.0070799589157104,-0.0915527269244194,100.0,25227.0,1.0
558835.6731631,298813.875,288147.09375,351312.5625,348494.1875,392579.25,297863.5625,294581.0625,296348.03125,-0.08349609375,0.81591796875,-0.587890625,0.9460448622703552,1.0070799589157104,0.0,100.0,25228.0,1.0
558835.6731645,299171.6875,287486.375,351000.09375,348235.8125,392013.84375,296951.25,294237.3125,296067.46875,-0.085693359375,0.817138671875,-0.58935546875,0.8850097060203552,1.1596678495407104,0.03051757626235485,100.0,25229.0,1.0
558835.6731741,299619.96875,286076.3125,349851.9375,347374.8125,387375.96875,294453.9375,292744.9375,295210.78125,-0.088134765625,0.81640625,-0.590087890625,0.8239745497703552,1.2817381620407104,0.1220703050494194,100.0,25230.0,1.0
558835.6757027,299523.75,285832.25,349402.9375,347060.1875,385031.09375,293790.28125,292136.5,294947.1875,-0.0908203125,0.81689453125,-0.587890625,0.8239745497703552,1.4648436307907104,0.1831054538488388,100.0,25231.0,1.0
558835.6757169,299523.75,285832.25,349402.9375,347060.1875,385031.09375,293790.28125,292136.5,294947.1875,-0.0908203125,0.81689453125,-0.587890625,0.8239745497703552,1.4648436307907104,0.1831054538488388,100.0,25232.0,0.0
558835.6757173,299523.75,285832.25,349402.9375,347060.1875,385031.09375,293790.28125,292136.5,294947.1875,-0.0908203125,0.81689453125,-0.587890625,0.8239745497703552,1.4648436307907104,0.1831054538488388,100.0,25233.0,0.0
558835.6757175,299523.75,285832.25,349402.9375,347060.1875,385031.09375,293790.28125,292136.5,294947.1875,-0.0908203125,0.81689453125,-0.587890625,0.8239745497703552,1.4648436307907104,0.1831054538488388,100.0,25234.0,0.0
558835.6757178,299523.75,285832.25,349402.9375,347060.1875,385031.09375,293790.28125,292136.5,294947.1875,-0.0908203125,0.81689453125,-0.587890625,0.8239745497703552,1.4648436307907104,0.1831054538488388,100.0,25235.0,0.0
558835.675718,299523.75,285832.25,349402.9375,347060.1875,385031.09375,293790.28125,292136.5,294947.1875,-0.0908203125,0.81689453125,-0.587890625,0.8239745497703552,1.4648436307907104,0.1831054538488388,100.0,25236.0,0.0
558835.6757183,299523.75,285832.25,349402.9375,347060.1875,385031.09375,293790.28125,292136.5,294947.1875,-0.0908203125,0.81689453125,-0.587890625,0.8239745497703552,1.4648436307907104,0.1831054538488388,100.0,25237.0,0.0
