Time,FZ,C3,CZ,C4,PZ,PO7,OZ,PO8,AccX,AccY,AccZ,Gyro1,Gyro2,Gyro3,Battery,Counter,Validation
559174.8579705,307586.9375,299053.9375,323536.40625,318868.84375,347646.34375,297938.40625,297416.34375,298571.9375,-0.08935546875,0.80126953125,-0.562255859375,-2.960204839706421,3.234863042831421,-3.723144292831421,100.0,110266.0,1.0
559174.8579828,307579.96875,299795.8125,324446.6875,319623.78125,352368.375,299606.1875,298970.59375,299291.3125,-0.095703125,0.79296875,-0.5625,-2.349853277206421,2.685546636581421,-3.112792730331421,100.0,110267.0,1.0
559174.8606498,308328.90625,300189.5625,324988.03125,319532.0625,352939.78125,299366.6875,298988.46875,299173.09375,-0.09716796875,0.782958984375,-0.564208984375,-1.5869139432907104,2.197265386581421,-2.624511480331421,100.0,110268.0,1.0
559174.8606621,308750.375,299678.96875,324410.8125,318721.21875,348728.0,297589.625,297506.90625,298391.875,-0.102783203125,0.78173828125,-0.5625,-0.4882812201976776,1.8005369901657104,-2.349853277206421,100.0,110269.0,1.0
559174.8628904,308276.15625,298899.78125,323442.09375,318271.875,345409.21875,296651.75,296485.25,297993.84375,-0.10498046875,0.783935546875,-0.560791015625,0.2441406100988388,1.0070799589157104,-2.136230230331421,100.0,110270.0,1.0
559174.865589,307593.09375,298965.15625,323476.0625,318820.75,347558.65625,297857.125,297336.34375,298525.53125,-0.10205078125,0.7900390625,-0.560546875,1.0375975370407104,0.2136230319738388,-2.319335699081421,100.0,110271.0,1.0
559174.8681147,307586.03125,299691.65625,324405.0,319587.65625,352269.15625,299538.15625,298909.09375,299238.28125,-0.10546875,0.7998046875,-0.556884765625,1.8005369901657104,-0.3662109076976776,-2.227782964706421,100.0,110272.0,1.0
559174.8706345,308363.4375,300113.9375,324973.1875,319508.53125,352886.75,299330.8125,298982.21875,299133.6875,-0.109375,0.810546875,-0.55419921875,2.197265386581421,-1.1596678495407104,-2.166747808456421,100.0,110273.0,1.0
559174.8730886,308798.40625,299630.59375,324404.21875,318716.75,348693.84375,297576.84375,297504.5,298362.1875,-0.110595703125,0.815185546875,-0.553466796875,2.319335699081421,-2.136230230331421,-2.136230230331421,100.0,110274.0,1.0
559174.8731023,308313.8125,298851.59375,323434.75,318289.40625,345327.40625,296627.875,296436.09375,297944.125,-0.103271484375,0.81689453125,-0.553466796875,2.441406011581421,-3.021239995956421,-2.258300542831421,100.0,110275.0,1.0
559174.8893438,307641.375,298940.1875,323479.5625,318866.59375,347435.71875,297831.28125,297223.9375,298482.09375,-0.099853515625,0.818359375,-0.546875,2.502441167831421,-3.631591558456421,-2.075195074081421,100.0,110276.0,1.0
559174.8918384,307632.0,299702.125,324402.875,319635.875,352135.46875,299524.21875,298804.9375,299217.8125,-0.095458984375,0.81103515625,-0.542724609375,1.9531248807907104,-4.547118663787842,-1.8005369901657104,100.0,110277.0,1.0
559174.8918543,308396.0625,300134.40625,324957.53125,319550.375,352729.21875,299311.6875,298908.8125,299096.03125,-0.08837890625,0.800048828125,-0.543701171875,2.044677495956421,-5.310058116912842,-1.8920897245407104,100.0,110278.0,1.0
559174.8956732,308865.90625,299705.25,324413.25,318793.8125,348538.1875,297579.34375,297424.3125,298344.125,-0.08203125,0.79931640625,-0.544677734375,2.410888433456421,-5.432128429412842,-2.014159917831421,100.0,110279.0,1.0
559174.8956885,308386.5,298950.21875,323432.96875,318362.71875,345140.375,296627.5,296350.53125,297939.65625,-0.08056640625,0.804443359375,-0.546630859375,2.532958745956421,-5.676269054412842,-2.075195074081421,100.0,110280.0,1.0
559174.8956913,307691.09375,299003.6875,323450.9375,318902.625,347187.53125,297797.59375,297186.46875,298446.59375,-0.0771484375,0.804931640625,-0.548583984375,2.777099370956421,-6.103515148162842,-1.9226073026657104,100.0,110281.0,1.0
559174.8993341,307685.09375,299740.46875,324383.1875,319673.15625,351874.40625,299475.03125,298766.75,299171.3125,-0.07177734375,0.8095703125,-0.551513671875,3.295898199081421,-6.011962413787842,-1.6784666776657104,100.0,110282.0,1.0
559174.9143889,308453.1875,300178.40625,324958.09375,319618.15625,352511.4375,299272.96875,298817.34375,299061.96875,-0.068115234375,0.81103515625,-0.54931640625,3.967284917831421,-5.462646007537842,-1.6784666776657104,100.0,110283.0,1.0
559174.9194597,308898.34375,299722.0625,324400.71875,318863.84375,348323.4375,297520.59375,297283.5,298311.125,-0.06982421875,0.81884765625,-0.546630859375,4.882812023162842,-5.096435070037842,-1.6479490995407104,100.0,110284.0,1.0
559174.919488,308427.4375,298950.65625,323432.8125,318431.90625,344917.5625,296554.375,296220.8125,297971.46875,-0.069580078125,0.82958984375,-0.542724609375,5.859374523162842,-4.486083507537842,-1.5563963651657104,100.0,110285.0,1.0
559174.919494,307728.09375,298979.90625,323439.5,318964.15625,346917.875,297697.1875,297023.5,298534.5625,-0.06787109375,0.83544921875,-0.54052734375,6.530761241912842,-3.631591558456421,-1.2512205839157104,100.0,110286.0,1.0
559174.9240256,307735.625,299716.25,324379.71875,319752.8125,351619.59375,299395.0,298617.71875,299325.375,-0.0654296875,0.841796875,-0.537841796875,7.080077648162842,-2.746581792831421,-1.1596678495407104,100.0,110287.0,1.0
559174.9240523,308506.9375,300135.84375,324970.6875,319697.375,352299.375,299228.1875,298710.4375,299284.15625,-0.066162109375,0.8447265625,-0.53076171875,7.293700695037842,-1.6174315214157104,-0.7934569716453552,100.0,110288.0,1.0
559174.9531373,308963.25,299667.71875,324429.96875,318932.21875,348144.1875,297509.40625,297192.28125,298547.71875,-0.06640625,0.846435546875,-0.526611328125,7.354735851287842,-0.6713866591453552,-0.4577636420726776,100.0,110289.0,1.0
559174.9556525,308482.96875,298869.84375,323451.46875,318473.46875,344704.59375,296544.09375,296110.90625,298137.3125,-0.07275390625,0.847900390625,-0.52783203125,6.988524913787842,0.2746581733226776,-0.2136230319738388,100.0,110290.0,1.0
559174.959487,307780.0625,298907.5625,323460.5,318990.78125,346661.09375,297680.375,296956.875,298665.0,-0.078369140625,0.846435546875,-0.526611328125,6.927489757537842,1.0375975370407104,-0.03051757626235485,100.0,110291.0,1.0
559174.9595269,307759.9375,299667.71875,324400.71875,319790.96875,351318.75,299365.78125,298552.8125,299384.90625,-0.080810546875,0.845458984375,-0.52734375,6.317138195037842,1.6784666776657104,0.0915527269244194,100.0,110292.0,1.0
559174.9595371,308519.96875,300136.8125,324996.34375,319766.75,351996.90625,299211.0,298640.15625,299314.90625,-0.08349609375,0.84619140625,-0.522705078125,5.859374523162842,2.319335699081421,0.2441406100988388,100.0,110293.0,1.0
559174.9618126,308957.375,299697.9375,324444.25,318997.3125,347832.84375,297489.75,297144.71875,298561.46875,-0.089599609375,0.853515625,-0.5224609375,5.249022960662842,2.685546636581421,0.5493163466453552,100.0,110294.0,1.0
559174.9644242,308466.875,298935.46875,323451.5625,318510.40625,344374.5,296522.09375,296077.46875,298185.875,-0.0947265625,0.849609375,-0.51806640625,4.455565929412842,2.899169683456421,0.8544921278953552,100.0,110295.0,1.0
559174.966732,307759.9375,299003.5,323456.9375,319027.09375,346308.8125,297661.6875,296915.3125,298725.96875,-0.098388671875,0.84326171875,-0.524658203125,3.906249761581421,2.868652105331421,0.7629393935203552,100.0,110296.0,1.0
559174.9694088,307739.5625,299779.71875,324399.375,319811.375,350979.90625,299370.25,298511.0625,299491.75,-0.100830078125,0.84228515625,-0.524169921875,4.028319835662842,3.051757574081421,0.5798339247703552,100.0,110297.0,1.0
559174.9717861,308480.375,300239.71875,324991.4375,319774.0,351703.5625,299234.53125,298543.875,299426.9375,-0.101806640625,0.849365234375,-0.523681640625,3.967284917831421,3.326415777206421,0.4882812201976776,100.0,110298.0,1.0
559174.9742995,308908.53125,299774.71875,324441.9375,318999.28125,347565.09375,297512.90625,296979.6875,298704.875,-0.1083984375,0.84814453125,-0.5283203125,3.540038824081421,3.234863042831421,0.7324218153953552,100.0,110299.0,1.0
559174.9769184,308425.84375,298977.5,323451.40625,318539.65625,344103.34375,296530.40625,295892.40625,298284.84375,-0.106201171875,0.84375,-0.531005859375,3.204345464706421,2.929687261581421,0.7934569716453552,100.0,110300.0,1.0
559174.9769597,307717.90625,298990.53125,323444.34375,319027.34375,346020.3125,297651.21875,296715.21875,298802.25,-0.1064453125,0.838623046875,-0.52783203125,3.356933355331421,3.082275152206421,0.7934569716453552,100.0,110301.0,1.0
559174.9795353,307694.125,299738.0625,324379.625,319810.5625,350715.25,299371.5,298329.5625,299540.03125,-0.107421875,0.839111328125,-0.524169921875,3.173827886581421,2.929687261581421,0.8239745497703552,100.0,110302.0,1.0
559174.9894823,308441.40625,300181.625,324970.59375,319776.3125,351472.78125,299272.96875,298431.9375,299488.1875,-0.110595703125,0.83935546875,-0.52197265625,2.868652105331421,2.410888433456421,1.0986326932907104,100.0,110303.0,1.0
559174.9895231,308890.21875,299724.84375,324415.03125,319034.5,347360.875,297556.53125,296941.875,298737.4375,-0.115478515625,0.8388671875,-0.523193359375,2.624511480331421,2.014159917831421,1.2207030057907104,100.0,110304.0,1.0
559174.9918019,308424.0625,298946.625,323427.34375,318578.4375,343882.59375,296573.0625,295878.46875,298297.375,-0.117919921875,0.837646484375,-0.52880859375,2.441406011581421,1.5869139432907104,1.2512205839157104,100.0,110305.0,1.0
559175.0143555,307723.71875,298997.4375,323438.25,319074.125,345777.75,297694.21875,296662.125,298814.84375,-0.1201171875,0.84326171875,-0.532958984375,2.410888433456421,0.9765624403953552,1.0986326932907104,100.0,110306.0,1.0
559175.0143952,307689.21875,299754.15625,324380.15625,319824.0625,350456.3125,299378.21875,298265.8125,299584.90625,-0.123779296875,0.846435546875,-0.53759765625,2.136230230331421,0.4882812201976776,0.9460448622703552,100.0,110307.0,1.0
559175.0168449,308440.15625,300208.34375,324972.65625,319788.03125,351222.71875,299263.9375,298414.40625,299522.59375,-0.12255859375,0.848876953125,-0.541748046875,1.9226073026657104,-0.5187987685203552,0.9765624403953552,100.0,110308.0,1.0
559175.0193818,308898.8125,299755.9375,324415.375,319036.375,347090.78125,297570.21875,296937.03125,298745.90625,-0.11767578125,0.8525390625,-0.54443359375,1.8615721464157104,-1.3732908964157104,1.1291502714157104,100.0,110309.0,1.0
559175.0242987,308435.84375,298966.3125,323420.09375,318562.71875,343584.40625,296571.46875,295827.3125,298308.53125,-0.11279296875,0.8525390625,-0.54443359375,1.6479490995407104,-2.105712652206421,1.3122557401657104,100.0,110310.0,1.0
559175.0268324,307739.09375,298986.875,323419.03125,319043.375,345446.125,297654.25,296636.28125,298786.40625,-0.10791015625,0.8486328125,-0.544677734375,1.6174315214157104,-2.929687261581421,1.2817381620407104,100.0,110311.0,1.0
559175.0293785,307715.6875,299739.9375,324371.40625,319815.3125,350126.15625,299342.71875,298261.59375,299544.9375,-0.101806640625,0.844482421875,-0.54833984375,1.7395018339157104,-3.601073980331421,1.4648436307907104,100.0,110312.0,1.0
559175.0319331,308452.5625,300178.21875,324957.8125,319778.03125,350891.8125,299212.90625,298359.25,299483.53125,-0.096923828125,0.845458984375,-0.55078125,1.8615721464157104,-3.997802495956421,1.5258787870407104,100.0,110313.0,1.0
559175.0392508,308910.875,299714.8125,324404.65625,319023.59375,346768.8125,297504.15625,296856.84375,298731.15625,-0.0927734375,0.84619140625,-0.553466796875,1.8920897245407104,-4.577636241912842,1.7700194120407104,100.0,110314.0,1.0
559175.0439926,308452.125,298911.40625,323409.0,318536.34375,343258.625,296497.875,295783.5,298293.875,-0.090576171875,0.84423828125,-0.558837890625,1.8005369901657104,-4.943847179412842,1.9531248807907104,100.0,110315.0,1.0
559175.0440088,307743.3125,298909.71875,323392.46875,319010.46875,345107.375,297569.78125,296559.46875,298749.6875,-0.088134765625,0.84375,-0.563720703125,1.5869139432907104,-5.065917491912842,2.258300542831421,100.0,110316.0,1.0
559175.0506065,307702.8125,299639.8125,324332.40625,319783.46875,349801.96875,299256.625,298136.15625,299499.875,-0.090576171875,0.843994140625,-0.568603515625,1.2817381620407104,-5.218505382537842,2.655029058456421,100.0,110317.0,1.0
559175.0531371,308428.34375,300067.90625,324912.9375,319734.9375,350604.46875,299132.875,298306.03125,299429.875,-0.092529296875,0.84130859375,-0.573486328125,0.9155272841453552,-5.432128429412842,2.990722417831421,100.0,110318.0,1.0
559175.0553947,308881.09375,299611.1875,324360.125,318965.5625,346505.0625,297437.1875,296886.875,298669.46875,-0.094482421875,0.8349609375,-0.573486328125,0.7629393935203552,-5.554198741912842,3.143310308456421,100.0,110319.0,1.0
559175.0581012,308410.09375,298816.28125,323362.0625,318484.46875,342984.6875,296429.5625,295755.78125,298236.46875,-0.09765625,0.834716796875,-0.577392578125,0.8544921278953552,-5.401610851287842,3.234863042831421,100.0,110320.0,1.0
559175.0605597,307701.1875,298832.375,323354.9375,318984.53125,344823.96875,297501.46875,296487.0625,298726.4375,-0.09716796875,0.8359375,-0.578125,1.0070799589157104,-5.432128429412842,3.082275152206421,100.0,110321.0,1.0
559175.0655897,307649.0625,299566.78125,324283.3125,319833.28125,349504.3125,299172.125,298038.96875,299467.0,-0.097412109375,0.833740234375,-0.578857421875,1.1901854276657104,-5.523681163787842,3.112792730331421,100.0,110322.0,1.0
559175.0656121,308370.3125,300011.46875,324862.78125,319866.34375,350320.59375,299054.1875,298180.78125,299375.875,-0.0947265625,0.83154296875,-0.58203125,1.4343260526657104,-5.218505382537842,3.234863042831421,100.0,110323.0,1.0
559175.0681256,308822.34375,299562.84375,324311.65625,319064.8125,346227.5625,297362.15625,296700.03125,298615.5625,-0.096923828125,0.827392578125,-0.57470703125,1.5563963651657104,-5.279540538787842,3.479003667831421,100.0,110324.0,1.0
559175.134655,308360.21875,298772.21875,323310.5,318510.9375,342683.1875,296353.3125,295572.59375,298198.9375,-0.094970703125,0.824462890625,-0.575927734375,1.7700194120407104,-5.187987804412842,3.723144292831421,100.0,110325.0,1.0
559175.1346961,307661.59375,298800.46875,323300.28125,318974.25,344485.8125,297427.0625,296385.5625,298683.6875,-0.096923828125,0.819580078125,-0.57421875,2.014159917831421,-5.035399913787842,3.845214605331421,100.0,110326.0,1.0
559175.1347066,307608.9375,299549.96875,324233.15625,319739.3125,349157.59375,299111.9375,298030.9375,299417.625,-0.095458984375,0.81494140625,-0.5712890625,2.380370855331421,-4.943847179412842,3.906249761581421,100.0,110327.0,1.0
559175.1434822,308339.125,300027.125,324831.46875,319686.46875,350009.1875,299013.5,298204.84375,299365.40625,-0.093505859375,0.813232421875,-0.57470703125,2.593993902206421,-4.730224132537842,3.784179449081421,100.0,110328.0,1.0
559175.1567198,308793.75,299604.5,324292.625,318898.96875,345940.375,297328.1875,296761.53125,298609.9375,-0.089599609375,0.81103515625,-0.578125,2.960204839706421,-4.486083507537842,3.723144292831421,100.0,110329.0,1.0
559175.1567601,308324.71875,298809.5,323286.71875,318408.5625,342379.03125,296314.0625,295636.34375,298150.03125,-0.083251953125,0.81103515625,-0.577392578125,3.082275152206421,-4.241942882537842,3.784179449081421,100.0,110330.0,1.0
559175.1567688,307615.09375,298812.4375,323266.40625,318902.71875,344159.46875,297376.375,296366.53125,298634.78125,-0.07861328125,0.806884765625,-0.575927734375,3.173827886581421,-4.028319835662842,3.906249761581421,100.0,110331.0,1.0
559175.1567768,307561.71875,299533.78125,324192.5625,319671.625,348825.46875,299056.15625,297949.46875,299386.0625,-0.07958984375,0.803466796875,-0.575439453125,3.143310308456421,-3.753661870956421,4.028319835662842,100.0,110332.0,1.0
559175.1567864,308281.71875,299985.8125,324780.96875,319643.5625,349691.375,298971.5,298080.09375,299331.90625,-0.0732421875,0.80126953125,-0.575927734375,3.143310308456421,-3.479003667831421,4.150390148162842,100.0,110333.0,1.0
559175.1608026,308745.46875,299560.15625,324241.21875,318880.5625,345649.90625,297303.59375,296555.4375,298617.0,-0.06591796875,0.796875,-0.572021484375,3.295898199081421,-3.173827886581421,4.394530773162842,100.0,110334.0,1.0
559175.1608387,308293.875,298766.65625,323239.9375,318387.375,342091.0625,296264.59375,295390.3125,298187.9375,-0.061767578125,0.78759765625,-0.56884765625,3.692626714706421,-2.838134527206421,4.699706554412842,100.0,110335.0,1.0
559175.1608487,307590.78125,298765.59375,323223.9375,318853.375,343834.84375,297292.15625,296146.59375,298690.03125,-0.06005859375,0.778564453125,-0.572021484375,3.814697027206421,-2.624511480331421,4.974364757537842,100.0,110336.0,1.0
559175.163131,307527.84375,299482.625,324142.15625,319607.4375,348474.25,298946.09375,297773.71875,299452.78125,-0.0625,0.775634765625,-0.572021484375,4.211425304412842,-2.075195074081421,5.432128429412842,100.0,110337.0,1.0
559175.1631681,308252.65625,299945.03125,324735.90625,319576.75,349347.15625,298859.90625,297965.03125,299389.03125,-0.061767578125,0.775146484375,-0.575439453125,4.608153820037842,-1.8005369901657104,5.645751476287842,100.0,110338.0,1.0
559175.1682798,308721.3125,299531.09375,324199.8125,318820.03125,345315.4375,297192.28125,296536.84375,298622.71875,-0.062744140625,0.778564453125,-0.5751953125,5.401610851287842,-1.5258787870407104,5.279540538787842,100.0,110339.0,1.0
559175.1707207,308267.21875,298742.25,323193.625,318337.6875,341738.34375,296153.5625,295402.90625,298179.09375,-0.06396484375,0.788818359375,-0.578125,6.439208507537842,-1.1291502714157104,5.157470226287842,100.0,110340.0,1.0
559175.1730173,307558.9375,298723.3125,323161.625,318834.0625,343436.34375,297162.53125,296079.96875,298650.0,-0.0654296875,0.80078125,-0.578369140625,6.988524913787842,-0.7324218153953552,5.187987804412842,100.0,110341.0,1.0
559175.1756565,307495.09375,299431.21875,324085.1875,319627.28125,348060.5625,298819.875,297596.0625,299400.46875,-0.064453125,0.809326171875,-0.57861328125,7.507323741912842,-0.4577636420726776,5.523681163787842,100.0,110342.0,1.0
559175.1780188,308219.65625,299885.21875,324675.46875,319601.25,348941.5,298737.25,297744.125,299351.75,-0.0634765625,0.813232421875,-0.57763671875,8.056639671325684,-0.0915527269244194,5.828856945037842,100.0,110343.0,1.0
559175.1831458,308696.8125,299476.09375,324141.15625,318827.53125,344915.25,297067.84375,296338.625,298593.03125,-0.062744140625,0.81298828125,-0.578125,8.850096702575684,0.3967284858226776,5.828856945037842,100.0,110344.0,1.0
559175.1855249,308233.25,298688.875,323134.28125,318315.5,341329.03125,296029.90625,295205.84375,298138.21875,-0.062744140625,0.8154296875,-0.57666015625,9.643553733825684,0.8544921278953552,5.706786632537842,100.0,110345.0,1.0
559175.1880157,307521.46875,298656.5,323099.5,318773.96875,342996.375,297039.5,295883.09375,298632.65625,-0.061279296875,0.8154296875,-0.57568359375,10.101317405700684,1.2817381620407104,5.767821788787842,100.0,110346.0,1.0
559175.1931928,307472.65625,299357.90625,324035.3125,319550.5625,347611.5,298715.0625,297462.03125,299391.71875,-0.059814453125,0.81396484375,-0.578857421875,10.559081077575684,1.6479490995407104,5.859374523162842,100.0,110347.0,1.0
559175.1981176,308183.09375,299821.9375,324633.96875,319523.75,348517.1875,298656.5,297644.25,299334.75,-0.059814453125,0.8173828125,-0.581298828125,11.016844749450684,2.075195074081421,6.042479991912842,100.0,110348.0,1.0
559175.2031661,308621.5625,299409.9375,324079.5625,318733.125,344492.96875,296979.25,296156.875,298568.1875,-0.05810546875,0.819580078125,-0.58349609375,11.352538108825684,2.410888433456421,5.950927257537842,100.0,110349.0,1.0
559175.2080441,308220.5625,298664.28125,323108.59375,318268.65625,340918.3125,295963.3125,294999.59375,298140.09375,-0.058349609375,0.824462890625,-0.585693359375,11.413573265075684,2.685546636581421,6.103515148162842,100.0,110350.0,1.0
559175.2105138,307565.375,298671.71875,323105.375,318782.21875,342601.5625,296983.25,295770.46875,298624.5,-0.05908203125,0.826904296875,-0.587646484375,11.505125999450684,2.868652105331421,6.164550304412842,100.0,110351.0,1.0
559175.2132449,307492.15625,299371.5,324026.5625,319548.40625,347237.75,298653.84375,297456.3125,299348.78125,-0.060791015625,0.830078125,-0.58642578125,11.566161155700684,3.234863042831421,6.256103038787842,100.0,110352.0,1.0
559175.2132835,308186.125,299821.5625,324617.15625,319524.28125,348182.875,298625.40625,297693.34375,299287.09375,-0.063720703125,0.827392578125,-0.5859375,11.566161155700684,3.540038824081421,6.500243663787842,100.0,110353.0,1.0
559175.2155005,308628.625,299417.1875,324070.4375,318734.1875,344208.65625,296993.375,296257.90625,298530.0,-0.0654296875,0.826416015625,-0.58447265625,11.596678733825684,3.997802495956421,6.652831554412842,100.0,110354.0,1.0
559175.2206862,308180.3125,298636.65625,323068.375,318230.21875,340648.90625,295978.25,295143.71875,298083.15625,-0.064697265625,0.827880859375,-0.583984375,11.627196311950684,4.516601085662842,6.835937023162842,100.0,110355.0,1.0
559175.2207277,307473.84375,298586.5,323021.875,318683.21875,342318.9375,296945.625,295862.53125,298549.40625,-0.0693359375,0.82275390625,-0.5830078125,11.840819358825684,5.035399913787842,7.141112804412842,100.0,110356.0,1.0
559175.2232772,307406.25,299283.0,323945.46875,319463.3125,346950.59375,298590.53125,297486.1875,299267.96875,-0.07421875,0.821533203125,-0.5849609375,12.023924827575684,5.249022960662842,7.171630382537842,100.0,110357.0,1.0
559175.227994,308136.78125,299760.0625,324566.46875,319516.59375,347914.40625,298569.53125,297702.375,299209.21875,-0.073486328125,0.818603515625,-0.58642578125,12.145995140075684,5.737304210662842,7.385253429412842,100.0,110358.0,1.0
559175.235674,308605.09375,299363.09375,324042.03125,318784.875,343956.09375,296940.09375,296271.84375,298458.75,-0.07861328125,0.8154296875,-0.5810546875,12.390135765075684,6.195067882537842,7.659911632537842,100.0,110359.0,1.0
559175.2380775,308193.03125,298595.0,323059.96875,318274.375,340379.71875,295919.78125,295175.4375,297998.03125,-0.08154296875,0.814208984375,-0.584228515625,12.603758811950684,6.408690929412842,7.659911632537842,100.0,110360.0,1.0
559175.2381183,307507.8125,298563.8125,323030.65625,318701.65625,342005.21875,296900.1875,295931.84375,298462.21875,-0.081787109375,0.812255859375,-0.581787109375,12.969969749450684,6.591796398162842,7.659911632537842,100.0,110361.0,1.0
559175.240651,307420.0,299259.375,323954.3125,319464.125,346613.15625,298551.1875,297567.28125,299232.75,-0.08544921875,0.815185546875,-0.57861328125,13.427733421325684,6.835937023162842,7.720946788787842,100.0,110362.0,1.0
559175.2432233,308099.5,299721.875,324547.6875,319464.375,347585.1875,298508.0,297777.46875,299198.59375,-0.0869140625,0.818603515625,-0.57958984375,13.702391624450684,6.866454601287842,7.690429210662842,100.0,110363.0,1.0
559175.2432643,308590.25,299363.375,324034.59375,318733.9375,343656.21875,296884.125,296349.8125,298473.0625,-0.086181640625,0.821533203125,-0.57861328125,14.007567405700684,6.774901866912842,7.690429210662842,100.0,110364.0,1.0
559175.2481802,308171.90625,298604.03125,323047.09375,318234.59375,340075.28125,295859.15625,295214.15625,298040.9375,-0.082763671875,0.822998046875,-0.5771484375,14.038084983825684,6.683349132537842,7.873534679412842,100.0,110365.0,1.0
559175.2506526,307474.8125,298544.3125,322997.375,318660.6875,341667.71875,296836.71875,295937.8125,298497.8125,-0.080810546875,0.822265625,-0.578369140625,13.916014671325684,6.683349132537842,7.934569835662842,100.0,110366.0,1.0
559175.2521835,307417.0625,299232.90625,323924.4375,319444.71875,346277.53125,298492.90625,297557.0625,299251.6875,-0.077880859375,0.81982421875,-0.575927734375,13.763426780700684,6.378173351287842,7.934569835662842,100.0,110367.0,1.0
559175.2594118,308121.3125,299712.6875,324541.4375,319461.25,347300.15625,298494.25,297804.90625,299230.15625,-0.073486328125,0.821533203125,-0.58056640625,13.610838890075684,6.164550304412842,7.904052257537842,100.0,110368.0,1.0
559175.2668829,308633.25,299358.625,324046.9375,318743.84375,343414.0,296891.4375,296418.3125,298503.0,-0.07177734375,0.82177734375,-0.5810546875,13.488768577575684,5.798339366912842,7.873534679412842,100.0,110369.0,1.0
559175.2719418,308249.15625,298600.90625,323063.1875,318253.28125,339817.53125,295844.65625,295280.78125,298035.9375,-0.06689453125,0.82275390625,-0.5810546875,13.153075218200684,5.462646007537842,7.873534679412842,100.0,110370.0,1.0
559175.2719819,307574.40625,298565.5,323033.78125,318724.4375,341389.75,296803.09375,295975.1875,298480.5625,-0.06396484375,0.822998046875,-0.584716796875,12.969969749450684,5.126952648162842,7.995604991912842,100.0,110371.0,1.0
559175.2769752,307481.875,299235.875,323945.8125,319493.96875,345976.5,298434.875,297562.625,299209.5,-0.062255859375,0.822021484375,-0.589111328125,12.878417015075684,4.882812023162842,8.209227561950684,100.0,110372.0,1.0
559175.2818847,308200.96875,299710.34375,324559.3125,319508.625,346998.78125,298420.65625,297801.25,299186.4375,-0.063232421875,0.819580078125,-0.59619140625,12.908934593200684,4.791259288787842,8.361815452575684,100.0,110373.0,1.0
559175.2843936,308688.15625,299369.0,324060.4375,318765.3125,343124.875,296831.90625,296428.03125,298455.4375,-0.06787109375,0.820556640625,-0.6025390625,13.366698265075684,4.638671398162842,8.392333030700684,100.0,110374.0,1.0
559175.2867797,308263.03125,298599.90625,323075.09375,318252.28125,339543.5,295805.25,295305.28125,298005.1875,-0.068115234375,0.8154296875,-0.6025390625,13.977049827575684,4.547118663787842,8.575438499450684,100.0,110375.0,1.0
559175.2893168,307576.46875,298528.21875,323031.28125,318698.15625,341080.84375,296750.71875,295983.6875,298452.03125,-0.068603515625,0.808837890625,-0.601318359375,14.953612327575684,4.486083507537842,8.819579124450684,100.0,110376.0,1.0
559175.2893574,307482.5,299183.46875,323932.75,319446.59375,345644.34375,298382.125,297592.75,299169.625,-0.06689453125,0.802978515625,-0.598388671875,16.143796920776367,4.455565929412842,8.972167015075684,100.0,110377.0,1.0
559175.2920119,308168.96875,299659.40625,324538.9375,319442.65625,346688.0,298382.9375,297890.5625,299137.4375,-0.068115234375,0.80419921875,-0.596435546875,17.486570358276367,4.608153820037842,8.941649436950684,100.0,110378.0,1.0
559175.2943137,308646.65625,299311.59375,324033.53125,318700.21875,342817.03125,296791.03125,296541.78125,298412.0,-0.070556640625,0.80419921875,-0.593017578125,18.768308639526367,4.516601085662842,8.850096702575684,100.0,110379.0,1.0
559175.2993761,308218.78125,298536.25,323038.4375,318189.96875,339196.3125,295737.8125,295363.5625,297956.46875,-0.071533203125,0.803955078125,-0.58837890625,19.622800827026367,4.364013195037842,8.758543968200684,100.0,110380.0,1.0
559175.3018927,307520.5,298469.65625,322997.375,318638.15625,340733.0625,296686.875,296029.65625,298382.125,-0.073486328125,0.802978515625,-0.59130859375,20.141599655151367,4.302978038787842,8.819579124450684,100.0,110381.0,1.0
559175.3043508,307462.5625,299149.875,323941.0,319441.65625,345354.40625,298371.46875,297654.0,299148.875,-0.075927734375,0.7998046875,-0.593017578125,20.355222702026367,4.119872570037842,8.789061546325684,100.0,110382.0,1.0
559175.3043914,308164.21875,299644.71875,324573.28125,319465.375,346465.375,298416.53125,297934.5625,299162.28125,-0.0771484375,0.795166015625,-0.595458984375,20.324705123901367,3.723144292831421,8.544920921325684,100.0,110383.0,1.0
559175.3069092,308617.96875,299290.78125,324049.875,318717.65625,342623.8125,296818.9375,296527.90625,298424.6875,-0.07666015625,0.792236328125,-0.592529296875,20.324705123901367,3.356933355331421,8.331297874450684,100.0,110384.0,1.0
559175.3394258,308215.1875,298558.0,323069.53125,318237.34375,339036.28125,295781.1875,295378.84375,297957.53125,-0.074951171875,0.790771484375,-0.59619140625,19.927976608276367,3.021239995956421,8.178709983825684,100.0,110385.0,1.0
559175.3418259,307546.0625,298538.0625,323045.125,318692.875,340574.96875,296731.40625,296067.03125,298398.9375,-0.07373046875,0.796142578125,-0.58935546875,19.744871139526367,2.716064214706421,8.087157249450684,100.0,110386.0,1.0
559175.3418664,307431.53125,299198.59375,323945.90625,319425.21875,345156.625,298365.6875,297671.0625,299123.84375,-0.07275390625,0.796875,-0.590087890625,18.920896530151367,2.380370855331421,7.720946788787842,100.0,110387.0,1.0
559175.3443342,308102.1875,299665.75,324534.5625,319395.625,346228.625,298376.84375,297963.34375,299112.65625,-0.071533203125,0.79150390625,-0.592041015625,18.249509811401367,1.9226073026657104,7.202147960662842,100.0,110388.0,1.0
559175.3493184,308624.9375,299354.0625,324063.90625,318665.96875,342414.4375,296843.15625,296622.15625,298432.71875,-0.066650390625,0.786865234375,-0.599853515625,17.730710983276367,2.044677495956421,6.866454601287842,100.0,110389.0,1.0
559175.3517644,308233.4375,298606.625,323102.15625,318136.0625,338822.875,295820.6875,295502.9375,297961.5625,-0.06640625,0.788330078125,-0.602294921875,16.937253952026367,2.075195074081421,6.622313976287842,100.0,110390.0,1.0
559175.3533667,307551.71875,298541.625,323067.40625,318538.75,340327.6875,296741.25,296238.3125,298396.0625,-0.0703125,0.7783203125,-0.614013671875,16.448972702026367,1.9836424589157104,6.286620616912842,100.0,110391.0,1.0
559175.3604861,307489.3125,299226.03125,324010.28125,319365.40625,344916.5,298403.65625,297893.875,299190.1875,-0.069091796875,0.776611328125,-0.61279296875,16.601560592651367,1.6784666776657104,5.981444835662842,100.0,110392.0,1.0
559175.3631755,308218.40625,299743.875,324660.90625,319498.4375,346040.875,298475.8125,298123.65625,299278.25,-0.06494140625,0.778076171875,-0.61376953125,16.876218795776367,1.9226073026657104,5.523681163787842,100.0,110393.0,1.0
559175.3655347,308758.34375,299443.5625,324205.90625,318867.40625,342247.15625,296962.15625,296643.34375,298661.0625,-0.066162109375,0.765869140625,-0.622314453125,17.608640670776367,1.9836424589157104,5.065917491912842,100.0,110394.0,1.0
559175.3680612,308391.40625,298705.875,323250.9375,318370.9375,338666.3125,295960.1875,295496.78125,298238.625,-0.058349609375,0.783935546875,-0.609619140625,19.012449264526367,2.014159917831421,4.516601085662842,100.0,110395.0,1.0
559175.3680961,307750.375,298656.5,323238.96875,318840.84375,340172.8125,296897.25,296166.09375,298689.875,-0.056640625,0.795166015625,-0.610595703125,19.073484420776367,2.197265386581421,3.967284917831421,100.0,110396.0,1.0
559175.370701,307713.875,299353.25,324205.0,319922.78125,344778.90625,298569.25,297624.65625,299451.15625,-0.06396484375,0.768310546875,-0.619873046875,19.958494186401367,1.9836424589157104,3.753661870956421,100.0,110397.0,1.0
559175.3731178,308445.25,299888.8125,324867.6875,320130.28125,345978.90625,298664.90625,297876.15625,299486.84375,-0.052490234375,0.79296875,-0.610107421875,20.751951217651367,2.136230230331421,3.417968511581421,100.0,110398.0,1.0
559175.3782134,308987.9375,299618.96875,324422.625,319375.78125,342259.59375,297166.71875,296575.3125,298838.0,-0.05126953125,0.80908203125,-0.610595703125,20.080564498901367,2.197265386581421,3.417968511581421,100.0,110399.0,1.0
559175.3782534,308667.40625,298963.1875,323512.71875,318869.03125,338709.78125,296177.34375,295461.71875,298451.59375,-0.058349609375,0.79345703125,-0.615966796875,20.080564498901367,2.014159917831421,3.448486089706421,100.0,110400.0,1.0
559175.3805292,308075.71875,299009.21875,323550.46875,319347.78125,340231.75,297147.78125,296213.28125,298926.53125,-0.057861328125,0.795166015625,-0.616455078125,19.958494186401367,1.7395018339157104,2.929687261581421,100.0,110401.0,1.0
559175.3831758,308050.5,299768.90625,324539.84375,320094.96875,344846.21875,298854.8125,297968.96875,299702.84375,-0.057861328125,0.795654296875,-0.620849609375,19.744871139526367,1.7700194120407104,1.9226073026657104,100.0,110402.0,1.0
559175.3832172,308781.84375,300339.25,325211.28125,320032.28125,346056.78125,298988.65625,298351.625,299807.625,-0.056640625,0.8046875,-0.61669921875,19.714353561401367,1.5563963651657104,1.6174315214157104,100.0,110403.0,1.0
559175.3854745,309361.21875,300111.34375,324794.65625,319360.125,342374.75,297549.5625,297072.59375,299221.3125,-0.06103515625,0.802978515625,-0.61376953125,18.829343795776367,1.1596678495407104,1.6784666776657104,100.0,110404.0,1.0
559175.4193884,309039.78125,299434.96875,323877.0625,318984.4375,338788.96875,296578.4375,295960.90625,298783.1875,-0.057373046875,0.81494140625,-0.61328125,17.730710983276367,0.7934569716453552,1.9226073026657104,100.0,110405.0,1.0
559175.4194245,308460.71875,299458.125,323931.25,319562.46875,340249.4375,297569.6875,296624.03125,299310.78125,-0.060791015625,0.81396484375,-0.612548828125,16.784666061401367,0.7934569716453552,2.288818120956421,100.0,110406.0,1.0
559175.4219034,308448.8125,300182.34375,324935.375,320447.59375,344847.90625,299268.6875,298268.65625,300131.1875,-0.06787109375,0.797119140625,-0.61328125,15.777586936950684,0.7019042372703552,2.349853277206421,100.0,110407.0,1.0
559175.4243862,309141.09375,300676.5,325562.5625,320546.46875,346024.78125,299340.125,298606.96875,300149.96875,-0.0693359375,0.800048828125,-0.613525390625,15.167235374450684,0.4272460639476776,2.227782964706421,100.0,110408.0,1.0
559175.4268922,309669.84375,300388.5,325098.90625,319889.6875,342303.75,297852.375,297303.15625,299502.125,-0.071044921875,0.8046875,-0.6181640625,14.343260765075684,0.5493163466453552,2.319335699081421,100.0,110409.0,1.0
559175.4292999,309306.0625,299657.78125,324142.875,319378.09375,338682.3125,296833.9375,296162.40625,299078.59375,-0.077392578125,0.81005859375,-0.6201171875,13.305663108825684,0.5798339247703552,2.655029058456421,100.0,110410.0,1.0
559175.4317783,308677.34375,299624.4375,324151.625,319784.28125,340141.53125,297777.65625,296811.875,299588.84375,-0.08837890625,0.798828125,-0.621826171875,12.390135765075684,0.2746581733226776,2.868652105331421,100.0,110411.0,1.0
559175.4343802,308635.5,300328.25,325133.75,320597.15625,344767.0,299463.9375,298424.78125,300393.6875,-0.085693359375,0.802490234375,-0.6220703125,11.718749046325684,0.0,3.051757574081421,100.0,110412.0,1.0
559175.4417699,309307.9375,300833.65625,325759.625,320630.15625,345990.4375,299550.75,298820.125,300381.8125,-0.079833984375,0.810791015625,-0.623291015625,10.986327171325684,-0.0610351525247097,3.479003667831421,100.0,110413.0,1.0
559175.4468448,309822.5625,300548.375,325278.5,319931.8125,342305.28125,298065.53125,297569.3125,299716.96875,-0.085693359375,0.807373046875,-0.6259765625,9.857176780700684,-0.1831054538488388,3.997802495956421,100.0,110414.0,1.0
559175.4493869,309477.875,299856.34375,324334.03125,319491.90625,338732.9375,297068.375,296425.09375,299319.03125,-0.09326171875,0.792724609375,-0.62646484375,9.033202171325684,-0.6408690810203552,4.211425304412842,100.0,110415.0,1.0
559175.4519621,308814.40625,299798.5,324301.9375,319945.84375,340139.65625,297944.46875,297022.15625,299724.03125,-0.090087890625,0.795654296875,-0.62841796875,8.392333030700684,-1.5258787870407104,4.455565929412842,100.0,110416.0,1.0
559175.4520032,308731.15625,300478.8125,325242.40625,320776.53125,344709.34375,299570.78125,298573.0,300491.3125,-0.08740234375,0.79541015625,-0.630859375,7.751464366912842,-2.136230230331421,4.730224132537842,100.0,110417.0,1.0
559175.4544416,309394.125,301009.71875,325870.125,320833.75,345955.5,299668.15625,298893.71875,300562.5,-0.091064453125,0.796630859375,-0.632080078125,7.507323741912842,-2.868652105331421,5.187987804412842,100.0,110418.0,1.0
559175.4568177,309880.40625,300736.5625,325371.40625,320127.34375,342262.53125,298162.625,297528.46875,299926.0,-0.087646484375,0.8076171875,-0.62841796875,6.988524913787842,-4.180907726287842,5.615233898162842,100.0,110419.0,1.0
559175.4593835,309516.875,300015.78125,324393.75,319621.75,338644.59375,297117.5625,296268.4375,299520.8125,-0.08447265625,0.7998046875,-0.631103515625,6.317138195037842,-5.340575695037842,6.347655773162842,100.0,110420.0,1.0
559175.4619458,308875.8125,299941.03125,324376.75,320067.0625,340024.6875,298000.0,296788.96875,300009.6875,-0.084716796875,0.808349609375,-0.62646484375,6.103515148162842,-6.134032726287842,7.141112804412842,100.0,110421.0,1.0
559175.4733545,308780.96875,300581.625,325298.09375,320835.71875,344561.625,299624.15625,298245.15625,300853.78125,-0.09423828125,0.810791015625,-0.632080078125,5.218505382537842,-7.232665538787842,7.415771007537842,100.0,110422.0,1.0
559175.4733943,309410.65625,301069.6875,325888.90625,320871.28125,345801.53125,299716.6875,298467.25,300927.625,-0.086669921875,0.817138671875,-0.629150390625,4.486083507537842,-8.697508811950684,7.629394054412842,100.0,110423.0,1.0
559175.4734049,309876.5625,300791.5625,325377.3125,320136.90625,342120.8125,298217.0,297158.6875,300184.375,-0.090576171875,0.8173828125,-0.635986328125,4.119872570037842,-9.857176780700684,7.904052257537842,100.0,110424.0,1.0
559175.511951,309529.65625,300091.0625,324415.28125,319632.71875,338491.71875,297177.53125,296011.40625,299672.0,-0.096923828125,0.813720703125,-0.642578125,3.540038824081421,-11.169432640075684,8.331297874450684,100.0,110425.0,1.0
559175.5119885,308866.0,299961.0625,324349.21875,320037.21875,339792.03125,298016.625,296591.84375,300036.59375,-0.09130859375,0.829345703125,-0.638671875,3.173827886581421,-12.725829124450684,8.636473655700684,100.0,110426.0,1.0
559175.5145164,308755.375,300553.90625,325246.59375,320797.4375,344285.28125,299619.6875,298177.125,300733.25,-0.09326171875,0.8310546875,-0.638671875,2.288818120956421,-14.068602561950684,9.094237327575684,100.0,110427.0,1.0
559175.5169665,309406.375,301061.46875,325864.21875,320824.78125,345553.34375,299739.40625,298538.0625,300750.6875,-0.08935546875,0.82763671875,-0.631591796875,1.8615721464157104,-15.319823265075684,9.460448265075684,100.0,110428.0,1.0
559175.519415,309893.8125,300816.40625,325385.34375,320037.46875,341953.8125,298296.90625,297146.34375,300182.875,-0.078125,0.83447265625,-0.63134765625,1.1291502714157104,-16.571043014526367,9.979247093200684,100.0,110429.0,1.0
559175.5218426,309512.75,300088.625,324400.1875,319427.0,338386.46875,297263.1875,295895.28125,299783.84375,-0.0859375,0.826416015625,-0.625732421875,0.2441406100988388,-17.333982467651367,10.528563499450684,100.0,110430.0,1.0
559175.5243755,308876.90625,299975.4375,324362.625,319849.28125,339756.375,298127.03125,296549.46875,300136.5625,-0.087158203125,0.818603515625,-0.62841796875,-0.3051757514476776,-18.402097702026367,10.559081077575684,100.0,110431.0,1.0
559175.5268897,308760.75,300553.46875,325255.28125,320667.96875,344285.09375,299718.75,298197.3125,300798.875,-0.086181640625,0.81787109375,-0.63037109375,-0.5187987685203552,-19.683835983276367,10.742186546325684,100.0,110432.0,1.0
559175.5293049,309383.375,301053.4375,325851.78125,320744.6875,345585.96875,299804.21875,298545.65625,300739.25,-0.07470703125,0.828369140625,-0.637451171875,-1.0681151151657104,-20.599363327026367,11.230467796325684,100.0,110433.0,1.0
559175.5319062,309872.875,300855.3125,325401.1875,320044.0,342058.40625,298361.65625,297277.84375,300028.46875,-0.081787109375,0.8173828125,-0.63671875,-1.6479490995407104,-21.331785202026367,11.779784202575684,100.0,110434.0,1.0
559175.5343745,309501.59375,300152.46875,324434.0625,319502.46875,338522.625,297322.125,296111.09375,299546.28125,-0.08837890625,0.815673828125,-0.638671875,-1.8615721464157104,-22.644041061401367,12.268065452575684,100.0,110435.0,1.0
559175.5367926,308786.15625,299958.71875,324310.875,319867.34375,339832.375,298117.3125,296709.5,299871.09375,-0.087158203125,0.818359375,-0.6357421875,-2.075195074081421,-23.834226608276367,12.725829124450684,100.0,110436.0,1.0
559175.5419002,308658.90625,300486.3125,325163.625,320639.8125,344322.84375,299683.8125,298288.4375,300546.21875,-0.077392578125,0.82275390625,-0.635986328125,-2.410888433456421,-24.719236373901367,13.122557640075684,100.0,110437.0,1.0
559175.5443646,309297.1875,301012.375,325791.09375,320696.40625,345660.1875,299809.6875,298614.125,300589.5,-0.08203125,0.815673828125,-0.63232421875,-2.502441167831421,-25.604246139526367,13.793944358825684,100.0,110438.0,1.0
559175.5444054,309769.34375,300838.3125,325343.96875,319934.65625,342143.0,298390.4375,297331.40625,299877.1875,-0.082275390625,0.81298828125,-0.629150390625,-3.112792730331421,-26.611326217651367,14.221190452575684,100.0,110439.0,1.0
559175.5467598,309383.5625,300136.375,324360.65625,319383.09375,338588.53125,297360.8125,296194.34375,299367.84375,-0.076171875,0.805419921875,-0.6328125,-3.448486089706421,-27.587888717651367,14.617918968200684,100.0,110440.0,1.0
559175.5494343,308679.21875,299918.125,324229.15625,319763.0,339851.125,298141.15625,296756.53125,299727.53125,-0.071533203125,0.805419921875,-0.629150390625,-3.417968511581421,-28.259275436401367,15.014647483825684,100.0,110441.0,1.0
559175.5494754,308536.6875,300417.84375,325073.59375,320526.09375,344296.71875,299692.5625,298333.5,300430.0,-0.07373046875,0.804443359375,-0.63232421875,-3.875732183456421,-29.052732467651367,15.167235374450684,100.0,110442.0,1.0
559175.5517697,309184.90625,300949.1875,325713.9375,320564.71875,345633.0,299838.28125,298712.84375,300457.0,-0.07177734375,0.802001953125,-0.638671875,-4.211425304412842,-29.937742233276367,15.533446311950684,100.0,110443.0,1.0
559175.554301,309690.84375,300818.65625,325299.53125,319831.3125,342162.21875,298447.3125,297447.5625,299748.625,-0.0654296875,0.801513671875,-0.63916015625,-4.425048351287842,-30.700681686401367,15.747069358825684,100.0,110444.0,1.0
559175.5640605,309323.40625,300125.8125,324333.3125,319291.28125,338646.03125,297414.03125,296310.03125,299230.15625,-0.067138671875,0.80615234375,-0.637451171875,-5.035399913787842,-31.249998092651367,15.960692405700684,100.0,110445.0,1.0
559175.564102,308590.96875,299835.6875,324153.40625,319626.28125,339869.90625,298125.625,296906.28125,299560.78125,-0.06005859375,0.80810546875,-0.63623046875,-5.645751476287842,-31.829832077026367,16.296384811401367,100.0,110446.0,1.0
559175.5931537,308420.375,300272.90625,324964.0625,320353.0,344297.25,299643.03125,298530.625,300248.40625,-0.06005859375,0.806884765625,-0.637451171875,-6.164550304412842,-31.921384811401367,16.937253952026367,100.0,110447.0,1.0
559175.5984511,309059.71875,300801.5625,325612.375,320372.75,345686.5625,299791.1875,298911.3125,300281.9375,-0.05859375,0.802978515625,-0.63525390625,-7.049560070037842,-31.768796920776367,16.876218795776367,100.0,110448.0,1.0
559175.5984872,309593.125,300711.09375,325233.46875,319665.53125,342297.84375,298414.03125,297629.59375,299598.875,-0.065673828125,0.795654296875,-0.634521484375,-7.293700695037842,-31.433103561401367,17.059324264526367,100.0,110449.0,1.0
559175.6009195,309225.59375,300026.59375,324282.53125,319148.78125,338825.375,297401.25,296476.6875,299107.75,-0.062744140625,0.794921875,-0.63623046875,-7.476806163787842,-31.066892623901367,17.089841842651367,100.0,110450.0,1.0
559175.6031541,308499.78125,299721.625,324108.28125,319527.21875,340077.59375,298134.71875,297060.78125,299462.875,-0.060791015625,0.79345703125,-0.636474609375,-7.904052257537842,-30.364988327026367,16.937253952026367,100.0,110451.0,1.0
559175.6056349,308336.875,300121.4375,324901.21875,320276.65625,344488.3125,299634.1875,298672.15625,300178.84375,-0.058349609375,0.786865234375,-0.6357421875,-8.087157249450684,-29.724119186401367,16.723630905151367,100.0,110452.0,1.0
559175.6081224,309005.625,300684.8125,325568.28125,320322.6875,345888.53125,299797.09375,299060.53125,300218.28125,-0.0556640625,0.786376953125,-0.63330078125,-8.056639671325684,-29.266355514526367,16.448972702026367,100.0,110453.0,1.0
559175.6107716,309558.1875,300672.8125,325239.96875,319604.375,342563.375,298482.53125,297836.75,299541.1875,-0.050048828125,0.786376953125,-0.635986328125,-8.239745140075684,-28.686521530151367,16.326902389526367,100.0,110454.0,1.0
559175.6130839,309207.625,300049.28125,324311.65625,319075.1875,339126.59375,297496.28125,296793.71875,299044.1875,-0.051025390625,0.777587890625,-0.635009765625,-8.453368186950684,-27.954099655151367,16.174314498901367,100.0,110455.0,1.0
559175.6155613,308510.5,299774.0,324147.96875,319481.90625,340357.90625,298239.53125,297577.625,299315.1875,-0.049072265625,0.7734375,-0.633056640625,-8.361815452575684,-27.740476608276367,16.052244186401367,100.0,110456.0,1.0
559175.6181302,308367.625,300189.84375,324943.6875,320295.78125,344711.9375,299743.0,299341.5625,299893.0,-0.04833984375,0.772216796875,-0.630615234375,-7.995604991912842,-27.282712936401367,15.991209983825684,100.0,110457.0,1.0
559175.6206678,309048.46875,300795.3125,325625.5,320396.53125,346096.75,299928.96875,299875.84375,299818.96875,-0.043701171875,0.772216796875,-0.62841796875,-7.934569835662842,-27.038572311401367,15.808104515075684,100.0,110458.0,1.0
559175.6305532,309627.65625,300855.46875,325326.09375,319733.84375,342800.59375,298642.65625,298595.8125,299207.71875,-0.035888671875,0.761962890625,-0.636474609375,-7.324218273162842,-26.611326217651367,16.052244186401367,100.0,110459.0,1.0
559175.6305934,309276.0,300227.84375,324382.9375,319228.15625,339350.09375,297638.625,297206.40625,298831.3125,-0.04833984375,0.75537109375,-0.629638671875,-6.347655773162842,-26.123044967651367,15.838622093200684,100.0,110460.0,1.0
559175.6332207,308539.28125,299868.25,324148.78125,319642.46875,340496.84375,298315.875,297613.75,299253.03125,-0.044677734375,0.74853515625,-0.63330078125,-5.645751476287842,-25.909421920776367,15.197752952575684,100.0,110461.0,1.0
559175.6332589,308375.9375,300212.28125,324913.375,320413.0,344811.78125,299787.25,299108.1875,300031.78125,-0.0458984375,0.740234375,-0.634521484375,-3.875732183456421,-25.848386764526367,15.167235374450684,100.0,110462.0,1.0
559175.6355398,309038.90625,300782.6875,325594.5625,320427.65625,346216.75,299959.625,299414.0625,300113.5,-0.034423828125,0.741455078125,-0.634765625,-2.288818120956421,-25.604246139526367,14.617918968200684,100.0,110463.0,1.0
559175.6381435,309590.09375,300825.53125,325291.03125,319683.4375,342934.53125,298642.03125,298115.34375,299433.90625,-0.03125,0.7421875,-0.63134765625,-0.6103515028953552,-25.268552780151367,14.465331077575684,100.0,110464.0,1.0
559175.6481266,309212.96875,300181.09375,324336.96875,319102.71875,339476.0625,297593.03125,296896.71875,298928.03125,-0.02978515625,0.737548828125,-0.63525390625,1.8310545682907104,-25.238035202026367,14.343260765075684,100.0,110465.0,1.0
559175.6530791,308432.0,299745.9375,324053.1875,319442.5625,340565.21875,298204.28125,297360.375,299272.53125,-0.0224609375,0.737548828125,-0.637939453125,3.265380620956421,-24.963376998901367,13.977049827575684,100.0,110466.0,1.0
559175.6581684,308210.90625,299992.4375,324739.46875,320179.625,344790.875,299597.96875,298874.21875,299980.4375,-0.02001953125,0.736572265625,-0.63671875,5.065917491912842,-24.322507858276367,13.763426780700684,100.0,110467.0,1.0
559175.6582091,308869.21875,300561.25,325406.90625,320219.78125,346172.3125,299756.3125,299192.6875,300026.9375,-0.027587890625,0.737060546875,-0.632080078125,6.378173351287842,-23.803709030151367,13.305663108825684,100.0,110468.0,1.0
559175.6630378,309439.875,300650.75,325127.96875,319484.5,342904.03125,298472.5,297853.71875,299351.375,-0.026611328125,0.735595703125,-0.63330078125,7.690429210662842,-23.529050827026367,12.725829124450684,100.0,110469.0,1.0
559175.6647542,309065.53125,300011.21875,324179.0625,318918.375,339421.90625,297443.34375,296649.78125,298829.78125,-0.019287109375,0.7421875,-0.638916015625,8.819579124450684,-22.796628952026367,12.268065452575684,100.0,110470.0,1.0
559175.6719201,308271.96875,299545.84375,323879.46875,319265.34375,340435.3125,298042.09375,297156.34375,299135.09375,-0.023681640625,0.74951171875,-0.642578125,9.643553733825684,-21.850584030151367,11.932372093200684,100.0,110471.0,1.0
559175.6743431,308039.875,299777.125,324548.875,319992.875,344579.34375,299416.375,298643.28125,299815.9375,-0.018310546875,0.75830078125,-0.640380859375,9.735106468200684,-21.179197311401367,11.199950218200684,100.0,110472.0,1.0
559175.6743835,308697.53125,300384.125,325222.8125,320023.4375,345921.5,299586.15625,298989.8125,299857.0625,-0.017578125,0.760498046875,-0.6435546875,10.040282249450684,-20.294187545776367,11.077879905700684,100.0,110473.0,1.0
559175.6767822,309285.46875,300542.28125,324974.625,319307.375,342660.84375,298332.21875,297702.09375,299184.46875,-0.019287109375,0.761474609375,-0.64453125,10.406493186950684,-19.073484420776367,10.681151390075684,100.0,110474.0,1.0
559175.6793522,308936.71875,299934.84375,324037.375,318765.5,339169.21875,297299.3125,296472.9375,298675.28125,-0.024658203125,0.76708984375,-0.650146484375,10.589598655700684,-17.791746139526367,9.857176780700684,100.0,110475.0,1.0
559175.6817915,308154.5,299451.34375,323725.0625,319118.375,340145.8125,297852.3125,296953.5,298992.0625,-0.027099609375,0.77294921875,-0.6484375,11.047362327575684,-16.632078170776367,9.124754905700684,100.0,110476.0,1.0
559175.6992446,307941.875,299675.75,324409.9375,319889.875,344315.125,299212.625,298504.34375,299685.84375,-0.0302734375,0.776611328125,-0.648193359375,11.016844749450684,-15.197752952575684,8.514403343200684,100.0,110477.0,1.0
559175.6992573,308628.25,300289.96875,325123.65625,319973.90625,345735.5625,299414.25,298926.34375,299753.53125,-0.02978515625,0.776611328125,-0.64794921875,10.864256858825684,-13.671874046325684,8.392333030700684,100.0,110478.0,1.0
559175.7043029,309218.96875,300444.84375,324897.1875,319257.5,342549.96875,298182.125,297694.21875,299096.65625,-0.041748046875,0.77197265625,-0.646484375,10.803221702575684,-12.512206077575684,7.965087413787842,100.0,110479.0,1.0
559175.706656,308838.53125,299795.5625,323934.90625,318678.75,339059.34375,297121.75,296503.9375,298569.34375,-0.04443359375,0.773681640625,-0.646728515625,11.047362327575684,-11.230467796325684,7.141112804412842,100.0,110480.0,1.0
559175.7091835,308053.8125,299283.25,323610.625,319037.28125,340020.84375,297681.1875,297008.28125,298885.21875,-0.04052734375,0.78515625,-0.648193359375,11.322020530700684,-10.009764671325684,6.652831554412842,100.0,110481.0,1.0
559175.7116264,307833.96875,299484.875,324282.15625,319806.90625,344163.9375,299054.8125,298555.46875,299592.59375,-0.04736328125,0.787841796875,-0.648681640625,10.955809593200684,-8.850096702575684,6.439208507537842,100.0,110482.0,1.0
559175.7141428,308491.46875,300110.71875,324977.125,319858.75,345578.09375,299257.40625,298941.09375,299660.1875,-0.05517578125,0.78564453125,-0.649169921875,10.589598655700684,-8.056639671325684,6.164550304412842,100.0,110483.0,1.0
559175.7165924,309058.125,300301.0625,324732.59375,319110.25,342373.5,298010.09375,297659.625,298978.90625,-0.055908203125,0.7880859375,-0.648681640625,10.559081077575684,-7.476806163787842,6.164550304412842,100.0,110484.0,1.0
559175.7216063,308674.84375,299708.125,323772.0,318532.59375,338871.875,296959.9375,296462.03125,298451.15625,-0.058349609375,0.790771484375,-0.64599609375,10.162352561950684,-6.744384288787842,6.134032726287842,100.0,110485.0,1.0
559175.7291801,307893.96875,299196.8125,323442.375,318899.15625,339798.46875,297508.4375,296960.65625,298766.21875,-0.06787109375,0.790771484375,-0.64404296875,9.918211936950684,-6.225585460662842,5.920409679412842,100.0,110486.0,1.0
559175.731668,307682.875,299381.78125,324118.09375,319682.875,343940.96875,298880.375,298516.875,299474.40625,-0.0673828125,0.7958984375,-0.640869140625,9.643553733825684,-6.164550304412842,6.011962413787842,100.0,110487.0,1.0
559175.7316768,308353.9375,299995.21875,324826.21875,319746.5625,345383.71875,299095.6875,298906.75,299544.875,-0.066162109375,0.79541015625,-0.64599609375,8.972167015075684,-6.195067882537842,6.317138195037842,100.0,110488.0,1.0
559175.734171,308968.71875,300201.46875,324627.90625,319035.21875,342225.53125,297896.5625,297630.125,298890.5,-0.0712890625,0.79345703125,-0.64404296875,8.270262718200684,-6.134032726287842,6.652831554412842,100.0,110489.0,1.0
559175.7366767,308623.4375,299604.125,323711.9375,318484.03125,338765.1875,296890.09375,296422.3125,298386.0625,-0.07177734375,0.793701171875,-0.640869140625,7.720946788787842,-6.469726085662842,6.866454601287842,100.0,110490.0,1.0
559175.7415946,307854.875,299079.125,323401.875,318855.59375,339710.5,297461.5,296909.40625,298709.09375,-0.070556640625,0.795654296875,-0.63671875,7.293700695037842,-7.019042491912842,7.049560070037842,100.0,110491.0,1.0
559175.7441734,307639.59375,299248.5625,324074.75,319640.40625,343851.90625,298838.625,298444.34375,299419.96875,-0.0654296875,0.7939453125,-0.6357421875,6.591796398162842,-7.171630382537842,7.446288585662842,100.0,110492.0,1.0
559175.7466678,308299.6875,299862.34375,324780.875,319703.09375,345317.75,299057.25,298828.1875,299483.78125,-0.0693359375,0.79150390625,-0.635009765625,6.011962413787842,-7.476806163787842,7.720946788787842,100.0,110493.0,1.0
559175.7466766,308905.40625,300092.5625,324585.53125,318989.4375,342217.65625,297874.1875,297575.21875,298834.4375,-0.065673828125,0.79296875,-0.63623046875,5.493163585662842,-7.995604991912842,8.026122093200684,100.0,110494.0,1.0
559175.7491711,308579.96875,299534.03125,323672.0625,318446.46875,338788.4375,296883.3125,296384.3125,298342.15625,-0.068115234375,0.79248046875,-0.63818359375,4.913329601287842,-8.270262718200684,8.239745140075684,100.0,110495.0,1.0
559175.7642775,307818.5,299025.9375,323353.59375,318828.6875,339732.5,297452.375,296874.28125,298664.65625,-0.06787109375,0.788818359375,-0.63818359375,4.364013195037842,-8.483885765075684,7.995604991912842,100.0,110496.0,1.0
559175.7668294,307609.71875,299204.75,324023.59375,319626.75,343880.8125,298823.25,298414.65625,299386.34375,-0.06201171875,0.789794921875,-0.638671875,3.997802495956421,-8.941649436950684,8.026122093200684,100.0,110497.0,1.0
559175.7668453,308283.5,299844.03125,324745.28125,319701.5625,345383.46875,299058.3125,298811.625,299476.90625,-0.051025390625,0.79833984375,-0.639404296875,3.479003667831421,-8.911131858825684,8.361815452575684,100.0,110498.0,1.0
559175.7693408,308921.40625,300121.4375,324582.21875,319011.4375,342319.21875,297906.375,297568.78125,298852.84375,-0.047607421875,0.800048828125,-0.639404296875,2.532958745956421,-8.636473655700684,9.002684593200684,100.0,110499.0,1.0
559175.7718919,308594.375,299566.84375,323672.3125,318461.3125,338883.3125,296917.0,296359.75,298350.28125,-0.052734375,0.79345703125,-0.64013671875,1.5869139432907104,-8.392333030700684,9.399413108825684,100.0,110500.0,1.0
559175.7893896,307826.8125,299039.1875,323345.0,318834.5,339793.5625,297478.125,296849.34375,298678.25,-0.047119140625,0.79248046875,-0.6416015625,1.1901854276657104,-8.270262718200684,9.521483421325684,100.0,110501.0,1.0
559175.7917363,307620.28125,299207.4375,324018.9375,319643.09375,343936.6875,298868.21875,298419.3125,299412.28125,-0.04541015625,0.786865234375,-0.6474609375,0.9155272841453552,-7.598876476287842,9.552000999450684,100.0,110502.0,1.0
559175.7917627,308286.09375,299834.28125,324736.09375,319715.0,345444.53125,299113.65625,298835.78125,299486.21875,-0.05126953125,0.78759765625,-0.645263671875,0.5493163466453552,-6.896972179412842,9.399413108825684,100.0,110503.0,1.0
559175.7943801,308895.125,300111.15625,324563.53125,318988.28125,342391.71875,297955.75,297588.28125,298843.375,-0.0517578125,0.7890625,-0.643310546875,-0.1220703050494194,-6.378173351287842,9.185790061950684,100.0,110504.0,1.0
559175.7969065,308587.125,299577.3125,323672.3125,318443.625,338977.625,296970.03125,296397.90625,298361.1875,-0.04638671875,0.791748046875,-0.64306640625,-0.7629393935203552,-5.889892101287842,8.850096702575684,100.0,110505.0,1.0
559175.7993807,307819.375,299032.46875,323330.59375,318815.5625,339862.5,297507.375,296880.09375,298684.0625,-0.04443359375,0.7939453125,-0.64208984375,-1.6784666776657104,-4.974364757537842,8.972167015075684,100.0,110506.0,1.0
559175.8017471,307578.15625,299158.34375,323965.21875,319600.375,343965.28125,298864.125,298430.9375,299397.875,-0.04638671875,0.791748046875,-0.640625,-2.929687261581421,-4.180907726287842,8.819579124450684,100.0,110507.0,1.0
559175.8169108,308218.84375,299776.0625,324672.34375,319643.8125,345493.25,299118.84375,298861.0625,299465.03125,-0.04638671875,0.7919921875,-0.639404296875,-4.150390148162842,-3.662109136581421,8.819579124450684,100.0,110508.0,1.0
559175.8169522,308855.78125,300071.65625,324526.4375,318930.34375,342471.84375,297980.25,297736.25,298748.15625,-0.04931640625,0.78564453125,-0.641845703125,-5.401610851287842,-2.990722417831421,8.666991233825684,100.0,110509.0,1.0
559175.819507,308557.625,299544.0625,323647.09375,318399.625,339050.84375,296989.78125,296625.71875,298197.9375,-0.050048828125,0.7802734375,-0.635498046875,-5.981444835662842,-2.014159917831421,7.995604991912842,100.0,110510.0,1.0
559175.8195427,307785.59375,298986.5,323306.03125,318788.46875,339923.46875,297520.59375,297071.25,298550.125,-0.048583984375,0.78466796875,-0.6318359375,-6.469726085662842,-1.3732908964157104,7.659911632537842,100.0,110511.0,1.0
559175.8243411,307529.875,299081.46875,323928.46875,319574.34375,344032.25,298874.65625,298594.71875,299296.65625,-0.052978515625,0.782470703125,-0.6357421875,-7.293700695037842,-0.8850097060203552,7.293700695037842,100.0,110512.0,1.0
559175.8267467,308222.25,299737.71875,324666.78125,319663.75,345616.90625,299155.59375,299041.6875,299437.75,-0.05517578125,0.77587890625,-0.634521484375,-7.812499523162842,-0.2136230319738388,6.896972179412842,100.0,110513.0,1.0
559175.8331503,308908.0,300084.53125,324549.65625,318995.09375,342653.59375,298044.53125,297817.6875,298839.4375,-0.056396484375,0.78076171875,-0.635009765625,-7.995604991912842,0.3356933295726776,6.591796398162842,100.0,110514.0,1.0
559175.8331916,308569.25,299538.96875,323637.4375,318440.3125,339221.28125,297038.25,296570.5625,298330.625,-0.060546875,0.7822265625,-0.635009765625,-8.483885765075684,0.9460448622703552,6.195067882537842,100.0,110515.0,1.0
559175.8353158,307763.15625,298965.15625,323258.09375,318805.4375,340053.8125,297553.84375,296997.3125,298651.875,-0.060791015625,0.783447265625,-0.633056640625,-8.789061546325684,1.4038084745407104,5.920409679412842,100.0,110516.0,1.0
559175.8353528,307497.96875,299060.8125,323866.34375,319587.84375,344134.28125,298892.09375,298517.03125,299363.375,-0.063720703125,0.782470703125,-0.6318359375,-9.002684593200684,1.5258787870407104,5.706786632537842,100.0,110517.0,1.0
559175.8534885,308172.53125,299709.625,324610.90625,319668.0625,345742.875,299178.28125,298957.28125,299468.40625,-0.0654296875,0.783203125,-0.6318359375,-9.277342796325684,1.8005369901657104,5.187987804412842,100.0,110518.0,1.0
559175.8867842,308844.78125,300053.21875,324504.96875,318988.28125,342795.125,298067.40625,297736.0625,298848.46875,-0.061279296875,0.783447265625,-0.62841796875,-9.521483421325684,1.9836424589157104,4.791259288787842,100.0,110519.0,1.0
559175.8893816,308524.1875,299537.1875,323611.15625,318433.34375,339372.4375,297066.78125,296511.625,298345.5625,-0.060302734375,0.78466796875,-0.62646484375,-9.765624046325684,2.258300542831421,4.577636241912842,100.0,110520.0,1.0
559175.8919086,307764.21875,298986.59375,323250.6875,318807.5,340211.4375,297593.5625,296967.09375,298682.4375,-0.065673828125,0.784423828125,-0.62841796875,-9.918211936950684,2.258300542831421,4.302978038787842,100.0,110521.0,1.0
559175.8943332,307566.46875,299093.96875,323885.5625,319637.65625,344310.40625,298960.40625,298516.40625,299423.53125,-0.065673828125,0.78271484375,-0.62646484375,-9.979247093200684,2.136230230331421,3.753661870956421,100.0,110522.0,1.0
559175.8967163,308200.0,299737.8125,324623.15625,319716.78125,345933.75,299256.6875,298968.0,299547.46875,-0.06689453125,0.7861328125,-0.622802734375,-9.887694358825684,1.9226073026657104,3.387450933456421,100.0,110523.0,1.0
559175.8992821,308853.5625,300086.9375,324514.96875,318999.28125,343016.5,298146.71875,297762.875,298925.4375,-0.061767578125,0.78759765625,-0.62744140625,-10.131834983825684,1.6479490995407104,3.143310308456421,100.0,110524.0,1.0
559175.9018792,308588.75,299601.8125,323654.53125,318478.65625,339601.0625,297154.3125,296547.9375,298414.5625,-0.05908203125,0.787109375,-0.623291015625,-10.162352561950684,1.5258787870407104,3.051757574081421,100.0,110525.0,1.0
559175.9043851,307768.5,298999.3125,323253.28125,318813.40625,340382.3125,297644.59375,296979.15625,298698.4375,-0.0625,0.787109375,-0.625,-10.162352561950684,1.1596678495407104,2.899169683456421,100.0,110526.0,1.0
559175.9068626,307535.25,299077.4375,323866.78125,319621.46875,344476.59375,299007.4375,298544.21875,299421.375,-0.063720703125,0.78857421875,-0.62451171875,-10.040282249450684,0.9155272841453552,2.593993902206421,100.0,110527.0,1.0
559175.9118843,308208.3125,299709.375,324617.8125,319728.5625,346129.21875,299313.5625,298992.40625,299524.65625,-0.0615234375,0.7919921875,-0.624755859375,-9.918211936950684,0.7019042372703552,2.349853277206421,100.0,110528.0,1.0
559175.9144355,308889.84375,300060.65625,324539.65625,319055.78125,343233.21875,298210.5625,297761.71875,298899.4375,-0.060546875,0.793212890625,-0.627685546875,-9.704588890075684,0.4882812201976776,2.136230230331421,100.0,110529.0,1.0
559175.9167503,308562.4375,299536.09375,323646.03125,318453.375,339793.84375,297196.6875,296501.8125,298389.0,-0.060791015625,0.795654296875,-0.62646484375,-9.613036155700684,0.4882812201976776,2.014159917831421,100.0,110530.0,1.0
559175.919289,307790.15625,298935.03125,323249.78125,318784.875,340555.125,297687.0625,296905.75,298696.46875,-0.062744140625,0.7939453125,-0.621826171875,-9.674071311950684,0.3051757514476776,1.8615721464157104,100.0,110531.0,1.0
559175.9218995,307568.34375,299014.84375,323870.625,319633.1875,344644.78125,299060.71875,298459.1875,299443.46875,-0.066162109375,0.796142578125,-0.621826171875,-9.765624046325684,0.2746581733226776,1.7089842557907104,100.0,110532.0,1.0
559175.9243741,308227.625,299662.53125,324627.625,319746.28125,346313.5625,299372.75,298916.6875,299560.15625,-0.0654296875,0.796142578125,-0.62255859375,-10.009764671325684,0.3967284858226776,1.4038084745407104,100.0,110533.0,1.0
559175.9244126,308832.28125,299994.3125,324519.4375,318991.78125,343429.90625,298263.03125,297699.84375,298913.1875,-0.06591796875,0.796142578125,-0.620361328125,-10.253905296325684,0.6408690810203552,1.4038084745407104,100.0,110534.0,1.0
559175.9267978,308537.15625,299467.875,323633.59375,318396.6875,339983.09375,297251.03125,296488.125,298375.78125,-0.068115234375,0.798583984375,-0.620849609375,-10.711668968200684,0.8544921278953552,1.4648436307907104,100.0,110535.0,1.0
559175.9294673,307842.8125,298914.71875,323277.40625,318820.03125,340728.3125,297756.0,296928.625,298724.90625,-0.068359375,0.793701171875,-0.621337890625,-11.169432640075684,1.0986326932907104,1.3732908964157104,100.0,110536.0,1.0
559175.9295086,307542.21875,298994.46875,323864.53125,319629.59375,344807.6875,299116.6875,298479.40625,299477.71875,-0.0693359375,0.791748046875,-0.62109375,-11.596678733825684,1.4953612089157104,1.2512205839157104,100.0,110537.0,1.0
559175.9344271,308106.375,299570.96875,324555.21875,319657.0625,346475.65625,299402.4375,298919.375,299559.78125,-0.068359375,0.7919921875,-0.619140625,-11.993407249450684,1.8615721464157104,1.0681151151657104,100.0,110538.0,1.0
559175.9367982,308833.09375,299968.84375,324508.28125,318985.6875,343618.65625,298320.15625,297701.03125,298951.03125,-0.070556640625,0.791748046875,-0.61767578125,-12.115477561950684,2.227782964706421,0.9765624403953552,100.0,110539.0,1.0
559175.9394319,308546.34375,299474.3125,323639.6875,318426.625,340171.46875,297306.03125,296457.8125,298438.625,-0.072265625,0.7939453125,-0.61962890625,-12.390135765075684,2.532958745956421,1.2207030057907104,100.0,110540.0,1.0
559175.9394704,307743.84375,298887.4375,323228.9375,318787.21875,340882.8125,297771.46875,296876.15625,298735.625,-0.072021484375,0.792236328125,-0.61962890625,-12.451170921325684,2.868652105331421,1.3122557401657104,100.0,110541.0,1.0
559175.9418198,307474.8125,298965.40625,323807.9375,319596.25,344937.84375,299110.0,298429.0625,299445.4375,-0.074462890625,0.789794921875,-0.617919921875,-12.268065452575684,3.356933355331421,1.2512205839157104,100.0,110542.0,1.0
559175.946865,308178.1875,299634.0,324587.9375,319745.125,346671.28125,299440.15625,298957.375,299569.8125,-0.07470703125,0.789306640625,-0.618408203125,-12.023924827575684,3.814697027206421,1.0375975370407104,100.0,110543.0,1.0
559175.9494595,308890.75,300053.0625,324554.3125,319090.03125,343846.90625,298368.96875,297796.25,298954.96875,-0.076904296875,0.786865234375,-0.616943359375,-11.627196311950684,4.150390148162842,0.8239745497703552,100.0,110544.0,1.0
559175.9495004,308518.8125,299532.78125,323647.03125,318453.28125,340384.28125,297329.71875,296554.5625,298415.125,-0.0771484375,0.78759765625,-0.61669921875,-11.077879905700684,4.425048351287842,0.8239745497703552,100.0,110545.0,1.0
559175.9644035,307659.96875,298890.3125,323184.4375,318711.46875,341049.71875,297761.90625,296954.21875,298686.90625,-0.075927734375,0.790771484375,-0.6162109375,-10.559081077575684,4.516601085662842,0.8239745497703552,100.0,110546.0,1.0
559175.969438,307407.5,298961.65625,323762.1875,319530.09375,345098.53125,299103.8125,298503.625,299414.40625,-0.075927734375,0.79150390625,-0.614501953125,-10.009764671325684,4.455565929412842,0.7324218153953552,100.0,110547.0,1.0
559175.9694728,308095.84375,299637.03125,324538.75,319685.46875,346833.375,299437.46875,299012.25,299544.78125,-0.0732421875,0.794677734375,-0.61376953125,-9.368895530700684,4.333495616912842,0.7629393935203552,100.0,110548.0,1.0
559175.9694825,308797.9375,300062.34375,324504.6875,318999.90625,344007.5,298365.6875,297838.53125,298930.53125,-0.07421875,0.798828125,-0.611572265625,-8.880614280700684,4.180907726287842,0.7019042372703552,100.0,110549.0,1.0
559175.9745603,308508.4375,299583.3125,323631.625,318421.09375,340518.65625,297332.3125,296591.65625,298404.375,-0.07568359375,0.800048828125,-0.608154296875,-8.392333030700684,3.753661870956421,0.6103515028953552,100.0,110550.0,1.0
559175.9745983,307696.0,298970.25,323190.875,318743.59375,341153.8125,297776.21875,296978.625,298688.0,-0.073486328125,0.797607421875,-0.6064453125,-7.965087413787842,3.387450933456421,0.7019042372703552,100.0,110551.0,1.0
559175.9769458,307432.96875,299038.0,323775.6875,319567.71875,345219.03125,299142.34375,298545.46875,299429.25,-0.073974609375,0.79443359375,-0.601806640625,-7.537841320037842,3.021239995956421,0.7324218153953552,100.0,110552.0,1.0
559175.9931624,308090.5625,299701.15625,324549.21875,319722.40625,346982.34375,299484.25,299062.15625,299559.0625,-0.073974609375,0.787841796875,-0.600830078125,-7.263183116912842,2.471923589706421,0.7324218153953552,100.0,110553.0,1.0
559176.0157885,308780.96875,300096.6875,324502.5625,319015.65625,344159.75,298398.84375,297877.96875,298926.78125,-0.074951171875,0.786865234375,-0.6025390625,-6.835937023162842,2.014159917831421,0.7324218153953552,100.0,110554.0,1.0
559176.0158292,308514.09375,299588.21875,323627.78125,318418.125,340648.75,297351.875,296619.65625,298377.90625,-0.073974609375,0.78857421875,-0.605712890625,-6.500243663787842,1.6479490995407104,0.7629393935203552,100.0,110555.0,1.0
559176.015838,307696.90625,298951.65625,323174.40625,318716.9375,341256.625,297776.03125,296989.53125,298638.0,-0.0751953125,0.79296875,-0.608154296875,-6.103515148162842,1.1901854276657104,0.8544921278953552,100.0,110556.0,1.0
559176.0158481,307408.90625,298985.96875,323740.1875,319527.6875,345307.8125,299124.125,298531.78125,299366.84375,-0.076904296875,0.795166015625,-0.609130859375,-5.859374523162842,0.6713866591453552,1.0681151151657104,100.0,110557.0,1.0
559176.0208134,308046.21875,299604.84375,324490.75,319635.15625,347075.40625,299450.96875,299026.9375,299487.09375,-0.077880859375,0.796142578125,-0.612548828125,-5.676269054412842,0.2441406100988388,1.1901854276657104,100.0,110558.0,1.0
559176.0208497,308794.46875,300027.9375,324481.90625,318969.34375,344282.9375,298377.5625,297846.75,298875.375,-0.07958984375,0.793701171875,-0.612548828125,-5.432128429412842,0.0915527269244194,1.3732908964157104,100.0,110559.0,1.0
559176.024534,308535.28125,299541.28125,323633.6875,318427.25,340805.46875,297346.96875,296604.8125,298352.25,-0.079345703125,0.788330078125,-0.61083984375,-4.943847179412842,-0.1525878757238388,1.4648436307907104,100.0,110560.0,1.0
559176.0245703,307670.4375,298872.96875,323160.71875,318717.65625,341406.71875,297762.25,296973.6875,298614.59375,-0.081298828125,0.78662109375,-0.61181640625,-4.333495616912842,-0.3051757514476776,1.4648436307907104,100.0,110561.0,1.0
559176.0245802,307359.21875,298872.4375,323682.25,319460.8125,345401.0,299064.125,298475.71875,299299.15625,-0.083984375,0.782958984375,-0.612060546875,-3.814697027206421,-0.2441406100988388,1.5563963651657104,100.0,110562.0,1.0
559176.029484,308039.40625,299544.3125,324468.75,319590.53125,347192.0,299418.96875,299012.8125,299421.75,-0.08740234375,0.78125,-0.61376953125,-3.479003667831421,-0.2136230319738388,1.6479490995407104,100.0,110563.0,1.0
559176.0317801,308723.125,299946.375,324446.9375,318908.34375,344411.25,298352.8125,297880.625,298786.875,-0.0869140625,0.775146484375,-0.614013671875,-3.204345464706421,-0.2746581733226776,1.6784666776657104,100.0,110564.0,1.0
559176.0344512,308453.0,299447.5,323580.3125,318308.4375,340888.78125,297298.78125,296613.28125,298258.65625,-0.087646484375,0.77392578125,-0.613037109375,-2.685546636581421,-0.0915527269244194,1.6479490995407104,100.0,110565.0,1.0
559176.0344934,307691.53125,298844.0,323147.0625,318631.03125,341456.4375,297727.03125,297005.78125,298555.65625,-0.0888671875,0.772705078125,-0.611572265625,-2.319335699081421,-0.1831054538488388,1.5563963651657104,100.0,110566.0,1.0
559176.0643836,307372.96875,298883.78125,323686.4375,319430.75,345462.9375,299056.34375,298573.625,299267.34375,-0.084716796875,0.772705078125,-0.612060546875,-1.7395018339157104,-0.2136230319738388,1.3732908964157104,100.0,110567.0,1.0
559176.0644198,307982.5625,299529.84375,324441.5,319573.09375,347262.8125,299400.125,299059.03125,299397.15625,-0.083251953125,0.777587890625,-0.610107421875,-1.2512205839157104,-0.2441406100988388,1.4343260526657104,100.0,110568.0,1.0
559176.0669467,308712.84375,299954.53125,324437.71875,318940.71875,344479.375,298325.53125,297852.84375,298772.90625,-0.080078125,0.77880859375,-0.61181640625,-0.9765624403953552,-0.5798339247703552,1.4343260526657104,100.0,110569.0,1.0
559176.0669844,308439.25,299455.0,323557.0625,318330.96875,340905.96875,297243.625,296549.90625,298214.125,-0.072998046875,0.781982421875,-0.61669921875,-0.4577636420726776,-0.8850097060203552,1.5563963651657104,100.0,110570.0,1.0
559176.0694187,307642.375,298834.25,323105.5625,318642.8125,341450.4375,297662.03125,296902.875,298499.0625,-0.0693359375,0.78662109375,-0.6162109375,-0.0915527269244194,-0.9460448622703552,1.5563963651657104,100.0,110571.0,1.0
559176.0768796,307322.09375,298863.75,323641.90625,319423.96875,345459.71875,298997.4375,298444.875,299230.15625,-0.069091796875,0.786865234375,-0.615966796875,0.3356933295726776,-1.0070799589157104,1.5563963651657104,100.0,110572.0,1.0
559176.0793765,307983.28125,299513.03125,324418.25,319580.59375,347274.5,299360.59375,298972.75,299383.40625,-0.0654296875,0.78515625,-0.61669921875,0.7019042372703552,-1.2817381620407104,1.7089842557907104,100.0,110573.0,1.0
559176.0844057,308676.34375,299914.1875,324393.84375,318897.53125,344487.59375,298282.875,297779.875,298768.71875,-0.06298828125,0.787109375,-0.6162109375,1.0681151151657104,-1.2817381620407104,1.7395018339157104,100.0,110574.0,1.0
559176.0868944,308416.71875,299434.875,323538.75,318284.03125,340949.9375,297235.65625,296504.65625,298236.125,-0.060546875,0.79150390625,-0.618408203125,1.4953612089157104,-1.1291502714157104,1.6784666776657104,100.0,110575.0,1.0
559176.0892839,307632.25,298801.96875,323086.96875,318594.53125,341462.0625,297636.8125,296851.46875,298504.34375,-0.061279296875,0.7919921875,-0.6171875,1.6784666776657104,-1.0986326932907104,1.6784666776657104,100.0,110576.0,1.0
559176.0919411,307315.59375,298804.84375,323614.21875,319391.5,345433.4375,298953.34375,298368.625,299215.21875,-0.0595703125,0.792236328125,-0.61669921875,1.7700194120407104,-1.0986326932907104,1.6784666776657104,100.0,110577.0,1.0
559176.0919812,307978.25,299447.5,324398.65625,319565.15625,347263.0625,299323.21875,298903.28125,299366.21875,-0.05908203125,0.7900390625,-0.61865234375,1.9226073026657104,-0.9155272841453552,1.5563963651657104,100.0,110578.0,1.0
559176.0944453,308694.3125,299866.46875,324397.5,318901.65625,344510.40625,298260.71875,297734.5625,298754.59375,-0.06103515625,0.791015625,-0.617431640625,2.288818120956421,-0.7934569716453552,1.2207030057907104,100.0,110579.0,1.0
559176.1031534,308420.1875,299376.875,323530.25,318289.125,340964.53125,297199.4375,296458.8125,298207.15625,-0.06298828125,0.7900390625,-0.619384765625,2.655029058456421,-0.7324218153953552,1.0070799589157104,100.0,110580.0,1.0
559176.1054859,307615.8125,298743.6875,323067.46875,318576.5625,341466.09375,297598.125,296806.59375,298470.46875,-0.0615234375,0.7900390625,-0.61767578125,2.960204839706421,-0.5798339247703552,0.8239745497703552,100.0,110581.0,1.0
559176.1081874,307295.71875,298754.15625,323593.71875,319363.71875,345453.28125,298918.84375,298331.59375,299190.28125,-0.06201171875,0.789794921875,-0.62255859375,3.234863042831421,-0.2441406100988388,0.7324218153953552,100.0,110582.0,1.0
559176.1082274,307930.96875,299390.8125,324357.96875,319512.21875,347292.40625,299273.34375,298857.84375,299331.28125,-0.064208984375,0.79052734375,-0.619873046875,3.540038824081421,-0.2441406100988388,0.5493163466453552,100.0,110583.0,1.0
559176.1105227,308661.15625,299823.28125,324362.375,318851.21875,344554.84375,298221.09375,297702.625,298735.90625,-0.068359375,0.788330078125,-0.61962890625,3.814697027206421,-0.2136230319738388,0.4272460639476776,100.0,110584.0,1.0
559176.1131233,308414.125,299353.4375,323504.6875,318249.15625,340983.375,297158.21875,296423.03125,298194.28125,-0.0703125,0.7900390625,-0.61962890625,4.089354991912842,-0.0610351525247097,0.2441406100988388,100.0,110585.0,1.0
559176.1169255,307609.28125,298734.03125,323040.21875,318548.3125,341443.9375,297544.8125,296767.875,298453.46875,-0.07177734375,0.790771484375,-0.6201171875,4.272460460662842,0.1831054538488388,0.2746581733226776,100.0,110586.0,1.0
559176.1169673,307267.9375,298742.78125,323555.71875,319334.28125,345403.75,298855.90625,298287.8125,299164.78125,-0.074951171875,0.792724609375,-0.619140625,4.394530773162842,0.2136230319738388,0.03051757626235485,100.0,110587.0,1.0
559176.139417,307917.03125,299402.78125,324340.71875,319498.4375,347278.25,299241.9375,298849.71875,299333.3125,-0.074462890625,0.791748046875,-0.615234375,4.364013195037842,0.3051757514476776,-0.2746581733226776,100.0,110588.0,1.0
559176.1495107,308632.71875,299829.4375,324333.40625,318820.28125,344527.3125,298177.03125,297692.71875,298722.9375,-0.0703125,0.79345703125,-0.6181640625,4.272460460662842,0.3662109076976776,-0.3051757514476776,100.0,110589.0,1.0
559176.1495486,308382.125,299360.9375,323474.46875,318213.65625,340933.21875,297106.71875,296415.15625,298177.84375,-0.07080078125,0.79296875,-0.619140625,4.089354991912842,0.2746581733226776,-0.2746581733226776,100.0,110590.0,1.0
559176.1543341,307588.0,298742.78125,323017.9375,318517.90625,341383.21875,297501.5625,296756.53125,298444.25,-0.072265625,0.7939453125,-0.6171875,3.936767339706421,0.3967284858226776,-0.5187987685203552,100.0,110591.0,1.0
559176.1567367,307264.71875,298758.78125,323550.09375,319319.09375,345362.375,298832.90625,298286.625,299168.625,-0.072998046875,0.791748046875,-0.6181640625,3.784179449081421,0.3662109076976776,-0.6713866591453552,100.0,110592.0,1.0
559176.1593729,307923.09375,299413.96875,324347.875,319500.0625,347272.625,299239.625,298862.78125,299345.5625,-0.071044921875,0.7900390625,-0.618408203125,3.448486089706421,0.3051757514476776,-0.7324218153953552,100.0,110593.0,1.0
559176.1643956,308632.28125,299820.59375,324336.0625,318822.71875,344538.375,298178.625,297690.46875,298736.71875,-0.0712890625,0.78955078125,-0.618896484375,3.234863042831421,0.3051757514476776,-0.7019042372703552,100.0,110594.0,1.0
559176.166714,308373.4375,299330.46875,323463.09375,318207.59375,340934.125,297094.40625,296376.8125,298182.9375,-0.072021484375,0.78955078125,-0.619873046875,3.112792730331421,0.3051757514476776,-0.7934569716453552,100.0,110595.0,1.0
559176.1692739,307592.21875,298712.5625,323010.71875,318517.03125,341382.59375,297490.125,296709.5,298452.40625,-0.072021484375,0.78955078125,-0.62109375,2.746581792831421,0.2746581733226776,-0.7629393935203552,100.0,110596.0,1.0
559176.1717722,307261.21875,298717.65625,323532.40625,319310.40625,345360.3125,298815.9375,298227.625,299172.5625,-0.07080078125,0.792236328125,-0.619140625,2.593993902206421,0.3356933295726776,-0.8544921278953552,100.0,110597.0,1.0
559176.179404,307886.25,299353.1875,324308.625,319475.03125,347277.1875,299209.3125,298787.6875,299336.53125,-0.070068359375,0.797119140625,-0.62060546875,2.349853277206421,0.5187987685203552,-0.7629393935203552,100.0,110598.0,1.0
559176.1818841,308617.34375,299784.125,324318.28125,318819.125,344576.125,298163.78125,297639.0625,298740.75,-0.070556640625,0.801025390625,-0.621337890625,1.9836424589157104,0.5493163466453552,-0.8544921278953552,100.0,110599.0,1.0
559176.1842913,308379.15625,299322.25,323465.34375,318214.65625,340982.21875,297091.53125,296343.65625,298196.6875,-0.06982421875,0.802734375,-0.622314453125,1.6174315214157104,0.5798339247703552,-0.9155272841453552,100.0,110600.0,1.0
559176.1869062,307573.6875,298695.84375,322995.59375,318501.1875,341402.4375,297470.625,296655.75,298450.78125,-0.067138671875,0.80078125,-0.622802734375,1.2207030057907104,0.6408690810203552,-0.8544921278953552,100.0,110601.0,1.0
559176.1894316,307250.3125,298714.8125,323530.53125,319305.25,345389.28125,298810.375,298190.0625,299177.125,-0.06884765625,0.80419921875,-0.621826171875,0.9155272841453552,0.6713866591453552,-1.0070799589157104,100.0,110602.0,1.0
559176.1894705,307870.53125,299342.34375,324302.0,319471.09375,347312.96875,299204.59375,298756.75,299339.40625,-0.0693359375,0.8037109375,-0.625,0.5187987685203552,0.8239745497703552,-1.0986326932907104,100.0,110603.0,1.0
559176.1918169,308595.09375,299771.0625,324309.4375,318811.09375,344621.28125,298163.625,297612.875,298741.4375,-0.06787109375,0.80078125,-0.62451171875,0.2746581733226776,0.7629393935203552,-1.1291502714157104,100.0,110604.0,1.0
559176.1943884,308357.15625,299295.5,323444.25,318197.3125,340990.71875,297076.6875,296302.0625,298183.28125,-0.068115234375,0.800048828125,-0.62255859375,-0.0610351525247097,0.7324218153953552,-1.1596678495407104,100.0,110605.0,1.0
559176.1968983,307563.25,298676.4375,322975.03125,318486.8125,341375.875,297453.375,296611.59375,298454.8125,-0.066162109375,0.796875,-0.621337890625,-0.3967284858226776,0.7324218153953552,-1.2512205839157104,100.0,110606.0,1.0
559176.2003296,307220.1875,298684.5,323493.9375,319281.8125,345344.5625,298781.40625,298135.71875,299171.59375,-0.068115234375,0.79833984375,-0.623779296875,-0.4577636420726776,0.7934569716453552,-1.2512205839157104,100.0,110607.0,1.0
559176.2003697,307841.28125,299319.28125,324272.875,319454.375,347300.875,299192.78125,298720.53125,299334.40625,-0.071044921875,0.799560546875,-0.623779296875,-0.5187987685203552,0.7019042372703552,-1.0986326932907104,100.0,110608.0,1.0
559176.2293247,308573.1875,299748.53125,324281.90625,318796.5,344622.53125,298152.96875,297577.5625,298728.75,-0.06982421875,0.7998046875,-0.620849609375,-0.4882812201976776,0.7629393935203552,-0.8544921278953552,100.0,110609.0,1.0
559176.230816,308344.28125,299284.59375,323425.71875,318179.96875,341005.03125,297067.75,296267.75,298164.78125,-0.07080078125,0.7998046875,-0.6240234375,-0.6103515028953552,0.8850097060203552,-0.7629393935203552,100.0,110610.0,1.0
559176.2344704,307571.09375,298680.03125,322972.96875,318482.4375,341402.53125,297452.65625,296581.375,298426.03125,-0.06982421875,0.798828125,-0.6259765625,-0.6713866591453552,0.9460448622703552,-0.5493163466453552,100.0,110611.0,1.0
559176.239668,307232.625,298697.8125,323497.15625,319281.375,345394.1875,298789.0,298112.75,299147.53125,-0.068603515625,0.798828125,-0.62548828125,-0.7934569716453552,1.0375975370407104,-0.3051757514476776,100.0,110612.0,1.0
559176.2683983,307836.5625,299315.0,324260.71875,319443.375,347370.09375,299189.65625,298691.21875,299308.125,-0.070068359375,0.799072265625,-0.624267578125,-0.9155272841453552,1.2207030057907104,0.1525878757238388,100.0,110613.0,1.0
559176.2804923,308554.5,299731.90625,324263.3125,318773.625,344712.09375,298148.9375,297552.0625,298701.40625,-0.072021484375,0.79736328125,-0.623291015625,-1.1596678495407104,1.4343260526657104,0.6103515028953552,100.0,110614.0,1.0
559176.2830909,308332.6875,299269.9375,323411.53125,318159.3125,341095.0625,297064.625,296248.15625,298143.125,-0.078125,0.79736328125,-0.621826171875,-1.4648436307907104,1.6174315214157104,0.9765624403953552,100.0,110615.0,1.0
559176.2854146,307541.0625,298648.65625,322937.65625,318442.0,341457.96875,297424.21875,296544.09375,298387.5,-0.0791015625,0.79638671875,-0.623291015625,-1.6174315214157104,1.7395018339157104,1.3122557401657104,100.0,110616.0,1.0
559176.2881181,307200.59375,298661.53125,323458.90625,319243.28125,345441.40625,298756.65625,298075.46875,299108.1875,-0.07861328125,0.797607421875,-0.624267578125,-1.7700194120407104,2.105712652206421,1.6479490995407104,100.0,110617.0,1.0
559176.290547,307813.5625,299294.625,324240.40625,319424.875,347447.59375,299179.09375,298679.9375,299287.90625,-0.07861328125,0.79931640625,-0.62060546875,-2.136230230331421,2.349853277206421,1.8920897245407104,100.0,110618.0,1.0
559176.2905816,308543.75,299734.03125,324259.0,318769.0625,344814.03125,298151.625,297560.46875,298699.15625,-0.08154296875,0.8017578125,-0.61962890625,-2.441406011581421,2.563476324081421,2.014159917831421,100.0,110619.0,1.0
559176.2931042,308316.5,299272.71875,323399.0,318145.1875,341171.59375,297049.25,296241.28125,298131.6875,-0.07861328125,0.80224609375,-0.619140625,-2.838134527206421,2.685546636581421,2.258300542831421,100.0,110620.0,1.0
559176.2955037,307525.96875,298655.34375,322921.21875,318425.125,341502.5625,297401.96875,296528.4375,298376.59375,-0.07861328125,0.80078125,-0.62060546875,-3.295898199081421,2.777099370956421,2.532958745956421,100.0,110621.0,1.0
559176.2981303,307181.65625,298675.03125,323443.71875,319233.25,345485.3125,298744.3125,298071.78125,299110.96875,-0.075927734375,0.802490234375,-0.6201171875,-3.601073980331421,2.777099370956421,2.685546636581421,100.0,110622.0,1.0
559176.2997341,307791.9375,299312.40625,324228.25,319421.71875,347515.46875,299175.15625,298690.9375,299298.53125,-0.074462890625,0.80419921875,-0.619873046875,-3.997802495956421,2.868652105331421,2.899169683456421,100.0,110623.0,1.0
559176.3067478,308522.125,299754.96875,324251.0625,318763.96875,344888.15625,298146.1875,297570.84375,298706.3125,-0.0732421875,0.803955078125,-0.61962890625,-4.364013195037842,2.868652105331421,3.143310308456421,100.0,110624.0,1.0
559176.3094218,308308.71875,299311.5,323407.5,318144.5625,341255.28125,297056.40625,296264.96875,298147.15625,-0.072021484375,0.803955078125,-0.618896484375,-4.455565929412842,2.899169683456421,3.570556402206421,100.0,110625.0,1.0
559176.3117467,307516.46875,298688.0,322923.1875,318418.6875,341571.0625,297404.1875,296550.34375,298385.4375,-0.071533203125,0.80419921875,-0.615966796875,-4.394530773162842,2.807616949081421,3.906249761581421,100.0,110626.0,1.0
559176.3143966,307172.34375,298695.84375,323440.75,319232.46875,345556.65625,298748.4375,298094.78125,299122.59375,-0.06640625,0.8046875,-0.61572265625,-4.150390148162842,2.777099370956421,4.028319835662842,100.0,110627.0,1.0
559176.3169201,307770.9375,299312.40625,324217.34375,319414.40625,347608.625,299182.21875,298710.15625,299304.53125,-0.0654296875,0.805419921875,-0.615966796875,-3.936767339706421,2.777099370956421,4.272460460662842,100.0,110628.0,1.0
559176.3217331,308508.28125,299754.15625,324249.0,318758.59375,345018.3125,298159.3125,297595.6875,298711.9375,-0.06640625,0.80517578125,-0.6142578125,-3.692626714706421,2.838134527206421,4.455565929412842,100.0,110629.0,1.0
559176.3317594,308292.09375,299305.25,323403.65625,318127.21875,341393.21875,297062.125,296280.25,298144.125,-0.067626953125,0.80517578125,-0.6142578125,-3.692626714706421,2.685546636581421,4.547118663787842,100.0,110630.0,1.0
559176.3357187,307506.65625,298676.4375,322918.0,318400.71875,341703.5625,297412.25,296563.40625,298384.71875,-0.065185546875,0.8056640625,-0.6123046875,-3.723144292831421,2.563476324081421,4.577636241912842,100.0,110631.0,1.0
559176.3357596,307159.375,298671.8125,323427.34375,319212.78125,345679.65625,298756.90625,298108.4375,299119.90625,-0.064697265625,0.8056640625,-0.608642578125,-3.814697027206421,2.563476324081421,4.669188976287842,100.0,110632.0,1.0
559176.3357695,307754.5625,299294.96875,324211.0,319402.6875,347764.375,299202.15625,298741.625,299306.59375,-0.064208984375,0.806640625,-0.6083984375,-4.150390148162842,2.471923589706421,4.669188976287842,100.0,110633.0,1.0
559176.3381655,308498.78125,299759.71875,324262.40625,318743.65625,345221.71875,298202.40625,297651.3125,298717.84375,-0.065185546875,0.802978515625,-0.607177734375,-4.516601085662842,2.441406011581421,4.730224132537842,100.0,110634.0,1.0
559176.3381948,308306.84375,299331.71875,323432.25,318120.15625,341604.84375,297114.40625,296344.625,298150.03125,-0.064697265625,0.803466796875,-0.605712890625,-5.065917491912842,2.502441167831421,4.699706554412842,100.0,110635.0,1.0
559176.3404874,307512.09375,298696.84375,322929.625,318380.6875,341884.96875,297446.125,296612.5,298373.28125,-0.065673828125,0.80224609375,-0.6083984375,-5.401610851287842,2.563476324081421,4.394530773162842,100.0,110636.0,1.0
559176.3456737,307161.34375,298695.125,323433.875,319198.65625,345858.03125,298793.9375,298165.21875,299111.5,-0.0625,0.80078125,-0.60888671875,-5.920409679412842,2.716064214706421,4.272460460662842,100.0,110637.0,1.0
559176.3457158,307756.53125,299311.0625,324210.625,319390.0,347944.09375,299240.53125,298798.3125,299295.9375,-0.06005859375,0.798828125,-0.612060546875,-6.286620616912842,2.868652105331421,4.089354991912842,100.0,110638.0,1.0
559176.3482698,308515.78125,299783.03125,324271.53125,318748.9375,345404.90625,298241.125,297699.84375,298713.5625,-0.062744140625,0.79736328125,-0.611328125,-6.622313976287842,3.173827886581421,4.028319835662842,100.0,110639.0,1.0
559176.3505229,308324.8125,299357.03125,323444.5,318128.71875,341774.1875,297146.875,296378.15625,298145.28125,-0.064697265625,0.798828125,-0.61181640625,-6.927489757537842,3.448486089706421,3.814697027206421,100.0,110640.0,1.0
559176.3529997,307507.96875,298690.75,322917.09375,318377.625,341997.0,297448.1875,296608.1875,298355.125,-0.065673828125,0.797607421875,-0.612548828125,-7.202147960662842,3.753661870956421,3.601073980331421,100.0,110641.0,1.0
559176.3605076,307129.53125,298648.46875,323390.78125,319171.21875,345929.46875,298768.53125,298126.78125,299077.8125,-0.06689453125,0.7978515625,-0.612060546875,-7.324218273162842,3.967284917831421,3.601073980331421,100.0,110642.0,1.0
559176.3631128,307740.71875,299274.40625,324184.25,319381.9375,348041.34375,299230.96875,298780.625,299282.09375,-0.068115234375,0.798828125,-0.614013671875,-7.446288585662842,4.302978038787842,3.631591558456421,100.0,110643.0,1.0
559176.3656818,308506.65625,299758.625,324260.53125,318746.25,345526.15625,298242.03125,297698.96875,298707.375,-0.068115234375,0.80078125,-0.615234375,-7.598876476287842,4.486083507537842,3.540038824081421,100.0,110644.0,1.0
559176.3657207,308306.84375,299334.125,323428.40625,318109.875,341886.84375,297139.53125,296371.0,298133.65625,-0.068115234375,0.80224609375,-0.616455078125,-7.568358898162842,4.730224132537842,3.356933355331421,100.0,110645.0,1.0
559176.3682175,307494.21875,298681.71875,322902.15625,318351.96875,342112.15625,297449.34375,296612.3125,298352.1875,-0.071044921875,0.805908203125,-0.61572265625,-7.415771007537842,4.791259288787842,3.234863042831421,100.0,110646.0,1.0
559176.3731578,307114.15625,298647.40625,323374.9375,319155.3125,346046.875,298774.1875,298137.3125,299077.875,-0.072021484375,0.812255859375,-0.616455078125,-7.324218273162842,4.699706554412842,3.295898199081421,100.0,110647.0,1.0
559176.3756413,307713.71875,299285.125,324171.46875,319372.90625,348187.0,299250.625,298796.53125,299290.40625,-0.071044921875,0.81396484375,-0.61376953125,-7.415771007537842,4.608153820037842,3.204345464706421,100.0,110648.0,1.0
559176.375684,308473.5,299777.84375,324248.09375,318724.1875,345690.5,298260.625,297709.5,298710.4375,-0.070556640625,0.8134765625,-0.612060546875,-7.537841320037842,4.364013195037842,3.173827886581421,100.0,110649.0,1.0
559176.3780385,308281.4375,299361.03125,323420.5625,318081.875,342041.25,297150.625,296374.21875,298127.84375,-0.067138671875,0.81103515625,-0.609619140625,-7.476806163787842,4.119872570037842,3.082275152206421,100.0,110650.0,1.0
559176.380491,307479.5625,298709.4375,322893.21875,318332.125,342236.15625,297450.25,296607.46875,298338.5,-0.066650390625,0.806396484375,-0.60595703125,-7.598876476287842,3.784179449081421,3.082275152206421,100.0,110651.0,1.0
559176.3831226,307100.90625,298668.75,323358.9375,319140.09375,346164.6875,298779.09375,298136.875,299063.75,-0.06689453125,0.80029296875,-0.6064453125,-7.598876476287842,3.631591558456421,2.929687261581421,100.0,110652.0,1.0
559176.3879932,307698.96875,299299.09375,324159.0625,319358.25,348329.4375,299269.84375,298817.1875,299278.96875,-0.06640625,0.795166015625,-0.605224609375,-7.568358898162842,3.326415777206421,2.685546636581421,100.0,110653.0,1.0
559176.3906795,308470.71875,299799.21875,324251.9375,318725.0625,345860.28125,298295.5625,297748.40625,298707.375,-0.06494140625,0.79345703125,-0.60595703125,-7.446288585662842,3.143310308456421,2.471923589706421,100.0,110654.0,1.0
559176.3907197,308283.3125,299375.25,323424.75,318083.75,342205.21875,297182.8125,296408.46875,298127.59375,-0.067138671875,0.7919921875,-0.602783203125,-7.354735851287842,2.868652105331421,2.197265386581421,100.0,110655.0,1.0
559176.4144529,307461.03125,298692.71875,322870.875,318311.125,342355.6875,297459.625,296608.65625,298320.78125,-0.069091796875,0.789794921875,-0.605224609375,-7.080077648162842,2.593993902206421,2.136230230331421,100.0,110656.0,1.0
559176.4168089,307066.75,298632.03125,323323.0,319109.625,346273.34375,298783.28125,298130.34375,299041.40625,-0.0712890625,0.787841796875,-0.6064453125,-6.683349132537842,2.380370855331421,2.014159917831421,100.0,110657.0,1.0
559176.4168483,307653.28125,299245.96875,324114.34375,319321.78125,348456.1875,299265.5625,298808.15625,299250.34375,-0.070068359375,0.78955078125,-0.605224609375,-6.347655773162842,2.014159917831421,1.8005369901657104,100.0,110658.0,1.0
559176.4195659,308437.46875,299753.34375,324224.21875,318697.71875,346017.90625,298295.40625,297746.25,298684.78125,-0.068115234375,0.793212890625,-0.60546875,-6.011962413787842,1.7089842557907104,1.4953612089157104,100.0,110659.0,1.0
559176.419604,308276.875,299357.8125,323422.4375,318071.25,342377.25,297194.09375,296420.28125,298116.9375,-0.0654296875,0.794189453125,-0.6083984375,-5.493163585662842,1.4038084745407104,1.2817381620407104,100.0,110660.0,1.0
559176.4219237,307456.65625,298674.21875,322865.34375,318294.125,342504.65625,297460.875,296614.28125,298305.84375,-0.0634765625,0.7939453125,-0.605712890625,-5.035399913787842,1.0986326932907104,1.0986326932907104,100.0,110661.0,1.0
559176.4244181,307059.6875,298607.25,323310.125,319092.09375,346404.3125,298778.5625,298125.25,299026.21875,-0.061767578125,0.795654296875,-0.604248046875,-4.608153820037842,0.9460448622703552,0.9765624403953552,100.0,110662.0,1.0
559176.4269007,307662.9375,299234.8125,324117.21875,319322.9375,348602.46875,299279.21875,298812.15625,299244.71875,-0.059326171875,0.794189453125,-0.60009765625,-4.364013195037842,0.7324218153953552,0.8239745497703552,100.0,110663.0,1.0
559176.4292894,308451.6875,299748.4375,324234.15625,318696.0,346165.78125,298311.59375,297749.21875,298675.5625,-0.0625,0.7919921875,-0.598388671875,-4.333495616912842,0.7324218153953552,0.8850097060203552,100.0,110664.0,1.0
559176.4355612,308289.40625,299350.9375,323430.28125,318059.15625,342496.0625,297201.15625,296407.40625,298100.03125,-0.065185546875,0.789794921875,-0.598388671875,-4.180907726287842,0.8850097060203552,0.7629393935203552,100.0,110665.0,1.0
559176.4356012,307479.71875,298680.46875,322877.75,318287.5,342596.375,297473.46875,296600.875,298298.25,-0.06591796875,0.792236328125,-0.599853515625,-4.058837413787842,1.0375975370407104,0.7324218153953552,100.0,110666.0,1.0
559176.4693904,307079.625,298615.21875,323316.3125,319087.875,346473.78125,298791.25,298110.78125,299022.8125,-0.066162109375,0.795654296875,-0.60302734375,-4.119872570037842,1.1291502714157104,0.5798339247703552,100.0,110667.0,1.0
559176.4694264,307673.75,299244.1875,324121.21875,319323.21875,348677.5625,299295.15625,298800.1875,299250.1875,-0.064453125,0.802001953125,-0.60498046875,-4.211425304412842,1.2207030057907104,0.5798339247703552,100.0,110668.0,1.0
559176.4718348,308457.5,299764.0,324238.53125,318695.75,346248.375,298327.6875,297738.125,298680.46875,-0.0654296875,0.802490234375,-0.603271484375,-4.241942882537842,1.2207030057907104,0.6408690810203552,100.0,110669.0,1.0
559176.4718705,308289.21875,299365.5,323427.34375,318049.15625,342560.71875,297203.03125,296387.0,298093.34375,-0.065673828125,0.80224609375,-0.598388671875,-4.364013195037842,1.2817381620407104,0.7324218153953552,100.0,110670.0,1.0
559176.4768726,307472.75,298686.09375,322863.46875,318269.0,342627.03125,297457.5625,296569.5,298280.125,-0.06689453125,0.801025390625,-0.600341796875,-4.272460460662842,1.4343260526657104,0.7629393935203552,100.0,110671.0,1.0
559176.484401,307073.5625,298626.125,323309.40625,319082.875,346523.75,298788.46875,298100.125,299017.90625,-0.06689453125,0.8017578125,-0.600830078125,-4.302978038787842,1.4953612089157104,0.8239745497703552,100.0,110672.0,1.0
559176.4844405,307649.5,299232.03125,324103.25,319309.0,348747.9375,299289.34375,298793.125,299239.71875,-0.06689453125,0.80029296875,-0.601318359375,-4.119872570037842,1.4953612089157104,1.0070799589157104,100.0,110673.0,1.0
559176.4844505,308433.0625,299742.0,324222.15625,318678.9375,346338.34375,298322.125,297735.1875,298669.46875,-0.067138671875,0.800537109375,-0.603271484375,-4.089354991912842,1.5258787870407104,1.0681151151657104,100.0,110674.0,1.0
559176.4867628,308268.46875,299339.40625,323411.0625,318029.21875,342643.5,297190.40625,296377.25,298080.28125,-0.06982421875,0.802001953125,-0.604736328125,-3.967284917831421,1.5563963651657104,1.1291502714157104,100.0,110675.0,1.0
559176.498112,307449.5,298659.03125,322844.6875,318247.1875,342696.59375,297444.59375,296557.25,298270.71875,-0.071044921875,0.80224609375,-0.60400390625,-3.997802495956421,1.5869139432907104,1.2207030057907104,100.0,110676.0,1.0
559176.498152,307034.21875,298583.75,323273.5625,319049.0,346578.46875,298769.4375,298080.375,299001.28125,-0.074462890625,0.804443359375,-0.6005859375,-3.967284917831421,1.4343260526657104,1.3732908964157104,100.0,110677.0,1.0
559176.4981618,307615.28125,299199.46875,324072.875,319287.4375,348829.3125,299285.125,298788.84375,299232.65625,-0.073974609375,0.806396484375,-0.6015625,-3.906249761581421,1.1291502714157104,1.3122557401657104,100.0,110678.0,1.0
559176.5006271,308407.25,299727.0625,324204.46875,318664.28125,346442.5,298326.6875,297742.0625,298667.875,-0.07568359375,0.80712890625,-0.597900390625,-4.028319835662842,0.9155272841453552,1.3427733182907104,100.0,110679.0,1.0
559176.5031371,308250.5,299335.125,323400.15625,318012.6875,342739.0625,297187.46875,296382.625,298073.59375,-0.07568359375,0.806640625,-0.599365234375,-3.967284917831421,0.8544921278953552,1.4038084745407104,100.0,110680.0,1.0
559176.505493,307432.4375,298644.09375,322823.125,318225.09375,342752.75,297423.0625,296548.125,298253.5625,-0.075439453125,0.8095703125,-0.6015625,-3.936767339706421,0.7019042372703552,1.5563963651657104,100.0,110681.0,1.0
559176.5081325,307009.8125,298560.59375,323243.6875,319024.75,346615.125,298743.6875,298067.59375,298979.28125,-0.072998046875,0.812255859375,-0.601318359375,-3.967284917831421,0.5187987685203552,1.5258787870407104,100.0,110682.0,1.0
559176.5106064,307586.125,299173.90625,324045.5,319264.375,348878.90625,299267.4375,298784.53125,299210.125,-0.072021484375,0.81396484375,-0.598876953125,-3.967284917831421,0.3051757514476776,1.5869139432907104,100.0,110683.0,1.0
559176.5145806,308386.9375,299702.75,324186.0625,318644.34375,346504.09375,298310.96875,297741.875,298643.375,-0.06884765625,0.814697265625,-0.59814453125,-4.058837413787842,0.1525878757238388,1.5258787870407104,100.0,110684.0,1.0
559176.521902,308235.9375,299310.875,323382.625,317988.71875,342793.0,297170.75,296377.25,298044.78125,-0.06689453125,0.814453125,-0.602783203125,-4.058837413787842,0.0,1.5563963651657104,100.0,110685.0,1.0
559176.521943,307425.625,298627.375,322811.875,318204.1875,342799.4375,297414.03125,296546.25,298227.8125,-0.06494140625,0.814697265625,-0.60107421875,-4.089354991912842,-0.03051757626235485,1.6784666776657104,100.0,110686.0,1.0
559176.524488,307005.875,298535.0,323230.46875,319009.75,346653.9375,298731.53125,298062.125,298953.0625,-0.0634765625,0.813232421875,-0.603759765625,-4.119872570037842,-0.03051757626235485,1.7089842557907104,100.0,110687.0,1.0
559176.5245246,307582.0,299145.84375,324037.28125,319259.28125,348947.21875,299263.84375,298789.0,299191.25,-0.06298828125,0.810302734375,-0.603515625,-4.089354991912842,0.0,1.7089842557907104,100.0,110688.0,1.0
559176.526874,308379.78125,299678.625,324180.59375,318636.03125,346602.53125,298314.96875,297750.8125,298626.28125,-0.061279296875,0.807373046875,-0.60107421875,-3.967284917831421,0.0,1.7395018339157104,100.0,110689.0,1.0
559176.5393574,308232.28125,299286.375,323376.375,317975.75,342885.96875,297168.6875,296381.5625,298022.71875,-0.060791015625,0.8037109375,-0.604736328125,-3.845214605331421,0.1831054538488388,1.7700194120407104,100.0,110690.0,1.0
559176.5658031,307424.21875,298599.46875,322798.71875,318190.0625,342867.625,297398.28125,296542.40625,298203.40625,-0.061279296875,0.8037109375,-0.6044921875,-3.601073980331421,0.4577636420726776,1.8920897245407104,100.0,110691.0,1.0
559176.5658496,306995.59375,298497.1875,323206.34375,318990.15625,346711.59375,298706.75,298053.71875,298927.875,-0.0625,0.80419921875,-0.6005859375,-3.479003667831421,0.6103515028953552,1.8310545682907104,100.0,110692.0,1.0
559176.5658586,307564.125,299105.15625,324006.25,319236.75,349015.53125,299236.75,298779.625,299166.40625,-0.065185546875,0.7998046875,-0.60009765625,-3.265380620956421,0.7629393935203552,1.8615721464157104,100.0,110693.0,1.0
559176.565868,308364.6875,299648.75,324157.09375,318620.8125,346686.40625,298293.34375,297745.09375,298605.5625,-0.064697265625,0.79736328125,-0.597900390625,-3.204345464706421,1.0070799589157104,1.8310545682907104,100.0,110694.0,1.0
559176.5681299,308220.8125,299277.4375,323362.6875,317961.625,342972.15625,297151.53125,296376.90625,298011.1875,-0.0654296875,0.798583984375,-0.59423828125,-3.112792730331421,1.1901854276657104,1.8615721464157104,100.0,110695.0,1.0
559176.5681652,307408.5625,298591.5,322776.375,318164.5,342925.03125,297375.3125,296532.21875,298195.875,-0.06494140625,0.796875,-0.595947265625,-2.960204839706421,1.3122557401657104,1.8920897245407104,100.0,110696.0,1.0
559176.5701652,306964.65625,298478.875,323166.53125,318950.90625,346735.375,298672.96875,298042.8125,298925.71875,-0.066162109375,0.795654296875,-0.5947265625,-2.868652105331421,1.4038084745407104,1.9226073026657104,100.0,110697.0,1.0
559176.5702022,307534.53125,299088.09375,323970.59375,319200.625,349039.75,299210.84375,298792.59375,299183.75,-0.064453125,0.794921875,-0.59765625,-2.807616949081421,1.4953612089157104,1.9226073026657104,100.0,110698.0,1.0
559176.5847501,308354.125,299650.09375,324142.6875,318599.28125,346725.65625,298283.6875,297784.15625,298644.0,-0.066650390625,0.796142578125,-0.59423828125,-2.777099370956421,1.5258787870407104,1.8005369901657104,100.0,110699.0,1.0
559176.6195716,308214.84375,299278.34375,323350.28125,317941.34375,342986.5625,297134.4375,296400.6875,298036.75,-0.06640625,0.7978515625,-0.59375,-2.685546636581421,1.5258787870407104,1.8310545682907104,100.0,110700.0,1.0
559176.6267859,307390.40625,298574.25,322746.25,318133.09375,342883.71875,297331.21875,296516.8125,298190.34375,-0.066650390625,0.796630859375,-0.592041015625,-2.563476324081421,1.4343260526657104,1.7700194120407104,100.0,110701.0,1.0
559176.6292929,306954.09375,298465.4375,323147.59375,318940.8125,346693.8125,298642.03125,298023.5,298913.5625,-0.06787109375,0.79736328125,-0.593994140625,-2.441406011581421,1.4038084745407104,1.7700194120407104,100.0,110702.0,1.0
559176.6368716,307520.21875,299070.8125,323958.40625,319205.8125,349024.65625,299195.1875,298768.90625,299163.90625,-0.068359375,0.80029296875,-0.592041015625,-2.380370855331421,1.3427733182907104,1.6784666776657104,100.0,110703.0,1.0
559176.6394067,308330.625,299617.46875,324120.6875,318594.28125,346714.71875,298257.84375,297738.125,298603.59375,-0.06884765625,0.80078125,-0.5927734375,-2.227782964706421,1.2512205839157104,1.6174315214157104,100.0,110704.0,1.0
559176.6418693,308201.25,299244.625,323329.96875,317935.0625,342963.5,297099.21875,296345.34375,297994.90625,-0.070556640625,0.802490234375,-0.5927734375,-1.9836424589157104,1.1291502714157104,1.5869139432907104,100.0,110705.0,1.0
559176.6443918,307382.8125,298538.21875,322727.5625,318135.34375,342836.71875,297289.75,296445.5625,298154.03125,-0.071044921875,0.80615234375,-0.593505859375,-1.8615721464157104,1.0986326932907104,1.5258787870407104,100.0,110706.0,1.0
559176.6494055,306936.84375,298416.90625,323116.5625,318937.0625,346625.3125,298591.0625,297937.6875,298874.9375,-0.069580078125,0.808837890625,-0.595458984375,-1.8005369901657104,1.0681151151657104,1.3732908964157104,100.0,110707.0,1.0
559176.6517374,307499.5,299025.0625,323928.03125,319199.46875,348976.28125,299150.9375,298710.59375,299123.03125,-0.0693359375,0.81103515625,-0.59423828125,-1.8310545682907104,0.8544921278953552,1.3732908964157104,100.0,110708.0,1.0
559176.6543682,308313.53125,299588.3125,324103.34375,318587.84375,346692.03125,298224.84375,297708.53125,298565.0625,-0.068603515625,0.8076171875,-0.59423828125,-1.8005369901657104,0.8239745497703552,1.3427733182907104,100.0,110709.0,1.0
559176.6568623,308193.65625,299229.15625,323319.6875,317925.78125,342943.0,297075.09375,296326.375,297963.875,-0.067626953125,0.808837890625,-0.5927734375,-1.6784666776657104,0.7629393935203552,1.3427733182907104,100.0,110710.0,1.0
559176.6593961,307380.75,298526.6875,322715.75,318115.9375,342803.0,297275.09375,296440.28125,298127.75,-0.06689453125,0.81005859375,-0.59130859375,-1.5563963651657104,0.7324218153953552,1.2817381620407104,100.0,110711.0,1.0
559176.6619044,306926.03125,298399.8125,323094.3125,318911.21875,346588.125,298575.15625,297937.3125,298845.4375,-0.0673828125,0.808837890625,-0.59130859375,-1.5258787870407104,0.7629393935203552,1.2512205839157104,100.0,110712.0,1.0
559176.6643837,307484.28125,299001.8125,323901.75,319182.65625,348952.15625,299132.59375,298696.9375,299098.90625,-0.065185546875,0.808349609375,-0.59521484375,-1.5563963651657104,0.7934569716453552,1.1291502714157104,100.0,110713.0,1.0
559176.6694326,308302.0,299565.59375,324081.8125,318578.34375,346685.21875,298211.4375,297684.125,298549.3125,-0.063720703125,0.805908203125,-0.59619140625,-1.6479490995407104,1.0070799589157104,1.0986326932907104,100.0,110714.0,1.0
559176.676862,308189.8125,299218.0,323309.5,317917.28125,342941.75,297064.34375,296304.75,297948.5,-0.064453125,0.80517578125,-0.597900390625,-1.5258787870407104,1.1901854276657104,0.9765624403953552,100.0,110715.0,1.0
559176.6919141,307363.875,298502.90625,322690.625,318090.65625,342771.78125,297233.78125,296399.34375,298093.15625,-0.0654296875,0.80224609375,-0.59716796875,-1.4343260526657104,1.3122557401657104,0.9460448622703552,100.0,110716.0,1.0
559176.6919552,306908.59375,298374.53125,323068.03125,318892.09375,346545.75,298528.40625,297894.78125,298814.5,-0.064453125,0.802978515625,-0.597900390625,-1.3427733182907104,1.4343260526657104,0.9155272841453552,100.0,110717.0,1.0
559176.7019073,307464.875,298980.4375,323883.125,319172.90625,348935.25,299104.09375,298668.84375,299085.40625,-0.066162109375,0.802734375,-0.597412109375,-1.2512205839157104,1.5563963651657104,0.9765624403953552,100.0,110718.0,1.0
559176.7070179,308284.65625,299543.25,324065.53125,318570.40625,346688.90625,298185.0625,297661.15625,298537.6875,-0.06591796875,0.80322265625,-0.593994140625,-1.1291502714157104,1.6784666776657104,0.8544921278953552,100.0,110719.0,1.0
559176.7119143,308168.34375,299181.15625,323281.0,317897.15625,342922.53125,297013.5625,296264.25,297921.40625,-0.066162109375,0.80224609375,-0.594970703125,-1.0986326932907104,1.7395018339157104,0.8544921278953552,100.0,110720.0,1.0
559176.711955,307358.3125,298483.96875,322671.5,318081.4375,342736.3125,297194.0,296368.3125,298081.0,-0.06591796875,0.802978515625,-0.5966796875,-1.0681151151657104,1.7395018339157104,0.9460448622703552,100.0,110721.0,1.0
559176.714512,306905.1875,298366.9375,323054.0625,318886.0,346507.3125,298506.9375,297874.90625,298815.46875,-0.065673828125,0.805908203125,-0.598388671875,-0.8850097060203552,1.7700194120407104,1.0375975370407104,100.0,110722.0,1.0
559176.7145489,307455.84375,298967.84375,323862.75,319162.0,348896.96875,299082.0,298649.375,299079.78125,-0.064453125,0.805419921875,-0.59912109375,-0.7019042372703552,1.7395018339157104,1.0375975370407104,100.0,110723.0,1.0
559176.7254406,308292.53125,299550.125,324064.0,318571.21875,346667.15625,298177.84375,297658.8125,298542.78125,-0.062744140625,0.808837890625,-0.597412109375,-0.6713866591453552,1.7700194120407104,1.1291502714157104,100.0,110724.0,1.0
559176.7279762,308193.46875,299211.09375,323298.25,317906.71875,342901.625,297021.96875,296274.09375,297937.5,-0.06201171875,0.809814453125,-0.598388671875,-0.6713866591453552,1.8920897245407104,1.1596678495407104,100.0,110725.0,1.0
559176.7279903,307382.46875,298508.1875,322683.03125,318083.75,342686.78125,297192.21875,296362.875,298090.5625,-0.06103515625,0.810791015625,-0.59619140625,-0.5798339247703552,1.8615721464157104,1.2512205839157104,100.0,110726.0,1.0
559176.7305719,306935.78125,298378.8125,323060.875,318894.15625,346439.625,298492.375,297860.15625,298820.40625,-0.0595703125,0.811279296875,-0.59228515625,-0.5187987685203552,1.9226073026657104,1.4343260526657104,100.0,110727.0,1.0
559176.7355293,307497.0625,298984.375,323882.96875,319188.125,348858.71875,299082.34375,298653.03125,299100.78125,-0.057861328125,0.81103515625,-0.5927734375,-0.3967284858226776,1.9531248807907104,1.5258787870407104,100.0,110728.0,1.0
559176.7380744,308323.71875,299550.5,324076.4375,318587.46875,346636.5,298172.1875,297657.65625,298557.28125,-0.055908203125,0.810791015625,-0.594970703125,-0.3356933295726776,2.014159917831421,1.8005369901657104,100.0,110729.0,1.0
559176.7404733,308225.5625,299204.21875,323307.625,317919.4375,342859.875,297003.375,296262.0,297945.46875,-0.052734375,0.81298828125,-0.5947265625,-0.4577636420726776,2.227782964706421,1.9226073026657104,100.0,110730.0,1.0
559176.7429224,307426.71875,298510.15625,322704.03125,318106.09375,342648.15625,297182.0,296360.625,298108.34375,-0.056884765625,0.813232421875,-0.594482421875,-0.2746581733226776,2.288818120956421,2.136230230331421,100.0,110731.0,1.0
559176.7453954,306969.75,298379.34375,323080.90625,318913.0,346418.53125,298493.0625,297867.59375,298844.90625,-0.0576171875,0.812744140625,-0.595947265625,-0.3356933295726776,2.319335699081421,2.349853277206421,100.0,110732.0,1.0
559176.7530851,307507.34375,298959.59375,323883.125,319196.15625,348836.8125,299067.34375,298646.6875,299112.40625,-0.0595703125,0.812255859375,-0.59375,-0.2746581733226776,2.471923589706421,2.563476324081421,100.0,110733.0,1.0
559176.7556085,308335.28125,299533.3125,324083.59375,318604.5625,346630.59375,298163.6875,297659.1875,298574.25,-0.061767578125,0.8125,-0.590576171875,-0.3051757514476776,2.624511480331421,2.716064214706421,100.0,110734.0,1.0
559176.7605639,308252.375,299217.0,323335.25,317944.625,342879.71875,297015.0,296282.40625,297977.90625,-0.060791015625,0.81005859375,-0.589599609375,-0.3967284858226776,2.777099370956421,2.868652105331421,100.0,110735.0,1.0
559176.7630748,307446.84375,298520.15625,322719.875,318118.90625,342636.4375,297175.9375,296363.84375,298126.59375,-0.0615234375,0.80810546875,-0.586181640625,-0.3662109076976776,2.807616949081421,2.990722417831421,100.0,110736.0,1.0
559176.7655972,306972.4375,298370.21875,323074.28125,318913.28125,346370.15625,298464.28125,297851.5,298845.6875,-0.057861328125,0.8056640625,-0.58935546875,-0.3051757514476776,2.838134527206421,3.082275152206421,100.0,110737.0,1.0
559176.7706377,307509.25,298960.3125,323882.59375,319202.875,348813.5625,299057.875,298649.09375,299124.375,-0.054443359375,0.807373046875,-0.591552734375,-0.2746581733226776,2.990722417831421,3.112792730331421,100.0,110738.0,1.0
559176.7706693,308346.25,299545.65625,324091.8125,318618.40625,346631.40625,298167.1875,297673.21875,298596.15625,-0.055419921875,0.810546875,-0.591552734375,-0.3662109076976776,3.082275152206421,3.326415777206421,100.0,110739.0,1.0
559176.7730181,308262.40625,299222.5625,323337.9375,317951.625,342856.8125,297005.0625,296282.125,297989.09375,-0.051513671875,0.816650390625,-0.59228515625,-0.4882812201976776,3.173827886581421,3.448486089706421,100.0,110740.0,1.0
559176.7755859,307457.90625,298526.4375,322721.21875,318122.90625,342586.625,297161.625,296357.59375,298135.1875,-0.05029296875,0.818115234375,-0.59423828125,-0.5798339247703552,3.173827886581421,3.540038824081421,100.0,110741.0,1.0
559176.7781062,306984.3125,298383.1875,323078.46875,318925.53125,346315.96875,298458.21875,297853.46875,298861.875,-0.05078125,0.8193359375,-0.59326171875,-0.8850097060203552,3.265380620956421,3.692626714706421,100.0,110742.0,1.0
559176.7805731,307520.5,298969.25,323890.125,319225.75,348777.1875,299058.84375,298660.4375,299145.3125,-0.053955078125,0.816650390625,-0.59375,-0.9155272841453552,3.326415777206421,3.692626714706421,100.0,110743.0,1.0
559176.7806139,308360.46875,299558.0,324106.3125,318643.0,346618.1875,298173.625,297690.90625,298613.34375,-0.0556640625,0.81494140625,-0.59375,-0.8850097060203552,3.356933355331421,3.784179449081421,100.0,110744.0,1.0
559176.7831059,308271.59375,299231.125,323347.15625,317961.90625,342840.1875,297003.125,296290.1875,297992.03125,-0.05712890625,0.81640625,-0.593017578125,-0.8239745497703552,3.448486089706421,3.692626714706421,100.0,110745.0,1.0
559176.7831373,307467.21875,298529.09375,322724.875,318128.0,342553.90625,297151.15625,296356.15625,298133.84375,-0.05908203125,0.81494140625,-0.59130859375,-0.8239745497703552,3.601073980331421,3.631591558456421,100.0,110746.0,1.0
559176.7881255,306982.625,298368.96875,323070.25,318921.21875,346273.59375,298441.65625,297842.1875,298854.5625,-0.061279296875,0.81494140625,-0.5908203125,-0.8850097060203552,3.662109136581421,3.540038824081421,100.0,110747.0,1.0
559176.7904908,307514.25,298953.0625,323882.15625,319221.46875,348762.96875,299055.09375,298661.34375,299142.1875,-0.062255859375,0.813720703125,-0.590576171875,-0.9155272841453552,3.662109136581421,3.509521245956421,100.0,110748.0,1.0
559176.7931658,308356.1875,299544.9375,324103.78125,318642.71875,346623.1875,298174.875,297698.15625,298613.875,-0.06298828125,0.813232421875,-0.590576171875,-0.8544921278953552,3.723144292831421,3.295898199081421,100.0,110749.0,1.0
559176.7932075,308282.875,299235.4375,323361.4375,317970.375,342849.5,297012.78125,296301.0,298004.03125,-0.061767578125,0.810546875,-0.588623046875,-0.9155272841453552,3.753661870956421,3.112792730331421,100.0,110750.0,1.0
559176.7956247,307467.84375,298523.46875,322722.09375,318117.8125,342524.40625,297141.25,296345.25,298130.34375,-0.0625,0.80859375,-0.587646484375,-0.9765624403953552,3.692626714706421,2.990722417831421,100.0,110751.0,1.0
559176.7956601,306984.6875,298364.78125,323061.65625,318913.71875,346233.53125,298428.53125,297833.0625,298848.8125,-0.0625,0.806396484375,-0.591796875,-0.9765624403953552,3.662109136581421,2.716064214706421,100.0,110752.0,1.0
559176.798027,307522.125,298960.9375,323882.4375,319228.53125,348749.90625,299052.59375,298670.8125,299149.78125,-0.063232421875,0.806640625,-0.58984375,-0.9460448622703552,3.601073980331421,2.349853277206421,100.0,110753.0,1.0
559176.8006465,308362.71875,299560.96875,324113.375,318650.40625,346639.1875,298177.46875,297717.75,298624.9375,-0.06201171875,0.80810546875,-0.591796875,-0.9460448622703552,3.479003667831421,2.197265386581421,100.0,110754.0,1.0
559176.8030216,308288.875,299253.125,323368.875,317971.625,342854.0625,297005.25,296312.1875,298006.96875,-0.0625,0.80908203125,-0.591064453125,-0.9155272841453552,3.204345464706421,2.105712652206421,100.0,110755.0,1.0
559176.8030636,307478.46875,298545.5625,322730.6875,318122.125,342509.46875,297132.3125,296354.0,298134.375,-0.06201171875,0.81005859375,-0.593505859375,-0.8544921278953552,3.082275152206421,1.8615721464157104,100.0,110756.0,1.0
559176.8056924,306979.5,298369.875,323054.25,318908.53125,346188.03125,298410.65625,297825.5625,298846.59375,-0.060791015625,0.8095703125,-0.596923828125,-0.7629393935203552,2.990722417831421,1.6784666776657104,100.0,110757.0,1.0
559176.8130377,307498.0625,298955.75,323865.96875,319217.25,348708.5,299040.25,298661.4375,299145.46875,-0.057373046875,0.809326171875,-0.59716796875,-0.5798339247703552,2.807616949081421,1.5258787870407104,100.0,110758.0,1.0
559176.8181353,308341.78125,299558.53125,324102.625,318642.1875,346615.75,298178.0,297718.1875,298625.84375,-0.056640625,0.808837890625,-0.596923828125,-0.4882812201976776,2.685546636581421,1.4038084745407104,100.0,110759.0,1.0
559176.8181754,308272.15625,299245.53125,323356.53125,317959.21875,342823.125,297002.40625,296311.5625,298002.5,-0.05517578125,0.8056640625,-0.59521484375,-0.2746581733226776,2.471923589706421,1.2817381620407104,100.0,110760.0,1.0
559176.8207629,307469.4375,298535.375,322717.8125,318105.21875,342457.71875,297123.375,296347.84375,298126.5,-0.053466796875,0.80322265625,-0.59765625,-0.0915527269244194,2.349853277206421,1.2207030057907104,100.0,110761.0,1.0
559176.8207989,306979.40625,298359.5,323048.09375,318900.65625,346138.59375,298407.15625,297825.46875,298844.625,-0.051025390625,0.80224609375,-0.596923828125,-0.0610351525247097,2.258300542831421,1.1291502714157104,100.0,110762.0,1.0
559176.8221122,307498.96875,298928.3125,323854.1875,319215.1875,348662.03125,299028.625,298655.875,299136.90625,-0.0478515625,0.80322265625,-0.59423828125,0.2441406100988388,2.166747808456421,1.0986326932907104,100.0,110763.0,1.0
559176.8294171,308341.875,299526.96875,324091.5625,318639.6875,346579.5625,298157.90625,297707.625,298613.0625,-0.048583984375,0.80322265625,-0.595947265625,0.3967284858226776,2.075195074081421,1.0986326932907104,100.0,110764.0,1.0
559176.8318957,308276.0,299220.03125,323351.625,317953.40625,342790.75,296979.40625,296294.28125,297990.53125,-0.048583984375,0.803955078125,-0.59423828125,0.5493163466453552,2.044677495956421,1.0681151151657104,100.0,110765.0,1.0
559176.835629,307467.3125,298502.46875,322705.5625,318088.6875,342404.25,297085.46875,296309.125,298105.40625,-0.049560546875,0.8046875,-0.596923828125,0.7019042372703552,2.075195074081421,0.9765624403953552,100.0,110766.0,1.0
559176.8694261,306969.5625,298320.15625,323027.0625,318876.96875,346070.09375,298354.75,297770.75,298816.5625,-0.049560546875,0.803955078125,-0.59521484375,0.8239745497703552,2.136230230331421,0.9460448622703552,100.0,110767.0,1.0
559176.869467,307486.34375,298896.84375,323839.34375,319197.40625,348625.53125,298989.5625,298616.28125,299119.46875,-0.047607421875,0.80615234375,-0.594970703125,1.0375975370407104,2.319335699081421,0.7019042372703552,100.0,110768.0,1.0
559176.8719397,308335.53125,299499.34375,324082.0625,318627.8125,346564.96875,298128.84375,297680.1875,298603.0625,-0.050537109375,0.8046875,-0.596923828125,1.1291502714157104,2.410888433456421,0.6713866591453552,100.0,110769.0,1.0
559176.8719766,308275.53125,299196.71875,323342.9375,317941.0625,342760.25,296942.5,296259.6875,297979.4375,-0.052490234375,0.80517578125,-0.594970703125,1.0375975370407104,2.593993902206421,0.6408690810203552,100.0,110770.0,1.0
559176.879381,307476.15625,298492.4375,322701.1875,318082.25,342350.0625,297051.03125,296274.96875,298101.03125,-0.0537109375,0.802978515625,-0.5947265625,1.1291502714157104,2.655029058456421,0.5187987685203552,100.0,110771.0,1.0
559176.8818634,306976.5625,298321.6875,323027.25,318875.53125,346012.25,298336.4375,297746.875,298821.46875,-0.053955078125,0.8017578125,-0.595458984375,1.2512205839157104,2.838134527206421,0.2746581733226776,100.0,110772.0,1.0
559176.8842937,307481.15625,298900.3125,323838.0,319195.53125,348581.625,298982.125,298602.6875,299130.1875,-0.054443359375,0.80126953125,-0.59619140625,1.4038084745407104,2.990722417831421,0.0610351525247097,100.0,110773.0,1.0
559176.8867586,308330.625,299509.90625,324084.9375,318633.0625,346532.53125,298131.875,297676.4375,298622.71875,-0.056396484375,0.80224609375,-0.593994140625,1.4648436307907104,3.051757574081421,-0.1220703050494194,100.0,110774.0,1.0
559176.8893891,308270.8125,299197.15625,323335.6875,317939.46875,342690.34375,296928.46875,296240.28125,297986.59375,-0.05908203125,0.80322265625,-0.5947265625,1.4953612089157104,3.021239995956421,-0.3051757514476776,100.0,110775.0,1.0
559176.8954816,307466.40625,298487.53125,322684.46875,318069.0,342237.3125,297019.90625,296238.3125,298099.5,-0.06005859375,0.802734375,-0.594482421875,1.4953612089157104,2.990722417831421,-0.6103515028953552,100.0,110776.0,1.0
559176.8981577,306963.59375,298319.53125,323009.90625,318863.375,345893.34375,298305.78125,297709.4375,298822.90625,-0.060791015625,0.802490234375,-0.590087890625,1.5258787870407104,2.960204839706421,-0.7324218153953552,100.0,110777.0,1.0
559176.9007768,307467.21875,298890.5,323820.1875,319189.71875,348476.40625,298954.96875,298568.28125,299135.03125,-0.063232421875,0.80224609375,-0.592529296875,1.5258787870407104,2.868652105331421,-0.8239745497703552,100.0,110778.0,1.0
559176.9008154,308320.875,299496.125,324068.65625,318629.59375,346444.28125,298106.65625,297648.4375,298629.875,-0.06103515625,0.80419921875,-0.593505859375,1.5258787870407104,2.807616949081421,-0.9765624403953552,100.0,110779.0,1.0
559176.9030327,308271.53125,299204.75,323333.09375,317938.75,342625.625,296919.4375,296228.5,298005.8125,-0.06103515625,0.803955078125,-0.592041015625,1.5258787870407104,2.563476324081421,-1.1291502714157104,100.0,110780.0,1.0
559176.9056408,307465.34375,298492.0,322678.28125,318060.78125,342161.9375,297004.0,296218.65625,298110.59375,-0.060791015625,0.807373046875,-0.591064453125,1.4953612089157104,2.258300542831421,-1.2512205839157104,100.0,110781.0,1.0
559176.9056844,306957.0625,298307.5625,322995.0625,318852.5625,345801.0,298276.8125,297676.15625,298823.71875,-0.060546875,0.806884765625,-0.59423828125,1.4343260526657104,2.044677495956421,-1.3732908964157104,100.0,110782.0,1.0
559176.9081773,307455.78125,298875.75,323805.625,319182.9375,348400.59375,298935.28125,298542.875,299136.90625,-0.059814453125,0.80712890625,-0.593994140625,1.3427733182907104,1.7700194120407104,-1.4953612089157104,100.0,110783.0,1.0
559176.9104883,308305.5,299484.25,324056.78125,318622.6875,346390.1875,298095.03125,297632.34375,298634.6875,-0.060791015625,0.807373046875,-0.595458984375,1.1291502714157104,1.4343260526657104,-1.4038084745407104,100.0,110784.0,1.0
