Time,FZ,C3,CZ,C4,PZ,PO7,OZ,PO8,AccX,AccY,AccZ,Gyro1,Gyro2,Gyro3,Battery,Counter,Validation
483688.1208803,291375.65625,302054.0625,324811.1875,327261.65625,322227.78125,269010.9375,261809.21875,270745.625,0.055419921875,0.8671875,-0.546630859375,3.448486089706421,0.7934569716453552,-8.331297874450684,60.0,1256394.0,1.0
483688.1235479,289732.8125,302046.8125,323204.28125,326438.3125,321511.625,269180.65625,261368.4375,270728.1875,0.0517578125,0.857666015625,-0.548583984375,3.173827886581421,1.0375975370407104,-8.148192405700684,60.0,1256395.0,1.0
483688.1235609,288508.09375,304683.71875,327681.6875,329039.59375,324571.03125,269701.4375,264527.625,271723.65625,0.046630859375,0.84912109375,-0.552734375,3.021239995956421,1.0986326932907104,-8.178709983825684,60.0,1256396.0,1.0
483688.1260337,289291.40625,306389.78125,332086.0625,331555.0625,327233.40625,269860.9375,266955.65625,272372.46875,0.0419921875,0.84521484375,-0.5556640625,3.143310308456421,1.1596678495407104,-8.056639671325684,60.0,1256397.0,1.0
483688.1285638,291084.625,304697.65625,330080.21875,330468.84375,325639.1875,269391.0,265069.625,271706.21875,0.03759765625,0.83984375,-0.554931640625,3.356933355331421,1.1596678495407104,-7.873534679412842,60.0,1256398.0,1.0
483688.129875,291228.3125,301997.5625,324527.75,327371.625,322073.46875,268973.65625,261490.390625,270672.40625,0.03662109375,0.8359375,-0.556884765625,3.662109136581421,1.2207030057907104,-7.843017101287842,60.0,1256399.0,1.0
483688.137036,289545.3125,301841.375,322748.5625,326369.09375,321215.25,269134.78125,260820.546875,270617.84375,0.0322265625,0.833740234375,-0.555908203125,4.272460460662842,1.3427733182907104,-7.965087413787842,60.0,1256400.0,1.0
483688.1398783,288326.25,304433.46875,327146.5,328844.96875,324195.53125,269662.625,263835.71875,271621.375,0.0263671875,0.831298828125,-0.556640625,4.882812023162842,1.4648436307907104,-8.087157249450684,60.0,1256401.0,1.0
483688.1423087,289120.28125,306121.90625,331563.375,331291.40625,326818.5625,269836.4375,266157.96875,272279.5625,0.0224609375,0.831298828125,-0.553955078125,5.432128429412842,1.5869139432907104,-8.483885765075684,60.0,1256402.0,1.0
483688.1447865,290984.0625,304497.46875,329692.28125,330240.34375,325293.53125,269428.03125,264343.1875,271678.9375,0.016845703125,0.833740234375,-0.5537109375,5.889892101287842,1.9226073026657104,-8.880614280700684,60.0,1256403.0,1.0
483688.1447984,291201.59375,301884.28125,324268.75,327167.0625,321824.53125,269027.40625,260926.234375,270699.125,0.01220703125,0.832275390625,-0.552490234375,6.072997570037842,2.105712652206421,-9.216307640075684,60.0,1256404.0,1.0
483688.1472724,289577.40625,301778.59375,322552.5,326126.625,321036.6875,269198.0,260394.96875,270666.21875,0.0078125,0.82666015625,-0.550537109375,6.286620616912842,2.075195074081421,-9.460448265075684,60.0,1256405.0,1.0
483688.14971,288378.8125,304405.375,327003.53125,328578.78125,324067.5,269722.09375,263523.6875,271687.15625,0.003173828125,0.824462890625,-0.5498046875,6.408690929412842,2.075195074081421,-9.643553733825684,60.0,1256406.0,1.0
483688.1521411,289166.6875,306172.78125,331535.40625,331042.75,326777.0625,269871.03125,266021.28125,272362.1875,0.001220703125,0.82275390625,-0.5439453125,6.805419445037842,2.197265386581421,-9.887694358825684,60.0,1256407.0,1.0
483688.1735415,290955.1875,304540.125,329697.09375,329936.09375,325272.53125,269416.84375,264273.53125,271738.75,-0.005615234375,0.822509765625,-0.545166015625,7.080077648162842,2.227782964706421,-10.192870140075684,60.0,1256408.0,1.0
483688.173561,291083.28125,301807.65625,324143.125,326746.5625,321711.90625,269006.46875,260761.90625,270729.0,-0.009033203125,0.82568359375,-0.548583984375,7.476806163787842,2.349853277206421,-10.406493186950684,60.0,1256409.0,1.0
483688.1760759,289393.0625,301558.3125,322245.65625,325640.4375,320784.75,269168.3125,260079.09375,270667.21875,-0.012939453125,0.83203125,-0.548095703125,7.629394054412842,2.288818120956421,-10.528563499450684,60.0,1256410.0,1.0
483688.1761003,288176.75,304094.875,326592.875,328126.03125,323719.0,269686.59375,263098.28125,271644.53125,-0.0146484375,0.838134765625,-0.549560546875,7.781981945037842,2.197265386581421,-10.650633811950684,60.0,1256411.0,1.0
483688.1783474,289002.25,305876.84375,331186.78125,330766.5,326473.71875,269883.375,265664.0,272348.25,-0.01806640625,0.841064453125,-0.547607421875,7.934569835662842,2.075195074081421,-10.803221702575684,60.0,1256412.0,1.0
483688.1809917,290811.78125,304274.3125,329411.25,329808.5,325034.25,269474.53125,264025.4375,271748.6875,-0.021484375,0.846435546875,-0.544189453125,8.056639671325684,1.9836424589157104,-11.077879905700684,60.0,1256413.0,1.0
483688.1834945,290926.375,301519.15625,323814.46875,326665.75,321467.8125,269033.9375,260554.203125,270704.125,-0.025390625,0.850830078125,-0.541259765625,8.026122093200684,1.8310545682907104,-11.352538108825684,60.0,1256414.0,1.0
483688.1860258,289262.0625,301284.90625,321874.78125,325627.75,320541.71875,269186.625,259920.484375,270633.6875,-0.02685546875,0.852294921875,-0.538330078125,7.995604991912842,1.8005369901657104,-11.444090843200684,60.0,1256415.0,1.0
483688.1986027,288110.78125,303904.96875,326265.5625,328253.09375,323524.96875,269717.71875,263054.65625,271636.65625,-0.029541015625,0.85400390625,-0.53466796875,7.873534679412842,1.6479490995407104,-11.596678733825684,60.0,1256416.0,1.0
483688.1986461,288936.0,305763.46875,330949.59375,331011.125,326339.40625,269892.3125,265794.34375,272329.90625,-0.03173828125,0.854248046875,-0.534423828125,7.720946788787842,1.5258787870407104,-11.596678733825684,60.0,1256417.0,1.0
483688.2010747,290706.8125,304206.4375,329237.8125,330113.1875,324956.375,269447.4375,264294.375,271730.71875,-0.03173828125,0.85400390625,-0.531494140625,7.385253429412842,1.4343260526657104,-11.688231468200684,60.0,1256418.0,1.0
483688.2034557,290844.84375,301505.09375,323656.6875,327023.5625,321440.4375,269061.0,260869.1875,270732.21875,-0.031494140625,0.85205078125,-0.5302734375,7.049560070037842,1.2207030057907104,-11.413573265075684,60.0,1256419.0,1.0
483688.2034968,289210.5625,301289.5625,321660.75,325987.6875,320498.90625,269239.375,260190.953125,270664.875,-0.033203125,0.85302734375,-0.530517578125,6.958007335662842,1.1901854276657104,-11.383055686950684,60.0,1256420.0,1.0
483688.2059204,288075.65625,303919.90625,325994.5,328560.1875,323437.09375,269766.625,263169.09375,271646.40625,-0.03759765625,0.849853515625,-0.525634765625,6.774901866912842,1.1901854276657104,-11.322020530700684,60.0,1256421.0,1.0
483688.2096321,288894.6875,305792.34375,330653.84375,331236.0625,326205.21875,269941.0625,265614.5625,272321.40625,-0.041748046875,0.848388671875,-0.52734375,6.561278820037842,1.0070799589157104,-11.108397483825684,60.0,1256422.0,1.0
483688.2233647,290617.75,304216.09375,328921.40625,330287.09375,324791.0625,269502.0625,263916.28125,271708.90625,-0.045166015625,0.84619140625,-0.531494140625,6.347655773162842,0.7934569716453552,-10.711668968200684,60.0,1256423.0,1.0
483688.2233767,290679.4375,301420.34375,323225.5625,327121.625,321178.59375,269081.75,260361.890625,270666.40625,-0.047119140625,0.84423828125,-0.5361328125,6.225585460662842,0.6103515028953552,-10.375975608825684,60.0,1256424.0,1.0
483688.2260752,289031.3125,301134.78125,321124.125,326002.09375,320159.34375,269245.09375,259576.984375,270574.84375,-0.0537109375,0.844970703125,-0.53759765625,6.042479991912842,0.4577636420726776,-10.162352561950684,60.0,1256425.0,1.0
483688.2260878,287969.25,303790.25,325519.46875,328593.375,323158.84375,269797.09375,262687.1875,271594.09375,-0.05810546875,0.84765625,-0.5400390625,5.981444835662842,0.1220703050494194,-9.796141624450684,60.0,1256426.0,1.0
483688.2285301,288855.09375,305733.0625,330355.125,331362.40625,326079.875,269999.15625,265446.46875,272330.34375,-0.062744140625,0.845703125,-0.543212890625,5.889892101287842,-0.3356933295726776,-9.460448265075684,60.0,1256427.0,1.0
483688.2323012,290596.65625,304196.34375,328729.90625,330468.59375,324764.96875,269581.1875,263941.75,271752.78125,-0.064697265625,0.843505859375,-0.545654296875,5.981444835662842,-0.7019042372703552,-9.338377952575684,60.0,1256428.0,1.0
483688.2422828,290638.9375,301371.0,323011.4375,327267.375,321157.84375,269146.125,260434.84375,270699.125,-0.06884765625,0.839599609375,-0.546875,6.164550304412842,-1.0986326932907104,-9.307860374450684,60.0,1256429.0,1.0
483688.2459019,288992.5,301062.71875,320865.03125,326106.59375,320134.5625,269291.875,259728.171875,270606.40625,-0.07421875,0.835205078125,-0.5498046875,6.378173351287842,-1.5563963651657104,-9.307860374450684,60.0,1256430.0,1.0
483688.2459167,287954.78125,303738.125,325254.09375,328652.90625,323140.34375,269830.71875,262885.21875,271626.5625,-0.075927734375,0.83154296875,-0.549560546875,6.530761241912842,-2.075195074081421,-9.246825218200684,60.0,1256431.0,1.0
483688.2547616,288838.5625,305727.4375,330147.4375,331401.375,326094.71875,270024.65625,265686.34375,272365.59375,-0.076416015625,0.82568359375,-0.551513671875,6.469726085662842,-2.471923589706421,-9.002684593200684,60.0,1256432.0,1.0
483688.2572876,290539.0625,304204.40625,328560.65625,330475.84375,324798.125,269587.34375,264208.0,271774.59375,-0.0771484375,0.818359375,-0.55029296875,6.683349132537842,-2.868652105331421,-8.758543968200684,60.0,1256433.0,1.0
483688.2573072,290563.75,301361.6875,322826.96875,327218.90625,321182.34375,269145.6875,260706.640625,270712.625,-0.081787109375,0.8125,-0.552490234375,6.866454601287842,-3.295898199081421,-8.544920921325684,60.0,1256434.0,1.0
483688.2597939,288899.25,300982.25,320590.09375,325942.53125,320079.15625,269270.84375,259903.234375,270584.0625,-0.08349609375,0.8076171875,-0.5537109375,7.293700695037842,-3.814697027206421,-8.483885765075684,60.0,1256435.0,1.0
483688.2735486,287871.15625,303623.0625,324934.9375,328427.4375,323023.59375,269817.03125,262972.5625,271595.78125,-0.0849609375,0.808349609375,-0.55322265625,7.720946788787842,-4.241942882537842,-8.514403343200684,60.0,1256436.0,1.0
483688.278559,288794.21875,305651.28125,329899.0625,331209.96875,326003.4375,270044.3125,265774.6875,272359.875,-0.084716796875,0.810546875,-0.55322265625,8.209227561950684,-4.394530773162842,-8.453368186950684,60.0,1256437.0,1.0
483688.2785957,290482.65625,304127.3125,328354.125,330295.78125,324719.1875,269615.4375,264292.5,271785.5,-0.08447265625,0.812744140625,-0.552490234375,8.544920921325684,-4.821776866912842,-8.361815452575684,60.0,1256438.0,1.0
483688.2860651,290482.65625,301242.4375,322564.84375,327006.125,321060.75,269162.03125,260751.265625,270720.0625,-0.08544921875,0.815673828125,-0.54931640625,8.636473655700684,-5.126952648162842,-8.178709983825684,60.0,1256439.0,1.0
483688.2885961,288844.375,300857.71875,320278.875,325743.0,319931.96875,269296.15625,259944.28125,270596.65625,-0.08544921875,0.818115234375,-0.54833984375,8.789061546325684,-5.340575695037842,-8.056639671325684,60.0,1256440.0,1.0
483688.29104,287868.3125,303523.75,324642.375,328288.40625,322880.8125,269849.40625,263019.59375,271604.5625,-0.08544921875,0.8212890625,-0.55078125,8.758543968200684,-5.493163585662842,-7.995604991912842,60.0,1256441.0,1.0
483688.2935567,288789.125,305571.4375,329659.28125,331132.25,325870.46875,270053.6875,265824.9375,272354.59375,-0.0859375,0.825439453125,-0.5517578125,8.697508811950684,-5.615233898162842,-7.904052257537842,60.0,1256442.0,1.0
483688.2960654,290438.21875,304051.40625,328150.625,330248.65625,324602.25,269606.5625,264382.78125,271770.65625,-0.085205078125,0.831787109375,-0.55322265625,8.514403343200684,-5.676269054412842,-7.690429210662842,60.0,1256443.0,1.0
483688.3022492,290407.65625,301133.8125,322324.96875,326948.1875,320925.28125,269149.25,260827.96875,270690.0,-0.081787109375,0.840087890625,-0.554443359375,8.331297874450684,-5.676269054412842,-7.507323741912842,60.0,1256444.0,1.0
483688.3022888,288787.40625,300727.4375,319995.28125,325703.03125,319777.03125,269299.65625,260000.6875,270569.3125,-0.07958984375,0.84619140625,-0.553466796875,8.056639671325684,-5.767821788787842,-7.385253429412842,60.0,1256445.0,1.0
483688.3236102,287866.25,303408.9375,324384.09375,328331.5,322755.53125,269881.875,263131.28125,271604.03125,-0.0751953125,0.854736328125,-0.5537109375,7.690429210662842,-5.645751476287842,-7.171630382537842,60.0,1256446.0,1.0
483688.3236514,288810.40625,305473.0,329476.4375,331249.1875,325797.96875,270107.875,266002.59375,272366.9375,-0.072021484375,0.86474609375,-0.5556640625,7.171630382537842,-5.523681163787842,-6.866454601287842,60.0,1256447.0,1.0
483688.3261155,290451.0,303972.65625,328045.40625,330420.3125,324592.84375,269679.09375,264598.1875,271792.21875,-0.063720703125,0.8740234375,-0.554931640625,6.683349132537842,-5.279540538787842,-6.652831554412842,60.0,1256448.0,1.0
483688.326157,290402.28125,301043.21875,322232.96875,327156.875,320955.40625,269236.4375,261087.78125,270725.3125,-0.05615234375,0.880859375,-0.55029296875,5.950927257537842,-4.852294445037842,-6.317138195037842,60.0,1256449.0,1.0
483688.3285641,288776.59375,300613.625,319868.21875,325901.15625,319802.59375,269372.5,260274.984375,270593.28125,-0.052001953125,0.888427734375,-0.55224609375,5.065917491912842,-4.364013195037842,-6.042479991912842,60.0,1256450.0,1.0
483688.3337589,287871.53125,303303.96875,324264.90625,328513.96875,322786.28125,269934.875,263427.21875,271619.5625,-0.046875,0.894775390625,-0.549072265625,3.997802495956421,-3.753661870956421,-5.706786632537842,60.0,1256451.0,1.0
483688.3435408,288843.03125,305432.5,329453.71875,331459.125,325897.9375,270172.96875,266364.0625,272407.78125,-0.0390625,0.899169921875,-0.552001953125,3.082275152206421,-3.021239995956421,-5.371093273162842,60.0,1256452.0,1.0
483688.3485838,290465.65625,303956.90625,328072.84375,330637.5625,324731.78125,269744.25,264992.5625,271835.84375,-0.034423828125,0.898681640625,-0.553466796875,2.014159917831421,-2.319335699081421,-5.096435070037842,60.0,1256453.0,1.0
483688.3509523,290379.84375,300997.8125,322214.71875,327321.65625,321056.09375,269273.625,261434.15625,270727.125,-0.034423828125,0.898193359375,-0.5517578125,1.0986326932907104,-1.4343260526657104,-4.699706554412842,60.0,1256454.0,1.0
483688.3535933,288726.34375,300522.15625,319763.53125,325992.875,319843.03125,269374.125,260548.125,270556.625,-0.034423828125,0.894775390625,-0.55126953125,0.1831054538488388,-0.5493163466453552,-4.577636241912842,60.0,1256455.0,1.0
483688.3607338,287836.21875,303220.375,324135.4375,328569.21875,322818.03125,269916.5625,263691.84375,271568.34375,-0.033203125,0.8916015625,-0.55029296875,-0.7629393935203552,0.3662109076976776,-4.211425304412842,60.0,1256456.0,1.0
483688.3607737,288849.8125,305411.375,329399.375,331556.0625,325996.09375,270185.5,266710.5,272394.28125,-0.03662109375,0.883544921875,-0.551513671875,-1.6479490995407104,1.0986326932907104,-3.875732183456421,60.0,1256457.0,1.0
483688.4021849,290488.375,303985.15625,328091.09375,330762.75,324890.125,269795.125,265416.78125,271864.375,-0.04052734375,0.877197265625,-0.5537109375,-2.227782964706421,1.8615721464157104,-3.570556402206421,60.0,1256458.0,1.0
483688.4046769,290428.84375,301043.5,322251.03125,327448.15625,321245.53125,269349.34375,261907.46875,270797.65625,-0.04345703125,0.8740234375,-0.556640625,-2.685546636581421,2.563476324081421,-3.326415777206421,60.0,1256459.0,1.0
483688.4073509,288807.875,300558.5625,319767.46875,326075.65625,320029.875,269466.75,261041.296875,270639.9375,-0.046630859375,0.8671875,-0.554443359375,-3.173827886581421,3.051757574081421,-3.143310308456421,60.0,1256460.0,1.0
483688.4098084,287936.0,303247.75,324122.46875,328609.90625,323000.15625,270034.65625,264198.34375,271665.34375,-0.053466796875,0.86328125,-0.55224609375,-3.601073980331421,3.448486089706421,-3.021239995956421,60.0,1256461.0,1.0
483688.4122398,288930.8125,305445.46875,329415.03125,331565.25,326182.6875,270293.21875,267167.8125,272477.0625,-0.057373046875,0.858642578125,-0.552001953125,-4.028319835662842,3.753661870956421,-2.899169683456421,60.0,1256462.0,1.0
483688.4122802,290543.53125,304016.46875,328136.15625,330769.28125,325072.4375,269890.0,265773.4375,271941.96875,-0.062744140625,0.85693359375,-0.55078125,-4.150390148162842,4.150390148162842,-2.960204839706421,60.0,1256463.0,1.0
483688.41467,290461.1875,301019.1875,322239.84375,327432.875,321360.0625,269406.40625,262152.71875,270830.28125,-0.06494140625,0.856689453125,-0.5498046875,-4.333495616912842,4.058837413787842,-2.868652105331421,60.0,1256464.0,1.0
483688.4196853,288856.71875,300506.96875,319701.5,326075.40625,320096.75,269523.25,261242.46875,270659.15625,-0.067138671875,0.855712890625,-0.549560546875,-4.669188976287842,4.150390148162842,-2.716064214706421,60.0,1256465.0,1.0
483688.4222747,288015.28125,303219.21875,324070.4375,328667.5625,323077.21875,270113.96875,264438.40625,271686.28125,-0.069091796875,0.846923828125,-0.546875,-5.035399913787842,4.180907726287842,-2.502441167831421,60.0,1256466.0,1.0
483688.4248204,289014.40625,305458.875,329441.21875,331699.1875,326303.9375,270355.8125,267527.0625,272514.8125,-0.07177734375,0.839111328125,-0.544921875,-5.371093273162842,4.089354991912842,-2.319335699081421,60.0,1256467.0,1.0
483688.4273003,290611.21875,304040.78125,328230.28125,330943.6875,325230.40625,269914.125,266249.78125,271969.0625,-0.07421875,0.830810546875,-0.5458984375,-5.584716320037842,4.028319835662842,-2.227782964706421,60.0,1256468.0,1.0
483688.429788,290545.6875,301046.625,322353.84375,327599.96875,321530.65625,269447.25,262645.34375,270873.84375,-0.0751953125,0.823974609375,-0.549072265625,-5.706786632537842,3.936767339706421,-2.166747808456421,60.0,1256469.0,1.0
483688.4320877,288918.9375,300487.125,319740.5625,326137.0,320200.5625,269551.0625,261624.59375,270675.15625,-0.07373046875,0.8154296875,-0.55029296875,-5.584716320037842,3.845214605331421,-2.044677495956421,60.0,1256470.0,1.0
483688.4339103,288071.1875,303199.0,324074.375,328650.0625,323148.21875,270123.34375,264744.1875,271698.0625,-0.072509765625,0.8076171875,-0.552001953125,-5.401610851287842,3.601073980331421,-1.8310545682907104,60.0,1256471.0,1.0
483688.4411222,289081.21875,305477.625,329511.125,331666.71875,326421.59375,270388.71875,267865.71875,272542.4375,-0.07177734375,0.802734375,-0.55517578125,-5.157470226287842,3.509521245956421,-1.6784666776657104,60.0,1256472.0,1.0
483688.4411663,290674.34375,304062.40625,328364.65625,330882.90625,325390.0,269981.71875,266586.21875,272014.125,-0.07177734375,0.796630859375,-0.55517578125,-4.791259288787842,3.234863042831421,-1.5869139432907104,60.0,1256473.0,1.0
483688.4486031,290562.78125,300981.625,322418.5625,327428.125,321634.90625,269487.84375,262858.3125,270872.65625,-0.070068359375,0.79150390625,-0.554931640625,-4.211425304412842,3.143310308456421,-1.5258787870407104,60.0,1256474.0,1.0
483688.4486446,288962.65625,300415.40625,319773.5625,325934.59375,320291.5625,269604.59375,261796.875,270683.84375,-0.070068359375,0.78466796875,-0.55615234375,-3.753661870956421,2.746581792831421,-1.3427733182907104,60.0,1256475.0,1.0
483688.4510808,288159.96875,303172.71875,324136.6875,328485.09375,323256.3125,270206.3125,264923.34375,271755.90625,-0.068603515625,0.778564453125,-0.5556640625,-3.112792730331421,2.441406011581421,-1.1901854276657104,60.0,1256476.0,1.0
483688.4535371,289147.46875,305466.71875,329594.1875,331539.875,326519.03125,270457.1875,268017.53125,272608.875,-0.0703125,0.775146484375,-0.556396484375,-2.197265386581421,2.349853277206421,-1.2512205839157104,60.0,1256477.0,1.0
483688.4586153,290661.75,304004.03125,328397.3125,330761.5,325425.84375,269992.375,266660.25,272018.15625,-0.07177734375,0.773681640625,-0.556396484375,-1.4038084745407104,2.197265386581421,-1.2207030057907104,60.0,1256478.0,1.0
483688.4586581,290541.5,300911.53125,322422.15625,327350.15625,321645.0,269495.71875,262889.59375,270873.28125,-0.06982421875,0.773681640625,-0.557373046875,-0.6713866591453552,1.8920897245407104,-1.2512205839157104,60.0,1256479.0,1.0
483688.4611135,288934.75,300312.40625,319703.625,325876.46875,320244.71875,269602.03125,261753.328125,270677.84375,-0.0703125,0.7744140625,-0.56005859375,-0.03051757626235485,1.6479490995407104,-1.1901854276657104,60.0,1256480.0,1.0
483688.4611539,288096.3125,303026.1875,323978.90625,328427.4375,323135.4375,270160.90625,264811.59375,271686.0,-0.0703125,0.776611328125,-0.563720703125,0.7629393935203552,1.5563963651657104,-1.1291502714157104,60.0,1256481.0,1.0
483688.4634141,289109.0,305370.71875,329498.78125,331557.5625,326449.5625,270421.34375,267957.375,272535.71875,-0.07373046875,0.7783203125,-0.564453125,1.6174315214157104,1.3427733182907104,-0.9155272841453552,60.0,1256482.0,1.0
483688.4659654,290679.0,303991.0625,328428.875,330870.46875,325465.375,270009.875,266695.9375,272019.84375,-0.07373046875,0.781982421875,-0.563720703125,2.319335699081421,1.0070799589157104,-0.7324218153953552,60.0,1256483.0,1.0
483688.4685896,290556.34375,300893.75,322456.46875,327444.84375,321687.3125,269504.46875,262913.65625,270877.3125,-0.0751953125,0.784912109375,-0.564453125,2.929687261581421,0.7019042372703552,-0.4577636420726776,60.0,1256484.0,1.0
483688.4686322,288958.09375,300287.125,319707.03125,325936.375,320257.6875,269589.9375,261752.796875,270663.1875,-0.075927734375,0.78125,-0.563720703125,3.509521245956421,0.2746581733226776,-0.3356933295726776,60.0,1256485.0,1.0
483688.4760607,288163.09375,303044.875,324018.59375,328491.4375,323165.1875,270157.5,264838.9375,271681.09375,-0.077880859375,0.782470703125,-0.5625,4.089354991912842,-0.0610351525247097,-0.03051757626235485,60.0,1256486.0,1.0
483688.4785754,289181.4375,305428.65625,329602.25,331636.5,326504.8125,270426.4375,268024.59375,272544.40625,-0.07568359375,0.782470703125,-0.56640625,4.669188976287842,-0.3967284858226776,0.2746581733226776,60.0,1256487.0,1.0
483688.4786167,290733.34375,304066.09375,328606.25,330969.28125,325557.8125,270015.875,266827.0,272036.75,-0.076904296875,0.7822265625,-0.57275390625,5.310058116912842,-0.7934569716453552,0.5187987685203552,60.0,1256488.0,1.0
483688.4810524,290633.5,300971.78125,322677.75,327572.0625,321815.6875,269532.90625,263113.125,270907.90625,-0.076416015625,0.78466796875,-0.575927734375,5.981444835662842,-1.1291502714157104,0.8544921278953552,60.0,1256489.0,1.0
483688.4835671,289033.28125,300304.46875,319896.3125,326040.0,320360.5,269603.28125,261946.28125,270655.15625,-0.075927734375,0.788330078125,-0.5771484375,6.652831554412842,-1.5563963651657104,1.3427733182907104,60.0,1256490.0,1.0
483688.486078,288291.46875,303048.625,324268.5625,328631.8125,323307.8125,270190.03125,265079.90625,271695.21875,-0.07373046875,0.790771484375,-0.580078125,7.293700695037842,-1.9226073026657104,1.7395018339157104,60.0,1256491.0,1.0
483688.4897919,289376.34375,305484.0,330015.46875,331877.65625,326749.25,270493.75,268394.03125,272598.5,-0.067626953125,0.79541015625,-0.583740234375,7.934569835662842,-2.258300542831421,2.166747808456421,60.0,1256492.0,1.0
483688.5236074,290892.3125,304105.5,329083.5,331234.375,325838.46875,270037.59375,267284.3125,272050.59375,-0.065185546875,0.800048828125,-0.58447265625,8.483885765075684,-2.502441167831421,2.471923589706421,60.0,1256493.0,1.0
483688.5236477,290733.96875,300965.28125,323111.28125,327795.40625,322077.125,269510.90625,263605.40625,270891.8125,-0.061767578125,0.804443359375,-0.58984375,8.911131858825684,-2.807616949081421,2.899169683456421,60.0,1256494.0,1.0
483688.5274366,289139.125,300297.9375,320286.9375,326222.5625,320608.53125,269588.78125,262458.5,270663.71875,-0.05517578125,0.80810546875,-0.59228515625,9.124754905700684,-3.051757574081421,3.265380620956421,60.0,1256495.0,1.0
483688.5274771,288398.59375,303056.59375,324619.0625,328751.15625,323529.09375,270169.65625,265586.9375,271688.25,-0.05126953125,0.809326171875,-0.594482421875,9.338377952575684,-3.204345464706421,3.784179449081421,60.0,1256496.0,1.0
483688.5274874,289454.03125,305496.15625,330367.28125,331932.71875,326971.4375,270451.46875,268890.78125,272576.75,-0.047119140625,0.81298828125,-0.596435546875,9.643553733825684,-3.326415777206421,4.302978038787842,60.0,1256497.0,1.0
483688.5312131,290943.65625,304121.4375,329454.09375,331240.25,326093.28125,270022.3125,267771.59375,272049.96875,-0.04296875,0.81591796875,-0.6025390625,9.979247093200684,-3.356933355331421,4.730224132537842,60.0,1256498.0,1.0
483688.5312526,290766.53125,300952.03125,323452.8125,327741.3125,322328.0,269513.875,264066.46875,270894.84375,-0.040283203125,0.8212890625,-0.603271484375,10.131834983825684,-3.173827886581421,5.187987804412842,60.0,1256499.0,1.0
483688.5312615,289173.125,300253.5,320577.59375,326110.71875,320834.0,269584.9375,262894.78125,270641.09375,-0.034912109375,0.8251953125,-0.60302734375,10.223387718200684,-3.173827886581421,5.615233898162842,60.0,1256500.0,1.0
483688.5312718,288457.84375,303024.03125,324910.875,328643.34375,323753.21875,270155.1875,266032.96875,271665.71875,-0.029052734375,0.83154296875,-0.6005859375,10.406493186950684,-3.051757574081421,5.889892101287842,60.0,1256501.0,1.0
483688.5361378,289516.25,305503.125,330697.46875,331870.21875,327218.03125,270431.90625,269385.5625,272569.15625,-0.022705078125,0.833984375,-0.600341796875,10.345458030700684,-2.746581792831421,6.317138195037842,60.0,1256502.0,1.0
483688.5361781,290960.1875,304148.59375,329803.59375,331209.40625,326348.71875,269971.53125,268327.25,272037.09375,-0.018310546875,0.833740234375,-0.599609375,10.223387718200684,-2.532958745956421,6.896972179412842,60.0,1256503.0,1.0
483688.5384297,290730.84375,300950.96875,323763.0625,327712.34375,322560.1875,269420.15625,264659.40625,270850.5,-0.017822265625,0.831787109375,-0.596435546875,10.009764671325684,-2.136230230331421,7.324218273162842,60.0,1256504.0,1.0
483688.5497195,289131.0,300228.03125,320834.8125,326072.90625,321024.34375,269482.84375,263427.9375,270585.59375,-0.019287109375,0.825927734375,-0.59716796875,9.582518577575684,-1.7395018339157104,7.568358898162842,60.0,1256505.0,1.0
483688.5521956,288395.09375,302959.21875,325087.71875,328532.125,323846.65625,270017.40625,266307.09375,271563.15625,-0.025146484375,0.818359375,-0.59521484375,9.368895530700684,-1.2817381620407104,7.812499523162842,60.0,1256506.0,1.0
483688.5547232,289425.875,305440.0,330857.0625,331718.15625,327255.03125,270271.40625,269413.28125,272431.65625,-0.032470703125,0.806884765625,-0.590087890625,9.185790061950684,-0.9155272841453552,7.904052257537842,60.0,1256507.0,1.0
483688.5547589,290848.875,304110.53125,329944.9375,331018.34375,326349.15625,269822.3125,268113.46875,271903.09375,-0.0400390625,0.792236328125,-0.592041015625,9.094237327575684,-0.6408690810203552,7.690429210662842,60.0,1256508.0,1.0
483688.5585427,290603.8125,300905.71875,323808.3125,327439.03125,322474.8125,269273.71875,264179.125,270709.84375,-0.048828125,0.7783203125,-0.59814453125,9.124754905700684,-0.6408690810203552,7.476806163787842,60.0,1256509.0,1.0
483688.573603,288980.34375,300147.09375,320756.84375,325718.9375,320833.5625,269303.03125,262770.53125,270426.09375,-0.056640625,0.759765625,-0.605224609375,9.490965843200684,-0.7019042372703552,7.141112804412842,60.0,1256510.0,1.0
483688.5736457,288280.125,302914.53125,325007.96875,328232.625,323657.125,269864.875,265730.5,271444.34375,-0.061279296875,0.743896484375,-0.6083984375,10.162352561950684,-0.8239745497703552,6.744384288787842,60.0,1256511.0,1.0
483688.5761405,289333.0625,305433.375,330826.125,331499.53125,327102.5,270147.65625,268981.25,272354.0625,-0.0634765625,0.734619140625,-0.612548828125,11.260985374450684,-1.0681151151657104,6.256103038787842,60.0,1256512.0,1.0
483688.5761828,290716.28125,304081.0,329934.46875,330820.6875,326209.25,269677.84375,267833.53125,271815.8125,-0.065185546875,0.731201171875,-0.6201171875,12.451170921325684,-1.3427733182907104,5.798339366912842,60.0,1256513.0,1.0
483688.5785251,290463.25,300835.625,323795.78125,327247.53125,322348.375,269145.15625,264024.4375,270626.96875,-0.0654296875,0.733154296875,-0.61962890625,13.641356468200684,-1.8005369901657104,5.401610851287842,60.0,1256514.0,1.0
483688.58105,288889.96875,300056.4375,320746.28125,325557.46875,320728.59375,269233.75,262690.0625,270366.8125,-0.059326171875,0.738037109375,-0.622314453125,14.739989280700684,-2.166747808456421,4.638671398162842,60.0,1256515.0,1.0
483688.6036009,288202.34375,302775.9375,324964.0625,328070.15625,323527.46875,269807.90625,265626.71875,271375.3125,-0.052734375,0.753662109375,-0.62255859375,15.747069358825684,-2.410888433456421,4.364013195037842,60.0,1256516.0,1.0
483688.6036447,289259.65625,305267.96875,330807.96875,331369.46875,326990.65625,270121.375,268857.34375,272282.25,-0.048095703125,0.771240234375,-0.617431640625,16.357419967651367,-2.441406011581421,4.150390148162842,60.0,1256517.0,1.0
483688.6060836,290657.375,303900.9375,329956.28125,330749.875,326135.9375,269713.6875,267686.03125,271771.9375,-0.04541015625,0.783447265625,-0.61376953125,16.265867233276367,-2.441406011581421,3.997802495956421,60.0,1256518.0,1.0
483688.6084324,290407.375,300626.59375,323791.15625,327200.40625,322259.6875,269205.84375,263807.0,270600.15625,-0.03955078125,0.801025390625,-0.612548828125,15.991209983825684,-2.410888433456421,3.845214605331421,60.0,1256519.0,1.0
483688.6110552,288831.125,299814.96875,320662.6875,325517.59375,320583.75,269283.375,262375.59375,270322.8125,-0.0380859375,0.8173828125,-0.613037109375,15.533446311950684,-2.166747808456421,3.356933355331421,60.0,1256520.0,1.0
483688.6135765,288185.15625,302569.84375,324866.15625,328096.1875,323385.59375,269867.90625,265269.34375,271349.03125,-0.03662109375,0.834228515625,-0.614013671875,14.862059593200684,-1.8920897245407104,2.960204839706421,60.0,1256521.0,1.0
483688.6159966,289289.53125,305167.5625,330776.34375,331499.28125,326913.9375,270194.6875,268537.28125,272311.75,-0.037109375,0.844970703125,-0.61669921875,13.977049827575684,-1.6784666776657104,2.593993902206421,60.0,1256522.0,1.0
483688.6185251,290695.1875,303898.34375,329998.40625,330959.625,326137.28125,269792.09375,267432.71875,271831.90625,-0.03564453125,0.853759765625,-0.61767578125,12.847899436950684,-1.4953612089157104,2.349853277206421,60.0,1256523.0,1.0
483688.6236052,290432.59375,300668.625,323827.53125,327431.25,322285.15625,269272.46875,263562.9375,270654.875,-0.037109375,0.859619140625,-0.621337890625,11.596678733825684,-1.2207030057907104,1.9531248807907104,60.0,1256524.0,1.0
483688.6236464,288862.59375,299879.25,320658.0625,325733.6875,320591.0,269340.0625,262089.234375,270374.125,-0.0390625,0.8642578125,-0.6240234375,10.437010765075684,-0.8850097060203552,1.7395018339157104,60.0,1256525.0,1.0
483688.6310354,288224.15625,302646.65625,324838.53125,328272.75,323359.125,269916.1875,264935.34375,271378.71875,-0.041748046875,0.869140625,-0.626220703125,9.216307640075684,-0.7324218153953552,1.4648436307907104,60.0,1256526.0,1.0
483688.6335795,289322.6875,305258.25,330758.0,331636.6875,326865.03125,270234.21875,268189.21875,272323.84375,-0.0439453125,0.87158203125,-0.62939453125,8.056639671325684,-0.6713866591453552,1.1291502714157104,60.0,1256527.0,1.0
483688.6360633,290724.59375,304007.875,330026.28125,331089.96875,326105.4375,269834.65625,267135.46875,271867.3125,-0.046630859375,0.876708984375,-0.630126953125,6.927489757537842,-0.5798339247703552,0.7934569716453552,60.0,1256528.0,1.0
483688.6459487,290457.90625,300745.25,323863.84375,327540.59375,322257.0,269319.84375,263316.96875,270689.5625,-0.046630859375,0.880859375,-0.631103515625,5.859374523162842,-0.6103515028953552,0.3662109076976776,60.0,1256529.0,1.0
483688.6486224,288880.84375,299903.125,320649.90625,325783.9375,320541.8125,269378.21875,261861.0625,270386.90625,-0.048583984375,0.88427734375,-0.62890625,4.638671398162842,-0.6103515028953552,0.0915527269244194,60.0,1256530.0,1.0
483688.6486636,288243.46875,302655.25,324789.46875,328255.78125,323288.21875,269950.78125,264718.875,271395.875,-0.04736328125,0.885009765625,-0.62255859375,3.540038824081421,-0.5187987685203552,-0.3051757514476776,60.0,1256531.0,1.0
483688.6571091,289340.75,305297.9375,330748.53125,331603.4375,326822.5625,270274.71875,268032.84375,272356.375,-0.04443359375,0.8876953125,-0.61962890625,2.319335699081421,-0.4577636420726776,-0.7324218153953552,60.0,1256532.0,1.0
483688.6623166,290713.5,304054.46875,330048.28125,331046.875,326081.375,269862.625,267020.75,271869.03125,-0.04296875,0.885498046875,-0.61669921875,1.0070799589157104,-0.3356933295726776,-1.0070799589157104,60.0,1256533.0,1.0
483688.6648269,290445.1875,300795.40625,323884.5625,327489.5625,322235.8125,269330.5625,263218.1875,270695.65625,-0.04150390625,0.88525390625,-0.615966796875,-0.2441406100988388,-0.3051757514476776,-1.2817381620407104,60.0,1256534.0,1.0
483688.6671734,288881.125,299953.09375,320631.59375,325716.25,320508.375,269394.21875,261773.984375,270410.34375,-0.04150390625,0.8828125,-0.614501953125,-1.5869139432907104,-0.1220703050494194,-1.4953612089157104,60.0,1256535.0,1.0
483688.6698478,288239.71875,302701.5625,324730.625,328177.71875,323253.90625,269973.875,264645.84375,271419.40625,-0.039306640625,0.87939453125,-0.61328125,-2.899169683456421,-0.0610351525247097,-1.7395018339157104,60.0,1256536.0,1.0
483688.6698882,289333.15625,305371.78125,330718.125,331559.34375,326828.65625,270302.59375,267999.75,272384.28125,-0.03857421875,0.87353515625,-0.610107421875,-4.150390148162842,0.03051757626235485,-2.014159917831421,60.0,1256537.0,1.0
483688.6985875,290726.5625,304175.59375,330098.96875,331082.09375,326156.75,269912.53125,267061.15625,271930.8125,-0.03759765625,0.87109375,-0.611083984375,-5.371093273162842,0.2136230319738388,-2.166747808456421,60.0,1256538.0,1.0
483688.6986276,290461.03125,300903.59375,323940.09375,327539.15625,322307.625,269373.5,263271.71875,270732.5625,-0.03857421875,0.867431640625,-0.6123046875,-6.500243663787842,0.4577636420726776,-2.288818120956421,60.0,1256539.0,1.0
483688.7011227,288890.21875,300017.09375,320632.75,325739.0625,320538.15625,269430.09375,261802.328125,270426.71875,-0.037841796875,0.863037109375,-0.613525390625,-7.598876476287842,0.7019042372703552,-2.410888433456421,60.0,1256540.0,1.0
483688.7011639,288220.3125,302718.90625,324680.84375,328175.21875,323247.53125,270015.15625,264675.59375,271424.65625,-0.038818359375,0.8583984375,-0.6142578125,-8.575438499450684,0.8544921278953552,-2.380370855331421,60.0,1256541.0,1.0
483688.7035817,289295.34375,305383.9375,330691.75,331577.3125,326837.9375,270359.75,268098.46875,272401.53125,-0.037353515625,0.852294921875,-0.615234375,-9.490965843200684,1.0986326932907104,-2.441406011581421,60.0,1256542.0,1.0
483688.7059552,290723.875,304228.71875,330160.3125,331143.78125,326219.15625,269982.25,267241.3125,271978.90625,-0.03759765625,0.84716796875,-0.613525390625,-10.162352561950684,1.1901854276657104,-2.716064214706421,60.0,1256543.0,1.0
483688.7084079,290498.65625,300963.46875,324028.96875,327602.1875,322379.40625,269436.0625,263465.46875,270787.03125,-0.03759765625,0.84423828125,-0.612060546875,-10.864256858825684,1.3732908964157104,-2.929687261581421,60.0,1256544.0,1.0
483688.7110833,288907.40625,300025.34375,320649.28125,325732.6875,320557.375,269452.78125,261951.109375,270442.875,-0.037109375,0.839111328125,-0.61181640625,-11.322020530700684,1.5869139432907104,-3.051757574081421,60.0,1256545.0,1.0
483688.7135138,288205.1875,302714.6875,324637.1875,328113.25,323245.125,270024.5625,264810.34375,271431.8125,-0.033935546875,0.832763671875,-0.60693359375,-11.871336936950684,1.8310545682907104,-3.173827886581421,60.0,1256546.0,1.0
483688.7160444,289244.0,305402.71875,330655.71875,331493.71875,326854.03125,270361.0,268252.25,272411.625,-0.032958984375,0.825927734375,-0.6064453125,-12.329100608825684,2.044677495956421,-3.204345464706421,60.0,1256547.0,1.0
483688.71854,290669.96875,304270.5625,330175.96875,331073.0625,326266.28125,269973.9375,267413.25,271988.90625,-0.030517578125,0.817626953125,-0.603759765625,-12.756346702575684,2.380370855331421,-3.143310308456421,60.0,1256548.0,1.0
483688.7211424,290490.15625,301017.65625,324077.40625,327545.25,322443.5,269428.21875,263633.84375,270799.875,-0.029541015625,0.810302734375,-0.603759765625,-13.031004905700684,2.716064214706421,-3.143310308456421,60.0,1256549.0,1.0
483688.7211899,288931.4375,300079.6875,320673.59375,325677.71875,320614.96875,269464.5,262106.40625,270457.0,-0.030517578125,0.8046875,-0.605224609375,-13.214110374450684,2.960204839706421,-3.051757574081421,60.0,1256550.0,1.0
483688.8034853,288204.3125,302756.71875,324613.40625,328066.5,323290.09375,270047.25,264963.65625,271456.125,-0.0302734375,0.800048828125,-0.60791015625,-13.244627952575684,3.295898199081421,-2.868652105331421,60.0,1256551.0,1.0
483688.8035067,289224.875,305470.03125,330659.75,331505.625,326934.875,270401.9375,268455.28125,272448.46875,-0.0302734375,0.795654296875,-0.605712890625,-13.122557640075684,3.723144292831421,-2.685546636581421,60.0,1256552.0,1.0
483688.8085178,290679.0,304373.09375,330258.3125,331148.8125,326392.96875,270025.53125,267655.625,272037.65625,-0.02783203125,0.788818359375,-0.605712890625,-13.153075218200684,3.906249761581421,-2.471923589706421,60.0,1256553.0,1.0
483688.8085403,290547.75,301110.75,324193.125,327653.875,322578.0625,269478.53125,263867.8125,270846.125,-0.025146484375,0.78515625,-0.604248046875,-12.756346702575684,4.211425304412842,-2.349853277206421,60.0,1256554.0,1.0
483688.8110154,288993.3125,300124.3125,320735.5625,325771.15625,320704.90625,269502.40625,262289.0625,270501.90625,-0.025146484375,0.77978515625,-0.60302734375,-12.420653343200684,4.547118663787842,-2.227782964706421,60.0,1256555.0,1.0
483688.8135082,288223.25,302762.25,324600.625,328126.21875,323332.21875,270074.875,265106.0,271478.9375,-0.024658203125,0.778564453125,-0.60546875,-11.993407249450684,4.821776866912842,-2.105712652206421,60.0,1256556.0,1.0
483688.8184766,289207.1875,305472.625,330642.03125,331566.5,326975.90625,270431.0,268604.15625,272478.875,-0.02587890625,0.775390625,-0.60205078125,-11.535643577575684,5.065917491912842,-1.9531248807907104,60.0,1256557.0,1.0
483688.8210093,290679.1875,304395.5625,330299.4375,331241.59375,326462.875,270053.78125,267817.375,272071.625,-0.029541015625,0.773193359375,-0.60546875,-10.986327171325684,5.340575695037842,-1.8005369901657104,60.0,1256558.0,1.0
483688.8235438,290594.5,301133.53125,324258.46875,327754.03125,322646.90625,269508.3125,263996.75,270883.9375,-0.031982421875,0.772705078125,-0.6025390625,-10.467528343200684,5.615233898162842,-1.7089842557907104,60.0,1256559.0,1.0
483688.8260644,289049.71875,300113.21875,320744.875,325827.28125,320735.84375,269537.375,262352.09375,270522.0,-0.033203125,0.770751953125,-0.599365234375,-9.582518577575684,5.950927257537842,-1.5869139432907104,60.0,1256560.0,1.0
483688.8284076,288240.6875,302723.375,324532.5,328128.8125,323324.53125,270114.5,265139.34375,271485.71875,-0.030517578125,0.771728515625,-0.59765625,-9.124754905700684,6.164550304412842,-1.5869139432907104,60.0,1256561.0,1.0
483688.8322968,289189.65625,305454.84375,330568.09375,331559.625,326974.21875,270471.21875,268654.5625,272483.78125,-0.034912109375,0.771484375,-0.598388671875,-8.605956077575684,6.225585460662842,-1.3732908964157104,60.0,1256562.0,1.0
483688.8323379,290683.03125,304424.0625,330297.09375,331273.0,326503.40625,270104.84375,267904.96875,272092.90625,-0.037841796875,0.770751953125,-0.596435546875,-8.056639671325684,6.378173351287842,-1.1901854276657104,60.0,1256563.0,1.0
483688.8323484,290641.0,301171.34375,324287.53125,327795.5,322691.625,269554.4375,264064.25,270905.3125,-0.039306640625,0.771728515625,-0.59375,-7.537841320037842,6.469726085662842,-1.0986326932907104,60.0,1256564.0,1.0
483688.8361683,289098.1875,300118.75,320719.90625,325823.4375,320733.40625,269571.625,262335.71875,270528.4375,-0.04150390625,0.77099609375,-0.592529296875,-6.958007335662842,6.500243663787842,-1.0375975370407104,60.0,1256565.0,1.0
483688.8362094,288274.84375,302729.1875,324466.53125,328103.34375,323302.25,270158.21875,265091.34375,271510.0625,-0.04150390625,0.7744140625,-0.5927734375,-6.469726085662842,6.347655773162842,-1.0070799589157104,60.0,1256566.0,1.0
483688.8362193,289184.65625,305472.0,330499.09375,331531.375,326948.46875,270504.9375,268608.0,272506.125,-0.04150390625,0.778076171875,-0.59619140625,-5.950927257537842,6.347655773162842,-0.9765624403953552,60.0,1256567.0,1.0
483688.8384675,290675.875,304462.15625,330275.125,331269.9375,326496.25,270121.28125,267874.40625,272111.3125,-0.04443359375,0.78173828125,-0.5927734375,-5.523681163787842,6.286620616912842,-0.7629393935203552,60.0,1256568.0,1.0
483688.838508,290655.125,301194.15625,324280.28125,327800.25,322681.25,269554.625,264027.03125,270913.25,-0.044189453125,0.78515625,-0.593505859375,-5.035399913787842,6.134032726287842,-0.6103515028953552,60.0,1256569.0,1.0
483688.8409381,289133.34375,300116.15625,320688.8125,325831.0625,320713.65625,269581.625,262317.75,270539.71875,-0.04345703125,0.79345703125,-0.5927734375,-4.547118663787842,6.072997570037842,-0.5493163466453552,60.0,1256570.0,1.0
483688.8436106,288276.53125,302685.46875,324363.625,328074.1875,323244.3125,270164.125,265044.75,271499.78125,-0.041748046875,0.799072265625,-0.590576171875,-4.058837413787842,5.889892101287842,-0.5493163466453552,60.0,1256571.0,1.0
483688.8459708,289166.6875,305443.21875,330405.90625,331522.53125,326905.28125,270522.1875,268567.5,272509.8125,-0.04248046875,0.8046875,-0.590087890625,-3.662109136581421,5.798339366912842,-0.3662109076976776,60.0,1256572.0,1.0
483688.8485227,290663.25,304460.53125,330239.8125,331316.4375,326485.96875,270136.21875,267857.78125,272124.90625,-0.042724609375,0.80859375,-0.58447265625,-3.479003667831421,5.615233898162842,-0.3051757514476776,60.0,1256573.0,1.0
483688.8510594,290678.0,301207.65625,324273.59375,327880.96875,322679.28125,269562.59375,264010.15625,270924.625,-0.040283203125,0.813720703125,-0.583251953125,-3.265380620956421,5.462646007537842,-0.1525878757238388,60.0,1256574.0,1.0
483688.8536402,289151.65625,300108.40625,320627.90625,325877.71875,320668.34375,269565.90625,262247.125,270526.65625,-0.039794921875,0.815673828125,-0.582275390625,-3.234863042831421,5.462646007537842,0.0915527269244194,60.0,1256575.0,1.0
483688.8536823,288256.875,302654.78125,324229.40625,328073.90625,323152.0625,270133.625,264933.09375,271466.875,-0.038330078125,0.8173828125,-0.581787109375,-2.990722417831421,5.340575695037842,0.1525878757238388,60.0,1256576.0,1.0
483688.8585229,289133.78125,305442.875,330283.4375,331531.28125,326830.625,270506.0,268484.0625,272489.15625,-0.036865234375,0.8203125,-0.580078125,-3.021239995956421,5.249022960662842,0.3356933295726776,60.0,1256577.0,1.0
483688.8610154,290659.6875,304513.03125,330190.53125,331365.625,326466.375,270142.3125,267826.75,272129.375,-0.033935546875,0.821533203125,-0.57958984375,-2.990722417831421,5.187987804412842,0.5187987685203552,60.0,1256578.0,1.0
483688.8610561,290708.21875,301266.9375,324253.5625,327938.0,322675.6875,269561.4375,263985.5625,270925.875,-0.035400390625,0.823974609375,-0.578857421875,-2.960204839706421,5.157470226287842,0.5798339247703552,60.0,1256579.0,1.0
483688.863495,289194.03125,300145.75,320571.25,325899.53125,320639.46875,269555.53125,262194.28125,270515.9375,-0.035400390625,0.822021484375,-0.581787109375,-3.021239995956421,5.096435070037842,0.7629393935203552,60.0,1256580.0,1.0
483688.8651522,288281.5625,302680.90625,324129.8125,328047.4375,323105.375,270126.65625,264863.53125,271458.65625,-0.03369140625,0.823486328125,-0.583740234375,-2.960204839706421,5.096435070037842,0.7019042372703552,60.0,1256581.0,1.0
483688.8823083,289127.34375,305474.0625,330187.0625,331489.15625,326792.0,270502.6875,268429.25,272483.15625,-0.03271484375,0.82275390625,-0.582763671875,-2.990722417831421,5.004882335662842,0.7629393935203552,60.0,1256582.0,1.0
483688.8872171,290651.0,304560.59375,330148.96875,331347.90625,326455.1875,270132.46875,267810.375,272126.96875,-0.03173828125,0.823974609375,-0.58203125,-2.899169683456421,4.913329601287842,0.8239745497703552,60.0,1256583.0,1.0
483688.8872572,290749.375,301337.1875,324265.96875,327956.78125,322698.0625,269574.65625,264009.34375,270954.5625,-0.032470703125,0.822265625,-0.584228515625,-2.960204839706421,4.852294445037842,0.6713866591453552,60.0,1256584.0,1.0
483688.8923177,289234.4375,300180.375,320537.0,325885.84375,320625.78125,269560.1875,262186.59375,270535.0625,-0.03466796875,0.824462890625,-0.582763671875,-2.807616949081421,4.791259288787842,0.6103515028953552,60.0,1256585.0,1.0
483688.8948039,288271.0,302664.09375,324006.34375,327981.03125,323027.15625,270103.15625,264797.8125,271442.71875,-0.034912109375,0.82421875,-0.58447265625,-2.746581792831421,4.669188976287842,0.5493163466453552,60.0,1256586.0,1.0
483688.897331,289078.0625,305460.375,330053.21875,331423.8125,326708.125,270466.65625,268365.4375,272459.1875,-0.03271484375,0.827880859375,-0.582763671875,-2.685546636581421,4.608153820037842,0.4272460639476776,60.0,1256587.0,1.0
483688.8973731,290632.5,304602.71875,330103.4375,331347.8125,326434.71875,270114.125,267805.28125,272131.53125,-0.03369140625,0.829345703125,-0.58203125,-2.624511480331421,4.547118663787842,0.4577636420726776,60.0,1256588.0,1.0
483688.8998025,290753.90625,301370.375,324243.625,327977.96875,322681.40625,269541.5625,263998.6875,270939.90625,-0.03564453125,0.82763671875,-0.581787109375,-2.746581792831421,4.486083507537842,0.3662109076976776,60.0,1256589.0,1.0
483688.9048203,289263.40625,300198.78125,320488.625,325905.78125,320593.40625,269534.78125,262155.5,270517.1875,-0.035888671875,0.827880859375,-0.579833984375,-2.960204839706421,4.364013195037842,0.2746581733226776,60.0,1256590.0,1.0
483688.9073129,288279.3125,302658.46875,323902.375,327968.40625,322966.90625,270080.625,264735.78125,271417.15625,-0.03564453125,0.82958984375,-0.576171875,-3.051757574081421,4.302978038787842,0.1220703050494194,60.0,1256591.0,1.0
483688.9097766,289051.6875,305453.6875,329951.46875,331413.1875,326656.625,270444.6875,268314.03125,272426.28125,-0.03515625,0.826904296875,-0.576171875,-3.204345464706421,4.211425304412842,0.0610351525247097,60.0,1256592.0,1.0
483688.9122755,290608.53125,304621.9375,330061.625,331372.0625,326419.4375,270093.5,267795.375,272100.84375,-0.03125,0.826904296875,-0.576416015625,-3.143310308456421,4.180907726287842,-0.0915527269244194,60.0,1256593.0,1.0
483688.9147874,290784.0625,301419.71875,324255.15625,328040.125,322700.5625,269539.96875,264026.59375,270935.25,-0.03173828125,0.8251953125,-0.57763671875,-3.356933355331421,4.150390148162842,-0.0610351525247097,60.0,1256594.0,1.0
483688.9173825,289288.28125,300206.125,320448.5625,325928.59375,320575.625,269515.46875,262147.53125,270491.09375,-0.02685546875,0.825927734375,-0.57763671875,-3.295898199081421,4.089354991912842,-0.2441406100988388,60.0,1256595.0,1.0
483688.9174252,288272.34375,302642.0,323798.46875,327944.625,322913.78125,270060.5,264700.625,271376.65625,-0.0283203125,0.82568359375,-0.574951171875,-3.295898199081421,4.058837413787842,-0.3662109076976776,60.0,1256596.0,1.0
483688.9196658,289023.34375,305463.4375,329852.125,331390.28125,326615.15625,270436.375,268295.4375,272397.9375,-0.02734375,0.828369140625,-0.57421875,-3.295898199081421,4.028319835662842,-0.4882812201976776,60.0,1256597.0,1.0
483688.9221504,290601.03125,304675.21875,330035.40625,331411.65625,326434.0,270102.25,267823.53125,272100.40625,-0.026611328125,0.82958984375,-0.57421875,-3.356933355331421,4.150390148162842,-0.3967284858226776,60.0,1256598.0,1.0
483688.9248413,290809.96875,301474.1875,324257.21875,328106.46875,322726.21875,269541.40625,264051.71875,270937.9375,-0.0244140625,0.831298828125,-0.574462890625,-3.417968511581421,4.211425304412842,-0.3967284858226776,60.0,1256599.0,1.0
483688.9248838,289301.15625,300212.1875,320389.90625,325952.90625,320547.46875,269487.125,262113.640625,270466.125,-0.025634765625,0.830078125,-0.57275390625,-3.570556402206421,4.333495616912842,-0.3356933295726776,60.0,1256600.0,1.0
483688.9298079,288254.28125,302615.625,323675.34375,327929.875,322851.5625,270034.3125,264633.59375,271349.9375,-0.025634765625,0.83154296875,-0.5732421875,-3.814697027206421,4.425048351287842,-0.2746581733226776,60.0,1256601.0,1.0
483688.9298493,288973.125,305436.6875,329721.25,331361.84375,326552.125,270416.875,268232.21875,272377.84375,-0.026611328125,0.83154296875,-0.57177734375,-3.967284917831421,4.547118663787842,-0.3662109076976776,60.0,1256602.0,1.0
483688.9322661,290548.90625,304670.375,329957.625,331398.25,326391.0,270082.03125,267782.3125,272089.5,-0.0263671875,0.832763671875,-0.56982421875,-4.180907726287842,4.516601085662842,-0.3967284858226776,60.0,1256603.0,1.0
483688.9485237,290794.34375,301484.625,324220.90625,328115.84375,322702.6875,269519.125,264021.9375,270929.4375,-0.025146484375,0.835693359375,-0.568115234375,-4.302978038787842,4.608153820037842,-0.3051757514476776,60.0,1256604.0,1.0
483688.9511202,289330.1875,300227.5625,320351.21875,325983.9375,320537.4375,269498.03125,262095.578125,270489.75,-0.025390625,0.838623046875,-0.57275390625,-4.547118663787842,4.669188976287842,-0.3051757514476776,60.0,1256605.0,1.0
483688.9511629,288262.6875,302601.34375,323580.3125,327932.125,322813.5625,270050.9375,264598.25,271376.03125,-0.02490234375,0.84130859375,-0.570556640625,-4.638671398162842,4.821776866912842,-0.3051757514476776,60.0,1256606.0,1.0
483688.9534442,288969.90625,305448.9375,329649.625,331377.875,326539.6875,270449.40625,268223.53125,272418.875,-0.02490234375,0.83984375,-0.570068359375,-4.821776866912842,4.730224132537842,-0.1831054538488388,60.0,1256607.0,1.0
483688.9559513,290568.5,304728.40625,329960.84375,331459.3125,326426.78125,270125.125,267823.53125,272144.125,-0.025634765625,0.843017578125,-0.569091796875,-5.035399913787842,4.730224132537842,-0.0610351525247097,60.0,1256608.0,1.0
483688.9585152,290848.78125,301548.46875,324257.125,328189.6875,322749.1875,269558.125,264078.625,270981.9375,-0.025634765625,0.841552734375,-0.566650390625,-5.279540538787842,4.760741710662842,0.0610351525247097,60.0,1256609.0,1.0
483688.9735818,289382.59375,300247.78125,320334.21875,325998.15625,320537.96875,269512.59375,262104.609375,270502.15625,-0.025634765625,0.838623046875,-0.568115234375,-5.462646007537842,4.852294445037842,0.1831054538488388,60.0,1256610.0,1.0
483688.9736256,288282.71875,302585.0625,323496.625,327884.28125,322777.96875,270058.15625,264562.78125,271367.09375,-0.026611328125,0.837646484375,-0.567626953125,-5.676269054412842,4.852294445037842,0.3662109076976776,60.0,1256611.0,1.0
483688.975736,288946.46875,305425.25,329550.125,331311.875,326507.0625,270457.1875,268193.0625,272414.59375,-0.02685546875,0.833251953125,-0.564697265625,-5.798339366912842,4.791259288787842,0.4272460639476776,60.0,1256612.0,1.0
483688.9757772,290552.03125,304731.0,329924.1875,331427.9375,326435.8125,270135.25,267835.0625,272150.75,-0.029052734375,0.83154296875,-0.56201171875,-5.889892101287842,4.821776866912842,0.4882812201976776,60.0,1256613.0,1.0
483688.9872242,290870.5,301548.5625,324256.78125,328178.875,322764.46875,269560.34375,264085.0625,270991.3125,-0.0341796875,0.83154296875,-0.5595703125,-6.011962413787842,4.791259288787842,0.5493163466453552,60.0,1256614.0,1.0
483688.9896502,289452.34375,300247.78125,320329.21875,325993.78125,320553.34375,269544.78125,262089.6875,270540.15625,-0.035888671875,0.830810546875,-0.561767578125,-6.103515148162842,4.638671398162842,0.5493163466453552,60.0,1256615.0,1.0
483688.9922864,288310.78125,302532.75,323402.75,327823.125,322730.25,270083.65625,264457.28125,271381.9375,-0.033935546875,0.831787109375,-0.5625,-6.225585460662842,4.486083507537842,0.5798339247703552,60.0,1256616.0,1.0
483688.9947648,288952.71875,305382.15625,329460.15625,331270.84375,326466.71875,270500.90625,268093.4375,272442.125,-0.032470703125,0.833984375,-0.56103515625,-6.286620616912842,4.425048351287842,0.4882812201976776,60.0,1256617.0,1.0
483688.9948044,290584.84375,304737.53125,329909.25,331447.78125,326439.71875,270188.71875,267783.21875,272199.1875,-0.03369140625,0.834716796875,-0.559326171875,-6.256103038787842,4.241942882537842,0.3967284858226776,60.0,1256618.0,1.0
483688.9998091,290935.6875,301557.84375,324263.9375,328219.375,322766.71875,269602.375,264037.875,271016.96875,-0.03271484375,0.836181640625,-0.55810546875,-6.195067882537842,4.058837413787842,0.4272460639476776,60.0,1256619.0,1.0
483689.0047949,289505.53125,300204.59375,320272.25,326000.125,320496.84375,269547.5625,262004.75,270530.875,-0.03466796875,0.839599609375,-0.559814453125,-6.469726085662842,3.997802495956421,0.4882812201976776,60.0,1256620.0,1.0
483689.0072078,288366.9375,302500.84375,323318.4375,327830.375,322669.34375,270093.40625,264412.46875,271390.5,-0.03564453125,0.842529296875,-0.56103515625,-6.652831554412842,4.028319835662842,0.3967284858226776,60.0,1256621.0,1.0
483689.0111049,288980.25,305365.34375,329371.84375,331272.4375,326404.6875,270509.84375,268073.875,272453.21875,-0.03369140625,0.845703125,-0.56201171875,-6.713866710662842,3.723144292831421,0.5798339247703552,60.0,1256622.0,1.0
483689.0111479,290631.0,304750.59375,329889.59375,331494.09375,326415.78125,270212.5,267811.71875,272227.09375,-0.03271484375,0.844482421875,-0.55908203125,-6.896972179412842,3.540038824081421,0.8544921278953552,60.0,1256623.0,1.0
483689.0234242,291051.5625,301599.53125,324317.375,328308.96875,322779.6875,269639.21875,264106.71875,271069.71875,-0.032470703125,0.843017578125,-0.55908203125,-7.141112804412842,3.417968511581421,0.7934569716453552,60.0,1256624.0,1.0
483689.0260051,289641.78125,300223.90625,320301.40625,326063.78125,320484.5,269579.9375,262050.796875,270573.78125,-0.029541015625,0.841796875,-0.5595703125,-7.263183116912842,3.234863042831421,0.8850097060203552,60.0,1256625.0,1.0
483689.02604,288454.5625,302467.125,323265.34375,327839.75,322604.0,270117.09375,264415.25,271417.78125,-0.0283203125,0.844482421875,-0.556396484375,-7.293700695037842,3.173827886581421,1.0375975370407104,60.0,1256626.0,1.0
483689.0285563,289030.34375,305335.65625,329313.0,331281.375,326346.03125,270538.65625,268097.65625,272481.09375,-0.02685546875,0.845458984375,-0.55712890625,-7.324218273162842,3.112792730331421,1.2817381620407104,60.0,1256627.0,1.0
483689.0509977,290692.59375,304757.375,329895.59375,331536.03125,326396.5625,270241.71875,267877.90625,272256.59375,-0.025390625,0.846923828125,-0.557373046875,-7.629394054412842,3.021239995956421,1.5869139432907104,60.0,1256628.0,1.0
483689.0534538,291139.09375,301594.59375,324345.1875,328357.15625,322753.65625,269657.8125,264165.71875,271086.25,-0.025634765625,0.85009765625,-0.556884765625,-7.781981945037842,2.838134527206421,1.7700194120407104,60.0,1256629.0,1.0
483689.0534886,289765.875,300206.125,320317.9375,326117.15625,320454.03125,269623.5625,262102.640625,270599.0,-0.0283203125,0.849853515625,-0.55517578125,-7.873534679412842,2.655029058456421,1.9836424589157104,60.0,1256630.0,1.0
483689.0559527,288557.46875,302427.4375,323221.53125,327870.15625,322550.0,270177.34375,264438.6875,271439.25,-0.029052734375,0.849609375,-0.554931640625,-8.270262718200684,2.563476324081421,2.075195074081421,60.0,1256631.0,1.0
483689.0585477,289082.53125,305288.625,329236.65625,331305.875,326281.3125,270596.5,268131.8125,272500.0625,-0.0322265625,0.84716796875,-0.5537109375,-8.422850608825684,2.441406011581421,2.166747808456421,60.0,1256632.0,1.0
483689.0610642,290754.28125,304757.375,329885.375,331603.0,326373.03125,270301.71875,267966.40625,272290.46875,-0.031005859375,0.84423828125,-0.550537109375,-8.514403343200684,2.380370855331421,2.319335699081421,60.0,1256633.0,1.0
483689.0635165,291280.15625,301653.53125,324422.96875,328472.125,322789.4375,269712.96875,264295.875,271128.71875,-0.03173828125,0.8408203125,-0.54931640625,-8.544920921325684,2.075195074081421,2.288818120956421,60.0,1256634.0,1.0
483689.066142,289885.5,300212.65625,320333.9375,326169.0,320442.5,269631.25,262180.25,270589.96875,-0.02880859375,0.83935546875,-0.544677734375,-8.605956077575684,1.8310545682907104,2.349853277206421,60.0,1256635.0,1.0
483689.0661846,288591.25,302357.78125,323134.53125,327844.84375,322488.125,270153.75,264489.09375,271385.3125,-0.028564453125,0.8388671875,-0.543701171875,-8.697508811950684,1.6479490995407104,2.380370855331421,60.0,1256636.0,1.0
483689.0685085,289065.375,305222.125,329141.34375,331275.5,326248.5,270578.53125,268206.65625,272454.625,-0.0302734375,0.83740234375,-0.544677734375,-8.697508811950684,1.5563963651657104,2.227782964706421,60.0,1256637.0,1.0
483689.0981168,290742.5625,304724.375,329849.0,331596.28125,326384.65625,270285.625,268065.03125,272266.625,-0.02880859375,0.83837890625,-0.548095703125,-8.850096702575684,1.4343260526657104,2.075195074081421,60.0,1256638.0,1.0
483689.0981563,291343.28125,301665.6875,324450.4375,328502.625,322833.21875,269728.71875,264406.75,271143.46875,-0.028564453125,0.83837890625,-0.547607421875,-8.850096702575684,1.1596678495407104,2.014159917831421,60.0,1256639.0,1.0
483689.1118704,290006.65625,300245.53125,320368.71875,326213.0,320496.03125,269670.9375,262278.59375,270631.4375,-0.028076171875,0.839111328125,-0.5439453125,-8.697508811950684,0.7629393935203552,2.166747808456421,60.0,1256640.0,1.0
483689.1119102,288669.5,302361.1875,323096.90625,327846.375,322502.25,270169.9375,264537.1875,271413.75,-0.028076171875,0.837646484375,-0.53955078125,-8.544920921325684,0.6103515028953552,2.136230230331421,60.0,1256641.0,1.0
483689.1151533,289078.15625,305207.625,329059.34375,331254.5625,326249.65625,270572.78125,268246.6875,272467.25,-0.0263671875,0.837158203125,-0.541015625,-8.361815452575684,0.4882812201976776,2.288818120956421,60.0,1256642.0,1.0
483689.1447652,290759.28125,304745.5625,329817.25,331602.625,326417.46875,270283.21875,268135.84375,272273.21875,-0.02294921875,0.83447265625,-0.53857421875,-8.270262718200684,0.2136230319738388,2.258300542831421,60.0,1256643.0,1.0
483689.1473245,291383.96875,301698.0625,324445.78125,328507.09375,322859.875,269702.34375,264455.46875,271131.5,-0.018798828125,0.833251953125,-0.5390625,-8.087157249450684,0.2136230319738388,2.197265386581421,60.0,1256644.0,1.0
483689.1497898,290040.8125,300258.96875,320317.15625,326179.375,320478.78125,269623.125,262272.0,270593.28125,-0.0205078125,0.836669921875,-0.54052734375,-7.965087413787842,0.03051757626235485,2.136230230331421,60.0,1256645.0,1.0
483689.1521932,288687.375,302388.8125,323000.6875,327809.90625,322492.15625,270150.25,264531.375,271404.0,-0.02294921875,0.83837890625,-0.54296875,-8.026122093200684,0.03051757626235485,2.288818120956421,60.0,1256646.0,1.0
483689.1547711,289057.15625,305260.375,328969.40625,331233.1875,326269.5,270570.90625,268267.71875,272476.625,-0.022705078125,0.83837890625,-0.544677734375,-7.995604991912842,0.0610351525247097,2.197265386581421,60.0,1256647.0,1.0
483689.1573421,290738.90625,304837.21875,329792.84375,331626.15625,326482.1875,270285.8125,268190.46875,272285.84375,-0.021484375,0.8408203125,-0.54248046875,-7.995604991912842,0.0610351525247097,2.166747808456421,60.0,1256648.0,1.0
483689.1622879,291420.0,301821.625,324478.3125,328558.59375,322950.0,269701.875,264515.75,271135.25,-0.020263671875,0.8408203125,-0.54052734375,-7.965087413787842,-0.0915527269244194,2.044677495956421,60.0,1256649.0,1.0
483689.1648009,290086.6875,300354.4375,320313.375,326203.0625,320536.0,269615.0625,262287.375,270579.21875,-0.019287109375,0.842529296875,-0.538330078125,-7.720946788787842,-0.2441406100988388,1.8920897245407104,60.0,1256650.0,1.0
483689.1672969,288650.625,302403.65625,322882.21875,327764.375,322463.0,270113.59375,264470.875,271340.96875,-0.0185546875,0.843994140625,-0.53759765625,-7.629394054412842,-0.2746581733226776,1.6784666776657104,60.0,1256651.0,1.0
483689.1721534,288960.59375,305268.4375,328814.46875,331179.28125,326219.78125,270530.40625,268203.875,272409.21875,-0.02001953125,0.843017578125,-0.53759765625,-7.629394054412842,-0.2746581733226776,1.6479490995407104,60.0,1256652.0,1.0
483689.1748404,290648.96875,304895.6875,329688.96875,331595.375,326461.5625,270229.5625,268159.53125,272230.65625,-0.01953125,0.840576171875,-0.535888671875,-7.629394054412842,-0.3051757514476776,1.5563963651657104,60.0,1256653.0,1.0
483689.1748829,291386.84375,301918.96875,324432.375,328554.9375,322962.15625,269647.875,264508.3125,271094.40625,-0.021728515625,0.839599609375,-0.5390625,-7.568358898162842,-0.2136230319738388,1.4648436307907104,60.0,1256654.0,1.0
483689.1839043,290078.1875,300447.59375,320253.84375,326191.4375,320544.40625,269568.5625,262268.5,270545.625,-0.02294921875,0.838623046875,-0.537841796875,-7.446288585662842,-0.2746581733226776,1.3122557401657104,60.0,1256655.0,1.0
483689.1839448,288620.40625,302487.4375,322777.8125,327718.15625,322456.125,270084.28125,264441.09375,271314.34375,-0.024169921875,0.839111328125,-0.543212890625,-7.232665538787842,-0.3356933295726776,1.1901854276657104,60.0,1256656.0,1.0
483689.1839536,288872.25,305330.21875,328666.15625,331093.53125,326189.46875,270495.5625,268157.8125,272372.75,-0.02587890625,0.8427734375,-0.540771484375,-7.141112804412842,-0.4882812201976776,1.1901854276657104,60.0,1256657.0,1.0
483689.1839613,290579.03125,304995.03125,329602.6875,331544.96875,326473.96875,270213.375,268151.9375,272216.0,-0.02490234375,0.84716796875,-0.54052734375,-7.141112804412842,-0.4882812201976776,1.0070799589157104,60.0,1256658.0,1.0
483689.1839691,291361.53125,302028.125,324382.125,328517.09375,322988.625,269629.71875,264504.21875,271090.09375,-0.024658203125,0.851318359375,-0.541259765625,-7.049560070037842,-0.5493163466453552,0.8544921278953552,60.0,1256659.0,1.0
483689.1839779,290054.65625,300511.25,320149.25,326116.71875,320528.84375,269537.90625,262217.625,270524.78125,-0.023681640625,0.854736328125,-0.5400390625,-7.080077648162842,-0.5798339247703552,0.6713866591453552,60.0,1256660.0,1.0
483689.1910181,288559.78125,302500.46875,322590.125,327605.59375,322397.03125,270041.625,264343.53125,271276.34375,-0.025634765625,0.85546875,-0.541259765625,-7.202147960662842,-0.5798339247703552,0.4577636420726776,60.0,1256661.0,1.0
483689.191059,288779.28125,305347.1875,328480.96875,330996.71875,326143.15625,270451.03125,268072.4375,272339.5625,-0.025634765625,0.85595703125,-0.53759765625,-7.202147960662842,-0.6408690810203552,0.3051757514476776,60.0,1256662.0,1.0
483689.1934532,290488.1875,305042.40625,329480.1875,331492.5625,326467.71875,270177.71875,268103.03125,272192.84375,-0.02783203125,0.85791015625,-0.538818359375,-7.232665538787842,-0.7934569716453552,0.2136230319738388,60.0,1256663.0,1.0
483689.1960606,291319.34375,302098.78125,324312.03125,328509.0625,323011.4375,269609.09375,264475.875,271077.59375,-0.029541015625,0.85791015625,-0.537109375,-7.293700695037842,-0.7324218153953552,-0.03051757626235485,60.0,1256664.0,1.0
483689.1985225,290010.9375,300537.09375,320028.625,326076.21875,320510.96875,269487.5,262144.84375,270485.90625,-0.030029296875,0.85791015625,-0.534423828125,-7.537841320037842,-0.7934569716453552,-0.0610351525247097,60.0,1256665.0,1.0
483689.2010565,288482.0,302488.21875,322403.71875,327537.03125,322343.1875,269987.0,264242.15625,271231.0,-0.0302734375,0.857666015625,-0.532958984375,-7.751464366912842,-0.7934569716453552,-0.1525878757238388,60.0,1256666.0,1.0
483689.2035889,288671.71875,305344.15625,328296.71875,330948.78125,326097.84375,270419.03125,267995.28125,272314.625,-0.03076171875,0.85400390625,-0.534912109375,-7.812499523162842,-0.9155272841453552,-0.3051757514476776,60.0,1256667.0,1.0
483689.2059187,290383.6875,305062.625,329354.65625,331482.5625,326458.6875,270153.03125,268065.03125,272188.46875,-0.032958984375,0.8525390625,-0.537841796875,-7.995604991912842,-1.0681151151657104,-0.4272460639476776,60.0,1256668.0,1.0
483689.2085428,291254.40625,302123.09375,324224.40625,328511.65625,323014.5625,269583.59375,264442.6875,271064.34375,-0.03369140625,0.849853515625,-0.53515625,-7.934569835662842,-1.1596678495407104,-0.5493163466453552,60.0,1256669.0,1.0
483689.2111421,289989.03125,300556.6875,319937.4375,326081.9375,320510.25,269481.125,262109.796875,270478.28125,-0.03173828125,0.8486328125,-0.53662109375,-7.873534679412842,-1.2207030057907104,-0.5493163466453552,60.0,1256670.0,1.0
483689.2111837,288420.9375,302450.78125,322246.71875,327499.21875,322298.125,269968.6875,264175.1875,271215.90625,-0.031005859375,0.848388671875,-0.539306640625,-7.843017101287842,-1.3732908964157104,-0.5798339247703552,60.0,1256671.0,1.0
483689.2135607,288568.28125,305280.9375,328117.71875,330900.6875,326046.6875,270407.03125,267929.84375,272305.9375,-0.029052734375,0.848876953125,-0.538330078125,-7.751464366912842,-1.4343260526657104,-0.7629393935203552,60.0,1256672.0,1.0
483689.2160842,290302.9375,305033.1875,329245.5,331475.125,326449.3125,270154.90625,268035.0625,272194.625,-0.02783203125,0.850830078125,-0.538330078125,-7.751464366912842,-1.4038084745407104,-0.8544921278953552,60.0,1256673.0,1.0
483689.2161267,291208.71875,302086.875,324149.65625,328510.40625,323004.71875,269570.46875,264403.1875,271061.59375,-0.026123046875,0.85009765625,-0.53466796875,-7.476806163787842,-1.5258787870407104,-0.8850097060203552,60.0,1256674.0,1.0
483689.2483097,289961.5,300489.0,319835.0625,326064.21875,320475.03125,269467.90625,262035.6875,270468.46875,-0.0224609375,0.849365234375,-0.53369140625,-7.415771007537842,-1.4038084745407104,-0.9765624403953552,60.0,1256675.0,1.0
483689.2523771,288365.15625,302349.75,322074.71875,327456.90625,322225.0,269961.0,264068.34375,271203.5625,-0.020263671875,0.85009765625,-0.53515625,-7.415771007537842,-1.3427733182907104,-0.7934569716453552,60.0,1256676.0,1.0
483689.2523962,288490.125,305199.5,327960.46875,330875.9375,325990.65625,270403.71875,267850.25,272303.90625,-0.020263671875,0.850341796875,-0.5322265625,-7.263183116912842,-1.1901854276657104,-0.8850097060203552,60.0,1256677.0,1.0
483689.2523992,290235.34375,304989.9375,329159.40625,331487.21875,326432.75,270150.71875,267996.8125,272201.6875,-0.0205078125,0.851318359375,-0.531494140625,-7.232665538787842,-1.0986326932907104,-0.8239745497703552,60.0,1256678.0,1.0
483689.2524025,291200.25,302080.09375,324127.5,328557.875,323023.125,269580.03125,264389.9375,271078.3125,-0.021728515625,0.850341796875,-0.531982421875,-7.019042491912842,-1.0681151151657104,-0.7629393935203552,60.0,1256679.0,1.0
483689.2548266,289979.21875,300469.5,319793.40625,326097.75,320482.71875,269471.9375,262009.21875,270483.46875,-0.025634765625,0.850830078125,-0.5341796875,-6.927489757537842,-0.9155272841453552,-0.6713866591453552,60.0,1256680.0,1.0
483689.2548434,288369.78125,302313.53125,321983.6875,327470.40625,322214.625,269971.71875,264036.6875,271211.25,-0.0302734375,0.8466796875,-0.53076171875,-7.019042491912842,-0.8544921278953552,-0.6103515028953552,60.0,1256681.0,1.0
483689.2570775,288439.8125,305144.15625,327837.34375,330869.84375,325961.84375,270405.59375,267817.375,272293.15625,-0.030029296875,0.845458984375,-0.532470703125,-6.805419445037842,-0.7629393935203552,-0.7324218153953552,60.0,1256682.0,1.0
483689.2597242,290183.5,304960.96875,329086.4375,331505.53125,326430.15625,270152.40625,268004.9375,272187.65625,-0.031494140625,0.84765625,-0.531005859375,-6.835937023162842,-0.7019042372703552,-0.8544921278953552,60.0,1256683.0,1.0
483689.262238,291196.65625,302071.0625,324103.875,328603.5625,323039.5,269575.71875,264423.28125,271067.9375,-0.0361328125,0.84375,-0.530517578125,-6.683349132537842,-0.7934569716453552,-0.9155272841453552,60.0,1256684.0,1.0
483689.2670918,289985.375,300429.0,319733.0625,326115.53125,320462.34375,269458.4375,262012.34375,270470.4375,-0.0390625,0.84228515625,-0.529296875,-6.530761241912842,-0.7629393935203552,-0.9765624403953552,60.0,1256685.0,1.0
483689.2697425,288342.34375,302233.40625,321857.90625,327441.53125,322159.71875,269955.53125,264012.46875,271196.9375,-0.0380859375,0.842041015625,-0.532470703125,-6.439208507537842,-0.7629393935203552,-1.0070799589157104,60.0,1256686.0,1.0
483689.2724793,288380.625,305074.59375,327710.21875,330836.15625,325921.34375,270399.4375,267813.96875,272291.28125,-0.03955078125,0.8408203125,-0.5322265625,-6.134032726287842,-0.8544921278953552,-1.1596678495407104,60.0,1256687.0,1.0
483689.2725123,290141.40625,304954.53125,329044.25,331515.0,326447.59375,270161.4375,268053.40625,272213.875,-0.039306640625,0.843017578125,-0.533935546875,-5.950927257537842,-0.9460448622703552,-1.2817381620407104,60.0,1256688.0,1.0
483689.2985212,291187.625,302080.53125,324102.625,328605.96875,323072.21875,269573.125,264467.1875,271092.34375,-0.03857421875,0.843994140625,-0.535888671875,-5.676269054412842,-0.9765624403953552,-1.3427733182907104,60.0,1256689.0,1.0
483689.3011369,289983.9375,300400.21875,319676.28125,326068.0625,320452.875,269442.96875,261998.84375,270459.4375,-0.03857421875,0.844970703125,-0.53271484375,-5.432128429412842,-1.0681151151657104,-1.4648436307907104,60.0,1256690.0,1.0
483689.3011799,288286.09375,302147.21875,321702.78125,327320.75,322077.75,269909.21875,263921.46875,271156.28125,-0.035888671875,0.84716796875,-0.533203125,-5.340575695037842,-1.0375975370407104,-1.5563963651657104,60.0,1256691.0,1.0
483689.3033811,288301.5625,305002.8125,327561.34375,330720.4375,325851.25,270354.375,267730.8125,272262.6875,-0.0361328125,0.8486328125,-0.534423828125,-5.126952648162842,-1.0681151151657104,-1.5869139432907104,60.0,1256692.0,1.0
483689.3059604,290099.5625,304942.71875,328987.375,331455.65625,326447.34375,270143.90625,268028.1875,272219.84375,-0.03662109375,0.847412109375,-0.533447265625,-5.004882335662842,-1.0375975370407104,-1.6479490995407104,60.0,1256693.0,1.0
483689.3085503,291196.5625,302099.03125,324100.40625,328581.21875,323100.375,269574.75,264462.53125,271112.375,-0.03759765625,0.847412109375,-0.53076171875,-4.974364757537842,-0.9765624403953552,-1.5563963651657104,60.0,1256694.0,1.0
483689.3110383,290001.375,300394.40625,319647.65625,326026.40625,320457.5,269427.3125,261967.734375,270465.59375,-0.03271484375,0.847412109375,-0.53125,-4.730224132537842,-0.9155272841453552,-1.5563963651657104,60.0,1256695.0,1.0
483689.3135597,288292.28125,302122.03125,321631.59375,327274.96875,322065.0625,269899.375,263882.5625,271154.5625,-0.03466796875,0.8466796875,-0.53125,-4.760741710662842,-0.9155272841453552,-1.6174315214157104,60.0,1256696.0,1.0
483689.3159609,288270.28125,304972.84375,327478.8125,330688.875,325836.3125,270350.53125,267703.71875,272266.6875,-0.036376953125,0.844970703125,-0.530029296875,-4.730224132537842,-0.8239745497703552,-1.6174315214157104,60.0,1256697.0,1.0
483689.3184044,290041.4375,304916.78125,328940.71875,331450.90625,326448.40625,270136.125,268026.125,272223.59375,-0.037353515625,0.8466796875,-0.530517578125,-4.577636241912842,-0.7324218153953552,-1.5563963651657104,60.0,1256698.0,1.0
483689.3210999,291159.65625,302072.125,324080.625,328594.875,323103.15625,269555.6875,264468.0,271108.78125,-0.037841796875,0.850830078125,-0.529296875,-4.669188976287842,-0.7324218153953552,-1.5869139432907104,60.0,1256699.0,1.0
483689.3211408,289983.78125,300349.625,319597.59375,326025.875,320431.3125,269400.03125,261952.625,270447.90625,-0.037841796875,0.849365234375,-0.53369140625,-4.394530773162842,-0.6713866591453552,-1.5869139432907104,60.0,1256700.0,1.0
483689.3235079,288254.46875,302045.65625,321513.21875,327245.46875,321999.59375,269864.96875,263833.21875,271123.46875,-0.03857421875,0.85302734375,-0.536376953125,-4.241942882537842,-0.6103515028953552,-1.6784666776657104,60.0,1256701.0,1.0
483689.3485574,288214.59375,304911.4375,327358.65625,330676.71875,325777.59375,270328.90625,267667.78125,272248.09375,-0.040771484375,0.85546875,-0.535400390625,-4.150390148162842,-0.6408690810203552,-1.5869139432907104,60.0,1256702.0,1.0
483689.3485979,290008.8125,304913.84375,328898.4375,331494.34375,326442.15625,270134.4375,268040.625,272231.5625,-0.041748046875,0.857421875,-0.53564453125,-3.997802495956421,-0.6408690810203552,-1.4648436307907104,60.0,1256703.0,1.0
483689.3510553,291171.53125,302098.6875,324091.46875,328667.9375,323128.71875,269562.0625,264498.3125,271127.3125,-0.041748046875,0.860595703125,-0.53125,-3.906249761581421,-0.6103515028953552,-1.5258787870407104,60.0,1256704.0,1.0
483689.3535756,290020.25,300357.40625,319583.46875,326079.25,320438.28125,269406.5625,261948.953125,270459.25,-0.042724609375,0.86279296875,-0.532958984375,-3.906249761581421,-0.5493163466453552,-1.5869139432907104,60.0,1256705.0,1.0
483689.3562734,288276.53125,302030.90625,321445.625,327262.28125,321976.8125,269875.6875,263796.1875,271129.09375,-0.045166015625,0.8662109375,-0.533203125,-3.967284917831421,-0.5187987685203552,-1.5563963651657104,60.0,1256706.0,1.0
483689.3585282,288202.96875,304896.5,327283.90625,330674.75,325758.8125,270338.0,267634.96875,272246.125,-0.046142578125,0.865966796875,-0.532470703125,-4.089354991912842,-0.5493163466453552,-1.6174315214157104,60.0,1256707.0,1.0
483689.3610657,289978.125,304910.25,328870.34375,331501.6875,326445.71875,270120.9375,268030.34375,272214.21875,-0.047119140625,0.865478515625,-0.529052734375,-4.241942882537842,-0.6408690810203552,-1.6174315214157104,60.0,1256708.0,1.0
483689.3635432,291183.4375,302120.21875,324118.1875,328705.5625,323161.90625,269551.59375,264514.03125,271114.0625,-0.0478515625,0.863037109375,-0.526123046875,-4.394530773162842,-0.5493163466453552,-1.5869139432907104,60.0,1256709.0,1.0
483689.366076,290046.8125,300353.1875,319575.875,326107.84375,320449.65625,269398.34375,261943.953125,270454.6875,-0.048828125,0.864501953125,-0.52587890625,-4.333495616912842,-0.6713866591453552,-1.5869139432907104,60.0,1256710.0,1.0
483689.3661156,288272.53125,301986.21875,321371.53125,327256.1875,321950.875,269860.75,263761.15625,271111.28125,-0.048095703125,0.862548828125,-0.525634765625,-4.394530773162842,-0.6103515028953552,-1.5563963651657104,60.0,1256711.0,1.0
483689.3684748,288156.5625,304843.125,327188.96875,330657.25,325722.15625,270313.34375,267599.9375,272216.625,-0.05126953125,0.860595703125,-0.526611328125,-4.364013195037842,-0.7324218153953552,-1.5258787870407104,60.0,1256712.0,1.0
483689.403467,289933.96875,304890.875,328824.84375,331516.09375,326443.5,270117.90625,268036.59375,272201.6875,-0.0498046875,0.85986328125,-0.52734375,-4.333495616912842,-0.8544921278953552,-1.4038084745407104,60.0,1256713.0,1.0
483689.4035097,291180.3125,302123.1875,324113.1875,328741.15625,323179.59375,269556.34375,264540.15625,271123.90625,-0.0478515625,0.85546875,-0.524169921875,-4.272460460662842,-0.8239745497703552,-1.3122557401657104,60.0,1256714.0,1.0
483689.4074037,290077.90625,300352.28125,319563.71875,326131.71875,320461.96875,269402.28125,261961.203125,270457.28125,-0.04736328125,0.853271484375,-0.523681640625,-4.150390148162842,-0.8850097060203552,-1.3732908964157104,60.0,1256715.0,1.0
483689.4074454,288285.5625,301955.375,321299.0,327233.125,321926.375,269860.5,263745.84375,271103.96875,-0.04833984375,0.850341796875,-0.530029296875,-4.058837413787842,-0.8544921278953552,-1.4343260526657104,60.0,1256716.0,1.0
483689.4074561,288157.90625,304834.1875,327123.34375,330639.09375,325713.75,270338.09375,267607.0625,272232.5625,-0.046875,0.850341796875,-0.5244140625,-3.906249761581421,-0.8544921278953552,-1.4038084745407104,60.0,1256717.0,1.0
483689.4097654,289930.5625,304912.9375,328814.65625,331519.65625,326468.96875,270137.03125,268072.4375,272222.28125,-0.05029296875,0.849853515625,-0.5224609375,-3.784179449081421,-0.8850097060203552,-1.3122557401657104,60.0,1256718.0,1.0
483689.4122668,291196.40625,302147.0625,324133.46875,328749.375,323208.21875,269562.59375,264567.25,271122.84375,-0.049072265625,0.846435546875,-0.52490234375,-3.662109136581421,-0.7934569716453552,-1.2207030057907104,60.0,1256719.0,1.0
483689.4172718,290113.78125,300356.125,319559.59375,326120.90625,320463.875,269411.75,261958.34375,270451.46875,-0.0498046875,0.844970703125,-0.526611328125,-3.509521245956421,-0.7324218153953552,-1.1291502714157104,60.0,1256720.0,1.0
483689.4198175,288299.34375,301923.8125,321229.375,327187.96875,321890.34375,269868.53125,263711.78125,271093.875,-0.048583984375,0.84619140625,-0.529296875,-2.929687261581421,-0.7324218153953552,-1.1901854276657104,60.0,1256721.0,1.0
483689.4221069,288119.90625,304777.125,327016.59375,330567.75,325656.71875,270329.25,267562.28125,272206.34375,-0.05029296875,0.84912109375,-0.521728515625,-3.051757574081421,-0.9155272841453552,-1.1291502714157104,60.0,1256722.0,1.0
483689.4247991,289906.0625,304894.71875,328783.28125,331490.4375,326459.75,270147.84375,268082.625,272218.96875,-0.04931640625,0.845947265625,-0.522216796875,-2.990722417831421,-0.9460448622703552,-1.0986326932907104,60.0,1256723.0,1.0
483689.4297,291227.96875,302174.6875,324177.5625,328762.25,323250.3125,269599.6875,264625.34375,271153.21875,-0.04833984375,0.8466796875,-0.525390625,-2.655029058456421,-0.8544921278953552,-1.0681151151657104,60.0,1256724.0,1.0
483689.4321849,290142.71875,300353.46875,319561.84375,326095.25,320473.53125,269426.0625,261979.265625,270464.96875,-0.051513671875,0.848876953125,-0.526123046875,-2.655029058456421,-0.8544921278953552,-1.1291502714157104,60.0,1256725.0,1.0
483689.434735,288309.71875,301892.15625,321175.4375,327120.5625,321859.59375,269865.84375,263695.6875,271091.4375,-0.0537109375,0.84765625,-0.52392578125,-2.532958745956421,-0.8544921278953552,-0.9460448622703552,60.0,1256726.0,1.0
483689.4372855,288122.84375,304756.125,326966.59375,330515.625,325635.53125,270343.5625,267564.53125,272212.78125,-0.054443359375,0.84912109375,-0.52392578125,-2.197265386581421,-0.9155272841453552,-0.8850097060203552,60.0,1256727.0,1.0
483689.4373254,289903.03125,304900.0625,328775.84375,331466.5625,326467.90625,270153.84375,268111.6875,272240.9375,-0.056396484375,0.850830078125,-0.522705078125,-2.166747808456421,-0.9460448622703552,-0.7629393935203552,60.0,1256728.0,1.0
483689.439657,291242.4375,302180.75,324190.4375,328748.125,323260.6875,269593.96875,264649.5,271170.5625,-0.056396484375,0.8515625,-0.52294921875,-1.9531248807907104,-1.0681151151657104,-0.7019042372703552,60.0,1256729.0,1.0
483689.4448069,290194.15625,300346.65625,319560.59375,326084.15625,320471.375,269421.59375,261988.125,270477.84375,-0.055419921875,0.854248046875,-0.526123046875,-1.8615721464157104,-1.1291502714157104,-0.5798339247703552,60.0,1256730.0,1.0
483689.4523036,288360.125,301857.09375,321119.75,327104.21875,321836.4375,269878.46875,263679.15625,271100.03125,-0.05712890625,0.858642578125,-0.520751953125,-1.7700194120407104,-1.1291502714157104,-0.5493163466453552,60.0,1256731.0,1.0
483689.4523442,288136.25,304707.75,326900.4375,330507.3125,325607.1875,270343.125,267539.125,272219.75,-0.0546875,0.860595703125,-0.5244140625,-1.7089842557907104,-1.0986326932907104,-0.4882812201976776,60.0,1256732.0,1.0
483689.457261,289931.28125,304890.15625,328785.3125,331519.40625,326490.875,270177.0,268136.375,272270.09375,-0.0546875,0.86279296875,-0.52197265625,-1.6784666776657104,-1.1291502714157104,-0.3051757514476776,60.0,1256733.0,1.0
483689.4597955,291310.125,302185.3125,324244.0625,328838.15625,323300.46875,269635.28125,264689.28125,271204.90625,-0.057373046875,0.86474609375,-0.52587890625,-1.7089842557907104,-1.2512205839157104,-0.0610351525247097,60.0,1256734.0,1.0
483689.4612462,290272.8125,300315.28125,319571.75,326156.65625,320469.125,269433.65625,261982.9375,270486.875,-0.054931640625,0.864990234375,-0.524169921875,-1.8310545682907104,-1.2817381620407104,0.0610351525247097,60.0,1256735.0,1.0
483689.4813921,288450.71875,301817.75,321101.40625,327179.84375,321821.59375,269914.03125,263667.09375,271125.59375,-0.0546875,0.8671875,-0.52294921875,-2.014159917831421,-1.3122557401657104,0.2746581733226776,60.0,1256736.0,1.0
483689.5148182,288212.71875,304678.96875,326886.3125,330597.875,325602.875,270396.5,267543.78125,272257.125,-0.05322265625,0.865234375,-0.5224609375,-2.258300542831421,-1.3732908964157104,0.5798339247703552,60.0,1256737.0,1.0
483689.5148593,289994.0625,304877.53125,328811.25,331628.8125,326503.46875,270227.6875,268164.71875,272302.71875,-0.050537109375,0.864501953125,-0.523193359375,-2.319335699081421,-1.2207030057907104,0.6713866591453552,60.0,1256738.0,1.0
483689.517297,291422.15625,302207.03125,324337.0625,328984.96875,323359.84375,269691.5,264758.125,271250.875,-0.05029296875,0.86572265625,-0.5263671875,-2.532958745956421,-1.1291502714157104,1.0070799589157104,60.0,1256739.0,1.0
483689.5196914,290404.6875,300311.71875,319646.84375,326279.15625,320514.71875,269502.40625,262032.015625,270521.03125,-0.051513671875,0.865478515625,-0.5263671875,-2.502441167831421,-1.1901854276657104,1.3427733182907104,60.0,1256740.0,1.0
483689.522088,288543.0625,301733.90625,321100.96875,327231.15625,321819.0,269950.25,263673.0,271124.78125,-0.0537109375,0.8662109375,-0.521484375,-2.960204839706421,-1.2512205839157104,2.380370855331421,60.0,1256741.0,1.0
483689.524774,288278.15625,304538.0625,326874.96875,330628.625,325604.9375,270453.34375,267573.625,272249.4375,-0.052734375,0.86279296875,-0.523681640625,-3.234863042831421,-1.3427733182907104,2.838134527206421,60.0,1256742.0,1.0
483689.5296475,290059.21875,304740.46875,328858.71875,331682.8125,326549.78125,270304.75,268249.46875,272304.4375,-0.053955078125,0.8623046875,-0.524658203125,-3.112792730331421,-1.3732908964157104,2.655029058456421,60.0,1256743.0,1.0
483689.5321757,291494.46875,302078.375,324404.90625,329020.65625,323402.5625,269749.625,264845.21875,271248.625,-0.054443359375,0.861083984375,-0.522705078125,-2.838134527206421,-1.4343260526657104,2.532958745956421,60.0,1256744.0,1.0
483689.5348067,290537.375,300226.5,319731.25,326324.84375,320572.65625,269593.0,262135.640625,270552.15625,-0.053955078125,0.857177734375,-0.521484375,-2.899169683456421,-1.4038084745407104,2.441406011581421,60.0,1256745.0,1.0
483689.5371649,288649.8125,301642.71875,321118.21875,327237.78125,321830.34375,270029.75,263738.4375,271145.34375,-0.05029296875,0.855712890625,-0.518310546875,-2.838134527206421,-1.4953612089157104,2.380370855331421,60.0,1256746.0,1.0
483689.5396607,288318.65625,304471.1875,326845.46875,330602.34375,325589.84375,270488.5,267618.53125,272264.1875,-0.050048828125,0.85205078125,-0.516845703125,-2.777099370956421,-1.5563963651657104,2.380370855331421,60.0,1256747.0,1.0
483689.5421479,290100.96875,304752.46875,328891.28125,331690.78125,326585.1875,270338.375,268337.4375,272343.40625,-0.04638671875,0.848876953125,-0.516357421875,-2.838134527206421,-1.3427733182907104,2.166747808456421,60.0,1256748.0,1.0
483689.5446746,291556.0,302111.75,324477.53125,329031.03125,323444.59375,269767.0625,264921.65625,271275.0,-0.048828125,0.846435546875,-0.514892578125,-3.021239995956421,-1.0070799589157104,1.7089842557907104,60.0,1256749.0,1.0
483689.5497748,290610.5,300238.9375,319774.1875,326313.03125,320582.9375,269601.46875,262165.84375,270570.90625,-0.045654296875,0.849365234375,-0.5166015625,-2.349853277206421,-1.1596678495407104,1.5869139432907104,60.0,1256750.0,1.0
483689.5522848,288694.53125,301624.5625,321103.75,327196.5625,321811.75,270022.75,263731.90625,271143.46875,-0.044921875,0.855224609375,-0.516357421875,-2.319335699081421,-1.0986326932907104,1.6174315214157104,60.0,1256751.0,1.0
483689.5548624,288328.3125,304445.96875,326812.5625,330570.0625,325575.96875,270500.1875,267619.78125,272255.875,-0.044189453125,0.861328125,-0.52197265625,-2.258300542831421,-1.0986326932907104,1.4953612089157104,60.0,1256752.0,1.0
483689.5549043,290109.84375,304755.59375,328899.59375,331683.28125,326598.59375,270370.65625,268372.40625,272359.6875,-0.04833984375,0.867919921875,-0.51708984375,-2.288818120956421,-0.7934569716453552,1.0986326932907104,60.0,1256753.0,1.0
483689.5572996,291609.625,302142.65625,324534.125,329041.5625,323482.59375,269806.84375,264975.21875,271307.1875,-0.046630859375,0.87158203125,-0.51318359375,-2.044677495956421,-0.9460448622703552,1.1291502714157104,60.0,1256754.0,1.0
483689.557341,290651.0,300226.5,319796.34375,326257.4375,320580.0,269593.25,262163.96875,270548.125,-0.046142578125,0.87109375,-0.509765625,-1.9226073026657104,-0.9765624403953552,1.2512205839157104,60.0,1256755.0,1.0
483689.5597762,288734.84375,301601.84375,321077.5625,327110.90625,321785.46875,270024.65625,263699.09375,271127.03125,-0.045654296875,0.870849609375,-0.5068359375,-2.044677495956421,-0.9765624403953552,1.1291502714157104,60.0,1256756.0,1.0
483689.5622885,288363.8125,304478.53125,326792.34375,330503.375,325570.34375,270510.3125,267610.03125,272266.625,-0.045654296875,0.86572265625,-0.508056640625,-2.075195074081421,-0.9155272841453552,0.9155272841453552,60.0,1256757.0,1.0
483689.5648561,290111.8125,304828.46875,328910.84375,331640.1875,326615.25,270360.71875,268388.0625,272357.1875,-0.0458984375,0.85986328125,-0.505615234375,-2.197265386581421,-0.8544921278953552,0.8544921278953552,60.0,1256758.0,1.0
483689.5649025,291604.71875,302231.1875,324556.28125,329010.625,323495.90625,269785.5625,264988.15625,271277.40625,-0.045654296875,0.853515625,-0.508544921875,-2.288818120956421,-0.7019042372703552,0.7934569716453552,60.0,1256759.0,1.0
483689.5671068,290673.28125,300334.0625,319788.5625,326252.34375,320574.375,269575.65625,262163.25,270531.3125,-0.044189453125,0.84765625,-0.50830078125,-2.227782964706421,-0.5798339247703552,0.5493163466453552,60.0,1256760.0,1.0
483689.5698043,288743.34375,301711.8125,321009.34375,327104.65625,321755.0625,269992.53125,263679.875,271106.65625,-0.0439453125,0.84228515625,-0.509033203125,-2.044677495956421,-0.3662109076976776,0.2441406100988388,60.0,1256761.0,1.0
483689.5698448,288319.46875,304566.5,326686.5,330490.21875,325531.1875,270459.6875,267582.65625,272231.03125,-0.043212890625,0.83642578125,-0.5126953125,-1.4953612089157104,-0.3051757514476776,0.03051757626235485,60.0,1256762.0,1.0
483689.5722826,290056.8125,304937.4375,328852.8125,331663.34375,326616.84375,270312.96875,268397.875,272332.59375,-0.04248046875,0.83544921875,-0.5107421875,-1.0681151151657104,-0.2441406100988388,-0.1831054538488388,60.0,1256763.0,1.0
483689.5984649,291602.03125,302388.71875,324567.46875,329082.15625,323552.59375,269753.03125,265043.5,271286.71875,-0.043701171875,0.8388671875,-0.513671875,-0.5187987685203552,-0.0915527269244194,-0.2746581733226776,60.0,1256764.0,1.0
483689.5985047,290677.84375,300456.625,319766.125,326290.5,320598.25,269536.21875,262181.25,270523.0,-0.04443359375,0.841552734375,-0.513427734375,0.0,0.03051757626235485,-0.2441406100988388,60.0,1256765.0,1.0
483689.6005925,288742.875,301798.8125,320934.3125,327108.84375,321736.3125,269972.34375,263657.96875,271092.15625,-0.0439453125,0.846435546875,-0.511474609375,0.3356933295726776,0.1831054538488388,-0.2136230319738388,60.0,1256766.0,1.0
483689.600628,288327.0625,304677.71875,326630.78125,330505.25,325522.6875,270457.375,267576.21875,272238.1875,-0.046142578125,0.850830078125,-0.510498046875,0.5493163466453552,0.2746581733226776,-0.0915527269244194,60.0,1256767.0,1.0
483689.6071453,290052.53125,305072.4375,328839.0625,331690.4375,326631.34375,270314.9375,268407.4375,272338.0625,-0.050537109375,0.85400390625,-0.510986328125,0.7324218153953552,0.3662109076976776,-0.03051757626235485,60.0,1256768.0,1.0
483689.6097776,291601.84375,302518.71875,324568.90625,329107.1875,323580.40625,269752.9375,265047.09375,271289.9375,-0.050048828125,0.85595703125,-0.51318359375,0.7934569716453552,0.4577636420726776,-0.1831054538488388,60.0,1256769.0,1.0
483689.6123575,290677.84375,300549.4375,319737.15625,326277.90625,320613.4375,269512.53125,262152.8125,270507.8125,-0.048828125,0.855224609375,-0.51123046875,0.7629393935203552,0.3967284858226776,-0.1525878757238388,60.0,1256770.0,1.0
483689.6123984,288729.3125,301854.15625,320858.3125,327055.9375,321716.53125,269925.65625,263590.8125,271054.25,-0.046630859375,0.85205078125,-0.51025390625,0.9765624403953552,0.4577636420726776,-0.1220703050494194,60.0,1256771.0,1.0
483689.6146403,288280.03125,304719.8125,326524.40625,330432.46875,325479.875,270408.03125,267490.40625,272189.09375,-0.046142578125,0.85107421875,-0.50927734375,1.1901854276657104,0.5798339247703552,-0.2746581733226776,60.0,1256772.0,1.0
483689.6172876,289983.59375,305131.09375,328769.21875,331637.9375,326613.90625,270259.5,268354.875,272293.6875,-0.046142578125,0.850341796875,-0.510498046875,1.3122557401657104,0.6713866591453552,-0.2746581733226776,60.0,1256773.0,1.0
483689.6173292,291540.0,302585.3125,324531.6875,329079.5625,323589.0,269705.375,265030.09375,271258.5625,-0.049560546875,0.8486328125,-0.5107421875,1.4343260526657104,0.7934569716453552,-0.2746581733226776,60.0,1256774.0,1.0
483689.6234608,290660.03125,300629.53125,319693.0,326272.625,320635.625,269502.15625,262153.6875,270507.875,-0.049072265625,0.849609375,-0.5107421875,1.5258787870407104,0.8850097060203552,-0.3356933295726776,60.0,1256775.0,1.0
483689.623501,288699.53125,301897.0625,320742.4375,327017.40625,321700.625,269905.1875,263555.15625,271041.125,-0.049072265625,0.854736328125,-0.516357421875,1.7089842557907104,0.8544921278953552,-0.3967284858226776,60.0,1256776.0,1.0
483689.6484096,288242.21875,304768.90625,326411.40625,330402.78125,325468.0625,270383.96875,267462.78125,272176.03125,-0.047607421875,0.85498046875,-0.515380859375,1.8310545682907104,0.9765624403953552,-0.3356933295726776,60.0,1256777.0,1.0
483689.6773358,289948.0,305218.0,328712.1875,331654.65625,326636.34375,270259.15625,268367.03125,272307.1875,-0.048828125,0.857177734375,-0.51416015625,1.8615721464157104,1.0681151151657104,-0.2746581733226776,60.0,1256778.0,1.0
483689.6773759,291498.40625,302665.0,324489.15625,329106.375,323613.59375,269695.34375,265043.5,271258.5625,-0.0478515625,0.859375,-0.5146484375,1.9226073026657104,1.2512205839157104,-0.2441406100988388,60.0,1256779.0,1.0
483689.6773846,290619.4375,300667.0,319615.03125,326274.0625,320629.875,269474.875,262127.6875,270486.25,-0.047119140625,0.8623046875,-0.5126953125,1.8310545682907104,1.2512205839157104,-0.1525878757238388,60.0,1256780.0,1.0
483689.6773926,288671.4375,301914.59375,320625.34375,326995.84375,321666.75,269880.875,263487.84375,271014.75,-0.05029296875,0.86376953125,-0.51123046875,1.6479490995407104,1.3427733182907104,-0.1831054538488388,60.0,1256781.0,1.0
483689.6774004,288222.90625,304801.1875,326315.0,330397.34375,325450.1875,270383.875,267399.9375,272168.53125,-0.04931640625,0.865234375,-0.512939453125,1.5563963651657104,1.4953612089157104,-0.0610351525247097,60.0,1256782.0,1.0
483689.6774082,289916.625,305263.40625,328671.0625,331677.90625,326657.0,270256.5625,268333.96875,272304.6875,-0.051025390625,0.86767578125,-0.5146484375,1.2817381620407104,1.6174315214157104,-0.1525878757238388,60.0,1256783.0,1.0
483689.6774171,291468.1875,302702.28125,324473.0625,329146.09375,323648.1875,269692.6875,265025.1875,271256.59375,-0.052734375,0.866943359375,-0.52099609375,1.0986326932907104,1.5258787870407104,-0.0915527269244194,60.0,1256784.0,1.0
483689.681122,290598.8125,300671.9375,319561.75,326305.71875,320632.75,269470.9375,262089.234375,270477.40625,-0.053466796875,0.867919921875,-0.52001953125,0.9765624403953552,1.6479490995407104,-0.2441406100988388,60.0,1256785.0,1.0
483689.6811621,288656.0625,301895.625,320528.59375,327011.125,321638.59375,269877.3125,263425.96875,270995.25,-0.052734375,0.8662109375,-0.520751953125,0.8239745497703552,1.5563963651657104,-0.2746581733226776,60.0,1256786.0,1.0
483689.6811709,288193.03125,304783.40625,326213.1875,330408.5,325414.25,270378.15625,267335.1875,272154.59375,-0.04931640625,0.8662109375,-0.52392578125,0.7934569716453552,1.5563963651657104,-0.1220703050494194,60.0,1256787.0,1.0
483689.6811805,289879.96875,305275.5,328620.90625,331717.875,326652.0625,270260.15625,268307.75,272310.6875,-0.0498046875,0.8671875,-0.52099609375,0.7629393935203552,1.5563963651657104,-0.0915527269244194,60.0,1256788.0,1.0
483689.6835387,291438.6875,302718.375,324449.96875,329197.3125,323656.40625,269687.59375,265018.5625,271263.09375,-0.04931640625,0.868408203125,-0.52099609375,0.5493163466453552,1.5869139432907104,-0.0610351525247097,60.0,1256789.0,1.0
483689.6884446,290589.9375,300672.5625,319522.21875,326335.21875,320630.34375,269456.90625,262069.203125,270478.75,-0.049560546875,0.86962890625,-0.521484375,0.3967284858226776,1.7089842557907104,0.0915527269244194,60.0,1256790.0,1.0
483689.6910511,288634.4375,301860.59375,320430.40625,326982.15625,321595.65625,269853.78125,263366.6875,270987.46875,-0.051513671875,0.8701171875,-0.520751953125,0.1831054538488388,1.6784666776657104,0.1831054538488388,60.0,1256791.0,1.0
483689.6935363,288134.90625,304724.84375,326090.34375,330348.34375,325353.15625,270343.03125,267263.3125,272133.84375,-0.052978515625,0.86865234375,-0.524169921875,-0.03051757626235485,1.6784666776657104,0.1525878757238388,60.0,1256792.0,1.0
483689.6959545,289815.15625,305236.40625,328555.375,331686.75,326634.8125,270231.34375,268274.15625,272297.71875,-0.0556640625,0.865478515625,-0.523681640625,-0.2441406100988388,1.6174315214157104,0.2746581733226776,60.0,1256793.0,1.0
483689.6984162,291405.53125,302708.71875,324440.59375,329202.78125,323680.8125,269681.15625,265012.5,271271.78125,-0.057861328125,0.8623046875,-0.521728515625,-0.3356933295726776,1.5563963651657104,0.3051757514476776,60.0,1256794.0,1.0
483689.7009698,290570.09375,300640.1875,319473.84375,326320.5625,320625.15625,269449.84375,262030.578125,270475.625,-0.05859375,0.859130859375,-0.521484375,-0.4882812201976776,1.6174315214157104,0.2136230319738388,60.0,1256795.0,1.0
483689.704659,288628.8125,301818.65625,320346.375,326949.71875,321568.21875,269851.5625,263306.59375,270977.0,-0.0615234375,0.8603515625,-0.52294921875,-0.5798339247703552,1.3732908964157104,0.2136230319738388,60.0,1256796.0,1.0
483689.7234704,288125.96875,304695.5,326010.65625,330307.84375,325327.59375,270344.1875,267204.75,272128.46875,-0.061279296875,0.85888671875,-0.52197265625,-0.6713866591453552,1.3122557401657104,0.1831054538488388,60.0,1256797.0,1.0
483689.7235126,289800.65625,305238.375,328526.5,331669.59375,326636.78125,270234.125,268250.0,272303.96875,-0.060791015625,0.857421875,-0.520751953125,-0.7019042372703552,1.1596678495407104,0.1220703050494194,60.0,1256798.0,1.0
483689.7261344,291410.0625,302725.5,324451.21875,329210.625,323704.3125,269696.53125,265019.625,271296.90625,-0.0615234375,0.858154296875,-0.521728515625,-0.7629393935203552,1.0070799589157104,0.0915527269244194,60.0,1256799.0,1.0
483689.7261768,290590.40625,300642.5,319474.9375,326310.09375,320636.9375,269464.59375,262030.3125,270499.5625,-0.060302734375,0.85888671875,-0.518798828125,-0.9155272841453552,0.8850097060203552,0.03051757626235485,60.0,1256800.0,1.0
483689.7284057,288627.71875,301777.1875,320282.53125,326880.34375,321528.53125,269839.84375,263258.9375,270978.4375,-0.06201171875,0.8583984375,-0.519775390625,-0.8850097060203552,0.7629393935203552,-0.03051757626235485,60.0,1256801.0,1.0
483689.7310594,288103.8125,304653.75,325936.0,330228.625,325278.15625,270329.625,267159.96875,272120.4375,-0.05859375,0.857421875,-0.52197265625,-0.9460448622703552,0.7324218153953552,0.03051757626235485,60.0,1256802.0,1.0
483689.733491,289760.34375,305211.65625,328493.59375,331611.21875,326613.71875,270223.40625,268240.15625,272303.1875,-0.056396484375,0.857421875,-0.52490234375,-0.8544921278953552,0.7629393935203552,0.0610351525247097,60.0,1256803.0,1.0
483689.7371546,291359.75,302685.0,324433.71875,329147.15625,323684.65625,269655.65625,265011.78125,271271.4375,-0.0556640625,0.855224609375,-0.524658203125,-0.9765624403953552,0.6713866591453552,0.1220703050494194,60.0,1256804.0,1.0
483689.7523329,290556.5,300583.9375,319441.59375,326243.03125,320611.5625,269423.28125,262011.09375,270470.34375,-0.052734375,0.856689453125,-0.522705078125,-0.9155272841453552,0.5798339247703552,0.2136230319738388,60.0,1256805.0,1.0
483689.7523732,288609.03125,301718.4375,320221.46875,326820.78125,321496.25,269817.9375,263229.0,270970.9375,-0.05126953125,0.85693359375,-0.522216796875,-0.8544921278953552,0.7934569716453552,0.1831054538488388,60.0,1256806.0,1.0
483689.7546623,288074.03125,304607.0,325874.40625,330189.65625,325257.15625,270321.90625,267133.75,272123.90625,-0.052734375,0.856201171875,-0.52001953125,-0.9460448622703552,0.7324218153953552,0.3356933295726776,60.0,1256807.0,1.0
483689.7597734,289721.8125,305198.6875,328485.90625,331612.8125,326633.375,270217.03125,268250.0,272319.0,-0.05029296875,0.85595703125,-0.5205078125,-0.9155272841453552,0.8850097060203552,0.5493163466453552,60.0,1256808.0,1.0
483689.7598167,291335.96875,302691.375,324466.0625,329173.625,323727.5625,269650.21875,265043.6875,271301.5625,-0.0498046875,0.85791015625,-0.522705078125,-1.0375975370407104,1.0375975370407104,0.7019042372703552,60.0,1256809.0,1.0
483689.7623308,290554.1875,300581.8125,319452.84375,326251.25,320633.03125,269410.25,262023.796875,270493.59375,-0.050537109375,0.859130859375,-0.525146484375,-1.1291502714157104,1.0681151151657104,0.7934569716453552,60.0,1256810.0,1.0
483689.7646719,288592.0625,301680.34375,320180.0,326791.28125,321476.75,269793.4375,263203.25,270962.53125,-0.05078125,0.85791015625,-0.522705078125,-1.0681151151657104,1.1291502714157104,0.8850097060203552,60.0,1256811.0,1.0
483689.8010733,288025.5,304552.46875,325809.40625,330148.5,325221.75,270291.53125,267098.34375,272102.90625,-0.05078125,0.85791015625,-0.520751953125,-1.0375975370407104,1.1291502714157104,1.0375975370407104,60.0,1256812.0,1.0
483689.8047748,289661.0,305166.25,328461.03125,331599.6875,326623.46875,270196.03125,268248.21875,272302.46875,-0.0517578125,0.859619140625,-0.519287109375,-1.1291502714157104,1.1901854276657104,1.0070799589157104,60.0,1256813.0,1.0
483689.8048161,291287.0625,302673.65625,324479.84375,329183.625,323741.0625,269635.625,265067.84375,271287.96875,-0.052734375,0.859130859375,-0.51904296875,-1.1291502714157104,1.1901854276657104,1.1596678495407104,60.0,1256814.0,1.0
483689.8048261,290522.0,300546.125,319445.6875,326254.9375,320631.40625,269392.1875,262030.671875,270473.09375,-0.05126953125,0.859619140625,-0.515869140625,-1.1901854276657104,1.2207030057907104,1.3122557401657104,60.0,1256815.0,1.0
483689.8098216,288572.75,301629.90625,320133.21875,326784.40625,321455.90625,269788.15625,263193.0625,270951.78125,-0.0537109375,0.861572265625,-0.516845703125,-1.2817381620407104,1.2817381620407104,1.3732908964157104,60.0,1256816.0,1.0
483689.8121604,288002.78125,304512.75,325766.6875,330154.0625,325210.03125,270299.5625,267100.5,272107.5625,-0.052978515625,0.860595703125,-0.5166015625,-1.4343260526657104,1.4038084745407104,1.4038084745407104,60.0,1256817.0,1.0
483689.8146544,289608.96875,305131.375,328448.875,331620.5,326628.375,270189.5,268263.9375,272300.0625,-0.0537109375,0.86083984375,-0.516357421875,-1.5563963651657104,1.4343260526657104,1.4343260526657104,60.0,1256818.0,1.0
483689.8235524,291265.25,302662.65625,324517.21875,329241.9375,323781.65625,269640.71875,265110.3125,271298.15625,-0.0537109375,0.861328125,-0.51611328125,-1.6784666776657104,1.4038084745407104,1.4343260526657104,60.0,1256819.0,1.0
483689.825959,290521.625,300523.25,319468.40625,326308.46875,320661.8125,269400.5,262053.203125,270475.34375,-0.053955078125,0.862548828125,-0.5185546875,-1.7700194120407104,1.3732908964157104,1.5563963651657104,60.0,1256820.0,1.0
483689.8285281,288563.0,301579.3125,320095.25,326802.90625,321444.75,269787.0,263171.5,270934.4375,-0.05224609375,0.860595703125,-0.520263671875,-1.7700194120407104,1.3427733182907104,1.5563963651657104,60.0,1256821.0,1.0
483689.8687584,287971.3125,304462.96875,325712.59375,330164.6875,325189.71875,270295.71875,267073.6875,272086.625,-0.052734375,0.861572265625,-0.521484375,-1.7089842557907104,1.4038084745407104,1.4038084745407104,60.0,1256822.0,1.0
483689.8760491,289586.8125,305128.25,328459.53125,331679.15625,326659.6875,270210.96875,268290.9375,272308.71875,-0.05078125,0.86279296875,-0.519287109375,-1.7395018339157104,1.4343260526657104,1.4343260526657104,60.0,1256823.0,1.0
483689.881082,291246.90625,302661.9375,324552.34375,329311.03125,323819.65625,269656.28125,265140.6875,271297.71875,-0.0498046875,0.862548828125,-0.52490234375,-1.9531248807907104,1.3427733182907104,1.4648436307907104,60.0,1256824.0,1.0
483689.8833974,290517.625,300500.96875,319476.0,326357.75,320671.03125,269401.65625,262052.3125,270459.34375,-0.051025390625,0.863525390625,-0.5234375,-1.8920897245407104,1.4953612089157104,1.4648436307907104,60.0,1256825.0,1.0
483689.8884784,288554.875,301532.125,320046.875,326811.03125,321415.875,269774.46875,263134.6875,270900.5625,-0.05126953125,0.862548828125,-0.520751953125,-1.9531248807907104,1.4343260526657104,1.4038084745407104,60.0,1256826.0,1.0
483689.8909427,287949.84375,304425.3125,325655.1875,330157.8125,325164.96875,270290.1875,267044.625,272058.65625,-0.05029296875,0.861572265625,-0.51953125,-2.075195074081421,1.4038084745407104,1.4038084745407104,60.0,1256827.0,1.0
483689.8935608,289559.09375,305124.40625,328449.96875,331689.25,326669.6875,270214.53125,268299.28125,272295.03125,-0.050048828125,0.859375,-0.5205078125,-2.105712652206421,1.6479490995407104,1.3732908964157104,60.0,1256828.0,1.0
483689.8960227,291248.6875,302688.40625,324589.46875,329342.78125,323856.75,269655.65625,265176.5625,271302.625,-0.05126953125,0.861328125,-0.519775390625,-2.044677495956421,1.6174315214157104,1.4038084745407104,60.0,1256829.0,1.0
483689.8983991,290539.6875,300514.3125,319500.3125,326375.28125,320697.75,269396.65625,262076.09375,270462.46875,-0.05078125,0.86474609375,-0.514892578125,-2.075195074081421,1.6784666776657104,1.3427733182907104,60.0,1256830.0,1.0
483689.9034046,288584.09375,301533.375,320037.3125,326803.53125,321428.90625,269788.6875,263141.375,270911.03125,-0.04833984375,0.86376953125,-0.5166015625,-2.075195074081421,1.6174315214157104,1.2817381620407104,60.0,1256831.0,1.0
483689.9060317,287962.09375,304431.59375,325634.34375,330135.0,325177.65625,270306.71875,267053.90625,272075.375,-0.048828125,0.86181640625,-0.518798828125,-2.105712652206421,1.5869139432907104,1.3122557401657104,60.0,1256832.0,1.0
483689.9085403,289552.46875,305150.3125,328467.65625,331676.125,326705.71875,270220.0,268335.5625,272316.84375,-0.049560546875,0.860107421875,-0.515625,-2.166747808456421,1.6784666776657104,1.2512205839157104,60.0,1256833.0,1.0
483689.911074,291249.6875,302721.84375,324650.0625,329339.90625,323912.65625,269664.78125,265225.71875,271318.53125,-0.04833984375,0.86083984375,-0.51708984375,-2.136230230331421,1.8005369901657104,1.3732908964157104,60.0,1256834.0,1.0
483689.9135573,290559.8125,300519.75,319523.65625,326343.25,320723.6875,269398.78125,262086.203125,270465.5,-0.045166015625,0.85986328125,-0.516845703125,-1.9226073026657104,1.8920897245407104,1.3732908964157104,60.0,1256835.0,1.0
483689.9184924,288590.8125,301503.21875,319992.59375,326726.28125,321408.09375,269777.0625,263103.8125,270899.5,-0.04443359375,0.857666015625,-0.51953125,-1.8615721464157104,2.014159917831421,1.3122557401657104,60.0,1256836.0,1.0
483689.9201315,287930.4375,304380.15625,325556.125,330039.25,325131.96875,270297.0625,266993.375,272057.125,-0.04443359375,0.858154296875,-0.51904296875,-1.8310545682907104,2.105712652206421,1.3732908964157104,60.0,1256837.0,1.0
483689.9272809,289504.8125,305117.15625,328425.1875,331606.375,326679.96875,270223.3125,268294.625,272309.96875,-0.0458984375,0.857666015625,-0.517578125,-1.8005369901657104,2.319335699081421,1.6174315214157104,60.0,1256838.0,1.0
483689.9298024,291231.1875,302714.34375,324645.78125,329299.5,323910.5,269668.8125,265202.65625,271322.28125,-0.046142578125,0.852294921875,-0.52001953125,-1.6784666776657104,2.624511480331421,1.7089842557907104,60.0,1256839.0,1.0
483689.932295,290572.15625,300522.15625,319523.9375,326303.03125,320721.4375,269393.6875,262053.65625,270467.84375,-0.047607421875,0.85205078125,-0.525390625,-1.5869139432907104,2.685546636581421,1.8920897245407104,60.0,1256840.0,1.0
483689.9347916,288601.8125,301482.21875,319942.875,326658.96875,321374.65625,269761.78125,263032.75,270891.34375,-0.04931640625,0.854248046875,-0.52197265625,-1.4038084745407104,2.777099370956421,2.105712652206421,60.0,1256841.0,1.0
483689.9372888,287936.0,304374.90625,325505.4375,329983.125,325106.40625,270288.75,266929.8125,272041.65625,-0.05078125,0.8564453125,-0.52587890625,-1.1596678495407104,2.960204839706421,2.410888433456421,60.0,1256842.0,1.0
483689.9422501,289507.3125,305148.96875,328432.875,331598.4375,326700.09375,270226.15625,268276.90625,272334.03125,-0.051513671875,0.857666015625,-0.526123046875,-0.9155272841453552,3.021239995956421,2.960204839706421,60.0,1256843.0,1.0
483689.9446697,291259.0625,302768.0625,324704.53125,329321.15625,323962.53125,269682.40625,265211.875,271366.375,-0.052734375,0.86181640625,-0.525390625,-0.7934569716453552,3.112792730331421,3.143310308456421,60.0,1256844.0,1.0
483689.9497243,290609.15625,300543.90625,319555.21875,326301.59375,320744.875,269397.90625,262031.5625,270494.46875,-0.055908203125,0.863525390625,-0.5234375,-0.7934569716453552,3.204345464706421,3.540038824081421,60.0,1256845.0,1.0
483689.9497655,288632.75,301474.8125,319920.25,326634.46875,321358.46875,269762.6875,262974.09375,270905.65625,-0.06103515625,0.86474609375,-0.522216796875,-0.7934569716453552,3.143310308456421,3.784179449081421,60.0,1256846.0,1.0
483689.9522182,287946.0,304365.3125,325467.0,329964.875,325083.6875,270285.4375,266871.0,272072.40625,-0.06298828125,0.863037109375,-0.521240234375,-0.7324218153953552,3.143310308456421,4.119872570037842,60.0,1256847.0,1.0
483689.9522583,289502.5,305159.34375,328435.3125,331614.15625,326708.5,270226.875,268252.59375,272347.71875,-0.06494140625,0.85986328125,-0.524169921875,-0.7934569716453552,3.051757574081421,4.394530773162842,60.0,1256848.0,1.0
483689.9561642,291267.21875,302794.4375,324749.40625,329370.40625,323996.5,269679.96875,265214.09375,271381.3125,-0.066650390625,0.85986328125,-0.51953125,-0.7324218153953552,2.929687261581421,4.608153820037842,60.0,1256849.0,1.0
483689.9562057,290640.71875,300561.59375,319588.65625,326352.125,320768.8125,269398.71875,262024.140625,270511.90625,-0.067138671875,0.861328125,-0.516357421875,-0.9460448622703552,2.807616949081421,4.638671398162842,60.0,1256850.0,1.0
483689.9562156,288655.28125,301466.5625,319903.8125,326659.0625,321349.96875,269761.25,262939.9375,270911.65625,-0.065185546875,0.859375,-0.516357421875,-0.9155272841453552,2.716064214706421,4.791259288787842,60.0,1256851.0,1.0
483689.9610926,287930.8125,304342.15625,325412.09375,329976.40625,325057.6875,270265.3125,266828.78125,272064.90625,-0.06298828125,0.8583984375,-0.51708984375,-1.0986326932907104,2.563476324081421,4.852294445037842,60.0,1256852.0,1.0
483689.9634296,289476.65625,305164.28125,328416.4375,331657.96875,326716.96875,270211.40625,268253.9375,272351.09375,-0.061767578125,0.85693359375,-0.519287109375,-1.3122557401657104,2.441406011581421,4.913329601287842,60.0,1256853.0,1.0
483689.9660594,291248.96875,302804.8125,324755.84375,329426.65625,324015.65625,269674.0,265226.96875,271378.0,-0.0595703125,0.85595703125,-0.524658203125,-1.1596678495407104,2.349853277206421,5.035399913787842,60.0,1256854.0,1.0
483689.9685852,290666.75,300571.96875,319595.4375,326413.1875,320786.4375,269405.6875,262029.15625,270509.59375,-0.05517578125,0.855712890625,-0.5234375,-0.9765624403953552,2.258300542831421,5.096435070037842,60.0,1256855.0,1.0
483689.9686269,288686.46875,301443.5,319859.375,326691.40625,321335.40625,269757.21875,262911.6875,270901.09375,-0.05078125,0.85595703125,-0.525146484375,-0.9155272841453552,2.136230230331421,5.065917491912842,60.0,1256856.0,1.0
483689.9760683,287957.28125,304324.46875,325371.15625,330013.34375,325051.5,270286.96875,266814.84375,272068.5625,-0.048095703125,0.858154296875,-0.521728515625,-0.9460448622703552,2.166747808456421,5.126952648162842,60.0,1256857.0,1.0
483689.9885838,289497.65625,305175.90625,328431.28125,331727.1875,326742.46875,270245.84375,268276.46875,272360.59375,-0.04638671875,0.85791015625,-0.51611328125,-0.7629393935203552,2.227782964706421,5.126952648162842,60.0,1256858.0,1.0
483689.9886236,291303.78125,302844.34375,324828.625,329528.84375,324071.53125,269701.34375,265278.375,271405.0,-0.0439453125,0.860595703125,-0.51953125,-0.9765624403953552,2.197265386581421,5.065917491912842,60.0,1256859.0,1.0
483689.9909519,290746.59375,300592.875,319657.59375,326503.46875,320824.09375,269428.375,262061.78125,270543.65625,-0.044677734375,0.86181640625,-0.521728515625,-0.8544921278953552,2.227782964706421,5.065917491912842,60.0,1256860.0,1.0
483689.9935226,288757.375,301427.59375,319863.21875,326744.4375,321329.6875,269780.21875,262902.84375,270912.625,-0.047119140625,0.864501953125,-0.520751953125,-1.0070799589157104,2.349853277206421,5.035399913787842,60.0,1256861.0,1.0
483689.9960286,288019.75,304307.40625,325366.40625,330063.5625,325048.75,270318.625,266813.40625,272086.625,-0.05078125,0.8681640625,-0.5234375,-1.2817381620407104,2.349853277206421,4.943847179412842,60.0,1256862.0,1.0
483689.998575,289544.4375,305167.40625,328459.34375,331781.4375,326766.78125,270280.15625,268304.4375,272394.8125,-0.050537109375,0.86865234375,-0.522216796875,-1.4343260526657104,2.319335699081421,4.699706554412842,60.0,1256863.0,1.0
483689.9986151,291377.0,302847.65625,324903.0,329597.0625,324120.25,269741.125,265334.8125,271444.25,-0.048828125,0.8701171875,-0.52392578125,-1.6784666776657104,2.075195074081421,4.730224132537842,60.0,1256864.0,1.0
483690.0010566,290845.90625,300581.28125,319729.375,326544.59375,320860.5625,269455.46875,262108.90625,270560.46875,-0.05029296875,0.87109375,-0.524658203125,-1.8920897245407104,2.136230230331421,4.425048351287842,60.0,1256865.0,1.0
483690.0034049,288867.625,301397.71875,319898.90625,326752.375,321343.09375,269810.78125,262932.53125,270931.21875,-0.050048828125,0.87109375,-0.525146484375,-2.166747808456421,2.044677495956421,4.150390148162842,60.0,1256866.0,1.0
483690.0085278,288093.96875,304263.03125,325374.1875,330045.25,325047.3125,270344.375,266840.78125,272102.375,-0.048828125,0.867431640625,-0.523681640625,-2.349853277206421,1.8920897245407104,3.845214605331421,60.0,1256867.0,1.0
483690.0109388,289595.5625,305141.90625,328506.71875,331776.625,326792.53125,270298.84375,268370.53125,272417.1875,-0.047607421875,0.86474609375,-0.520263671875,-2.532958745956421,1.7395018339157104,3.601073980331421,60.0,1256868.0,1.0
483690.0133736,291448.96875,302845.59375,325008.25,329611.1875,324182.21875,269764.5625,265429.65625,271468.84375,-0.04931640625,0.863525390625,-0.51953125,-2.624511480331421,1.5869139432907104,3.356933355331421,60.0,1256869.0,1.0
483690.0150707,290938.1875,300569.90625,319823.0,326547.65625,320905.53125,269471.75,262174.4375,270573.59375,-0.04833984375,0.863037109375,-0.518310546875,-2.777099370956421,1.4343260526657104,3.143310308456421,60.0,1256870.0,1.0
483690.0472516,288941.90625,301357.15625,319929.375,326714.5625,321345.9375,269803.28125,262948.53125,270927.46875,-0.04638671875,0.86181640625,-0.5205078125,-2.746581792831421,1.4038084745407104,2.868652105331421,60.0,1256871.0,1.0
483690.04978,288135.8125,304220.125,325375.53125,329999.65625,325041.125,270339.28125,266847.75,272097.09375,-0.045654296875,0.862060546875,-0.52197265625,-2.838134527206421,1.3122557401657104,2.593993902206421,60.0,1256872.0,1.0
483690.0497934,289645.0,305154.625,328580.40625,331792.09375,326847.0625,270323.25,268440.09375,272447.21875,-0.042724609375,0.863525390625,-0.5205078125,-2.929687261581421,1.1291502714157104,2.288818120956421,60.0,1256873.0,1.0
483690.0545614,291519.59375,302883.5,325129.75,329650.59375,324256.78125,269784.3125,265515.84375,271500.84375,-0.0400390625,0.864013671875,-0.521240234375,-2.899169683456421,1.1291502714157104,2.105712652206421,60.0,1256874.0,1.0
483690.0570915,291043.25,300602.46875,319934.125,326577.15625,320967.65625,269492.59375,262245.53125,270602.65625,-0.037841796875,0.86376953125,-0.521240234375,-2.899169683456421,1.1291502714157104,1.8920897245407104,60.0,1256875.0,1.0
483690.0648147,289045.53125,301373.15625,320001.96875,326726.375,321386.375,269831.0625,263002.96875,270950.53125,-0.03857421875,0.8623046875,-0.51806640625,-2.807616949081421,1.0070799589157104,1.8005369901657104,60.0,1256876.0,1.0
483690.0648299,288198.125,304218.78125,325417.28125,330006.34375,325067.4375,270365.09375,266901.125,272112.90625,-0.03857421875,0.862060546875,-0.51416015625,-2.777099370956421,1.0070799589157104,1.6784666776657104,60.0,1256877.0,1.0
483690.0648327,289672.71875,305159.875,328629.65625,331806.65625,326874.875,270341.9375,268505.34375,272448.65625,-0.038330078125,0.85888671875,-0.509765625,-2.929687261581421,1.0375975370407104,1.5258787870407104,60.0,1256878.0,1.0
483690.0685321,291576.8125,302929.1875,325232.84375,329708.1875,324320.53125,269812.3125,265617.0625,271519.4375,-0.0390625,0.857666015625,-0.511474609375,-2.899169683456421,1.0375975370407104,1.4038084745407104,60.0,1256879.0,1.0
483690.0685472,291130.9375,300654.21875,320042.5,326644.9375,321030.0,269526.5625,262338.78125,270624.84375,-0.041015625,0.855712890625,-0.512451171875,-2.777099370956421,1.0681151151657104,1.2817381620407104,60.0,1256880.0,1.0
483690.0685498,289103.1875,301382.625,320028.53125,326750.4375,321393.5,269847.15625,263037.5,270944.71875,-0.04296875,0.854248046875,-0.513916015625,-2.563476324081421,1.1291502714157104,1.1291502714157104,60.0,1256881.0,1.0
483690.0685526,288230.75,304232.8125,325417.53125,330021.65625,325073.40625,270383.34375,266935.1875,272113.5625,-0.043701171875,0.853271484375,-0.5166015625,-2.502441167831421,1.0375975370407104,1.0986326932907104,60.0,1256882.0,1.0
483690.0708753,289693.1875,305209.40625,328679.5625,331848.6875,326922.71875,270358.75,268578.40625,272466.875,-0.04541015625,0.853271484375,-0.514892578125,-2.380370855331421,0.7934569716453552,0.9460448622703552,60.0,1256883.0,1.0
483690.0708875,291609.0,302992.5625,325320.09375,329756.03125,324385.0625,269826.59375,265700.375,271537.9375,-0.046142578125,0.852783203125,-0.51416015625,-2.258300542831421,0.7324218153953552,0.8544921278953552,60.0,1256884.0,1.0
483690.0733343,291160.0,300685.6875,320091.65625,326649.46875,321057.625,269517.4375,262376.21875,270614.90625,-0.044677734375,0.853515625,-0.511962890625,-2.136230230331421,0.5798339247703552,0.6713866591453552,60.0,1256885.0,1.0
483690.0759868,289142.0,301399.53125,320037.125,326724.75,321404.40625,269838.40625,263051.6875,270936.0625,-0.044921875,0.85595703125,-0.514892578125,-1.8310545682907104,0.5493163466453552,0.5187987685203552,60.0,1256886.0,1.0
483690.0785116,288234.53125,304237.75,325389.90625,329968.625,325063.5,270364.75,266928.65625,272091.71875,-0.04248046875,0.85595703125,-0.5126953125,-1.4953612089157104,0.3662109076976776,0.5187987685203552,60.0,1256887.0,1.0
483690.0810191,289692.03125,305254.5625,328702.0,331829.1875,326959.8125,270353.75,268612.71875,272465.53125,-0.04150390625,0.854248046875,-0.5107421875,-1.3732908964157104,0.4272460639476776,0.5493163466453552,60.0,1256888.0,1.0
483690.0833547,291615.625,303051.3125,325379.90625,329761.125,324449.4375,269821.875,265744.5625,271537.59375,-0.04248046875,0.85400390625,-0.50732421875,-1.2817381620407104,0.2746581733226776,0.4577636420726776,60.0,1256889.0,1.0
483690.0883924,291203.5625,300751.21875,320153.96875,326668.4375,321127.34375,269519.40625,262409.59375,270623.65625,-0.0419921875,0.85302734375,-0.5068359375,-1.2512205839157104,0.2746581733226776,0.4882812201976776,60.0,1256890.0,1.0
483690.0884199,289179.28125,301441.53125,320047.9375,326724.3125,321444.03125,269837.4375,263049.28125,270936.15625,-0.0400390625,0.85205078125,-0.50732421875,-0.8239745497703552,0.1525878757238388,0.3967284858226776,60.0,1256891.0,1.0
483690.0933935,288214.59375,304243.03125,325340.21875,329938.40625,325055.96875,270348.75,266881.09375,272057.3125,-0.04052734375,0.8515625,-0.509765625,-0.5798339247703552,0.1220703050494194,0.3051757514476776,60.0,1256892.0,1.0
483690.0934159,289657.0625,305286.5,328688.3125,331834.1875,326972.0625,270355.4375,268594.5,272441.5,-0.039306640625,0.852783203125,-0.509033203125,-0.3662109076976776,0.2746581733226776,0.3051757514476776,60.0,1256893.0,1.0
483690.0960319,291612.21875,303123.71875,325429.0,329805.28125,324503.71875,269832.96875,265771.8125,271540.53125,-0.04150390625,0.8544921875,-0.509033203125,-0.2136230319738388,0.1831054538488388,0.2746581733226776,60.0,1256894.0,1.0
483690.0997827,291203.71875,300794.40625,320175.96875,326688.28125,321157.375,269510.09375,262412.4375,270608.46875,-0.042236328125,0.854736328125,-0.511962890625,-0.03051757626235485,0.03051757626235485,0.3051757514476776,60.0,1256895.0,1.0
483690.1234576,289179.09375,301464.15625,320022.71875,326712.6875,321441.96875,269835.71875,263024.4375,270914.6875,-0.04296875,0.8564453125,-0.511474609375,0.1220703050494194,0.0,0.2441406100988388,60.0,1256896.0,1.0
483690.1234945,288216.0,304282.90625,325318.75,329923.84375,325068.84375,270352.6875,266876.625,272056.40625,-0.03955078125,0.856201171875,-0.51171875,0.2441406100988388,-0.0915527269244194,0.2136230319738388,60.0,1256897.0,1.0
483690.130039,289631.15625,305337.1875,328691.90625,331821.125,327001.75,270350.09375,268607.90625,272438.53125,-0.0390625,0.855712890625,-0.5087890625,0.4272460639476776,-0.0610351525247097,0.0915527269244194,60.0,1256898.0,1.0
483690.1300509,291565.375,303162.28125,325436.21875,329786.0625,324523.5625,269817.40625,265776.46875,271517.1875,-0.039794921875,0.85400390625,-0.508056640625,0.6103515028953552,-0.0915527269244194,-0.03051757626235485,60.0,1256899.0,1.0
483690.130053,291170.1875,300818.8125,320154.4375,326654.21875,321155.34375,269491.15625,262392.40625,270578.0625,-0.041259765625,0.856201171875,-0.505859375,0.6408690810203552,-0.1525878757238388,-0.0915527269244194,60.0,1256900.0,1.0
483690.1372207,289163.625,301479.28125,319959.5,326654.5625,321422.46875,269806.125,262984.28125,270889.375,-0.04150390625,0.85986328125,-0.511474609375,0.7934569716453552,-0.2746581733226776,-0.1220703050494194,60.0,1256901.0,1.0
483690.1395681,288190.1875,304299.34375,325238.5625,329864.65625,325038.625,270334.875,266825.40625,272036.84375,-0.04248046875,0.86181640625,-0.509033203125,1.0070799589157104,-0.3356933295726776,-0.2441406100988388,60.0,1256902.0,1.0
483690.1422788,289588.59375,305381.34375,328655.0625,331791.71875,326996.8125,270336.125,268580.625,272424.875,-0.043701171875,0.86181640625,-0.509033203125,1.0986326932907104,-0.4272460639476776,-0.0915527269244194,60.0,1256903.0,1.0
483690.1422923,291535.25,303232.09375,325447.59375,329785.0625,324553.5,269806.21875,265779.6875,271517.65625,-0.044677734375,0.86181640625,-0.511962890625,0.9460448622703552,-0.4882812201976776,-0.03051757626235485,60.0,1256904.0,1.0
483690.1447346,291176.53125,300890.53125,320173.28125,326666.5625,321194.59375,269495.34375,262401.96875,270588.1875,-0.044677734375,0.860107421875,-0.509765625,1.0375975370407104,-0.4272460639476776,-0.0610351525247097,60.0,1256905.0,1.0
483690.1472842,289152.375,301502.53125,319900.59375,326614.0625,321401.90625,269803.4375,262930.90625,270869.4375,-0.044189453125,0.857421875,-0.510009765625,1.0986326932907104,-0.5187987685203552,-0.1831054538488388,60.0,1256906.0,1.0
483690.1496671,288165.21875,304320.8125,325158.4375,329801.71875,325007.625,270317.28125,266758.34375,272013.9375,-0.04443359375,0.857177734375,-0.507080078125,1.0375975370407104,-0.5187987685203552,-0.4882812201976776,60.0,1256907.0,1.0
483690.1534714,289552.03125,305424.4375,328621.25,331749.71875,327002.28125,270316.46875,268548.71875,272413.25,-0.04443359375,0.857421875,-0.509521484375,1.1291502714157104,-0.5187987685203552,-0.7629393935203552,60.0,1256908.0,1.0
483690.1733615,291484.09375,303264.71875,325425.78125,329746.90625,324558.34375,269777.15625,265750.375,271481.625,-0.04296875,0.856689453125,-0.5126953125,1.2817381620407104,-0.6408690810203552,-0.9155272841453552,60.0,1256909.0,1.0
483690.1733769,291146.5,300911.4375,320131.0,326617.28125,321187.6875,269458.875,262360.84375,270556.53125,-0.04443359375,0.859375,-0.51416015625,1.3732908964157104,-0.6103515028953552,-1.0070799589157104,60.0,1256910.0,1.0
