Time,FZ,C3,CZ,C4,PZ,PO7,OZ,PO8,AccX,AccY,AccZ,Gyro1,Gyro2,Gyro3,Battery,Counter,Validation
473474.7707883,265378.0625,266490.75,283123.84375,272997.59375,277966.21875,258778.5,244700.65625,247255.90625,-0.00390625,0.9736328125,-0.354736328125,-3.112792730331421,-19.653318405151367,12.664793968200684,80.0,997262.0,1.0
473474.7733398,264928.0,266583.375,283929.40625,274716.0,279383.0625,258828.296875,245992.578125,247697.75,0.000244140625,0.977783203125,-0.358642578125,-2.319335699081421,-19.744871139526367,13.427733421325684,80.0,997263.0,1.0
473474.7758555,265439.84375,266763.78125,284589.40625,275696.96875,280269.96875,258847.25,246500.59375,247850.28125,0.0078125,0.98046875,-0.36181640625,-1.6174315214157104,-19.622800827026367,14.221190452575684,80.0,997264.0,1.0
473474.7782648,266237.28125,266788.65625,284198.40625,274568.3125,279386.96875,258806.5625,245513.8125,247486.84375,0.014404296875,0.9775390625,-0.364990234375,-0.8850097060203552,-19.470212936401367,15.075682640075684,80.0,997265.0,1.0
473474.7807856,266156.4375,266617.96875,283290.59375,272912.3125,277984.8125,258766.96875,244445.65625,247127.328125,0.019775390625,0.973876953125,-0.36376953125,-0.4577636420726776,-19.195554733276367,15.930174827575684,80.0,997266.0,1.0
473474.7833515,265372.625,266496.09375,283114.625,272971.5,277962.375,258774.734375,244731.59375,247249.46875,0.0263671875,0.969482421875,-0.365966796875,0.03051757626235485,-18.890378952026367,16.967771530151367,80.0,997267.0,1.0
473474.7858269,264925.59375,266583.09375,283909.90625,274688.8125,279363.28125,258819.984375,246003.21875,247696.140625,0.031494140625,0.9638671875,-0.368896484375,0.5187987685203552,-18.432615280151367,17.761228561401367,80.0,997268.0,1.0
473474.790783,265424.84375,266753.15625,284564.625,275671.9375,280246.0,258832.9375,246501.9375,247845.8125,0.038330078125,0.961669921875,-0.3701171875,0.8850097060203552,-17.883298873901367,18.615720748901367,80.0,997269.0,1.0
473474.790796,266226.375,266781.3125,284189.03125,274555.875,279379.375,258797.890625,245522.484375,247486.390625,0.04345703125,0.9560546875,-0.37353515625,1.3732908964157104,-16.998289108276367,19.256589889526367,80.0,997270.0,1.0
473474.7931343,266151.96875,266606.625,283283.53125,272899.875,277980.53125,258757.21875,244460.421875,247123.40625,0.0498046875,0.94873046875,-0.374267578125,1.6174315214157104,-16.021726608276367,19.958494186401367,80.0,997271.0,1.0
473474.7958279,265376.5625,266493.6875,283103.0,272952.09375,277953.96875,258774.109375,244739.28125,247250.625,0.051025390625,0.9404296875,-0.377685546875,2.014159917831421,-14.984129905700684,20.660398483276367,80.0,997272.0,1.0
473474.8006181,264928.96875,266578.71875,283895.59375,274662.625,279350.78125,258822.75,245987.484375,247699.890625,0.052978515625,0.93310546875,-0.379150390625,2.258300542831421,-13.916014671325684,21.179197311401367,80.0,997273.0,1.0
473474.8031823,265431.71875,266750.65625,284558.03125,275640.75,280230.1875,258832.765625,246462.0625,247846.96875,0.060791015625,0.9306640625,-0.383544921875,2.471923589706421,-12.817381858825684,21.636960983276367,80.0,997274.0,1.0
473474.8031968,266238.0,266791.25,284191.34375,274513.0625,279363.90625,258802.90625,245450.953125,247482.8125,0.0673828125,0.934814453125,-0.3896484375,2.990722417831421,-11.291502952575684,22.064207077026367,80.0,997275.0,1.0
473474.8056305,266176.84375,266626.46875,283295.0625,272843.5625,277963.4375,258779.65625,244343.5625,247119.015625,0.07080078125,0.935546875,-0.394287109375,4.241942882537842,-10.070799827575684,22.552488327026367,80.0,997276.0,1.0
473474.8083339,265410.25,266517.84375,283114.90625,272879.3125,277924.8125,258808.453125,244582.28125,247242.84375,0.08447265625,0.9423828125,-0.406982421875,5.828856945037842,-9.368895530700684,23.162839889526367,80.0,997277.0,1.0
473474.8083505,264936.9375,266589.625,283882.46875,274566.15625,279283.1875,258848.765625,245796.25,247672.71875,0.09716796875,0.948974609375,-0.410888671875,7.202147960662842,-7.934569835662842,23.712156295776367,80.0,997278.0,1.0
473474.8107726,265418.40625,266762.28125,284542.71875,275565.1875,280176.96875,258855.75,246286.109375,247818.0,0.114013671875,0.954833984375,-0.415283203125,7.873534679412842,-6.042479991912842,24.078367233276367,80.0,997279.0,1.0
473474.8131448,266228.34375,266805.8125,284190.65625,274463.4375,279327.78125,258816.21875,245308.171875,247463.6875,0.126953125,0.953125,-0.412109375,8.087157249450684,-3.906249761581421,24.749753952026367,80.0,997280.0,1.0
473474.81579,266200.78125,266661.5,283320.96875,272838.71875,277964.34375,258789.578125,244255.859375,247123.3125,0.140625,0.947021484375,-0.41064453125,7.904052257537842,-1.5258787870407104,25.512693405151367,80.0,997281.0,1.0
473474.8158112,265461.40625,266551.4375,283145.125,272899.34375,277930.8125,258806.84375,244528.8125,247250.453125,0.151123046875,0.9375,-0.416259765625,7.873534679412842,0.9155272841453552,26.550291061401367,80.0,997282.0,1.0
473474.8245409,264971.625,266594.09375,283886.75,274579.5625,279262.96875,258820.421875,245745.015625,247661.1875,0.15576171875,0.92919921875,-0.41748046875,7.751464366912842,3.784179449081421,27.587888717651367,80.0,997283.0,1.0
473474.8292121,265437.96875,266758.0625,284536.5625,275567.78125,280140.3125,258823.640625,246229.15625,247808.796875,0.160400390625,0.920166015625,-0.426025390625,7.629394054412842,6.774901866912842,28.594968795776367,80.0,997284.0,1.0
473474.8292379,266243.1875,266807.78125,284188.40625,274456.71875,279298.1875,258792.078125,245237.890625,247460.5625,0.160888671875,0.91455078125,-0.432373046875,7.751464366912842,9.796141624450684,29.602048873901367,80.0,997285.0,1.0
473474.8358482,266198.1875,266655.0625,283305.59375,272788.03125,277901.84375,258772.78125,244133.71875,247105.078125,0.158935546875,0.90576171875,-0.4375,8.056639671325684,12.634276390075684,30.548093795776367,80.0,997286.0,1.0
473474.8383507,265428.9375,266531.4375,283106.40625,272802.0625,277835.40625,258789.046875,244360.71875,247217.375,0.139404296875,0.893310546875,-0.441650390625,8.392333030700684,15.441893577575684,31.127927780151367,80.0,997287.0,1.0
473474.8408855,264961.25,266602.15625,283868.78125,274500.09375,279198.25,258830.796875,245593.296875,247658.59375,0.120849609375,0.880615234375,-0.440673828125,8.758543968200684,18.035886764526367,31.311033248901367,80.0,997288.0,1.0
473474.8431321,265423.3125,266765.5,284517.96875,275501.625,280084.09375,258838.125,246089.5,247805.671875,0.10546875,0.871337890625,-0.431396484375,9.399413108825684,20.385740280151367,31.311033248901367,80.0,997289.0,1.0
473474.8533836,266226.09375,266811.28125,284166.6875,274396.8125,279240.90625,258803.703125,245111.125,247454.65625,0.094970703125,0.865478515625,-0.431640625,10.009764671325684,22.430418014526367,31.127927780151367,80.0,997290.0,1.0
473474.8557655,266196.78125,266662.84375,283290.59375,272730.46875,277845.875,258781.453125,244017.9375,247094.703125,0.07275390625,0.861572265625,-0.432373046875,10.528563499450684,24.230955123901367,30.853269577026367,80.0,997291.0,1.0
473474.8558067,265444.78125,266544.9375,283100.6875,272754.9375,277788.3125,258799.6875,244262.921875,247203.953125,0.044921875,0.859619140625,-0.431396484375,11.016844749450684,25.695798873901367,30.242918014526367,80.0,997292.0,1.0
473474.8596024,264983.875,266624.125,283874.84375,274477.90625,279170.53125,258843.234375,245530.265625,247654.921875,0.024169921875,0.85546875,-0.43017578125,11.535643577575684,26.672361373901367,29.296873092651367,80.0,997293.0,1.0
473474.8808748,265430.03125,266778.1875,284520.90625,275499.5625,280064.15625,258838.9375,246048.46875,247805.484375,0.009765625,0.85498046875,-0.436767578125,11.962889671325684,27.191160202026367,28.045652389526367,80.0,997294.0,1.0
473474.8809162,266221.0,266811.28125,284164.09375,274406.46875,279221.65625,258797.359375,245068.375,247454.203125,-0.00634765625,0.849853515625,-0.439208984375,12.512206077575684,27.496335983276367,26.550291061401367,80.0,997295.0,1.0
473474.8833644,266193.09375,266655.6875,283281.8125,272732.5,277820.84375,258772.953125,243956.609375,247089.609375,-0.020263671875,0.8466796875,-0.444091796875,13.427733421325684,27.404783248901367,24.902341842651367,80.0,997296.0,1.0
473474.8834055,265450.40625,266542.96875,283094.875,272743.6875,277757.28125,258798.25,244198.28125,247201.28125,-0.028564453125,0.84130859375,-0.4443359375,14.312743186950684,27.160642623901367,23.162839889526367,80.0,997297.0,1.0
473474.8858443,264982.71875,266613.9375,283867.0,274463.78125,279140.75,258835.09375,245479.65625,247647.328125,-0.033447265625,0.834716796875,-0.449462890625,15.106200218200684,26.763914108276367,21.270750045776367,80.0,997298.0,1.0
473474.8883899,265415.625,266759.21875,284510.8125,275497.25,280051.71875,258823.46875,246022.796875,247803.34375,-0.03662109375,0.833984375,-0.453369140625,16.204832077026367,26.214597702026367,19.287107467651367,80.0,997299.0,1.0
473474.8907077,266200.15625,266788.125,284151.46875,274409.4375,279212.375,258780.109375,245044.0625,247455.546875,-0.0341796875,0.834716796875,-0.459716796875,17.089841842651367,25.573728561401367,17.456052780151367,80.0,997300.0,1.0
473474.8932704,266181.40625,266636.65625,283271.375,272726.34375,277802.15625,258755.15625,243922.90625,247096.578125,-0.02880859375,0.839111328125,-0.46533203125,18.035886764526367,24.749753952026367,15.808104515075684,80.0,997301.0,1.0
473474.8933062,265451.46875,266525.0,283087.625,272728.3125,277733.59375,258766.515625,244160.90625,247207.4375,-0.024169921875,0.84130859375,-0.466552734375,18.859861373901367,24.047849655151367,14.099120140075684,80.0,997302.0,1.0
473474.9032279,264986.75,266603.5,283866.0,274448.6875,279120.65625,258806.75,245456.5,247651.796875,-0.013916015625,0.843017578125,-0.4658203125,19.592283248901367,23.254392623901367,12.359618186950684,80.0,997303.0,1.0
473474.9059036,265412.21875,266753.34375,284517.25,275504.5,280042.875,258804.0625,246017.96875,247814.421875,-0.002197265625,0.84521484375,-0.46728515625,20.355222702026367,22.521970748901367,10.955809593200684,80.0,997304.0,1.0
473474.9059444,266184.53125,266780.6875,284151.75,274424.375,279202.1875,258768.03125,245031.09375,247464.484375,0.009765625,0.848876953125,-0.467041015625,21.026609420776367,22.186277389526367,9.460448265075684,80.0,997305.0,1.0
473474.9108312,266167.71875,266633.78125,283264.375,272727.15625,277780.25,258744.796875,243886.59375,247096.578125,0.021484375,0.854248046875,-0.46923828125,21.728513717651367,21.911619186401367,8.178709983825684,80.0,997306.0,1.0
473474.9196127,265444.21875,266526.9375,283078.25,272708.375,277699.53125,258758.46875,244108.234375,247197.15625,0.03076171875,0.858154296875,-0.46728515625,22.399900436401367,21.789548873901367,7.019042491912842,80.0,997307.0,1.0
473474.924617,264986.65625,266610.0,283863.9375,274433.375,279093.8125,258796.203125,245408.75,247641.78125,0.041015625,0.863525390625,-0.469482421875,22.796628952026367,21.881101608276367,5.859374523162842,80.0,997308.0,1.0
473474.9246597,265413.84375,266766.5625,284526.90625,275513.78125,280040.1875,258799.953125,245990.4375,247809.78125,0.050048828125,0.86865234375,-0.46923828125,23.284910202026367,21.942136764526367,4.913329601287842,80.0,997309.0,1.0
473474.9270488,266167.09375,266779.625,284144.59375,274431.4375,279192.96875,258755.515625,245005.4375,247449.828125,0.056640625,0.874267578125,-0.468017578125,23.315427780151367,22.186277389526367,4.211425304412842,80.0,997310.0,1.0
473474.9319694,266152.15625,266625.21875,283245.875,272722.9375,277760.75,258728.25,243858.34375,247078.15625,0.055908203125,0.87890625,-0.4677734375,23.345945358276367,22.399900436401367,3.601073980331421,80.0,997311.0,1.0
473474.9349103,265457.46875,266538.125,283079.125,272703.8125,277692.375,258766.34375,244092.140625,247195.46875,0.056396484375,0.88134765625,-0.469970703125,23.376462936401367,22.583005905151367,2.838134527206421,80.0,997312.0,1.0
473474.9421952,265003.1875,266622.71875,283874.9375,274417.46875,279090.6875,258804.328125,245384.078125,247636.6875,0.052978515625,0.88134765625,-0.47216796875,23.376462936401367,22.766111373901367,2.105712652206421,80.0,997313.0,1.0
473474.9422353,265421.6875,266771.75,284537.53125,275499.125,280040.46875,258800.046875,245965.046875,247804.328125,0.049560546875,0.884033203125,-0.4765625,23.590085983276367,22.888181686401367,1.4343260526657104,80.0,997314.0,1.0
473474.9445132,266174.34375,266785.875,284152.5625,274429.46875,279198.875,258756.859375,244996.234375,247458.671875,0.045166015625,0.88427734375,-0.486328125,23.834226608276367,23.010251998901367,0.7934569716453552,80.0,997315.0,1.0
473474.9808536,266160.65625,266632.71875,283248.03125,272720.1875,277755.9375,258728.96875,243854.421875,247092.375,0.04150390625,0.88427734375,-0.487060546875,24.322507858276367,22.888181686401367,-0.1831054538488388,80.0,997316.0,1.0
473474.9833653,265463.90625,266542.15625,283077.78125,272682.71875,277672.4375,258753.28125,244068.28125,247195.640625,0.036865234375,0.8798828125,-0.49072265625,24.841306686401367,22.796628952026367,-1.2512205839157104,80.0,997317.0,1.0
473474.9834083,265026.53125,266634.34375,283894.15625,274405.0625,279095.34375,258795.578125,245365.75,247646.96875,0.0361328125,0.880615234375,-0.4921875,25.482175827026367,22.521970748901367,-2.258300542831421,80.0,997318.0,1.0
473474.9896422,265426.09375,266763.34375,284544.34375,275485.0,280045.75,258779.75,245944.84375,247802.265625,0.03271484375,0.87841796875,-0.49609375,25.817869186401367,22.094724655151367,-2.929687261581421,80.0,997319.0,1.0
473474.989689,266157.6875,266763.0,284143.71875,274418.71875,279199.84375,258734.859375,244982.640625,247448.390625,0.029296875,0.881103515625,-0.49560546875,26.428220748901367,21.667478561401367,-3.723144292831421,80.0,997320.0,1.0
473474.989698,266147.34375,266609.21875,283232.28125,272704.34375,277749.3125,258710.1875,243836.4375,247081.015625,0.02685546875,0.881591796875,-0.49755859375,27.099607467651367,21.270750045776367,-4.547118663787842,80.0,997321.0,1.0
473474.9897059,265478.9375,266525.875,283066.4375,272654.28125,277657.0625,258732.546875,244038.140625,247182.40625,0.020751953125,0.88623046875,-0.495849609375,27.465818405151367,20.568845748901367,-5.218505382537842,80.0,997322.0,1.0
473474.9897138,265060.9375,266635.40625,283904.0,274385.1875,279090.5,258782.078125,245340.453125,247639.734375,0.01904296875,0.888427734375,-0.491943359375,27.618406295776367,19.805906295776367,-5.554198741912842,80.0,997323.0,1.0
473474.9897217,265468.28125,266787.84375,284585.90625,275509.21875,280082.40625,258792.359375,245956.8125,247827.125,0.014404296875,0.8896484375,-0.489501953125,27.526853561401367,19.012449264526367,-5.645751476287842,80.0,997324.0,1.0
473474.9897309,266162.25,266759.84375,284152.46875,274439.125,279214.25,258728.875,244980.046875,247461.625,0.010986328125,0.888916015625,-0.489501953125,27.465818405151367,18.096921920776367,-5.920409679412842,80.0,997325.0,1.0
473474.9945392,266150.5625,266601.96875,283226.21875,272713.8125,277744.84375,258710.546875,243824.828125,247090.859375,0.005615234375,0.8828125,-0.487548828125,27.374265670776367,17.028806686401367,-6.286620616912842,80.0,997326.0,1.0
473474.9970994,265484.75,266519.96875,283059.65625,272650.4375,277642.28125,258742.109375,244019.28125,247193.671875,0.001220703125,0.879150390625,-0.48388671875,27.404783248901367,16.052244186401367,-6.683349132537842,80.0,997327.0,1.0
473474.9995093,265065.25,266623.15625,283900.15625,274371.34375,279068.59375,258788.328125,245323.734375,247642.59375,0.00048828125,0.87451171875,-0.486328125,27.435300827026367,14.923094749450684,-6.988524913787842,80.0,997328.0,1.0
473475.0033608,265465.15625,266773.71875,284587.34375,275510.375,280071.21875,258806.65625,245956.734375,247833.5625,-0.00439453125,0.875732421875,-0.49169921875,27.618406295776367,13.732909202575684,-7.415771007537842,80.0,997329.0,1.0
473475.0070919,266161.71875,266750.8125,284157.125,274459.75,279218.0,258760.171875,244996.765625,247480.84375,-0.00927734375,0.875244140625,-0.497314453125,27.832029342651367,12.420653343200684,-7.873534679412842,80.0,997330.0,1.0
473475.0071313,266126.9375,266569.5,283196.625,272703.28125,277714.34375,258717.515625,243809.53125,247086.75,-0.009765625,0.8740234375,-0.5,28.228757858276367,11.077879905700684,-8.514403343200684,80.0,997331.0,1.0
473475.0283372,265479.71875,266509.0625,283041.0625,272636.3125,277611.0,258759.546875,244005.15625,247192.515625,-0.010009765625,0.87548828125,-0.50146484375,28.778074264526367,9.704588890075684,-9.124754905700684,80.0,997332.0,1.0
473475.0321231,265081.96875,266639.34375,283910.4375,274372.6875,279059.5,258826.953125,245326.859375,247653.578125,-0.009521484375,0.878173828125,-0.5009765625,29.541013717651367,8.300780296325684,-9.887694358825684,80.0,997333.0,1.0
473475.0321632,265484.8125,266786.21875,284599.9375,275518.6875,280067.0,258827.578125,245966.46875,247841.875,-0.009521484375,0.884033203125,-0.499755859375,30.212400436401367,6.835937023162842,-10.711668968200684,80.0,997334.0,1.0
473475.032173,266168.59375,266755.65625,284153.8125,274469.5,279211.03125,258762.140625,245007.40625,247487.109375,-0.009765625,0.887939453125,-0.49365234375,30.639646530151367,5.523681163787842,-11.322020530700684,80.0,997335.0,1.0
473475.0345961,266129.09375,266577.8125,283189.03125,272711.21875,277707.84375,258740.234375,243821.421875,247094.078125,-0.0087890625,0.897705078125,-0.490478515625,30.670164108276367,4.211425304412842,-11.474608421325684,80.0,997336.0,1.0
473475.0346381,265471.15625,266501.75,283020.5625,272609.40625,277583.90625,258777.875,243990.40625,247182.5,-0.0107421875,0.903076171875,-0.48876953125,30.426023483276367,2.746581792831421,-11.657713890075684,80.0,997337.0,1.0
473475.0371594,265085.09375,266640.9375,283911.5,274350.0625,279043.40625,258853.328125,245317.296875,247656.265625,-0.010009765625,0.906982421875,-0.48583984375,29.937742233276367,1.3122557401657104,-11.718749046325684,80.0,997338.0,1.0
473475.0583589,265450.21875,266772.8125,284598.4375,275502.0625,280058.78125,258852.25,245958.078125,247839.640625,-0.015380859375,0.907958984375,-0.4814453125,29.388425827026367,-0.1220703050494194,-11.840819358825684,80.0,997339.0,1.0
473475.0659652,266109.5,266735.375,284143.625,274461.46875,279212.09375,258799.59375,245011.875,247483.09375,-0.02099609375,0.90869140625,-0.480224609375,28.717039108276367,-1.5869139432907104,-11.993407249450684,80.0,997340.0,1.0
473475.0660061,266090.46875,266571.375,283180.625,272709.90625,277713.8125,258778.046875,243839.75,247099.984375,-0.027099609375,0.91015625,-0.479736328125,28.106687545776367,-3.021239995956421,-12.054442405700684,80.0,997341.0,1.0
473475.0660165,265465.6875,266512.1875,283026.21875,272610.84375,277592.125,258817.390625,244009.453125,247191.703125,-0.03369140625,0.911376953125,-0.482421875,27.526853561401367,-4.516601085662842,-12.237547874450684,80.0,997342.0,1.0
473475.0682163,265084.1875,266645.25,283918.21875,274341.3125,279047.875,258880.515625,245310.765625,247651.0,-0.041259765625,0.909912109375,-0.48291015625,27.008054733276367,-6.225585460662842,-12.634276390075684,80.0,997343.0,1.0
473475.0731577,265456.84375,266786.9375,284622.125,275511.09375,280088.21875,258884.078125,245961.734375,247845.09375,-0.04638671875,0.912109375,-0.48193359375,26.489255905151367,-7.873534679412842,-12.969969749450684,80.0,997344.0,1.0
473475.0749211,266104.78125,266742.5,284159.8125,274478.8125,279246.34375,258820.78125,245028.0625,247491.125,-0.05224609375,0.9150390625,-0.482666015625,25.817869186401367,-9.552000999450684,-13.275145530700684,80.0,997345.0,1.0
473475.0837007,266067.9375,266556.53125,283166.75,272704.78125,277722.59375,258774.5625,243840.015625,247090.59375,-0.0556640625,0.917236328125,-0.483642578125,25.421140670776367,-11.260985374450684,-13.702391624450684,80.0,997346.0,1.0
473475.1136583,265457.375,266500.5625,283014.84375,272601.71875,277594.65625,258815.515625,244002.03125,247187.5,-0.05859375,0.919189453125,-0.48583984375,24.841306686401367,-13.061522483825684,-14.099120140075684,80.0,997347.0,1.0
473475.1311563,265085.71875,266637.0,283917.78125,274331.8125,279047.40625,258870.859375,245291.984375,247647.953125,-0.06298828125,0.922119140625,-0.485107421875,24.169919967651367,-14.892577171325684,-14.434813499450684,80.0,997348.0,1.0
473475.1508723,265450.03125,266772.03125,284623.90625,275508.0625,280085.625,258861.28125,245938.140625,247836.0625,-0.06689453125,0.921875,-0.484130859375,23.559568405151367,-16.632078170776367,-14.801024436950684,80.0,997349.0,1.0
473475.1533209,266100.9375,266744.03125,284170.96875,274488.28125,279261.28125,258813.28125,245029.484375,247491.84375,-0.068603515625,0.9228515625,-0.482177734375,22.827146530151367,-18.341062545776367,-15.045165061950684,80.0,997350.0,1.0
473475.1556938,266072.40625,266573.90625,283181.3125,272712.21875,277743.59375,258785.015625,243858.890625,247097.109375,-0.06884765625,0.922119140625,-0.48095703125,22.003171920776367,-20.019529342651367,-15.411375999450684,80.0,997351.0,1.0
473475.1606938,265458.90625,266509.15625,283014.21875,272584.0,277592.5,258809.4375,243998.53125,247180.4375,-0.0673828125,0.917724609375,-0.482177734375,21.209714889526367,-21.667478561401367,-15.533446311950684,80.0,997352.0,1.0
473475.1633553,265102.96875,266653.03125,283929.5,274320.03125,279047.0625,258869.0625,245288.5,247646.25,-0.064208984375,0.9150390625,-0.484375,20.355222702026367,-23.132322311401367,-15.777586936950684,80.0,997353.0,1.0
473475.1656669,265481.34375,266802.78125,284657.53125,275520.84375,280110.375,258872.015625,245960.125,247849.65625,-0.06005859375,0.913330078125,-0.482666015625,19.714353561401367,-24.597166061401367,-15.808104515075684,80.0,997354.0,1.0
473475.1683491,266117.03125,266758.0625,284194.65625,274499.1875,279289.1875,258807.734375,245056.671875,247504.359375,-0.055419921875,0.910400390625,-0.4853515625,19.012449264526367,-25.909421920776367,-15.960692405700684,80.0,997355.0,1.0
473475.1708926,266074.46875,266573.53125,283184.1875,272701.21875,277756.1875,258765.265625,243873.28125,247104.09375,-0.052001953125,0.9072265625,-0.48681640625,18.493650436401367,-27.099607467651367,-16.052244186401367,80.0,997356.0,1.0
473475.173179,265461.3125,266505.59375,283010.125,272559.78125,277590.625,258793.15625,243999.609375,247184.28125,-0.043212890625,0.899658203125,-0.490478515625,17.883298873901367,-28.228757858276367,-16.021726608276367,80.0,997357.0,1.0
473475.1758303,265094.28125,266628.875,283916.15625,274282.90625,279021.40625,258839.734375,245265.703125,247632.578125,-0.03662109375,0.899658203125,-0.49267578125,17.333982467651367,-29.144285202026367,-15.838622093200684,80.0,997358.0,1.0
473475.1783386,265469.71875,266780.96875,284654.5,275496.625,280091.78125,258849.84375,245946.53125,247837.765625,-0.028564453125,0.897216796875,-0.489501953125,16.906736373901367,-29.907224655151367,-15.563963890075684,80.0,997359.0,1.0
473475.1808631,266099.0625,266749.125,284195.5625,274478.625,279285.59375,258801.828125,245062.03125,247500.515625,-0.020263671875,0.89501953125,-0.489013671875,16.479490280151367,-30.548093795776367,-15.289305686950684,80.0,997360.0,1.0
473475.183125,266053.1875,266567.71875,283178.8125,272671.53125,277751.375,258768.296875,243879.984375,247098.375,-0.0146484375,0.892822265625,-0.48779296875,15.930174827575684,-31.005857467651367,-14.923094749450684,80.0,997361.0,1.0
473475.1856855,265450.3125,266502.90625,283003.3125,272520.875,277574.15625,258798.703125,243998.890625,247178.203125,-0.0078125,0.890380859375,-0.489013671875,15.380858421325684,-31.433103561401367,-14.251708030700684,80.0,997362.0,1.0
473475.1882503,265101.8125,266641.65625,283921.34375,274248.0625,279006.125,258860.296875,245262.9375,247636.15625,-0.000244140625,0.892578125,-0.48974609375,14.923094749450684,-31.616209030151367,-13.671874046325684,80.0,997363.0,1.0
473475.1908652,265468.46875,266791.40625,284661.46875,275457.90625,280079.4375,258869.25,245942.78125,247841.78125,0.00634765625,0.892822265625,-0.49072265625,14.434813499450684,-31.585691452026367,-12.908934593200684,80.0,997364.0,1.0
473475.1931568,266088.3125,266758.34375,284198.5,274437.15625,279281.75,258810.328125,245066.953125,247503.828125,0.0126953125,0.892578125,-0.490478515625,13.916014671325684,-31.585691452026367,-11.993407249450684,80.0,997365.0,1.0
473475.1957628,266044.875,266579.53125,283173.09375,272627.1875,277748.4375,258768.921875,243886.421875,247102.03125,0.01904296875,0.897705078125,-0.492919921875,13.488768577575684,-31.341550827026367,-11.169432640075684,80.0,997366.0,1.0
473475.1982967,265437.96875,266505.75,282981.0625,272465.09375,277552.53125,258791.453125,243982.0,247173.015625,0.0224609375,0.903564453125,-0.495849609375,12.817381858825684,-31.066892623901367,-10.070799827575684,80.0,997367.0,1.0
473475.2031965,265088.03125,266636.03125,283892.65625,274191.90625,278966.875,258840.1875,245220.203125,247619.078125,0.0263671875,0.908447265625,-0.493408203125,12.207030296325684,-30.731199264526367,-9.216307640075684,80.0,997368.0,1.0
473475.2032382,265455.0625,266786.21875,284637.78125,275418.03125,280042.15625,258852.796875,245894.765625,247827.921875,0.028076171875,0.910400390625,-0.490234375,11.413573265075684,-30.242918014526367,-8.178709983825684,80.0,997369.0,1.0
473475.2056546,266080.71875,266764.875,284187.15625,274418.5625,279267.1875,258821.40625,245043.796875,247506.0625,0.031005859375,0.912109375,-0.4853515625,10.620116233825684,-29.724119186401367,-7.110595226287842,80.0,997370.0,1.0
473475.2083457,266036.28125,266582.90625,283157.1875,272605.65625,277736.96875,258785.734375,243874.0,247105.609375,0.03271484375,0.9140625,-0.485595703125,9.735106468200684,-28.991697311401367,-5.981444835662842,80.0,997371.0,1.0
473475.2083866,265437.78125,266510.40625,282960.21875,272438.4375,277533.9375,258814.609375,243964.65625,247176.234375,0.0361328125,0.91455078125,-0.484375,8.666991233825684,-28.442380905151367,-4.852294445037842,80.0,997372.0,1.0
473475.2122064,265097.875,266645.40625,283876.90625,274173.9375,278949.59375,258871.75,245199.453125,247633.015625,0.034423828125,0.917724609375,-0.484375,7.629394054412842,-27.679441452026367,-3.662109136581421,80.0,997373.0,1.0
473475.2122485,265461.3125,266793.46875,284631.15625,275416.96875,280036.875,258879.34375,245882.703125,247844.5625,0.03564453125,0.918701171875,-0.486083984375,6.652831554412842,-26.947019577026367,-2.716064214706421,80.0,997374.0,1.0
473475.2122585,266085.1875,266772.65625,284192.625,274436.4375,279282.90625,258844.75,245054.171875,247521.078125,0.03369140625,0.9189453125,-0.486083984375,5.676269054412842,-26.214597702026367,-1.5869139432907104,80.0,997375.0,1.0
473475.2195608,266036.09375,266587.84375,283162.28125,272620.5,277755.5625,258804.6875,243889.546875,247113.5625,0.031005859375,0.91943359375,-0.489501953125,4.699706554412842,-25.451658248901367,-0.5798339247703552,80.0,997376.0,1.0
473475.2196007,265437.09375,266507.8125,282957.90625,272450.0,277541.1875,258826.859375,243971.984375,247178.921875,0.02685546875,0.921142578125,-0.488525390625,3.723144292831421,-24.993894577026367,0.4577636420726776,80.0,997377.0,1.0
473475.2196117,265089.1875,266630.5,283866.625,274191.8125,278944.25,258873.453125,245199.28125,247625.25,0.025146484375,0.922119140625,-0.486328125,2.655029058456421,-24.291990280151367,1.3122557401657104,80.0,997378.0,1.0
473475.2245804,265448.96875,266781.125,284631.875,275454.875,280045.1875,258874.96875,245901.03125,247839.8125,0.023193359375,0.92138671875,-0.483154296875,1.7089842557907104,-23.590085983276367,2.227782964706421,80.0,997379.0,1.0
473475.2270522,266068.65625,266761.90625,284198.78125,274480.59375,279301.875,258822.9375,245089.21875,247518.84375,0.0224609375,0.9208984375,-0.481201171875,0.5187987685203552,-23.010251998901367,3.112792730331421,80.0,997380.0,1.0
473475.2321702,266024.84375,266577.46875,283166.40625,272666.53125,277780.0625,258775.640625,243935.5,247110.609375,0.02099609375,0.921630859375,-0.478515625,-0.4882812201976776,-22.369382858276367,4.058837413787842,80.0,997381.0,1.0
473475.2322126,265424.125,266493.6875,282949.21875,272487.09375,277555.03125,258796.828125,244015.890625,247173.46875,0.01953125,0.921630859375,-0.480712890625,-1.5869139432907104,-21.636960983276367,4.821776866912842,80.0,997382.0,1.0
473475.2345945,265075.25,266615.375,283851.53125,274231.25,278951.21875,258854.578125,245246.578125,247620.953125,0.01708984375,0.919677734375,-0.478759765625,-2.716064214706421,-20.996091842651367,5.554198741912842,80.0,997383.0,1.0
473475.2371021,265433.3125,266764.3125,284619.71875,275506.09375,280054.0625,258851.453125,245954.671875,247831.59375,0.01220703125,0.917724609375,-0.47802734375,-3.723144292831421,-20.416257858276367,6.072997570037842,80.0,997384.0,1.0
473475.2420952,266055.40625,266749.21875,284196.90625,274536.3125,279321.71875,258799.0625,245151.796875,247509.640625,0.0126953125,0.9169921875,-0.4814453125,-4.791259288787842,-19.836423873901367,6.683349132537842,80.0,997385.0,1.0
473475.2444229,266021.34375,266568.15625,283169.875,272713.5625,277800.71875,258756.859375,243997.734375,247106.328125,0.013427734375,0.91552734375,-0.483154296875,-5.889892101287842,-19.073484420776367,7.202147960662842,80.0,997386.0,1.0
473475.24605,265419.28125,266476.53125,282938.59375,272515.34375,277556.46875,258773.671875,244063.09375,247162.109375,0.0107421875,0.912109375,-0.483642578125,-6.927489757537842,-18.402097702026367,7.690429210662842,80.0,997387.0,1.0
473475.2531732,265064.78125,266596.40625,283829.09375,274251.53125,278939.3125,258829.09375,245290.5625,247611.46875,0.00830078125,0.90966796875,-0.483642578125,-7.812499523162842,-17.791746139526367,8.239745140075684,80.0,997388.0,1.0
473475.2558435,265424.46875,266751.625,284609.15625,275545.875,280060.65625,258843.9375,246017.703125,247841.78125,0.00439453125,0.90673828125,-0.484619140625,-8.605956077575684,-17.150876998901367,8.789061546325684,80.0,997389.0,1.0
473475.2582617,266052.75,266740.90625,284205.46875,274587.15625,279352.65625,258806.03125,245225.5625,247528.0625,0.001953125,0.904052734375,-0.48193359375,-9.307860374450684,-16.632078170776367,9.063719749450684,80.0,997390.0,1.0
473475.2607402,266027.625,266565.03125,283185.25,272753.25,277838.1875,258766.78125,244064.609375,247123.40625,0.000244140625,0.900390625,-0.47998046875,-10.070799827575684,-16.113279342651367,9.460448265075684,80.0,997391.0,1.0
473475.2658547,265423.5,266474.03125,282944.75,272537.25,277580.59375,258784.578125,244116.828125,247175.34375,-0.000244140625,0.901123046875,-0.479248046875,-10.711668968200684,-15.624999046325684,9.765624046325684,80.0,997392.0,1.0
473475.2658959,265053.0625,266582.375,283819.4375,274263.875,278944.5,258837.5,245331.421875,247618.0,-0.00341796875,0.896484375,-0.47998046875,-11.413573265075684,-15.045165061950684,9.979247093200684,80.0,997393.0,1.0
473475.2683325,265404.625,266734.90625,284600.21875,275565.5625,280067.09375,258849.578125,246061.96875,247847.859375,-0.00537109375,0.892333984375,-0.482421875,-12.084959983825684,-14.648436546325684,10.070799827575684,80.0,997394.0,1.0
473475.2733136,266043.78125,266737.40625,284213.96875,274616.5,279376.4375,258813.640625,245276.875,247537.625,-0.0078125,0.889892578125,-0.481689453125,-12.634276390075684,-14.190672874450684,10.192870140075684,80.0,997395.0,1.0
473475.275873,266036.03125,266573.09375,283204.75,272781.78125,277867.78125,258780.734375,244111.734375,247135.296875,-0.00537109375,0.8857421875,-0.48193359375,-13.244627952575684,-13.732909202575684,10.406493186950684,80.0,997396.0,1.0
473475.2781998,265440.375,266483.84375,282958.53125,272551.28125,277599.65625,258797.359375,244151.328125,247186.515625,-0.004638671875,0.88134765625,-0.481201171875,-13.732909202575684,-13.244627952575684,10.559081077575684,80.0,997397.0,1.0
473475.2782395,265075.875,266601.4375,283831.125,274282.21875,278965.25,258848.234375,245367.0,247637.21875,-0.00244140625,0.878662109375,-0.483154296875,-13.977049827575684,-12.725829124450684,10.650633811950684,80.0,997398.0,1.0
473475.3033571,265417.9375,266756.46875,284612.71875,275593.625,280096.0625,258853.234375,246100.234375,247864.578125,-0.00146484375,0.876220703125,-0.485595703125,-14.160155296325684,-12.176512718200684,10.742186546325684,80.0,997399.0,1.0
473475.3071943,266054.4375,266757.53125,284234.53125,274648.6875,279414.0,258809.609375,245310.9375,247550.40625,-0.00048828125,0.87451171875,-0.486572265625,-14.251708030700684,-11.627196311950684,10.772704124450684,80.0,997400.0,1.0
473475.3072352,266048.71875,266587.65625,283224.0625,272803.59375,277899.78125,258762.3125,244130.953125,247138.6875,-0.003662109375,0.872802734375,-0.48583984375,-13.916014671325684,-11.383055686950684,10.925292015075684,80.0,997401.0,1.0
473475.3072452,265445.3125,266487.4375,282956.90625,272555.03125,277612.625,258779.03125,244152.671875,247182.859375,-0.00634765625,0.869384765625,-0.485595703125,-13.488768577575684,-11.169432640075684,10.986327171325684,80.0,997402.0,1.0
473475.3094463,265060.6875,266591.0625,283805.3125,274266.1875,278952.375,258830.265625,245353.6875,247626.578125,-0.0048828125,0.8701171875,-0.489013671875,-13.275145530700684,-10.833739280700684,10.925292015075684,80.0,997403.0,1.0
473475.3119179,265399.625,266747.34375,284593.875,275590.6875,280091.25,258844.5625,246095.765625,247858.59375,0.001220703125,0.871826171875,-0.4873046875,-13.458250999450684,-10.406493186950684,10.711668968200684,80.0,997404.0,1.0
473475.3170433,266053.53125,266761.46875,284242.3125,274666.65625,279432.9375,258812.734375,245323.734375,247555.328125,0.007568359375,0.875,-0.489501953125,-14.129637718200684,-9.490965843200684,10.406493186950684,80.0,997405.0,1.0
473475.3195503,266065.625,266602.21875,283242.3125,272819.40625,277925.4375,258774.5625,244139.796875,247145.484375,0.01171875,0.880615234375,-0.484375,-15.228270530700684,-8.178709983825684,10.375975608825684,80.0,997406.0,1.0
473475.3221667,265460.15625,266500.9375,282962.1875,272554.25,277623.4375,258783.40625,244148.65625,247182.40625,0.01123046875,0.87548828125,-0.48193359375,-15.716551780700684,-7.293700695037842,10.375975608825684,80.0,997407.0,1.0
473475.3271846,265064.34375,266596.78125,283797.0625,274263.4375,278953.0,258828.203125,245349.5625,247624.078125,0.011962890625,0.874755859375,-0.476318359375,-15.838622093200684,-6.378173351287842,10.345458030700684,80.0,997408.0,1.0
473475.3294785,265400.5,266753.15625,284591.375,275598.625,280099.46875,258840.09375,246104.4375,247860.65625,0.01611328125,0.875244140625,-0.47998046875,-15.991209983825684,-5.462646007537842,10.375975608825684,80.0,997409.0,1.0
473475.3295145,266063.90625,266769.875,284257.0625,274688.03125,279456.09375,258803.265625,245337.59375,247557.65625,0.0146484375,0.8740234375,-0.47802734375,-16.082761764526367,-4.486083507537842,10.345458030700684,80.0,997410.0,1.0
473475.3320582,266085.09375,266608.3125,283262.25,272834.34375,277951.5625,258761.234375,244145.34375,247145.84375,0.01171875,0.872802734375,-0.48046875,-16.357419967651367,-3.479003667831421,10.345458030700684,80.0,997411.0,1.0
473475.3345831,265482.6875,266504.25,282974.96875,272551.65625,277635.84375,258771.34375,244146.59375,247181.515625,0.011474609375,0.869873046875,-0.483154296875,-16.448972702026367,-2.685546636581421,10.437010765075684,80.0,997412.0,1.0
473475.3383025,265078.03125,266601.6875,283801.09375,274256.46875,278954.625,258820.15625,245350.90625,247622.5625,0.0107421875,0.87060546875,-0.48291015625,-16.418455123901367,-1.8920897245407104,10.406493186950684,80.0,997413.0,1.0
473475.3532485,265408.75,266761.90625,284603.625,275615.4375,280111.8125,258836.34375,246123.03125,247869.328125,0.0078125,0.86865234375,-0.48291015625,-16.265867233276367,-1.0070799589157104,10.345458030700684,80.0,997414.0,1.0
473475.3532886,266079.1875,266781.40625,284282.375,274718.25,279483.53125,258794.671875,245362.625,247568.46875,0.0048828125,0.86962890625,-0.48388671875,-16.143796920776367,-0.2136230319738388,10.192870140075684,80.0,997415.0,1.0
473475.3558485,266113.53125,266626.09375,283293.4375,272858.75,277977.75,258757.3125,244166.171875,247154.78125,0.00537109375,0.867919921875,-0.486328125,-15.930174827575684,0.5187987685203552,10.040282249450684,80.0,997416.0,1.0
473475.3558919,265503.34375,266514.875,282988.9375,272556.375,277645.5,258767.40625,244152.671875,247186.609375,0.003662109375,0.868896484375,-0.485107421875,-15.838622093200684,1.1901854276657104,9.887694358825684,80.0,997417.0,1.0
473475.3582314,265074.90625,266594.09375,283788.84375,274240.09375,278943.875,258806.03125,245343.75,247623.640625,0.0048828125,0.869140625,-0.4794921875,-15.563963890075684,1.8920897245407104,9.704588890075684,80.0,997418.0,1.0
473475.3782733,265391.65625,266750.375,284589.75,275607.75,280106.4375,258815.6875,246123.296875,247870.046875,0.001708984375,0.868896484375,-0.4775390625,-15.411375999450684,2.593993902206421,9.490965843200684,80.0,997419.0,1.0
473475.3834688,266078.84375,266784.34375,284296.59375,274741.3125,279507.59375,258780.734375,245383.90625,247580.984375,0.000244140625,0.871337890625,-0.477783203125,-15.258788108825684,3.295898199081421,9.368895530700684,80.0,997420.0,1.0
473475.3835085,266133.125,266636.03125,283322.6875,272887.53125,278012.71875,258749.265625,244183.96875,247172.84375,0.002197265625,0.87255859375,-0.478759765625,-15.014647483825684,3.936767339706421,9.002684593200684,80.0,997421.0,1.0
473475.3835172,265520.78125,266519.4375,283002.96875,272561.9375,277660.1875,258768.125,244154.734375,247198.140625,0.0009765625,0.876220703125,-0.4755859375,-14.923094749450684,4.699706554412842,8.819579124450684,80.0,997422.0,1.0
473475.3835268,265086.59375,266600.96875,283793.6875,274241.78125,278951.65625,258820.15625,245349.828125,247635.703125,0.002685546875,0.877685546875,-0.47412109375,-14.831542015075684,5.371093273162842,8.789061546325684,80.0,997423.0,1.0
473475.388358,265393.375,266756.8125,284593.78125,275621.53125,280120.46875,258833.75,246139.125,247881.9375,0.001708984375,0.87890625,-0.474609375,-14.678954124450684,6.072997570037842,8.697508811950684,80.0,997424.0,1.0
473475.3884002,266081.96875,266789.0,284308.3125,274764.8125,279527.4375,258794.859375,245398.109375,247589.03125,0.001953125,0.8779296875,-0.471435546875,-14.404295921325684,6.652831554412842,8.483885765075684,80.0,997425.0,1.0
473475.3931797,266139.65625,266632.28125,283331.71875,272899.4375,278022.71875,258751.5,244183.25,247169.890625,-0.001220703125,0.878662109375,-0.469970703125,-14.434813499450684,7.171630382537842,8.270262718200684,80.0,997426.0,1.0
473475.3958439,265527.46875,266514.4375,283002.59375,272555.40625,277659.71875,258763.921875,244146.421875,247195.90625,-0.00341796875,0.878662109375,-0.4697265625,-14.465331077575684,7.659911632537842,7.995604991912842,80.0,997427.0,1.0
473475.4058484,265077.5,266588.71875,283778.375,274219.25,278938.96875,258810.328125,245338.65625,247633.203125,-0.00244140625,0.880859375,-0.470703125,-14.495848655700684,8.270262718200684,7.690429210662842,80.0,997428.0,1.0
473475.409526,265376.90625,266741.4375,284582.4375,275608.90625,280115.28125,258825.25,246141.359375,247884.53125,-0.0009765625,0.881591796875,-0.469970703125,-14.251708030700684,8.728026390075684,7.385253429412842,80.0,997429.0,1.0
473475.4095659,266078.03125,266784.90625,284317.5,274779.84375,279544.59375,258798.515625,245417.609375,247600.484375,-0.002685546875,0.881103515625,-0.46533203125,-14.221190452575684,9.277342796325684,7.171630382537842,80.0,997430.0,1.0
473475.4095764,266164.21875,266651.3125,283362.8125,272928.5,278057.40625,258779.21875,244214.546875,247192.953125,-0.00390625,0.880615234375,-0.46630859375,-13.946532249450684,9.826659202575684,6.988524913787842,80.0,997431.0,1.0
473475.4120202,265552.25,266537.0625,283023.4375,272558.09375,277675.8125,258795.84375,244163.578125,247207.53125,-0.004150390625,0.880859375,-0.46728515625,-13.702391624450684,10.223387718200684,6.683349132537842,80.0,997432.0,1.0
473475.4281616,265086.59375,266604.8125,283780.71875,274203.71875,278939.78125,258837.5,245348.671875,247632.84375,-0.005859375,0.88232421875,-0.465087890625,-13.427733421325684,10.406493186950684,6.500243663787842,80.0,997433.0,1.0
473475.4307084,265383.0,266760.84375,284592.34375,275613.65625,280131.375,258857.53125,246167.1875,247892.5625,-0.008544921875,0.88232421875,-0.466552734375,-13.214110374450684,10.681151390075684,6.256103038787842,80.0,997434.0,1.0
473475.4307487,266091.53125,266806.625,284343.15625,274807.375,279577.25,258834.015625,245448.984375,247612.28125,-0.010498046875,0.884521484375,-0.466064453125,-12.939452171325684,10.894774436950684,5.889892101287842,80.0,997435.0,1.0
473475.4346222,266174.78125,266661.25,283380.25,272945.5625,278071.71875,258794.59375,244220.171875,247191.0,-0.01025390625,0.886962890625,-0.4658203125,-12.908934593200684,11.169432640075684,5.493163585662842,80.0,997436.0,1.0
473475.4346638,265564.5625,266544.75,283029.34375,272563.71875,277678.0625,258804.875,244158.75,247206.546875,-0.010986328125,0.8857421875,-0.4638671875,-12.786864280700684,11.260985374450684,5.065917491912842,80.0,997437.0,1.0
473475.4755253,265089.75,266611.09375,283776.15625,274199.84375,278934.9375,258844.75,245347.78125,247635.96875,-0.011474609375,0.88330078125,-0.462646484375,-12.634276390075684,11.444090843200684,4.760741710662842,80.0,997438.0,1.0
473475.4755666,265371.8125,266762.28125,284584.9375,275617.5,280130.84375,258857.265625,246176.140625,247897.671875,-0.013427734375,0.880615234375,-0.4599609375,-12.420653343200684,11.596678733825684,4.394530773162842,80.0,997439.0,1.0
473475.4959935,266076.96875,266797.40625,284339.3125,274823.75,279580.28125,258819.0,245454.703125,247610.3125,-0.015869140625,0.879150390625,-0.460693359375,-12.115477561950684,11.718749046325684,4.211425304412842,80.0,997440.0,1.0
473475.4960331,266176.46875,266653.90625,283381.875,272961.40625,278076.375,258786.359375,244218.65625,247185.1875,-0.016357421875,0.876708984375,-0.459716796875,-11.749266624450684,11.718749046325684,3.845214605331421,80.0,997441.0,1.0
473475.4960417,265560.71875,266527.75,283013.6875,272546.375,277655.71875,258798.25,244138.015625,247190.375,-0.01953125,0.87353515625,-0.4619140625,-11.291502952575684,11.657713890075684,3.417968511581421,80.0,997442.0,1.0
473475.4960514,265079.53125,266590.6875,283751.5625,274168.65625,278902.5,258835.359375,245324.796875,247617.203125,-0.0224609375,0.87255859375,-0.46142578125,-10.986327171325684,11.596678733825684,2.990722417831421,80.0,997443.0,1.0
473475.498204,265358.9375,266752.0,284576.25,275607.65625,280118.59375,258856.734375,246178.453125,247891.046875,-0.024658203125,0.87158203125,-0.458740234375,-10.498045921325684,11.535643577575684,2.502441167831421,80.0,997444.0,1.0
473475.5008186,266072.3125,266799.375,284351.125,274838.125,279591.09375,258823.921875,245476.078125,247617.828125,-0.024658203125,0.869873046875,-0.4609375,-9.918211936950684,11.505125999450684,2.044677495956421,80.0,997445.0,1.0
473475.503324,266184.0,266656.25,283397.25,272970.15625,278083.0625,258784.3125,244226.4375,247186.875,-0.0244140625,0.869873046875,-0.46142578125,-9.246825218200684,11.657713890075684,1.8005369901657104,80.0,997446.0,1.0
473475.5058144,265568.40625,266525.15625,283013.25,272530.09375,277643.625,258795.296875,244125.046875,247182.140625,-0.023681640625,0.871337890625,-0.46142578125,-8.728026390075684,11.474608421325684,1.4343260526657104,80.0,997447.0,1.0
473475.5083048,265075.4375,266583.8125,283739.21875,274142.71875,278883.4375,258827.578125,245313.171875,247612.375,-0.02392578125,0.870849609375,-0.4599609375,-8.117674827575684,11.413573265075684,1.1291502714157104,80.0,997448.0,1.0
473475.515845,265344.375,266737.0625,284559.625,275590.59375,280102.5,258822.3125,246168.0,247882.375,-0.020263671875,0.8720703125,-0.461669921875,-7.324218273162842,11.322020530700684,0.7934569716453552,80.0,997449.0,1.0
473475.5182062,266063.90625,266780.875,284344.25,274841.34375,279585.125,258787.890625,245466.515625,247608.875,-0.016357421875,0.8720703125,-0.460205078125,-6.835937023162842,11.413573265075684,0.6103515028953552,80.0,997450.0,1.0
473475.5206969,266188.1875,266640.78125,283395.28125,272977.5,278077.96875,258757.75,244212.671875,247187.328125,-0.012939453125,0.874267578125,-0.45654296875,-6.134032726287842,11.505125999450684,0.3356933295726776,80.0,997451.0,1.0
473475.5232575,265584.59375,266523.03125,283014.40625,272528.75,277635.84375,258780.28125,244109.578125,247191.53125,-0.009521484375,0.87255859375,-0.455810546875,-5.554198741912842,11.718749046325684,0.3662109076976776,80.0,997452.0,1.0
473475.5258115,265088.3125,266590.53125,283734.3125,274128.875,278869.59375,258838.3125,245299.40625,247621.671875,-0.00927734375,0.874267578125,-0.455810546875,-5.065917491912842,11.901854515075684,0.4272460639476776,80.0,997453.0,1.0
473475.5282382,265339.71875,266740.71875,284552.21875,275581.90625,280093.03125,258851.984375,246157.625,247883.09375,-0.00732421875,0.8740234375,-0.451904296875,-4.516601085662842,12.298583030700684,0.3967284858226776,80.0,997454.0,1.0
473475.5333359,266063.375,266789.4375,284348.625,274852.1875,279594.78125,258818.28125,245468.296875,247612.09375,-0.00390625,0.874755859375,-0.453369140625,-3.814697027206421,12.573241233825684,0.5187987685203552,80.0,997455.0,1.0
473475.5358515,266205.71875,266659.28125,283407.875,272994.03125,278092.71875,258783.5,244219.015625,247190.1875,-0.001953125,0.875244140625,-0.45703125,-3.234863042831421,12.939452171325684,0.7019042372703552,80.0,997456.0,1.0
473475.5383665,265612.125,266547.0625,283025.9375,272534.9375,277642.9375,258805.765625,244110.828125,247194.484375,-0.00146484375,0.874267578125,-0.458251953125,-2.746581792831421,13.366698265075684,0.7934569716453552,80.0,997457.0,1.0
473475.5384079,265091.78125,266598.3125,283727.6875,274106.96875,278855.09375,258834.28125,245280.8125,247609.59375,-0.0009765625,0.87353515625,-0.45947265625,-2.075195074081421,13.671874046325684,0.9460448622703552,80.0,997458.0,1.0
473475.5408802,265334.71875,266746.09375,284550.875,275572.34375,280087.40625,258837.421875,246150.65625,247880.234375,-0.00048828125,0.871337890625,-0.4609375,-1.1901854276657104,14.099120140075684,1.0375975370407104,80.0,997459.0,1.0
473475.5431762,266059.71875,266793.21875,284355.40625,274863.78125,279602.28125,258808.0,245474.296875,247615.40625,-0.002197265625,0.869384765625,-0.4619140625,-0.2746581733226776,14.495848655700684,1.1901854276657104,80.0,997460.0,1.0
473475.5483281,266213.21875,266664.5625,283418.625,273012.625,278102.125,258784.84375,244225.90625,247201.984375,-0.002685546875,0.87353515625,-0.46142578125,0.6713866591453552,14.862059593200684,1.2512205839157104,80.0,997461.0,1.0
473475.5508164,265605.25,266530.15625,283009.40625,272516.59375,277620.21875,258791.90625,244086.6875,247189.65625,-0.002685546875,0.874755859375,-0.46142578125,1.5869139432907104,15.289305686950684,1.3732908964157104,80.0,997462.0,1.0
473475.5508577,265080.25,266575.0625,283700.6875,274068.625,278818.1875,258818.28125,245243.265625,247595.65625,-0.003662109375,0.876953125,-0.455810546875,2.380370855331421,15.624999046325684,1.5563963651657104,80.0,997463.0,1.0
473475.5532267,265328.71875,266731.96875,284538.25,275554.90625,280071.40625,258830.359375,246133.3125,247877.640625,-0.006103515625,0.8798828125,-0.455810546875,3.082275152206421,15.991209983825684,1.6784666776657104,80.0,997464.0,1.0
473475.5558346,266063.28125,266792.75,284362.84375,274876.5,279608.8125,258801.5625,245475.625,247624.96875,-0.0087890625,0.87939453125,-0.45654296875,3.570556402206421,16.143796920776367,1.8310545682907104,80.0,997465.0,1.0
473475.56462,266225.90625,266666.53125,283430.40625,273023.1875,278104.4375,258774.203125,244215.890625,247202.796875,-0.01025390625,0.880615234375,-0.452880859375,4.150390148162842,16.387937545776367,1.9226073026657104,80.0,997466.0,1.0
473475.5646626,265627.15625,266540.0,283018.59375,272511.0625,277612.34375,258785.734375,244067.46875,247186.796875,-0.013671875,0.879150390625,-0.453857421875,4.760741710662842,16.479490280151367,2.166747808456421,80.0,997467.0,1.0
473475.5670994,265117.8125,266607.59375,283727.25,274073.0,278831.40625,258843.3125,245248.53125,247617.90625,-0.017822265625,0.8798828125,-0.45263671875,5.249022960662842,16.540525436401367,2.380370855331421,80.0,997468.0,1.0
473475.5695458,265358.125,266765.21875,284572.21875,275572.0625,280096.59375,258867.453125,246153.0625,247905.09375,-0.022705078125,0.881591796875,-0.449951171875,5.828856945037842,16.601560592651367,2.441406011581421,80.0,997469.0,1.0
473475.5695809,266085.375,266818.875,284396.375,274906.875,279638.5625,258843.140625,245500.21875,247645.1875,-0.02587890625,0.88330078125,-0.44873046875,6.286620616912842,16.265867233276367,2.502441167831421,80.0,997470.0,1.0
473475.5720566,266240.75,266681.4375,283449.09375,273046.96875,278121.25,258801.734375,244223.9375,247211.5625,-0.031005859375,0.88525390625,-0.447509765625,6.744384288787842,16.021726608276367,2.471923589706421,80.0,997471.0,1.0
473475.5744202,265644.59375,266556.1875,283029.5,272516.40625,277613.15625,258805.859375,244056.828125,247185.984375,-0.037353515625,0.885986328125,-0.448486328125,7.232665538787842,15.563963890075684,2.471923589706421,80.0,997472.0,1.0
473475.6033546,265141.40625,266633.4375,283742.34375,274069.15625,278829.34375,258864.5,245237.359375,247616.484375,-0.0400390625,0.8857421875,-0.449951171875,7.507323741912842,15.045165061950684,2.380370855331421,80.0,997473.0,1.0
473475.6033949,265365.71875,266783.09375,284581.1875,275567.34375,280094.90625,258877.828125,246143.140625,247899.1875,-0.040283203125,0.885986328125,-0.448974609375,7.995604991912842,14.343260765075684,2.227782964706421,80.0,997474.0,1.0
473475.6057838,266073.75,266821.28125,284394.03125,274911.09375,279637.0625,258836.703125,245486.625,247639.734375,-0.0419921875,0.8857421875,-0.448974609375,8.422850608825684,13.641356468200684,2.105712652206421,80.0,997475.0,1.0
473475.6058255,266226.8125,266674.21875,283437.125,273046.6875,278109.0,258794.59375,244201.84375,247202.890625,-0.03955078125,0.887939453125,-0.4482421875,8.789061546325684,12.939452171325684,2.044677495956421,80.0,997476.0,1.0
473475.6081641,265637.71875,266547.78125,283015.9375,272499.96875,277589.8125,258813.8125,244025.0,247175.96875,-0.0400390625,0.888427734375,-0.446533203125,9.185790061950684,12.176512718200684,1.8615721464157104,80.0,997477.0,1.0
473475.6108126,265121.28125,266610.09375,283711.96875,274029.375,278782.6875,258858.15625,245186.9375,247590.546875,-0.03857421875,0.885986328125,-0.443603515625,9.368895530700684,11.383055686950684,1.8920897245407104,80.0,997478.0,1.0
473475.6158505,265355.09375,266771.9375,284568.9375,275554.03125,280071.40625,258882.390625,246118.28125,247887.390625,-0.036376953125,0.886962890625,-0.44384765625,9.582518577575684,10.681151390075684,1.8310545682907104,80.0,997479.0,1.0
473475.6182385,266070.96875,266815.375,284397.4375,274924.78125,279634.90625,258857.171875,245482.515625,247637.3125,-0.034912109375,0.887939453125,-0.443115234375,9.765624046325684,9.887694358825684,1.8005369901657104,80.0,997480.0,1.0
473475.6208452,266226.71875,266664.8125,283436.5,273054.03125,278101.84375,258817.125,244190.765625,247195.828125,-0.033935546875,0.885498046875,-0.447265625,10.070799827575684,9.216307640075684,1.7089842557907104,80.0,997481.0,1.0
473475.6233415,265640.9375,266535.625,283004.46875,272484.6875,277570.6875,258834.015625,244008.1875,247166.578125,-0.0322265625,0.88525390625,-0.447265625,10.314940452575684,8.453368186950684,1.7395018339157104,80.0,997482.0,1.0
473475.6308481,265114.84375,266593.03125,283692.03125,273994.3125,278755.0625,258876.484375,245164.671875,247579.46875,-0.030517578125,0.884765625,-0.445556640625,10.314940452575684,7.568358898162842,1.8310545682907104,80.0,997483.0,1.0
473475.63089,265338.5625,266753.78125,284552.65625,275526.5625,280050.75,258896.78125,246106.125,247883.984375,-0.027587890625,0.88525390625,-0.446533203125,10.589598655700684,6.835937023162842,1.7700194120407104,80.0,997484.0,1.0
473475.6332076,266047.65625,266794.1875,284383.40625,274908.9375,279624.625,258859.40625,245481.703125,247634.8125,-0.027099609375,0.88720703125,-0.444580078125,10.955809593200684,5.981444835662842,1.7700194120407104,80.0,997485.0,1.0
473475.6356987,266217.4375,266649.09375,283427.5625,273049.90625,278100.34375,258814.171875,244196.75,247197.96875,-0.027099609375,0.88916015625,-0.447998046875,11.077879905700684,5.340575695037842,1.9226073026657104,80.0,997486.0,1.0
473475.6383017,265638.34375,266519.4375,282987.65625,272469.84375,277556.90625,258816.3125,243999.171875,247161.484375,-0.025146484375,0.89111328125,-0.44580078125,11.260985374450684,4.455565929412842,1.8920897245407104,80.0,997487.0,1.0
473475.6408488,265121.125,266581.3125,283679.5,273978.5625,278742.625,258865.75,245152.875,247582.859375,-0.025390625,0.891845703125,-0.44677734375,11.322020530700684,3.631591558456421,1.8615721464157104,80.0,997488.0,1.0
473475.6408907,265328.28125,266731.59375,284533.34375,275508.59375,280035.53125,258877.734375,246088.609375,247877.90625,-0.02587890625,0.895751953125,-0.44677734375,11.291502952575684,2.807616949081421,1.8615721464157104,80.0,997489.0,1.0
473475.64337,266038.625,266781.03125,284372.40625,274916.46875,279627.75,258847.15625,245485.109375,247637.40625,-0.024169921875,0.898193359375,-0.44384765625,11.260985374450684,2.075195074081421,1.8310545682907104,80.0,997490.0,1.0
473475.6532765,266216.71875,266645.0625,283421.75,273064.21875,278109.28125,258808.0,244210.609375,247202.171875,-0.025146484375,0.899658203125,-0.443359375,11.108397483825684,1.1596678495407104,1.7700194120407104,80.0,997491.0,1.0
473475.6595309,265651.125,266529.90625,282990.09375,272478.59375,277564.25,258813.453125,244009.453125,247167.03125,-0.0224609375,0.90185546875,-0.4453125,11.016844749450684,0.3051757514476776,1.7395018339157104,80.0,997492.0,1.0
473475.6595439,265133.8125,266600.34375,283683.71875,273975.8125,278741.8125,258858.15625,245154.03125,247582.234375,-0.02197265625,0.902587890625,-0.445068359375,10.803221702575684,-0.4882812201976776,1.7395018339157104,80.0,997493.0,1.0
473475.6707716,265344.625,266766.65625,284554.875,275522.625,280055.75,258892.765625,246104.78125,247887.296875,-0.021240234375,0.90234375,-0.44677734375,10.467528343200684,-1.3732908964157104,1.7089842557907104,80.0,997494.0,1.0
473475.6733417,266042.375,266805.1875,284392.96875,274936.21875,279654.59375,258854.21875,245499.59375,247643.578125,-0.021728515625,0.900146484375,-0.44970703125,10.345458030700684,-2.319335699081421,1.6174315214157104,80.0,997495.0,1.0
473475.6757805,266212.25,266652.84375,283431.5625,273077.09375,278126.71875,258793.6875,244209.71875,247199.21875,-0.02197265625,0.898193359375,-0.44970703125,10.040282249450684,-3.204345464706421,1.5258787870407104,80.0,997496.0,1.0
473475.6780829,265640.65625,266526.78125,282985.0,272473.6875,277560.5,258802.453125,243993.0,247160.59375,-0.0205078125,0.898681640625,-0.448486328125,9.704588890075684,-4.119872570037842,1.3122557401657104,80.0,997497.0,1.0
473475.6805893,265123.34375,266601.15625,283677.28125,273965.875,278734.40625,258850.828125,245137.40625,247584.828125,-0.01708984375,0.89453125,-0.448486328125,9.643553733825684,-4.913329601287842,1.2207030057907104,80.0,997498.0,1.0
473475.685778,265316.46875,266749.75,284538.0,275510.65625,280040.375,258855.5625,246083.78125,247885.234375,-0.01220703125,0.888427734375,-0.450439453125,9.582518577575684,-5.676269054412842,1.0375975370407104,80.0,997499.0,1.0
473475.6894111,266009.375,266787.75,284381.34375,274937.75,279646.71875,258824.1875,245494.046875,247644.90625,-0.0078125,0.883544921875,-0.449951171875,9.460448265075684,-6.500243663787842,0.8850097060203552,80.0,997500.0,1.0
473475.6894296,266188.28125,266645.40625,283428.0,273084.0625,278127.5,258786.71875,244216.515625,247204.9375,-0.00390625,0.88232421875,-0.449951171875,9.521483421325684,-7.293700695037842,0.7019042372703552,80.0,997501.0,1.0
473475.7033048,265624.125,266520.34375,282980.78125,272468.6875,277558.4375,258789.21875,243992.453125,247161.84375,0.002197265625,0.876220703125,-0.45166015625,9.552000999450684,-7.965087413787842,0.5798339247703552,80.0,997502.0,1.0
473475.7033307,265111.1875,266590.4375,283671.0,273950.40625,278722.0625,258836.34375,245126.59375,247576.34375,0.0048828125,0.86962890625,-0.451416015625,9.796141624450684,-8.697508811950684,0.4882812201976776,80.0,997503.0,1.0
473475.7058537,265312.1875,266749.21875,284545.59375,275511.1875,280040.46875,258857.625,246087.890625,247885.5,0.009033203125,0.866943359375,-0.455078125,10.559081077575684,-9.490965843200684,0.3356933295726776,80.0,997504.0,1.0
473475.705889,266012.6875,266797.6875,284402.0,274956.5,279669.78125,258824.1875,245517.46875,247654.921875,0.01416015625,0.870361328125,-0.464599609375,10.986327171325684,-9.765624046325684,0.03051757626235485,80.0,997505.0,1.0
473475.7107637,266201.0625,266657.9375,283448.9375,273098.90625,278154.25,258781.890625,244242.984375,247215.3125,0.016845703125,0.876953125,-0.4619140625,10.711668968200684,-9.765624046325684,-0.4882812201976776,80.0,997506.0,1.0
473475.714615,265649.5,266533.46875,282997.59375,272475.75,277576.84375,258791.640625,244014.8125,247175.34375,0.01708984375,0.87890625,-0.455810546875,10.406493186950684,-10.070799827575684,-0.9155272841453552,80.0,997507.0,1.0
473475.72802,265137.84375,266601.59375,283681.75,273954.15625,278730.125,258846.09375,245140.359375,247595.921875,0.021728515625,0.87646484375,-0.45166015625,10.406493186950684,-10.284422874450684,-1.2817381620407104,80.0,997508.0,1.0
473475.728063,265323.1875,266747.34375,284548.09375,275510.65625,280040.90625,258857.0,246092.625,247896.6875,0.027099609375,0.879638671875,-0.452880859375,10.711668968200684,-10.467528343200684,-1.5869139432907104,80.0,997509.0,1.0
473475.783295,266006.25,266778.28125,284394.5,274954.8125,279664.40625,258813.359375,245518.1875,247652.6875,0.031982421875,0.881103515625,-0.453369140625,10.559081077575684,-10.437010765075684,-1.8310545682907104,80.0,997510.0,1.0
473475.7833347,266191.6875,266634.78125,283435.59375,273094.15625,278150.75,258771.078125,244246.015625,247207.171875,0.03271484375,0.883056640625,-0.456787109375,10.406493186950684,-10.345458030700684,-2.044677495956421,80.0,997511.0,1.0
473475.7833446,265639.9375,266509.4375,282971.75,272452.65625,277561.03125,258776.796875,244006.5,247157.203125,0.03369140625,0.884033203125,-0.459716796875,10.314940452575684,-10.406493186950684,-2.258300542831421,80.0,997512.0,1.0
473475.7882422,265122.625,266571.46875,283646.4375,273912.40625,278698.625,258827.671875,245114.15625,247563.546875,0.0380859375,0.8837890625,-0.461669921875,10.406493186950684,-10.406493186950684,-2.532958745956421,80.0,997513.0,1.0
473475.7882815,265309.125,266726.59375,284524.125,275483.5625,280025.875,258847.515625,246075.109375,247874.421875,0.03955078125,0.885986328125,-0.462646484375,10.406493186950684,-10.437010765075684,-2.746581792831421,80.0,997514.0,1.0
473475.7922814,265997.3125,266773.8125,284390.75,274954.1875,279679.875,258815.0625,245525.25,247646.25,0.040283203125,0.8876953125,-0.46240234375,10.406493186950684,-10.284422874450684,-2.929687261581421,80.0,997515.0,1.0
473475.7923216,266185.5,266636.125,283434.34375,273099.78125,278168.1875,258777.6875,244253.703125,247205.296875,0.04296875,0.892822265625,-0.466064453125,10.406493186950684,-10.101317405700684,-3.173827886581421,80.0,997516.0,1.0
473475.7923306,265641.1875,266517.125,282971.40625,272455.15625,277572.46875,258798.171875,244005.328125,247158.71875,0.044921875,0.89599609375,-0.4658203125,10.253905296325684,-9.735106468200684,-3.356933355331421,80.0,997517.0,1.0
473475.7923396,265132.5625,266586.40625,283650.90625,273913.75,278705.96875,258847.421875,245101.28125,247564.890625,0.043212890625,0.8994140625,-0.4658203125,10.131834983825684,-9.552000999450684,-3.509521245956421,80.0,997518.0,1.0
473475.7944352,265323.96875,266749.21875,284543.09375,275500.71875,280041.09375,258870.859375,246067.78125,247878.890625,0.04345703125,0.900634765625,-0.46044921875,9.857176780700684,-9.277342796325684,-3.753661870956421,80.0,997519.0,1.0
473475.7970723,266006.4375,266797.0625,284412.09375,274981.0,279699.625,258836.609375,245528.65625,247655.46875,0.0439453125,0.902099609375,-0.4599609375,9.460448265075684,-9.063719749450684,-3.753661870956421,80.0,997520.0,1.0
473475.7996239,266191.5,266655.53125,283450.0,273122.25,278183.65625,258794.40625,244261.75,247212.625,0.04296875,0.90185546875,-0.4599609375,9.033202171325684,-8.880614280700684,-3.875732183456421,80.0,997521.0,1.0
473475.801924,265647.71875,266529.90625,282977.65625,272463.21875,277574.78125,258804.0625,244002.734375,247160.0625,0.04443359375,0.900634765625,-0.4609375,8.453368186950684,-8.575438499450684,-3.845214605331421,80.0,997522.0,1.0
473475.8070462,265141.9375,266595.4375,283654.28125,273912.5,278699.90625,258853.78125,245092.171875,247572.5,0.04296875,0.89892578125,-0.463134765625,8.056639671325684,-8.239745140075684,-3.906249761581421,80.0,997523.0,1.0
473475.8094719,265326.5,266752.15625,284547.65625,275502.15625,280036.78125,258874.515625,246061.0625,247891.3125,0.0419921875,0.8955078125,-0.466796875,7.659911632537842,-7.995604991912842,-3.967284917831421,80.0,997524.0,1.0
473475.8111779,266003.21875,266799.1875,284420.40625,274988.15625,279708.5,258836.515625,245534.015625,247668.609375,0.040283203125,0.89404296875,-0.46923828125,7.354735851287842,-7.690429210662842,-3.906249761581421,80.0,997525.0,1.0
473475.8408472,266194.09375,266662.03125,283459.90625,273127.96875,278197.15625,258790.921875,244271.5,247227.65625,0.039306640625,0.89111328125,-0.472900390625,7.019042491912842,-7.568358898162842,-3.723144292831421,80.0,997526.0,1.0
473475.8431966,265653.8125,266533.03125,282980.34375,272453.28125,277571.03125,258800.765625,244001.578125,247170.78125,0.039794921875,0.891357421875,-0.474853515625,6.896972179412842,-7.385253429412842,-3.723144292831421,80.0,997527.0,1.0
473475.8449369,265145.625,266591.875,283650.34375,273894.34375,278683.71875,258853.6875,245083.21875,247576.6875,0.039794921875,0.890380859375,-0.475830078125,6.744384288787842,-7.171630382537842,-3.631591558456421,80.0,997528.0,1.0
473475.8608284,265325.0625,266745.8125,284548.0,275494.125,280028.3125,258878.8125,246059.90625,247890.875,0.036865234375,0.892333984375,-0.478515625,6.652831554412842,-6.958007335662842,-3.479003667831421,80.0,997529.0,1.0
473475.863334,266012.25,266804.375,284441.0625,275007.75,279728.15625,258863.96875,245561.90625,247683.53125,0.03515625,0.891845703125,-0.4765625,6.500243663787842,-6.805419445037842,-3.356933355331421,80.0,997530.0,1.0
473475.8657225,266202.84375,266662.84375,283474.3125,273143.6875,278217.1875,258822.75,244299.484375,247238.375,0.030029296875,0.893798828125,-0.4755859375,6.164550304412842,-6.652831554412842,-3.234863042831421,80.0,997531.0,1.0
473475.8657623,265654.53125,266518.90625,282973.0,272439.96875,277563.875,258816.578125,244003.453125,247158.8125,0.024658203125,0.895263671875,-0.475341796875,5.889892101287842,-6.622313976287842,-3.112792730331421,80.0,997532.0,1.0
473475.8681741,265158.40625,266589.0,283651.0625,273881.21875,278676.03125,258876.03125,245086.171875,247569.546875,0.02099609375,0.89599609375,-0.476806640625,5.523681163787842,-6.469726085662842,-3.021239995956421,80.0,997533.0,1.0
473475.8706796,265331.65625,266740.0,284550.59375,275490.0,280021.9375,258895.265625,246069.828125,247888.09375,0.017333984375,0.8955078125,-0.478759765625,5.096435070037842,-6.439208507537842,-2.929687261581421,80.0,997534.0,1.0
473475.872286,265995.25,266780.34375,284428.90625,275003.09375,279713.59375,258860.65625,245562.890625,247667.265625,0.01611328125,0.89208984375,-0.47998046875,4.730224132537842,-6.439208507537842,-2.807616949081421,80.0,997535.0,1.0
473475.8794462,266192.40625,266646.03125,283464.3125,273140.375,278205.84375,258816.859375,244302.96875,247221.84375,0.013427734375,0.891357421875,-0.48095703125,4.394530773162842,-6.530761241912842,-2.716064214706421,80.0,997536.0,1.0
473475.8819326,265663.5625,266523.46875,282970.59375,272440.59375,277563.15625,258822.125,244015.703125,247161.3125,0.01220703125,0.890380859375,-0.483642578125,4.028319835662842,-6.591796398162842,-2.502441167831421,80.0,997537.0,1.0
473475.8844746,265165.375,266595.15625,283640.34375,273869.84375,278663.9375,258863.34375,245086.265625,247564.0,0.01025390625,0.889892578125,-0.48681640625,3.692626714706421,-6.622313976287842,-2.349853277206421,80.0,997538.0,1.0
473475.8869065,265344.625,266761.03125,284558.375,275495.90625,280024.375,258876.9375,246078.140625,247883.265625,0.009765625,0.88720703125,-0.486328125,3.509521245956421,-6.591796398162842,-2.105712652206421,80.0,997539.0,1.0
473475.8894107,266011.15625,266813.59375,284455.5625,275034.375,279739.15625,258845.546875,245585.875,247668.515625,0.0107421875,0.88720703125,-0.490234375,3.326415777206421,-6.622313976287842,-1.9226073026657104,80.0,997540.0,1.0
473475.8921837,266205.09375,266677.34375,283489.0625,273173.5625,278236.3125,258796.90625,244319.515625,247225.421875,0.013427734375,0.88623046875,-0.48974609375,3.204345464706421,-6.591796398162842,-1.7089842557907104,80.0,997541.0,1.0
473475.8922268,265680.28125,266556.09375,282992.78125,272466.625,277587.9375,258810.328125,244025.09375,247162.109375,0.01611328125,0.88525390625,-0.489990234375,3.021239995956421,-6.622313976287842,-1.4343260526657104,80.0,997542.0,1.0
473475.89461,265167.25,266611.25,283644.90625,273872.90625,278663.5,258851.1875,245079.46875,247555.953125,0.01611328125,0.885009765625,-0.494384765625,2.807616949081421,-6.530761241912842,-1.1291502714157104,80.0,997543.0,1.0
473475.8995765,265334.34375,266767.8125,284558.28125,275503.40625,280028.46875,258872.828125,246076.53125,247888.90625,0.01708984375,0.88525390625,-0.49755859375,2.563476324081421,-6.439208507537842,-0.7019042372703552,80.0,997544.0,1.0
473475.9070814,265993.71875,266814.84375,284456.0,275050.46875,279758.03125,258848.234375,245597.21875,247685.328125,0.018798828125,0.8837890625,-0.494140625,2.380370855331421,-6.469726085662842,-0.3051757514476776,80.0,997545.0,1.0
473475.9094583,266189.53125,266674.75,283487.53125,273184.46875,278251.96875,258811.671875,244337.296875,247245.984375,0.01806640625,0.884765625,-0.49365234375,2.014159917831421,-6.195067882537842,0.1831054538488388,80.0,997546.0,1.0
473475.9095012,265651.65625,266531.96875,282968.0,272444.8125,277573.1875,258808.53125,244020.171875,247171.328125,0.016845703125,0.8857421875,-0.494140625,1.7089842557907104,-6.011962413787842,0.6408690810203552,80.0,997547.0,1.0
473475.9145843,265144.53125,266590.6875,283621.75,273849.84375,278648.75,258849.390625,245073.125,247568.296875,0.01708984375,0.883544921875,-0.492919921875,1.4648436307907104,-5.828856945037842,1.1291502714157104,80.0,997548.0,1.0
473475.9146259,265312.71875,266747.53125,284542.46875,275491.625,280020.25,258864.59375,246076.796875,247898.296875,0.015869140625,0.881591796875,-0.4951171875,1.1291502714157104,-5.706786632537842,1.6784666776657104,80.0,997549.0,1.0
473475.9169449,265973.34375,266799.65625,284450.28125,275054.6875,279765.71875,258839.65625,245613.40625,247697.21875,0.013671875,0.881103515625,-0.498779296875,0.9765624403953552,-5.584716320037842,2.258300542831421,80.0,997550.0,1.0
473475.9221896,266178.53125,266665.25,283485.65625,273186.4375,278266.96875,258804.6875,244357.78125,247257.875,0.01318359375,0.876953125,-0.500244140625,0.7629393935203552,-5.523681163787842,2.746581792831421,80.0,997551.0,1.0
473475.9222313,265660.15625,266537.9375,282972.125,272442.75,277585.25,258811.84375,244037.78125,247181.78125,0.012451171875,0.875244140625,-0.50244140625,0.6408690810203552,-5.401610851287842,3.295898199081421,80.0,997552.0,1.0
473475.9246258,265152.5,266592.3125,283620.5,273836.0625,278641.59375,258861.828125,245076.25,247570.890625,0.011474609375,0.87451171875,-0.502197265625,0.5187987685203552,-5.371093273162842,3.692626714706421,80.0,997553.0,1.0
473475.9246675,265312.625,266745.1875,284541.125,275487.59375,280010.96875,258890.4375,246079.9375,247900.53125,0.00927734375,0.8720703125,-0.503662109375,0.4272460639476776,-5.187987804412842,4.058837413787842,80.0,997554.0,1.0
473475.9271101,265973.15625,266797.21875,284457.15625,275068.53125,279765.71875,258863.609375,245624.40625,247707.140625,0.008056640625,0.867919921875,-0.503662109375,0.3356933295726776,-5.126952648162842,4.638671398162842,80.0,997555.0,1.0
473475.9295638,266181.84375,266665.875,283493.90625,273203.875,278264.3125,258824.359375,244363.046875,247264.03125,0.01123046875,0.865966796875,-0.505615234375,0.3662109076976776,-5.004882335662842,5.126952648162842,80.0,997556.0,1.0
473475.932056,265656.03125,266528.84375,282964.0625,272441.9375,277567.46875,258824.265625,244023.484375,247175.171875,0.010009765625,0.864990234375,-0.506103515625,0.3662109076976776,-4.882812023162842,5.554198741912842,80.0,997557.0,1.0
473475.934581,265151.5,266592.21875,283610.3125,273834.90625,278631.40625,258875.6875,245065.15625,247567.3125,0.009521484375,0.863525390625,-0.505615234375,0.3967284858226776,-4.760741710662842,6.011962413787842,80.0,997558.0,1.0
473475.9395906,265312.90625,266757.0,284543.71875,275501.34375,280020.625,258898.21875,246084.046875,247902.578125,0.00830078125,0.86376953125,-0.50732421875,0.3662109076976776,-4.730224132537842,6.408690929412842,80.0,997559.0,1.0
473475.9396307,265976.90625,266822.09375,284478.09375,275100.46875,279795.9375,258864.78125,245643.53125,247710.1875,0.006591796875,0.8642578125,-0.50830078125,0.3967284858226776,-4.547118663787842,6.866454601287842,80.0,997560.0,1.0
473475.941943,266178.71875,266679.3125,283500.78125,273215.5,278271.46875,258802.453125,244360.015625,247248.84375,0.00439453125,0.865966796875,-0.509765625,0.4272460639476776,-4.394530773162842,7.354735851287842,80.0,997561.0,1.0
473475.9444866,265672.84375,266551.8125,282973.625,272447.84375,277564.5,258803.984375,244014.546875,247166.765625,0.00537109375,0.864501953125,-0.51025390625,0.2746581733226776,-4.364013195037842,7.812499523162842,80.0,997562.0,1.0
473475.944526,265158.40625,266596.25,283599.03125,273821.5,278598.78125,258829.28125,245031.546875,247542.0,0.005615234375,0.864501953125,-0.510498046875,0.2746581733226776,-4.241942882537842,8.361815452575684,80.0,997563.0,1.0
473475.9470941,265306.1875,266747.6875,284524.65625,275489.1875,279977.875,258846.265625,246047.03125,247873.078125,0.0048828125,0.8623046875,-0.511474609375,0.2746581733226776,-4.150390148162842,8.819579124450684,80.0,997564.0,1.0
473475.9508788,265963.78125,266801.625,284461.71875,275096.625,279757.5,258818.734375,245611.984375,247680.9375,0.003173828125,0.861083984375,-0.51220703125,0.3051757514476776,-4.180907726287842,9.338377952575684,80.0,997565.0,1.0
473475.9509204,266187.21875,266672.15625,283503.46875,273224.96875,278261.8125,258784.75,244347.9375,247238.109375,0.0029296875,0.85888671875,-0.515380859375,0.3662109076976776,-3.997802495956421,9.887694358825684,80.0,997566.0,1.0
473475.9785562,265683.40625,266544.9375,282972.28125,272443.90625,277562.46875,258801.203125,244005.875,247162.921875,0.001708984375,0.85986328125,-0.5166015625,0.5493163466453552,-3.906249761581421,10.528563499450684,80.0,997567.0,1.0
473475.9785965,265161.96875,266590.15625,283591.4375,273805.125,278592.25,258837.421875,245026.0,247547.453125,0.003173828125,0.859619140625,-0.520263671875,0.6713866591453552,-3.936767339706421,11.199950218200684,80.0,997568.0,1.0
473475.9803892,265310.65625,266753.59375,284529.0625,275492.9375,279990.75,258868.171875,246063.484375,247897.75,0.004638671875,0.8623046875,-0.5205078125,0.7019042372703552,-3.753661870956421,11.779784202575684,80.0,997569.0,1.0
473475.9804304,265954.5625,266803.75,284466.65625,275105.0,279771.6875,258839.734375,245628.78125,247707.9375,0.004638671875,0.861572265625,-0.521240234375,0.8239745497703552,-3.601073980331421,12.451170921325684,80.0,997570.0,1.0
473475.9870766,266180.15625,266673.21875,283512.125,273229.875,278276.1875,258804.421875,244358.84375,247262.25,0.006103515625,0.859130859375,-0.52392578125,1.0070799589157104,-3.387450933456421,13.153075218200684,80.0,997571.0,1.0
473475.9895677,265675.4375,266537.0625,282968.28125,272427.625,277557.90625,258814.796875,243998.1875,247175.53125,0.0048828125,0.859375,-0.524169921875,1.1901854276657104,-3.356933355331421,13.885497093200684,80.0,997572.0,1.0
473475.9920846,265159.21875,266581.65625,283581.6875,273784.375,278575.09375,258866.828125,245014.921875,247561.9375,0.005126953125,0.86083984375,-0.5234375,1.3732908964157104,-3.112792730331421,14.587401390075684,80.0,997573.0,1.0
473475.9945765,265303.40625,266742.5,284517.5,275479.71875,279972.25,258897.40625,246052.84375,247910.546875,0.005126953125,0.864013671875,-0.52392578125,1.7395018339157104,-2.990722417831421,15.167235374450684,80.0,997574.0,1.0
473475.9995734,265950.90625,266796.15625,284466.71875,275114.59375,279780.09375,258856.09375,245633.078125,247719.390625,0.0068359375,0.8662109375,-0.52587890625,1.9226073026657104,-2.807616949081421,15.838622093200684,80.0,997575.0,1.0
473476.0019621,266187.5625,266671.875,283520.53125,273242.03125,278296.3125,258806.296875,244368.421875,247271.90625,0.0078125,0.868896484375,-0.5283203125,1.9836424589157104,-2.624511480331421,16.632078170776367,80.0,997576.0,1.0
473476.0120815,265692.78125,266543.59375,282975.0625,272426.375,277563.8125,258808.71875,243995.046875,247181.0625,0.009521484375,0.86767578125,-0.52685546875,2.075195074081421,-2.349853277206421,17.272947311401367,80.0,997577.0,1.0
473476.0144666,265172.34375,266589.4375,283579.71875,273775.8125,278568.46875,258842.6875,244997.390625,247560.78125,0.01025390625,0.8681640625,-0.523681640625,2.288818120956421,-2.044677495956421,17.822263717651367,80.0,997578.0,1.0
473476.0145062,265296.1875,266738.65625,284504.71875,275470.34375,279953.1875,258858.421875,246027.71875,247899.453125,0.010986328125,0.867919921875,-0.52294921875,2.288818120956421,-1.6784666776657104,18.371580123901367,80.0,997579.0,1.0
473476.01694,265952.78125,266808.40625,284473.25,275126.65625,279781.4375,258836.875,245629.859375,247717.59375,0.012939453125,0.8701171875,-0.52734375,2.410888433456421,-1.2207030057907104,18.798826217651367,80.0,997580.0,1.0
473476.0196085,266198.46875,266689.9375,283535.28125,273256.25,278303.1875,258805.140625,244368.765625,247272.359375,0.013671875,0.873046875,-0.52685546875,2.349853277206421,-0.7629393935203552,19.348142623901367,80.0,997581.0,1.0
473476.0196568,265697.96875,266550.65625,282972.75,272418.96875,277549.59375,258815.6875,243978.421875,247171.859375,0.015869140625,0.875732421875,-0.523193359375,2.319335699081421,-0.3051757514476776,19.805906295776367,80.0,997582.0,1.0
473476.02195,265167.875,266586.3125,283559.4375,273754.25,278536.53125,258859.859375,244967.890625,247548.0,0.015380859375,0.87744140625,-0.524169921875,2.227782964706421,0.1831054538488388,20.172117233276367,80.0,997583.0,1.0
473476.0244151,265289.125,266736.0,284485.25,275461.21875,279929.15625,258889.0,246008.9375,247897.671875,0.014404296875,0.876708984375,-0.52392578125,2.197265386581421,0.7324218153953552,20.507810592651367,80.0,997584.0,1.0
473476.0270693,265947.40625,266807.25,284464.59375,275136.40625,279772.875,258862.0,245624.9375,247727.609375,0.013916015625,0.874755859375,-0.5234375,2.044677495956421,1.3732908964157104,20.721433639526367,80.0,997585.0,1.0
473476.0306897,266205.1875,266693.59375,283540.5625,273272.34375,278307.5625,258824.625,244367.96875,247286.65625,0.0146484375,0.874267578125,-0.521484375,1.9836424589157104,1.8615721464157104,20.935056686401367,80.0,997586.0,1.0
473476.0531775,265705.3125,266546.25,282971.40625,272416.625,277543.40625,258821.40625,243960.625,247176.15625,0.01318359375,0.87353515625,-0.523193359375,1.8005369901657104,2.288818120956421,20.935056686401367,80.0,997587.0,1.0
473476.0572497,265172.0,266583.375,283552.375,273740.40625,278519.125,258865.40625,244943.296875,247546.828125,0.01171875,0.871337890625,-0.517578125,1.7089842557907104,2.777099370956421,20.935056686401367,80.0,997588.0,1.0
473476.0572901,265287.0625,266736.53125,284482.65625,275460.5,279917.71875,258892.046875,245991.953125,247898.734375,0.01220703125,0.87060546875,-0.519775390625,1.7089842557907104,3.204345464706421,20.751951217651367,80.0,997589.0,1.0
473476.0573,265942.78125,266809.5625,284474.96875,275153.125,279775.5625,258858.875,245616.8125,247726.8125,0.01416015625,0.872314453125,-0.52197265625,1.5563963651657104,3.784179449081421,20.599363327026367,80.0,997590.0,1.0
473476.0594339,266213.40625,266701.28125,283562.1875,273292.65625,278320.0,258816.9375,244364.390625,247282.640625,0.01416015625,0.87548828125,-0.523681640625,1.5869139432907104,4.150390148162842,20.294187545776367,80.0,997591.0,1.0
473476.0620643,265722.75,266563.15625,282991.59375,272427.375,277553.96875,258818.8125,243956.78125,247172.84375,0.012451171875,0.879638671875,-0.5224609375,1.4648436307907104,4.669188976287842,20.019529342651367,80.0,997592.0,1.0
473476.0645575,265185.21875,266601.6875,283562.28125,273744.40625,278524.125,258866.203125,244938.828125,247549.421875,0.015380859375,0.88134765625,-0.5205078125,1.3122557401657104,5.218505382537842,19.592283248901367,80.0,997593.0,1.0
473476.0670621,265291.0,266750.03125,284485.6875,275468.09375,279924.5,258894.71875,245994.28125,247904.1875,0.01806640625,0.88330078125,-0.52001953125,1.0375975370407104,5.706786632537842,19.195554733276367,80.0,997594.0,1.0
473476.0694383,265954.5625,266825.65625,284493.28125,275181.1875,279804.6875,258880.0625,245642.203125,247747.1875,0.018798828125,0.884033203125,-0.517822265625,0.7324218153953552,6.317138195037842,18.768308639526367,80.0,997595.0,1.0
473476.0745537,266220.46875,266706.65625,283576.6875,273308.5625,278344.15625,258832.9375,244382.984375,247295.78125,0.0224609375,0.883544921875,-0.509765625,0.5187987685203552,6.744384288787842,18.371580123901367,80.0,997596.0,1.0
473476.0771874,265733.46875,266567.1875,282998.59375,272421.1875,277564.59375,258833.21875,243959.921875,247176.0625,0.024658203125,0.882568359375,-0.511962890625,0.2746581733226776,7.293700695037842,17.852781295776367,80.0,997597.0,1.0
473476.0772298,265184.59375,266597.59375,283550.5625,273714.90625,278511.40625,258872.46875,244928.375,247547.28125,0.02490234375,0.88525390625,-0.5126953125,0.0610351525247097,7.904052257537842,17.364500045776367,80.0,997598.0,1.0
473476.1033446,265274.53125,266742.78125,284467.90625,275437.25,279907.59375,258892.046875,245985.96875,247897.9375,0.02783203125,0.8876953125,-0.513671875,-0.3356933295726776,8.361815452575684,16.754148483276367,80.0,997599.0,1.0
473476.1058065,265942.78125,266831.5625,284493.28125,275171.53125,279805.3125,258876.9375,245646.578125,247738.078125,0.02880859375,0.889892578125,-0.51025390625,-0.8239745497703552,8.819579124450684,16.021726608276367,80.0,997600.0,1.0
473476.1058471,266233.6875,266730.8125,283599.65625,273315.34375,278360.875,258840.546875,244396.046875,247290.234375,0.0263671875,0.89306640625,-0.510009765625,-1.2207030057907104,9.368895530700684,15.350340843200684,80.0,997601.0,1.0
473476.1108324,265751.15625,266589.96875,283016.46875,272413.6875,277569.4375,258841.34375,243961.875,247172.125,0.024169921875,0.89599609375,-0.512451171875,-1.7089842557907104,9.735106468200684,14.739989280700684,80.0,997602.0,1.0
473476.1132957,265193.53125,266612.0625,283549.6875,273690.6875,278497.5625,258880.234375,244918.171875,247538.96875,0.023193359375,0.89990234375,-0.5087890625,-2.044677495956421,10.101317405700684,13.946532249450684,80.0,997603.0,1.0
473476.115673,265269.0,266749.21875,284457.0625,275421.6875,279890.96875,258898.390625,245978.8125,247892.21875,0.0224609375,0.90234375,-0.504638671875,-2.655029058456421,10.406493186950684,13.092040061950684,80.0,997604.0,1.0
473476.1182841,265933.1875,266834.0625,284490.78125,275182.25,279807.03125,258883.453125,245656.59375,247745.671875,0.021240234375,0.904296875,-0.5009765625,-3.051757574081421,10.620116233825684,12.176512718200684,80.0,997605.0,1.0
473476.120837,266249.78125,266745.8125,283618.0,273351.125,278387.9375,258866.203125,244425.015625,247317.953125,0.02001953125,0.905517578125,-0.499267578125,-3.601073980331421,10.833739280700684,11.230467796325684,80.0,997606.0,1.0
473476.123151,265762.15625,266591.9375,283019.5,272427.625,277579.0,258859.140625,243975.921875,247190.453125,0.019287109375,0.907470703125,-0.49560546875,-4.180907726287842,10.894774436950684,10.345458030700684,80.0,997607.0,1.0
473476.1258618,265189.15625,266601.96875,283536.1875,273684.6875,278488.96875,258896.25,244922.296875,247550.59375,0.0166015625,0.90771484375,-0.495361328125,-4.882812023162842,10.925292015075684,9.338377952575684,80.0,997608.0,1.0
473476.1259034,265257.46875,266739.65625,284447.15625,275423.21875,279886.40625,258919.578125,245992.3125,247906.609375,0.011962890625,0.907958984375,-0.49462890625,-5.432128429412842,10.833739280700684,8.270262718200684,80.0,997609.0,1.0
473476.1283449,265934.4375,266836.84375,284504.1875,275211.78125,279827.21875,258904.921875,245689.21875,247766.78125,0.00927734375,0.90576171875,-0.49267578125,-6.011962413787842,10.925292015075684,7.263183116912842,80.0,997610.0,1.0
473476.1345807,266244.0625,266735.53125,283627.28125,273371.3125,278398.9375,258857.078125,244440.5625,247321.4375,0.00732421875,0.903564453125,-0.4892578125,-6.652831554412842,10.742186546325684,6.225585460662842,80.0,997611.0,1.0
473476.1346227,265764.59375,266586.3125,283026.65625,272434.15625,277583.5625,258852.703125,243984.765625,247190.71875,0.008056640625,0.9013671875,-0.489990234375,-7.293700695037842,10.498045921325684,5.065917491912842,80.0,997612.0,1.0
473476.1370545,265191.3125,266606.15625,283537.625,273674.6875,278490.21875,258896.953125,244933.375,247556.046875,0.00830078125,0.897216796875,-0.489013671875,-7.781981945037842,10.162352561950684,3.814697027206421,80.0,997613.0,1.0
473476.1533475,265258.625,266758.15625,284459.9375,275428.3125,279909.21875,258932.1875,246027.0,247929.671875,0.00830078125,0.892578125,-0.488037109375,-8.209227561950684,9.979247093200684,2.685546636581421,80.0,997614.0,1.0
473476.1583098,265916.84375,266838.09375,284508.65625,275219.8125,279848.6875,258905.28125,245716.671875,247777.40625,0.009765625,0.889404296875,-0.489013671875,-8.544920921325684,9.613036155700684,1.5258787870407104,80.0,997615.0,1.0
473476.1583498,266237.09375,266732.0625,283632.375,273376.5,278420.21875,258856.28125,244457.640625,247322.953125,0.011962890625,0.885986328125,-0.4892578125,-8.728026390075684,9.368895530700684,0.3662109076976776,80.0,997616.0,1.0
473476.15836,265760.03125,266577.65625,283017.71875,272415.375,277586.25,258847.421875,243983.078125,247184.640625,0.015869140625,0.88427734375,-0.4892578125,-8.941649436950684,9.094237327575684,-0.6408690810203552,80.0,997617.0,1.0
473476.1607671,265167.53125,266583.1875,283505.15625,273633.46875,278471.90625,258881.046875,244916.921875,247540.03125,0.019775390625,0.88037109375,-0.4853515625,-9.033202171325684,8.880614280700684,-1.5869139432907104,80.0,997618.0,1.0
473476.1608034,265216.25,266723.75,284417.03125,275385.5,279885.6875,258910.375,246013.234375,247909.109375,0.026123046875,0.878662109375,-0.48291015625,-9.063719749450684,8.636473655700684,-2.624511480331421,80.0,997619.0,1.0
473476.1631311,265883.5,266814.3125,284483.71875,275202.03125,279845.46875,258887.75,245722.21875,247766.59375,0.029052734375,0.875,-0.4833984375,-9.124754905700684,8.483885765075684,-3.387450933456421,80.0,997620.0,1.0
473476.1774072,266230.375,266732.6875,283631.9375,273381.59375,278434.875,258864.78125,244477.140625,247327.421875,0.030517578125,0.871337890625,-0.481201171875,-9.094237327575684,8.331297874450684,-4.272460460662842,80.0,997621.0,1.0
473476.2222363,265771.71875,266591.59375,283024.59375,272413.0625,277599.90625,258872.375,243998.0,247190.8125,0.033447265625,0.87060546875,-0.48095703125,-9.124754905700684,8.300780296325684,-4.913329601287842,80.0,997622.0,1.0
473476.2222774,265173.59375,266595.625,283500.78125,273605.125,278463.9375,258897.765625,244912.90625,247532.078125,0.03515625,0.868408203125,-0.480712890625,-9.124754905700684,8.209227561950684,-5.615233898162842,80.0,997623.0,1.0
473476.2222877,265205.4375,266729.625,284404.40625,275353.9375,279870.3125,258916.359375,246007.515625,247891.140625,0.03564453125,0.86669921875,-0.479248046875,-8.972167015075684,8.239745140075684,-6.195067882537842,80.0,997624.0,1.0
473476.2294965,265874.46875,266824.21875,284486.84375,275202.65625,279849.84375,258896.609375,245734.28125,247755.953125,0.034912109375,0.864990234375,-0.478515625,-8.972167015075684,8.270262718200684,-6.713866710662842,80.0,997625.0,1.0
473476.2295375,266244.25,266750.125,283649.71875,273399.65625,278453.9375,258871.390625,244496.265625,247326.09375,0.032470703125,0.86181640625,-0.480224609375,-8.819579124450684,8.270262718200684,-7.171630382537842,80.0,997626.0,1.0
473476.2371326,265792.46875,266605.8125,283033.34375,272416.1875,277607.78125,258872.90625,244007.125,247191.265625,0.030517578125,0.859375,-0.480712890625,-8.666991233825684,8.209227561950684,-7.690429210662842,80.0,997627.0,1.0
473476.2371744,265207.40625,266620.125,283515.71875,273610.75,278478.875,258917.703125,244937.21875,247549.515625,0.0322265625,0.857666015625,-0.48046875,-8.270262718200684,8.087157249450684,-8.087157249450684,80.0,997628.0,1.0
473476.2371849,265245.84375,266757.71875,284433.21875,275379.125,279902.40625,258938.796875,246048.109375,247919.578125,0.03466796875,0.85498046875,-0.4814453125,-7.873534679412842,7.965087413787842,-8.453368186950684,80.0,997629.0,1.0
473476.2393878,265896.625,266830.59375,284505.1875,275225.1875,279866.125,258895.625,245756.8125,247765.609375,0.036865234375,0.853759765625,-0.483642578125,-7.537841320037842,7.812499523162842,-8.728026390075684,80.0,997630.0,1.0
473476.2420456,266246.03125,266731.34375,283649.375,273406.90625,278444.53125,258845.015625,244489.734375,247313.125,0.039794921875,0.8525390625,-0.48046875,-7.019042491912842,7.843017101287842,-8.819579124450684,80.0,997631.0,1.0
473476.2445919,265802.40625,266592.21875,283034.25,272414.9375,277588.375,258843.234375,243988.796875,247182.5,0.038818359375,0.849609375,-0.47705078125,-6.622313976287842,7.751464366912842,-8.911131858825684,80.0,997632.0,1.0
473476.2470605,265199.53125,266595.53125,283498.625,273584.375,278439.71875,258875.140625,244898.59375,247527.4375,0.038818359375,0.8515625,-0.473876953125,-6.225585460662842,7.720946788787842,-8.789061546325684,80.0,997633.0,1.0
473476.2494384,265222.0625,266727.65625,284415.59375,275358.125,279873.53125,258898.84375,246015.296875,247898.03125,0.036376953125,0.8525390625,-0.47998046875,-5.645751476287842,7.751464366912842,-8.697508811950684,80.0,997634.0,1.0
473476.2519303,265898.0625,266829.25,284526.375,275260.6875,279899.65625,258889.0,245773.171875,247781.796875,0.0341796875,0.854248046875,-0.47705078125,-5.279540538787842,7.690429210662842,-8.514403343200684,80.0,997635.0,1.0
473476.2594244,266264.625,266741.8125,283677.53125,273453.125,278488.09375,258856.1875,244512.984375,247337.796875,0.03125,0.8544921875,-0.476318359375,-4.943847179412842,7.568358898162842,-8.270262718200684,80.0,997636.0,1.0
473476.2620543,265803.90625,266583.28125,283024.96875,272413.59375,277582.9375,258849.21875,243974.125,247177.765625,0.029296875,0.853759765625,-0.47607421875,-4.394530773162842,7.476806163787842,-7.873534679412842,80.0,997637.0,1.0
473476.2645936,265213.5625,266604.28125,283497.75,273575.875,278434.625,258906.890625,244894.84375,247539.859375,0.026123046875,0.850341796875,-0.477783203125,-3.997802495956421,7.232665538787842,-7.476806163787842,80.0,997638.0,1.0
473476.2669298,265220.53125,266728.65625,284407.71875,275343.46875,279860.9375,258920.46875,246008.5,247909.015625,0.025146484375,0.846923828125,-0.476806640625,-3.448486089706421,6.988524913787842,-6.988524913787842,80.0,997639.0,1.0
473476.2694559,265884.46875,266813.9375,284515.90625,275255.40625,279888.8125,258890.078125,245760.03125,247781.703125,0.02294921875,0.84521484375,-0.4765625,-2.868652105331421,6.683349132537842,-6.317138195037842,80.0,997640.0,1.0
473476.2720712,266256.5,266723.75,283670.75,273454.90625,278483.0,258851.453125,244494.484375,247331.453125,0.01904296875,0.845703125,-0.47998046875,-2.258300542831421,6.317138195037842,-5.798339366912842,80.0,997641.0,1.0
473476.2744589,265819.75,266587.5625,283033.8125,272422.625,277598.9375,258859.40625,243971.625,247187.78125,0.015869140625,0.841064453125,-0.48291015625,-1.6479490995407104,5.981444835662842,-5.279540538787842,80.0,997642.0,1.0
473476.2744944,265206.0625,266589.34375,283479.6875,273547.71875,278426.21875,258889.890625,244868.203125,247523.3125,0.016357421875,0.837158203125,-0.483154296875,-0.9460448622703552,5.493163585662842,-4.669188976287842,80.0,997643.0,1.0
473476.2794615,265207.84375,266722.3125,284395.90625,275317.28125,279857.4375,258901.78125,245989.28125,247882.46875,0.016845703125,0.832763671875,-0.483154296875,-0.1220703050494194,5.096435070037842,-3.997802495956421,80.0,997644.0,1.0
473476.2820732,265871.5,266815.1875,284512.25,275241.625,279884.34375,258875.140625,245751.0,247758.90625,0.020751953125,0.827392578125,-0.482177734375,0.7934569716453552,4.669188976287842,-3.295898199081421,80.0,997645.0,1.0
473476.2844846,266250.25,266727.75,283671.28125,273451.78125,278480.125,258839.921875,244490.90625,247317.328125,0.026611328125,0.82470703125,-0.48046875,1.6174315214157104,4.364013195037842,-2.777099370956421,80.0,997646.0,1.0
473476.2845196,265816.4375,266587.3125,283024.78125,272399.5625,277564.15625,258854.21875,243945.515625,247162.734375,0.029541015625,0.822998046875,-0.4755859375,2.655029058456421,4.028319835662842,-2.197265386581421,80.0,997647.0,1.0
473476.287067,265204.25,266590.53125,283467.15625,273515.09375,278376.15625,258886.765625,244834.671875,247500.078125,0.033447265625,0.822998046875,-0.475830078125,3.509521245956421,3.875732183456421,-1.7395018339157104,80.0,997648.0,1.0
473476.2895558,265198.1875,266717.03125,284386.96875,275295.09375,279816.0625,258894.375,245966.296875,247872.1875,0.034423828125,0.824951171875,-0.4775390625,4.486083507537842,3.875732183456421,-1.3427733182907104,80.0,997649.0,1.0
473476.2920441,265854.0,266806.09375,284513.21875,275244.5,279869.6875,258864.328125,245744.296875,247756.765625,0.036865234375,0.82861328125,-0.475830078125,5.340575695037842,3.875732183456421,-1.0375975370407104,80.0,997650.0,1.0
473476.294389,266236.03125,266717.5625,283673.0625,273460.375,278475.46875,258822.9375,244485.359375,247317.234375,0.03271484375,0.8310546875,-0.477294921875,5.950927257537842,3.967284917831421,-0.9765624403953552,80.0,997651.0,1.0
473476.2966051,265798.1875,266566.375,283011.1875,272389.625,277555.75,258821.765625,243925.578125,247156.03125,0.029541015625,0.83642578125,-0.479248046875,6.713866710662842,3.936767339706421,-0.8544921278953552,80.0,997652.0,1.0
473476.2966428,265186.375,266571.3125,283448.125,273488.34375,278359.96875,258864.328125,244805.34375,247496.5,0.028076171875,0.841796875,-0.477783203125,7.415771007537842,3.906249761581421,-1.0375975370407104,80.0,997653.0,1.0
473476.303198,265189.96875,266715.15625,284384.125,275289.71875,279811.03125,258902.59375,245947.4375,247887.03125,0.028564453125,0.850341796875,-0.47314453125,8.026122093200684,3.875732183456421,-1.0375975370407104,80.0,997654.0,1.0
473476.3196191,265852.5625,266812.6875,284528.34375,275270.59375,279884.1875,258890.34375,245742.953125,247785.109375,0.03173828125,0.858642578125,-0.472412109375,8.514403343200684,3.845214605331421,-1.2817381620407104,80.0,997655.0,1.0
473476.3196602,266236.65625,266720.15625,283687.46875,273486.46875,278487.625,258846.53125,244482.40625,247334.9375,0.030517578125,0.865234375,-0.469970703125,9.033202171325684,3.845214605331421,-1.4648436307907104,80.0,997656.0,1.0
473476.324488,265802.84375,266567.625,283018.4375,272400.53125,277553.34375,258836.609375,243912.4375,247166.234375,0.029541015625,0.872314453125,-0.4697265625,9.277342796325684,3.936767339706421,-1.4953612089157104,80.0,997657.0,1.0
473476.3245286,265203.09375,266579.6875,283460.375,273495.875,278357.28125,258878.8125,244788.53125,247510.984375,0.03076171875,0.880615234375,-0.466064453125,9.307860374450684,3.845214605331421,-1.6174315214157104,80.0,997658.0,1.0
473476.3269408,265196.21875,266713.09375,284393.34375,275292.5,279811.65625,258897.859375,245921.953125,247895.703125,0.02978515625,0.888427734375,-0.461181640625,9.216307640075684,3.784179449081421,-1.6174315214157104,80.0,997659.0,1.0
473476.3294304,265856.40625,266814.84375,284543.625,275290.34375,279903.125,258881.046875,245736.25,247801.203125,0.02783203125,0.89501953125,-0.455810546875,8.850096702575684,3.631591558456421,-1.8005369901657104,80.0,997660.0,1.0
473476.331981,266239.78125,266718.5625,283697.21875,273511.4375,278509.0,258827.140625,244483.75,247346.5625,0.030029296875,0.90478515625,-0.4560546875,8.239745140075684,3.723144292831421,-2.136230230331421,80.0,997661.0,1.0
473476.3345464,265806.6875,266560.03125,283013.6875,272399.28125,277558.0625,258817.203125,243901.359375,247165.515625,0.03173828125,0.909912109375,-0.46533203125,7.659911632537842,3.967284917831421,-2.166747808456421,80.0,997662.0,1.0
473476.3383117,265193.4375,266555.5625,283431.21875,273453.40625,278326.15625,258847.078125,244743.828125,247487.109375,0.03076171875,0.911376953125,-0.46875,7.293700695037842,4.180907726287842,-2.044677495956421,80.0,997663.0,1.0
473476.3533514,265195.0625,266700.5,284379.75,275264.4375,279789.84375,258870.234375,245890.484375,247882.734375,0.02783203125,0.91064453125,-0.469970703125,6.744384288787842,4.119872570037842,-2.075195074081421,80.0,997664.0,1.0
473476.3533934,265852.90625,266802.15625,284538.4375,275280.34375,279894.28125,258850.46875,245719.09375,247783.21875,0.029541015625,0.910888671875,-0.471435546875,6.347655773162842,4.180907726287842,-2.197265386581421,80.0,997665.0,1.0
473476.3558938,266250.78125,266718.71875,283702.9375,273513.03125,278507.65625,258809.78125,244481.0625,247336.015625,0.028076171875,0.9130859375,-0.47412109375,6.072997570037842,4.272460460662842,-2.227782964706421,80.0,997666.0,1.0
473476.3559349,265821.1875,266562.28125,283012.4375,272392.59375,277545.75,258794.140625,243892.234375,247155.40625,0.027587890625,0.912841796875,-0.4765625,5.889892101287842,4.333495616912842,-2.227782964706421,80.0,997667.0,1.0
473476.3581379,265202.46875,266555.65625,283419.59375,273431.9375,278300.15625,258818.28125,244720.234375,247469.3125,0.0263671875,0.9150390625,-0.473876953125,5.462646007537842,4.394530773162842,-2.319335699081421,80.0,997668.0,1.0
473476.3607993,265202.84375,266709.0625,284375.53125,275250.9375,279773.125,258861.203125,245872.234375,247865.03125,0.028076171875,0.91943359375,-0.471435546875,5.126952648162842,4.211425304412842,-2.410888433456421,80.0,997669.0,1.0
473476.3920355,265851.46875,266808.75,284540.84375,275281.5,279890.0,258848.40625,245714.609375,247770.796875,0.031982421875,0.92431640625,-0.4716796875,4.547118663787842,4.211425304412842,-2.258300542831421,80.0,997670.0,1.0
473476.3994953,266246.84375,266720.96875,283705.875,273521.78125,278512.9375,258806.75,244486.609375,247328.046875,0.030517578125,0.927001953125,-0.470703125,3.784179449081421,4.241942882537842,-2.197265386581421,80.0,997671.0,1.0
473476.3995352,265824.75,266565.65625,283014.03125,272390.53125,277545.28125,258795.84375,243894.109375,247148.4375,0.02978515625,0.92919921875,-0.468994140625,2.990722417831421,4.241942882537842,-2.105712652206421,80.0,997672.0,1.0
473476.4020187,265228.59375,266581.9375,283438.46875,273434.09375,278309.53125,258844.84375,244738.375,247486.390625,0.031005859375,0.9287109375,-0.46875,2.197265386581421,4.272460460662842,-1.8310545682907104,80.0,997673.0,1.0
473476.4036094,265217.40625,266731.5,284392.53125,275254.15625,279783.5,258890.078125,245894.59375,247887.734375,0.02978515625,0.927490234375,-0.471435546875,1.4648436307907104,4.364013195037842,-1.6784666776657104,80.0,997674.0,1.0
473476.4107739,265864.96875,266834.96875,284568.84375,275311.28125,279924.84375,258884.71875,245755.5625,247802.8125,0.029296875,0.92724609375,-0.47021484375,0.6408690810203552,4.394530773162842,-1.3732908964157104,80.0,997675.0,1.0
473476.4132121,266265.15625,266747.78125,283736.53125,273563.625,278554.875,258841.96875,244531.578125,247360.421875,0.028076171875,0.92431640625,-0.47314453125,-0.0915527269244194,4.364013195037842,-1.1291502714157104,80.0,997676.0,1.0
473476.4158431,265856.21875,266598.03125,283046.15625,272427.46875,277584.1875,258840.28125,243938.09375,247185.984375,0.027587890625,0.923828125,-0.476318359375,-0.7324218153953552,4.333495616912842,-0.9765624403953552,80.0,997677.0,1.0
473476.4182572,265222.6875,266575.78125,283426.9375,273421.40625,278303.71875,258849.578125,244740.34375,247485.765625,0.029296875,0.92333984375,-0.478515625,-1.4648436307907104,4.333495616912842,-0.7324218153953552,80.0,997678.0,1.0
473476.4208447,265200.0625,266715.34375,284376.59375,275239.46875,279775.8125,258874.15625,245897.1875,247882.734375,0.029052734375,0.921630859375,-0.477294921875,-1.9531248807907104,4.272460460662842,-0.4577636420726776,80.0,997679.0,1.0
473476.4208875,265846.65625,266817.78125,284561.9375,275315.375,279930.59375,258867.359375,245770.671875,247807.453125,0.029296875,0.919677734375,-0.4765625,-2.349853277206421,4.211425304412842,-0.0610351525247097,80.0,997680.0,1.0
473476.4256968,266247.71875,266725.0625,283728.0625,273567.03125,278557.1875,258820.0625,244539.8125,247359.609375,0.030029296875,0.917724609375,-0.4775390625,-2.899169683456421,4.211425304412842,0.2441406100988388,80.0,997681.0,1.0
473476.4282942,265828.78125,266565.40625,283016.28125,272400.09375,277564.25,258808.09375,243920.75,247164.53125,0.03076171875,0.918212890625,-0.477294921875,-3.326415777206421,4.180907726287842,0.6408690810203552,80.0,997682.0,1.0
473476.4308525,265217.6875,266571.46875,283413.6875,273402.34375,278294.34375,258848.6875,244736.234375,247484.875,0.03125,0.91552734375,-0.478515625,-3.875732183456421,4.150390148162842,1.0375975370407104,80.0,997683.0,1.0
473476.4308942,265189.6875,266712.28125,284364.375,275223.75,279768.125,258874.515625,245894.140625,247879.96875,0.03125,0.91064453125,-0.4765625,-4.241942882537842,4.150390148162842,1.5563963651657104,80.0,997684.0,1.0
473476.4333361,265842.375,266823.15625,284565.53125,275326.46875,279945.875,258863.25,245784.078125,247809.59375,0.031494140625,0.90625,-0.477783203125,-4.730224132537842,4.089354991912842,1.8310545682907104,80.0,997685.0,1.0
473476.4358768,266260.59375,266743.21875,283745.9375,273590.5625,278586.53125,258821.40625,244562.609375,247368.828125,0.03076171875,0.90380859375,-0.474609375,-5.187987804412842,4.119872570037842,2.258300542831421,80.0,997686.0,1.0
473476.4408479,265848.96875,266583.90625,283030.84375,272410.125,277581.6875,258807.546875,243931.578125,247171.5,0.030029296875,0.900146484375,-0.475830078125,-5.493163585662842,4.089354991912842,2.655029058456421,80.0,997687.0,1.0
473476.4408903,265231.53125,266582.375,283418.25,273393.9375,278297.90625,258845.546875,244737.390625,247488.625,0.0283203125,0.896240234375,-0.4765625,-5.767821788787842,4.058837413787842,3.143310308456421,80.0,997688.0,1.0
473476.4456906,265190.0625,266717.03125,284362.40625,275214.71875,279771.0,258871.84375,245900.140625,247883.453125,0.027099609375,0.89404296875,-0.47900390625,-5.981444835662842,4.028319835662842,3.479003667831421,80.0,997689.0,1.0
473476.4507948,265833.59375,266823.15625,284564.8125,275329.875,279956.96875,258862.71875,245801.609375,247813.4375,0.025390625,0.88916015625,-0.478759765625,-6.134032726287842,3.875732183456421,3.692626714706421,80.0,997690.0,1.0
473476.4533589,266274.65625,266756.5625,283765.59375,273617.1875,278619.0625,258832.859375,244598.1875,247386.703125,0.025390625,0.886962890625,-0.480224609375,-6.195067882537842,3.723144292831421,4.028319835662842,80.0,997691.0,1.0
473476.4556534,265871.6875,266595.96875,283046.6875,272426.28125,277601.53125,258819.625,243957.140625,247182.5,0.02392578125,0.884765625,-0.4794921875,-6.164550304412842,3.631591558456421,4.119872570037842,80.0,997692.0,1.0
473476.4596049,265229.75,266573.625,283399.84375,273368.375,278277.71875,258839.734375,244731.3125,247468.0625,0.022705078125,0.88232421875,-0.479248046875,-6.225585460662842,3.326415777206421,4.425048351287842,80.0,997693.0,1.0
473476.4596477,265185.40625,266714.25,284348.53125,275197.46875,279753.1875,258870.40625,245902.109375,247865.125,0.02294921875,0.88037109375,-0.47900390625,-6.256103038787842,3.082275152206421,4.730224132537842,80.0,997694.0,1.0
473476.4781902,265821.96875,266816.4375,284555.5,275327.8125,279946.75,258855.46875,245805.984375,247790.921875,0.022705078125,0.8779296875,-0.480224609375,-6.072997570037842,2.838134527206421,4.913329601287842,80.0,997695.0,1.0
473476.4808542,266256.5,266743.59375,283749.6875,273609.5,278604.21875,258822.578125,244586.75,247354.609375,0.0234375,0.87548828125,-0.4853515625,-6.011962413787842,2.624511480331421,5.096435070037842,80.0,997696.0,1.0
473476.480895,265865.34375,266592.5,283033.28125,272411.625,277586.40625,258815.953125,243943.734375,247157.5625,0.0244140625,0.875732421875,-0.48291015625,-5.950927257537842,2.349853277206421,5.371093273162842,80.0,997697.0,1.0
473476.4831454,265242.71875,266591.78125,283402.34375,273365.34375,278275.03125,258853.515625,244736.765625,247471.015625,0.0244140625,0.876220703125,-0.48193359375,-5.889892101287842,2.166747808456421,5.615233898162842,80.0,997698.0,1.0
473476.4858278,265198.0,266739.75,284360.34375,275210.4375,279760.25,258888.109375,245919.359375,247883.359375,0.025634765625,0.87548828125,-0.4814453125,-5.798339366912842,1.8310545682907104,5.737304210662842,80.0,997699.0,1.0
473476.4883509,265842.4375,266851.15625,284588.78125,275367.78125,279977.25,258880.59375,245843.546875,247826.765625,0.025390625,0.87646484375,-0.48681640625,-5.554198741912842,1.5258787870407104,6.011962413787842,80.0,997700.0,1.0
473476.4907285,266279.75,266765.40625,283783.03125,273647.9375,278631.3125,258835.265625,244614.90625,247387.515625,0.026611328125,0.872802734375,-0.485595703125,-5.432128429412842,1.2207030057907104,6.042479991912842,80.0,997701.0,1.0
473476.4945578,265872.125,266584.96875,283038.90625,272418.4375,277585.15625,258802.8125,243937.921875,247169.453125,0.025390625,0.87109375,-0.48193359375,-5.371093273162842,1.0375975370407104,6.164550304412842,80.0,997702.0,1.0
473476.528368,265241.71875,266573.0,283388.75,273355.6875,278257.6875,258835.53125,244718.171875,247477.28125,0.02783203125,0.869873046875,-0.481689453125,-5.157470226287842,0.8239745497703552,6.286620616912842,80.0,997703.0,1.0
473476.5284087,265183.15625,266712.5625,284336.65625,275200.3125,279740.59375,258866.5625,245905.671875,247890.328125,0.030517578125,0.869384765625,-0.48095703125,-4.913329601287842,0.5493163466453552,6.408690929412842,80.0,997704.0,1.0
473476.5308553,265817.0625,266816.375,284563.90625,275367.59375,279962.21875,258846.171875,245831.03125,247829.53125,0.03076171875,0.8681640625,-0.479736328125,-4.577636241912842,0.2441406100988388,6.469726085662842,80.0,997705.0,1.0
473476.5308971,266267.3125,266740.71875,283773.28125,273658.3125,278628.8125,258804.25,244606.6875,247389.828125,0.030029296875,0.865966796875,-0.481201171875,-4.302978038787842,0.0915527269244194,6.622313976287842,80.0,997706.0,1.0
473476.5333336,265890.65625,266586.5,283049.625,272437.5625,277597.25,258805.40625,243942.84375,247190.375,0.03173828125,0.864990234375,-0.4833984375,-3.967284917831421,-0.0610351525247097,6.652831554412842,80.0,997707.0,1.0
473476.5358194,265256.03125,266575.84375,283392.0625,273358.375,278263.84375,258852.4375,244720.671875,247498.734375,0.031982421875,0.86474609375,-0.4833984375,-3.692626714706421,-0.2136230319738388,6.622313976287842,80.0,997708.0,1.0
473476.5381679,265188.96875,266716.84375,284336.09375,275202.125,279749.15625,258887.03125,245915.15625,247907.234375,0.03515625,0.8662109375,-0.48583984375,-3.387450933456421,-0.4882812201976776,6.652831554412842,80.0,997709.0,1.0
473476.5406837,265820.28125,266824.78125,284571.96875,275382.90625,279985.21875,258860.84375,245853.828125,247846.4375,0.036376953125,0.8662109375,-0.48681640625,-3.051757574081421,-0.7324218153953552,6.683349132537842,80.0,997710.0,1.0
473476.5433604,266275.625,266752.78125,283787.875,273676.46875,278660.375,258804.328125,244630.015625,247402.4375,0.0380859375,0.865234375,-0.487548828125,-2.838134527206421,-0.8544921278953552,6.652831554412842,80.0,997711.0,1.0
473476.5447808,265902.96875,266598.5625,283058.125,272439.0,277616.71875,258793.15625,243950.53125,247191.0,0.041015625,0.867919921875,-0.484375,-2.441406011581421,-0.9155272841453552,6.652831554412842,80.0,997712.0,1.0
473476.573649,265264.53125,266584.625,283388.21875,273339.21875,278262.78125,258832.59375,244712.1875,247485.953125,0.042236328125,0.869140625,-0.48291015625,-2.166747808456421,-0.9155272841453552,6.500243663787842,80.0,997713.0,1.0
473476.5944568,265181.90625,266719.0,284324.75,275179.3125,279740.15625,258863.875,245899.953125,247889.4375,0.04443359375,0.870849609375,-0.483154296875,-1.9836424589157104,-1.0375975370407104,6.347655773162842,80.0,997714.0,1.0
473476.5969703,265810.0,266826.8125,284567.75,275378.0625,279987.53125,258846.625,245845.0625,247829.09375,0.045654296875,0.8720703125,-0.48681640625,-1.6784666776657104,-1.0070799589157104,6.408690929412842,80.0,997715.0,1.0
473476.6021898,266281.09375,266762.90625,283797.34375,273685.59375,278672.8125,258808.265625,244630.46875,247391.890625,0.0458984375,0.871337890625,-0.484130859375,-1.4648436307907104,-0.9765624403953552,6.317138195037842,80.0,997716.0,1.0
473476.6022372,265914.96875,266608.125,283063.3125,272438.09375,277619.21875,258804.953125,243943.46875,247181.96875,0.044677734375,0.873046875,-0.48583984375,-1.3427733182907104,-0.9765624403953552,6.225585460662842,80.0,997717.0,1.0
473476.6070772,265269.25,266585.15625,283378.90625,273322.59375,278245.96875,258841.171875,244690.734375,247470.84375,0.046142578125,0.870849609375,-0.484130859375,-1.2817381620407104,-0.9460448622703552,6.011962413787842,80.0,997718.0,1.0
473476.6110705,265199.53125,266732.21875,284331.0,275182.8125,279739.15625,258888.734375,245899.953125,247891.671875,0.047119140625,0.87060546875,-0.485107421875,-1.1596678495407104,-0.9765624403953552,5.859374523162842,80.0,997719.0,1.0
473476.6181816,265822.0625,266838.1875,284583.40625,275396.125,279997.46875,258869.25,245857.125,247835.4375,0.049560546875,0.869873046875,-0.483154296875,-1.0070799589157104,-1.0070799589157104,5.767821788787842,80.0,997720.0,1.0
473476.6233579,266295.5625,266776.84375,283823.0,273714.28125,278692.5625,258831.6875,244648.609375,247401.546875,0.048095703125,0.8701171875,-0.4853515625,-0.7629393935203552,-0.9460448622703552,5.523681163787842,80.0,997721.0,1.0
473476.6256662,265932.5625,266625.65625,283085.9375,272457.125,277632.71875,258823.46875,243955.0,247191.171875,0.0498046875,0.87158203125,-0.484619140625,-0.4882812201976776,-0.8544921278953552,5.310058116912842,80.0,997722.0,1.0
473476.6283339,265281.78125,266602.59375,283388.03125,273324.65625,278246.34375,258860.578125,244691.171875,247477.90625,0.048583984375,0.870849609375,-0.486328125,-0.2746581733226776,-0.8850097060203552,5.096435070037842,80.0,997723.0,1.0
473476.635859,265171.71875,266719.0,284305.1875,275158.125,279706.53125,258879.609375,245870.625,247874.328125,0.0478515625,0.870361328125,-0.489501953125,-0.03051757626235485,-0.8850097060203552,4.699706554412842,80.0,997724.0,1.0
473476.6358998,265793.53125,266829.25,284567.125,275391.21875,279982.625,258864.140625,245847.390625,247831.421875,0.0458984375,0.872802734375,-0.485595703125,0.03051757626235485,-0.9155272841453552,4.425048351287842,80.0,997725.0,1.0
473476.6384049,266276.625,266767.46875,283811.1875,273715.4375,278688.8125,258827.046875,244642.8125,247402.078125,0.04345703125,0.87451171875,-0.483154296875,0.3051757514476776,-0.9155272841453552,4.028319835662842,80.0,997726.0,1.0
473476.6384452,265921.5,266610.375,283068.3125,272444.53125,277622.34375,258823.46875,243939.703125,247186.4375,0.04296875,0.878173828125,-0.482177734375,0.3051757514476776,-0.8544921278953552,3.631591558456421,80.0,997727.0,1.0
473476.6406891,265277.3125,266590.53125,283371.3125,273307.84375,278232.375,258865.125,244676.875,247480.40625,0.042724609375,0.88037109375,-0.48193359375,0.3967284858226776,-0.8850097060203552,3.112792730331421,80.0,997728.0,1.0
473476.6433337,265181.8125,266724.8125,284310.0,275165.53125,279714.65625,258907.421875,245882.078125,247899.453125,0.041748046875,0.882568359375,-0.481201171875,0.3356933295726776,-0.8239745497703552,2.655029058456421,80.0,997729.0,1.0
473476.6457534,265805.09375,266839.875,284588.78125,275420.96875,280011.3125,258901.34375,245878.3125,247865.75,0.041259765625,0.8818359375,-0.479736328125,0.3967284858226776,-0.8239745497703552,2.136230230331421,80.0,997730.0,1.0
473476.6457961,266297.1875,266783.5625,283841.96875,273750.40625,278726.625,258863.515625,244680.359375,247442.234375,0.039306640625,0.882080078125,-0.4794921875,0.3051757514476776,-0.8850097060203552,1.5869139432907104,80.0,997731.0,1.0
473476.6481752,265933.75,266616.09375,283080.84375,272455.15625,277637.8125,258842.78125,243956.25,247213.703125,0.038818359375,0.88134765625,-0.479248046875,0.3051757514476776,-1.0375975370407104,1.0375975370407104,80.0,997732.0,1.0
473476.6533245,265285.96875,266592.03125,283369.0,273297.03125,278231.5625,258878.625,244682.859375,247496.3125,0.039794921875,0.88037109375,-0.4794921875,0.2441406100988388,-1.0375975370407104,0.4272460639476776,80.0,997733.0,1.0
473476.655834,265183.34375,266721.9375,284305.1875,275153.28125,279716.53125,258906.53125,245891.546875,247913.3125,0.03955078125,0.883544921875,-0.479736328125,0.2441406100988388,-0.9460448622703552,-0.1525878757238388,80.0,997734.0,1.0
473476.65827,265797.9375,266833.78125,284586.8125,275421.6875,280021.9375,258886.40625,245889.234375,247870.9375,0.04296875,0.880859375,-0.480224609375,0.3967284858226776,-0.9460448622703552,-0.6713866591453552,80.0,997735.0,1.0
473476.6583106,266279.5625,266766.375,283831.5,273743.71875,278727.875,258830.359375,244678.203125,247427.03125,0.044921875,0.880615234375,-0.48046875,0.3967284858226776,-1.0070799589157104,-1.2207030057907104,80.0,997736.0,1.0
473476.660706,265923.90625,266600.96875,283068.59375,272434.59375,277631.65625,258809.078125,243944.453125,247192.421875,0.047607421875,0.878173828125,-0.482666015625,0.4882812201976776,-0.8850097060203552,-1.6479490995407104,80.0,997737.0,1.0
473476.6607433,265275.875,266576.84375,283353.15625,273266.09375,278213.53125,258845.375,244660.0625,247473.515625,0.048828125,0.87939453125,-0.4833984375,0.4577636420726776,-0.7934569716453552,-2.136230230331421,80.0,997738.0,1.0
473476.6634322,265174.21875,266717.3125,284300.78125,275136.03125,279704.65625,258888.375,245878.671875,247902.140625,0.048583984375,0.878662109375,-0.4814453125,0.4882812201976776,-0.7629393935203552,-2.502441167831421,80.0,997739.0,1.0
473476.6657026,265784.0625,266831.03125,284589.03125,275420.25,280023.28125,258868.171875,245887.078125,247861.90625,0.049560546875,0.878662109375,-0.479736328125,0.4882812201976776,-0.5798339247703552,-2.899169683456421,80.0,997740.0,1.0
473476.6683462,266281.1875,266776.84375,283847.78125,273763.09375,278749.15625,258823.375,244692.15625,247431.046875,0.05224609375,0.877685546875,-0.474853515625,0.5187987685203552,-0.3662109076976776,-3.265380620956421,80.0,997741.0,1.0
473476.6732579,265937.40625,266617.875,283082.71875,272448.8125,277646.78125,258805.3125,243955.09375,247192.15625,0.050537109375,0.87890625,-0.476806640625,0.5798339247703552,-0.1220703050494194,-3.570556402206421,80.0,997742.0,1.0
473476.6732979,265292.6875,266595.96875,283361.9375,273268.25,278216.75,258839.296875,244660.421875,247470.84375,0.05126953125,0.877685546875,-0.47509765625,0.5187987685203552,0.2441406100988388,-3.723144292831421,80.0,997743.0,1.0
473476.6756557,265177.0,266724.90625,284299.375,275132.71875,279698.125,258873.359375,245869.46875,247888.8125,0.051025390625,0.87841796875,-0.476806640625,0.6103515028953552,0.3967284858226776,-3.936767339706421,80.0,997744.0,1.0
473476.6781395,265776.65625,266835.84375,284591.09375,275429.90625,280025.625,258851.8125,245886.1875,247851.890625,0.048095703125,0.87646484375,-0.4765625,0.6408690810203552,0.6713866591453552,-4.180907726287842,80.0,997745.0,1.0
473476.6807076,266273.84375,266780.96875,283851.15625,273775.1875,278753.09375,258810.6875,244691.359375,247421.65625,0.04638671875,0.87451171875,-0.47607421875,0.5187987685203552,0.8544921278953552,-4.516601085662842,80.0,997746.0,1.0
473476.6807396,265941.4375,266627.4375,283088.0,272454.46875,277649.4375,258802.8125,243952.21875,247197.078125,0.044189453125,0.871337890625,-0.4765625,0.5493163466453552,1.0986326932907104,-4.760741710662842,80.0,997747.0,1.0
473476.6831616,265297.59375,266604.8125,283363.28125,273258.21875,278214.3125,258838.3125,244652.015625,247479.59375,0.046630859375,0.8681640625,-0.47802734375,0.6103515028953552,1.2817381620407104,-4.974364757537842,80.0,997748.0,1.0
473476.6856511,265184.59375,266740.46875,284310.71875,275131.5625,279708.84375,258875.859375,245872.15625,247902.9375,0.0458984375,0.867431640625,-0.479736328125,0.7934569716453552,1.5258787870407104,-5.126952648162842,80.0,997749.0,1.0
473476.6882029,265785.84375,266851.9375,284612.71875,275449.6875,280050.65625,258851.1875,245904.25,247871.46875,0.044921875,0.8671875,-0.48095703125,0.9460448622703552,1.7395018339157104,-5.187987804412842,80.0,997750.0,1.0
473476.6882342,266281.4375,266791.34375,283869.40625,273797.34375,278776.59375,258801.5625,244709.40625,247436.953125,0.04248046875,0.867919921875,-0.479736328125,1.1901854276657104,1.8310545682907104,-5.279540538787842,80.0,997751.0,1.0
473476.7030585,265951.09375,266634.78125,283095.84375,272460.8125,277661.78125,258801.734375,243959.5625,247200.46875,0.040771484375,0.8681640625,-0.47802734375,1.4038084745407104,1.9836424589157104,-5.432128429412842,80.0,997752.0,1.0
473476.7333504,265294.03125,266598.375,283347.4375,273234.53125,278196.8125,258839.203125,244636.375,247467.96875,0.03759765625,0.8701171875,-0.477783203125,1.5869139432907104,2.044677495956421,-5.645751476287842,80.0,997753.0,1.0
473476.7333625,265172.875,266726.5,284288.09375,275102.0625,279685.25,258870.046875,245852.125,247890.875,0.03466796875,0.87060546875,-0.477294921875,1.7089842557907104,2.166747808456421,-5.859374523162842,80.0,997754.0,1.0
473476.7333642,265782.0,266847.9375,284611.03125,275451.65625,280057.28125,258861.015625,245910.15625,247877.109375,0.030029296875,0.872314453125,-0.478759765625,1.7395018339157104,2.227782964706421,-6.042479991912842,80.0,997755.0,1.0
473476.7333662,266289.3125,266794.0,283878.78125,273818.09375,278798.875,258818.546875,244727.390625,247452.0625,0.02880859375,0.8720703125,-0.479248046875,1.9226073026657104,2.288818120956421,-6.103515148162842,80.0,997756.0,1.0
473476.740844,265955.28125,266625.5625,283089.15625,272460.96875,277658.5625,258800.3125,243957.328125,247205.296875,0.028076171875,0.87255859375,-0.47705078125,2.075195074081421,2.349853277206421,-6.256103038787842,80.0,997757.0,1.0
473476.7408581,265292.0625,266580.6875,283326.625,273210.46875,278170.59375,258824.890625,244614.90625,247460.28125,0.02587890625,0.8740234375,-0.47705078125,2.105712652206421,2.288818120956421,-6.347655773162842,80.0,997758.0,1.0
473476.7408604,265170.65625,266715.5,284277.8125,275091.5,279672.90625,258870.859375,245843.0,247887.921875,0.022705078125,0.875244140625,-0.48046875,2.166747808456421,2.197265386581421,-6.530761241912842,80.0,997759.0,1.0
473476.7432391,265765.21875,266828.96875,284600.3125,275450.9375,280050.75,258859.859375,245902.109375,247870.21875,0.023193359375,0.87646484375,-0.47705078125,2.319335699081421,2.166747808456421,-6.591796398162842,80.0,997760.0,1.0
473476.7456044,266265.96875,266771.3125,283862.0625,273812.375,278790.375,258821.59375,244711.375,247436.859375,0.023193359375,0.876708984375,-0.47802734375,2.319335699081421,2.166747808456421,-6.683349132537842,80.0,997761.0,1.0
473476.7480712,265939.1875,266613.0625,283070.71875,272444.8125,277647.21875,258808.453125,243935.234375,247187.59375,0.023193359375,0.877197265625,-0.480224609375,2.441406011581421,2.136230230331421,-6.713866710662842,80.0,997762.0,1.0
473476.7507798,265292.0625,266589.0,283321.53125,273199.5,278166.03125,258847.34375,244601.234375,247453.765625,0.023193359375,0.877685546875,-0.483154296875,2.502441167831421,2.166747808456421,-6.591796398162842,80.0,997763.0,1.0
473476.7530701,265171.09375,266729.09375,284281.375,275086.34375,279670.84375,258893.734375,245836.828125,247886.3125,0.0234375,0.879150390625,-0.481689453125,2.532958745956421,2.105712652206421,-6.591796398162842,80.0,997764.0,1.0
473476.7557488,265761.90625,266841.9375,284612.28125,275464.0625,280062.0,258875.953125,245911.046875,247872.0,0.023193359375,0.8798828125,-0.483154296875,2.593993902206421,2.044677495956421,-6.591796398162842,80.0,997765.0,1.0
473476.7580852,266263.65625,266782.125,283874.40625,273833.46875,278804.3125,258828.46875,244722.640625,247441.78125,0.02294921875,0.884033203125,-0.4833984375,2.532958745956421,2.014159917831421,-6.622313976287842,80.0,997766.0,1.0
473476.7605812,265948.9375,266627.53125,283081.90625,272461.15625,277655.09375,258817.390625,243943.46875,247200.296875,0.021484375,0.882080078125,-0.484619140625,2.593993902206421,1.9226073026657104,-6.561278820037842,80.0,997767.0,1.0
473476.7630657,265301.90625,266596.6875,283322.3125,273194.5625,278158.96875,258845.546875,244596.046875,247459.84375,0.021240234375,0.881591796875,-0.48046875,2.624511480331421,1.9226073026657104,-6.408690929412842,80.0,997768.0,1.0
473476.7655927,265172.4375,266730.625,284278.53125,275079.1875,279660.84375,258879.53125,245824.59375,247887.5625,0.02001953125,0.881103515625,-0.48388671875,2.624511480331421,1.9226073026657104,-6.286620616912842,80.0,997769.0,1.0
473476.7681126,265767.53125,266852.03125,284624.90625,275481.6875,280072.8125,258874.78125,245913.8125,247882.640625,0.019775390625,0.879638671875,-0.482177734375,2.685546636581421,1.9226073026657104,-6.286620616912842,80.0,997770.0,1.0
473476.7681293,266283.59375,266805.1875,283902.84375,273871.375,278833.1875,258850.296875,244745.71875,247461.453125,0.021240234375,0.881103515625,-0.4833984375,2.563476324081421,1.8615721464157104,-6.103515148162842,80.0,997771.0,1.0
473476.7782973,265945.53125,266624.6875,283078.15625,272459.5625,277649.09375,258821.328125,243933.890625,247188.578125,0.02099609375,0.880859375,-0.482666015625,2.624511480331421,1.8005369901657104,-5.920409679412842,80.0,997772.0,1.0
473476.7858085,265309.5,266600.71875,283319.8125,273184.03125,278150.5625,258857.171875,244581.109375,247452.515625,0.02001953125,0.882568359375,-0.486083984375,2.716064214706421,1.7700194120407104,-5.706786632537842,80.0,997773.0,1.0
473476.7858345,265187.46875,266744.46875,284288.90625,275080.875,279665.125,258904.828125,245822.0,247888.28125,0.02001953125,0.885009765625,-0.486328125,2.685546636581421,1.8615721464157104,-5.523681163787842,80.0,997774.0,1.0
473476.7883282,265764.5,266849.34375,284629.625,275486.4375,280076.5,258893.203125,245912.203125,247876.484375,0.019287109375,0.8828125,-0.484619140625,2.655029058456421,1.8920897245407104,-5.218505382537842,80.0,997775.0,1.0
473476.7907741,266272.6875,266785.34375,283893.09375,273870.65625,278830.25,258851.453125,244737.21875,247449.921875,0.0166015625,0.884033203125,-0.48583984375,2.532958745956421,1.8920897245407104,-5.096435070037842,80.0,997776.0,1.0
