Time,FZ,C3,CZ,C4,PZ,PO7,OZ,PO8,AccX,AccY,AccZ,Gyro1,Gyro2,Gyro3,Battery,Counter,Validation
1208482.008942,309134.75,324580.15625,362891.6875,360694.59375,339905.9375,322156.15625,307387.03125,330329.75,-0.04296875,0.979736328125,-0.203125,-2.532958745956421,3.112792730331421,-8.941649436950684,100.0,40271.0,1.0
1208482.0089938,311316.28125,325895.25,364552.84375,362358.8125,340871.0,323261.84375,308566.21875,331627.46875,-0.0439453125,0.978271484375,-0.203857421875,-2.746581792831421,3.204345464706421,-8.636473655700684,100.0,40272.0,1.0
1208482.0090054,317691.875,330984.8125,369634.3125,368384.5625,344438.25,325421.46875,311361.78125,336242.9375,-0.042724609375,0.97705078125,-0.199951171875,-2.899169683456421,3.082275152206421,-8.331297874450684,100.0,40273.0,1.0
1208482.0114773,319344.40625,332666.3125,370990.875,370322.75,345568.53125,325578.65625,311817.21875,337648.25,-0.043212890625,0.973876953125,-0.19677734375,-3.112792730331421,3.204345464706421,-8.209227561950684,100.0,40274.0,1.0
1208482.0140052,314087.1875,328737.59375,366856.59375,365601.15625,342777.25,323584.875,309393.84375,334030.65625,-0.04248046875,0.97216796875,-0.197265625,-3.173827886581421,3.265380620956421,-7.965087413787842,100.0,40275.0,1.0
1208482.0163619,309061.6875,324453.65625,362785.46875,360582.21875,339788.09375,322102.34375,307315.40625,330192.84375,-0.041748046875,0.96923828125,-0.199951171875,-3.265380620956421,3.417968511581421,-7.720946788787842,100.0,40276.0,1.0
1208482.0201278,311193.34375,325712.40625,364399.25,362185.09375,340717.125,323199.34375,308475.8125,331439.1875,-0.041748046875,0.96630859375,-0.19677734375,-3.265380620956421,3.540038824081421,-7.415771007537842,100.0,40277.0,1.0
1208482.029541,317590.9375,330810.5625,369499.84375,368227.65625,344296.0,325377.40625,311288.8125,336067.15625,-0.0419921875,0.964599609375,-0.195556640625,-3.265380620956421,3.570556402206421,-7.049560070037842,100.0,40278.0,1.0
1208482.02957,319305.6875,332533.53125,370903.625,370219.125,345457.84375,325557.8125,311770.625,337512.59375,-0.042724609375,0.962646484375,-0.1953125,-3.204345464706421,3.692626714706421,-6.896972179412842,100.0,40279.0,1.0
1208482.0314463,314062.84375,328612.9375,366774.34375,365505.65625,342667.8125,323561.0,309339.5625,333897.875,-0.042724609375,0.960205078125,-0.1943359375,-3.234863042831421,3.814697027206421,-6.591796398162842,100.0,40280.0,1.0
1208482.0426949,309000.0,324305.15625,362673.78125,360450.3125,339660.34375,322066.84375,307242.71875,330036.3125,-0.04345703125,0.9599609375,-0.195068359375,-3.021239995956421,3.936767339706421,-6.225585460662842,100.0,40281.0,1.0
1208482.0457534,311094.09375,325540.3125,364262.90625,362021.9375,340566.75,323148.3125,308388.65625,331262.96875,-0.0439453125,0.9580078125,-0.193603515625,-2.929687261581421,4.058837413787842,-5.889892101287842,100.0,40282.0,1.0
1208482.0457824,317517.4375,330668.15625,369396.375,368103.125,344163.9375,325335.90625,311223.1875,335926.25,-0.043701171875,0.959716796875,-0.191650390625,-2.838134527206421,4.150390148162842,-5.706786632537842,100.0,40283.0,1.0
1208482.0476661,319291.90625,332448.6875,370856.21875,370161.4375,345367.375,325536.09375,311736.5,337427.84375,-0.04150390625,0.959228515625,-0.191650390625,-2.807616949081421,4.241942882537842,-5.493163585662842,100.0,40284.0,1.0
1208482.0564509,314056.78125,328530.25,366726.96875,365452.1875,342577.96875,323537.125,309299.6875,333809.28125,-0.04150390625,0.96240234375,-0.191650390625,-2.777099370956421,4.333495616912842,-5.218505382537842,100.0,40285.0,1.0
1208482.0595296,308922.75,324145.28125,362551.46875,360317.65625,339511.9375,322006.65625,307154.5625,329865.09375,-0.04345703125,0.96337890625,-0.192626953125,-2.685546636581421,4.241942882537842,-4.882812023162842,100.0,40286.0,1.0
1208482.0595582,310952.9375,325312.21875,364080.0625,361817.90625,340373.09375,323070.53125,308270.0,331023.90625,-0.046630859375,0.965087890625,-0.191650390625,-2.746581792831421,4.272460460662842,-4.547118663787842,100.0,40287.0,1.0
1208482.0614469,317407.21875,330470.03125,369238.9375,367921.96875,343986.375,325279.3125,311125.125,335710.96875,-0.049560546875,0.9638671875,-0.19091796875,-2.685546636581421,4.333495616912842,-4.333495616912842,100.0,40288.0,1.0
1208482.075718,319260.625,332321.09375,370767.1875,370057.8125,345239.78125,325514.1875,311683.28125,337278.53125,-0.0556640625,0.962890625,-0.189453125,-2.593993902206421,4.333495616912842,-4.119872570037842,100.0,40289.0,1.0
1208482.0757478,314050.25,328429.65625,366664.5625,365381.03125,342475.6875,323520.78125,309264.46875,333691.25,-0.05859375,0.9619140625,-0.191162109375,-2.502441167831421,4.150390148162842,-4.089354991912842,100.0,40290.0,1.0
1208482.0776933,308888.96875,324039.875,362482.5625,360232.0,339410.0,321985.75,307119.25,329754.21875,-0.06298828125,0.96142578125,-0.188232421875,-2.410888433456421,3.906249761581421,-3.936767339706421,100.0,40291.0,1.0
1208482.0801886,310929.15625,325256.34375,364047.4375,361761.75,340303.28125,323076.78125,308271.34375,330969.34375,-0.06689453125,0.9599609375,-0.186767578125,-2.258300542831421,3.540038824081421,-4.028319835662842,100.0,40292.0,1.0
1208482.0839564,317446.09375,330503.46875,369289.1875,367956.59375,343985.0625,325323.84375,311187.96875,335762.28125,-0.067138671875,0.96044921875,-0.1884765625,-2.166747808456421,3.173827886581421,-4.028319835662842,100.0,40293.0,1.0
1208482.0982927,319363.34375,332429.28125,370885.1875,370175.84375,345292.96875,325574.4375,311780.375,337413.8125,-0.0654296875,0.955322265625,-0.192626953125,-2.014159917831421,2.777099370956421,-3.967284917831421,100.0,40294.0,1.0
1208482.0983215,314166.125,328557.96875,366793.03125,365520.59375,342540.40625,323581.21875,309358.96875,333845.125,-0.06494140625,0.95751953125,-0.190673828125,-1.8615721464157104,2.380370855331421,-3.997802495956421,100.0,40295.0,1.0
1208482.1001966,308962.375,324145.09375,362572.40625,360332.3125,339453.1875,322023.9375,307182.09375,329877.875,-0.065185546875,0.960205078125,-0.190185546875,-1.6174315214157104,2.075195074081421,-3.997802495956421,100.0,40296.0,1.0
1208482.1026963,310948.53125,325325.375,364101.8125,361818.875,340323.65625,323092.34375,308308.625,331069.84375,-0.065185546875,0.959716796875,-0.1904296875,-1.4648436307907104,1.7089842557907104,-4.028319835662842,100.0,40297.0,1.0
1208482.105232,317495.0,330610.3125,369381.28125,368051.71875,344037.09375,325361.9375,311254.3125,335905.4375,-0.0625,0.961669921875,-0.19140625,-1.2207030057907104,1.3427733182907104,-3.845214605331421,100.0,40298.0,1.0
1208482.1145381,319472.96875,332590.3125,371029.5,370334.53125,345390.15625,325635.59375,311877.03125,337606.5625,-0.061767578125,0.9609375,-0.190185546875,-1.0375975370407104,1.0681151151657104,-3.753661870956421,100.0,40299.0,1.0
1208482.1145666,314286.90625,328723.0,366938.9375,365684.9375,342641.34375,323630.75,309447.5,334034.15625,-0.06201171875,0.9599609375,-0.1904296875,-0.8850097060203552,0.8239745497703552,-3.662109136581421,100.0,40300.0,1.0
1208482.1163831,309028.96875,324256.875,362674.875,360445.6875,339522.21875,322051.5625,307245.40625,330021.375,-0.060546875,0.958984375,-0.190673828125,-0.6713866591453552,0.5187987685203552,-3.509521245956421,100.0,40301.0,1.0
1208482.1201981,310966.25,325397.53125,364166.09375,361888.34375,340370.6875,323109.0625,308358.0625,331178.75,-0.061279296875,0.958740234375,-0.1923828125,-0.3967284858226776,0.2441406100988388,-3.509521245956421,100.0,40302.0,1.0
1208482.1295388,317530.15625,330703.375,369462.65625,368137.4375,344103.875,325393.5,311317.34375,336033.90625,-0.063720703125,0.95947265625,-0.1943359375,-0.1220703050494194,-0.03051757626235485,-3.387450933456421,100.0,40303.0,1.0
1208482.1295667,319549.84375,332716.28125,371142.875,370458.71875,345481.90625,325677.28125,311952.40625,337761.78125,-0.06494140625,0.961181640625,-0.195068359375,0.03051757626235485,-0.3662109076976776,-3.326415777206421,100.0,40304.0,1.0
1208482.1314091,314369.0,328850.15625,367048.375,365809.46875,342736.03125,323668.125,309515.96875,334183.1875,-0.06640625,0.9619140625,-0.193359375,0.1525878757238388,-0.6103515028953552,-3.295898199081421,100.0,40305.0,1.0
1208482.1439468,309065.0,324348.25,362736.5625,360517.21875,339588.09375,322068.8125,307288.59375,330129.8125,-0.065185546875,0.961181640625,-0.1953125,0.2746581733226776,-0.9765624403953552,-3.234863042831421,100.0,40306.0,1.0
1208482.1470006,310947.90625,325441.9375,364179.75,361901.5,340401.78125,323103.96875,308371.84375,331237.9375,-0.066162109375,0.963134765625,-0.19189453125,0.3662109076976776,-1.3732908964157104,-3.204345464706421,100.0,40307.0,1.0
1208482.1470278,317512.28125,330740.9375,369483.28125,368154.34375,344136.40625,325385.1875,311333.71875,336092.125,-0.065185546875,0.96435546875,-0.193359375,0.4577636420726776,-1.6479490995407104,-3.112792730331421,100.0,40308.0,1.0
1208482.1489742,319586.5,332795.9375,371206.6875,370525.6875,345541.53125,325687.65625,311993.96875,337857.28125,-0.065185546875,0.9658203125,-0.192626953125,0.5493163466453552,-1.9836424589157104,-3.051757574081421,100.0,40309.0,1.0
1208482.1514462,314436.84375,328951.1875,367128.125,365901.375,342802.46875,323681.15625,309561.21875,334291.8125,-0.0615234375,0.9677734375,-0.193603515625,0.5493163466453552,-2.227782964706421,-2.838134527206421,100.0,40310.0,1.0
1208482.1607674,309090.03125,324409.75,362779.65625,360570.59375,339625.65625,322060.125,307306.5625,330201.625,-0.059814453125,0.969970703125,-0.192626953125,0.6408690810203552,-2.410888433456421,-2.685546636581421,100.0,40311.0,1.0
1208482.1607985,310912.875,325454.28125,364182.71875,361903.375,340409.3125,323080.0,308368.96875,331271.03125,-0.059326171875,0.969482421875,-0.196044921875,0.6103515028953552,-2.593993902206421,-2.441406011581421,100.0,40312.0,1.0
1208482.1626951,317483.84375,330764.25,369494.03125,368162.5625,344147.78125,325372.3125,311339.34375,336133.25,-0.05810546875,0.970947265625,-0.19677734375,0.7629393935203552,-2.716064214706421,-2.288818120956421,100.0,40313.0,1.0
1208482.1689472,319618.25,332873.71875,371264.09375,370587.375,345586.875,325695.6875,312025.375,337940.34375,-0.05859375,0.974853515625,-0.197021484375,0.8544921278953552,-2.868652105331421,-2.075195074081421,100.0,40314.0,1.0
1208482.1782618,314489.96875,329048.1875,367203.0625,365985.5,342864.96875,323695.65625,309601.96875,334390.6875,-0.056396484375,0.9755859375,-0.1953125,0.8544921278953552,-2.899169683456421,-1.8615721464157104,100.0,40315.0,1.0
1208482.178291,309099.59375,324467.5,362820.96875,360617.96875,339668.9375,322060.84375,307329.25,330270.28125,-0.0537109375,0.976806640625,-0.19677734375,0.7019042372703552,-2.868652105331421,-1.6784666776657104,100.0,40316.0,1.0
1208482.1801954,310877.46875,325474.125,364185.84375,361901.125,340425.5,323067.03125,308371.75,331303.5625,-0.053466796875,0.976806640625,-0.195068359375,0.6408690810203552,-2.899169683456421,-1.4343260526657104,100.0,40317.0,1.0
1208482.183946,317464.6875,330796.96875,369510.03125,368167.03125,344171.8125,325376.40625,311353.90625,336173.375,-0.053955078125,0.977783203125,-0.193115234375,0.5493163466453552,-2.960204839706421,-1.1596678495407104,100.0,40318.0,1.0
1208482.1926963,319656.15625,332946.59375,371322.03125,370639.59375,345643.09375,325719.5625,312062.5625,338017.65625,-0.053955078125,0.974365234375,-0.19287109375,0.3662109076976776,-2.960204839706421,-0.7629393935203552,100.0,40319.0,1.0
1208482.1970395,314539.21875,329122.84375,367264.65625,366049.53125,342924.0625,323709.0625,309630.875,334472.6875,-0.054931640625,0.97314453125,-0.19384765625,0.3967284858226776,-2.899169683456421,-0.4882812201976776,100.0,40320.0,1.0
1208482.1970684,309108.71875,324508.8125,362846.0,360642.1875,339700.75,322053.875,307335.6875,330322.21875,-0.05322265625,0.972412109375,-0.19287109375,0.3051757514476776,-2.960204839706421,-0.2136230319738388,100.0,40321.0,1.0
1208482.1994855,310837.5,325477.4375,364170.5625,361877.71875,340428.625,323050.03125,308360.9375,331321.8125,-0.05126953125,0.9716796875,-0.194091796875,0.3662109076976776,-2.899169683456421,0.0,100.0,40322.0,1.0
1208482.1995121,317425.625,330805.46875,369496.53125,368146.46875,344178.96875,325368.0,311346.84375,336196.625,-0.048828125,0.9716796875,-0.1923828125,0.3051757514476776,-2.929687261581421,0.2441406100988388,100.0,40323.0,1.0
1208482.2151732,319658.65625,332987.8125,371342.15625,370664.0,345672.96875,325725.8125,312072.75,338071.75,-0.04833984375,0.971435546875,-0.193359375,0.3051757514476776,-2.929687261581421,0.4272460639476776,100.0,40324.0,1.0
1208482.2182751,314572.03125,329186.59375,367310.09375,366108.0,342970.90625,323719.96875,309651.34375,334546.71875,-0.05029296875,0.970703125,-0.194580078125,0.4272460639476776,-2.960204839706421,0.6408690810203552,100.0,40325.0,1.0
1208482.2183038,309115.96875,324554.3125,362867.0,360674.5625,339732.84375,322051.28125,307336.59375,330370.15625,-0.05029296875,0.968994140625,-0.196044921875,0.4577636420726776,-2.868652105331421,1.0070799589157104,100.0,40326.0,1.0
1208482.2202457,310801.28125,325484.96875,364150.71875,361858.75,340434.34375,323035.375,308341.0,331325.125,-0.0498046875,0.96923828125,-0.196533203125,0.3662109076976776,-2.868652105331421,1.0681151151657104,100.0,40327.0,1.0
1208482.2452217,317404.4375,330818.09375,369484.71875,368131.28125,344189.25,325361.75,311342.125,336203.4375,-0.05078125,0.966064453125,-0.19580078125,0.4272460639476776,-2.960204839706421,1.2512205839157104,100.0,40328.0,1.0
1208482.2502948,319689.6875,333038.59375,371371.75,370695.28125,345706.84375,325731.90625,312089.375,338112.625,-0.053466796875,0.9638671875,-0.1982421875,0.4577636420726776,-2.929687261581421,1.3732908964157104,100.0,40329.0,1.0
1208482.2540242,314636.21875,329263.46875,367361.125,366169.0625,343028.40625,323739.5625,309683.25,334609.03125,-0.052490234375,0.962890625,-0.196044921875,0.5798339247703552,-2.990722417831421,1.5563963651657104,100.0,40330.0,1.0
1208482.2540675,309141.90625,324601.15625,362885.15625,360699.40625,339772.375,322056.5625,307353.21875,330404.40625,-0.052978515625,0.96337890625,-0.19384765625,0.7324218153953552,-3.051757574081421,1.5563963651657104,100.0,40331.0,1.0
1208482.2540795,310763.8125,325481.03125,364122.8125,361828.625,340437.1875,323017.6875,308331.6875,331319.375,-0.0517578125,0.95947265625,-0.192626953125,0.8544921278953552,-3.051757574081421,1.7089842557907104,100.0,40332.0,1.0
1208482.2577487,317352.6875,330800.5625,369454.0625,368090.59375,344180.59375,325337.34375,311324.59375,336188.65625,-0.054931640625,0.9609375,-0.196044921875,0.8239745497703552,-3.234863042831421,1.7700194120407104,100.0,40333.0,1.0
1208482.257793,319699.4375,333071.5,371393.5625,370708.96875,345736.0,325733.59375,312104.3125,338139.96875,-0.0537109375,0.960205078125,-0.196044921875,0.8850097060203552,-3.295898199081421,1.9531248807907104,100.0,40334.0,1.0
1208482.2578051,314674.75,329325.0625,367408.0625,366213.5,343074.09375,323746.625,309703.09375,334658.75,-0.052001953125,0.9638671875,-0.193359375,0.9155272841453552,-3.448486089706421,1.9836424589157104,100.0,40335.0,1.0
1208482.2609765,309145.90625,324640.40625,362910.625,360722.5625,339802.78125,322049.125,307356.0,330436.3125,-0.052490234375,0.965576171875,-0.193115234375,1.0986326932907104,-3.723144292831421,2.075195074081421,100.0,40336.0,1.0
1208482.2610207,310728.5,325488.875,364121.46875,361817.1875,340455.15625,323010.875,308328.75,331329.84375,-0.0537109375,0.966064453125,-0.1953125,1.1291502714157104,-3.875732183456421,2.014159917831421,100.0,40337.0,1.0
1208482.2627954,317323.875,330811.375,369453.875,368077.71875,344203.125,325334.9375,311321.71875,336201.0,-0.05078125,0.96484375,-0.196533203125,0.9765624403953552,-3.997802495956421,2.197265386581421,100.0,40338.0,1.0
1208482.2678417,319709.34375,333109.9375,371421.71875,370733.75,345777.375,325740.84375,312110.46875,338179.125,-0.05224609375,0.96533203125,-0.198486328125,0.9460448622703552,-4.089354991912842,2.380370855331421,100.0,40339.0,1.0
1208482.2715656,314715.53125,329387.9375,367459.125,366271.09375,343132.28125,323760.03125,309724.125,334719.71875,-0.052490234375,0.966552734375,-0.196533203125,0.8239745497703552,-4.272460460662842,2.410888433456421,100.0,40340.0,1.0
1208482.2785509,309156.65625,324677.78125,362930.75,360749.84375,339842.375,322044.84375,307357.34375,330473.78125,-0.049560546875,0.966064453125,-0.198486328125,0.8850097060203552,-4.364013195037842,2.593993902206421,100.0,40341.0,1.0
1208482.2785981,310667.53125,325466.625,364077.5625,361773.46875,340446.84375,322973.15625,308288.0625,331305.09375,-0.0498046875,0.965576171875,-0.202392578125,0.7324218153953552,-4.516601085662842,2.624511480331421,100.0,40342.0,1.0
1208482.2803201,317259.15625,330783.40625,369405.15625,368027.65625,344188.625,325307.21875,311289.90625,336173.5625,-0.04638671875,0.96337890625,-0.198486328125,0.7934569716453552,-4.730224132537842,2.593993902206421,100.0,40343.0,1.0
1208482.2890741,319711.0625,333136.75,371424.84375,370742.9375,345801.4375,325740.65625,312112.09375,338198.71875,-0.0439453125,0.962158203125,-0.2001953125,0.7934569716453552,-4.913329601287842,2.655029058456421,100.0,40344.0,1.0
1208482.2984155,314753.71875,329445.3125,367496.9375,366322.21875,343178.96875,323768.34375,309741.28125,334769.96875,-0.044189453125,0.96337890625,-0.201171875,0.7629393935203552,-4.852294445037842,2.746581792831421,100.0,40345.0,1.0
1208482.2984603,309157.625,324706.125,362947.1875,360777.75,339868.3125,322036.4375,307360.28125,330507.125,-0.04296875,0.96240234375,-0.199462890625,0.9155272841453552,-4.913329601287842,2.716064214706421,100.0,40346.0,1.0
1208482.3047246,310612.65625,325444.71875,364045.375,361741.8125,340434.6875,322935.875,308262.3125,331295.4375,-0.04345703125,0.963134765625,-0.201171875,0.8544921278953552,-4.974364757537842,2.746581792831421,100.0,40347.0,1.0
1208482.3047691,317198.09375,330751.375,369368.125,367982.96875,344174.3125,325265.71875,311261.375,336156.03125,-0.0400390625,0.962646484375,-0.20068359375,0.7934569716453552,-4.943847179412842,2.655029058456421,100.0,40348.0,1.0
1208482.3108821,319704.96875,333148.03125,371431.375,370748.9375,345820.75,325722.5,312111.8125,338222.0625,-0.0390625,0.961181640625,-0.19873046875,0.7629393935203552,-4.943847179412842,2.624511480331421,100.0,40349.0,1.0
1208482.3109262,314779.53125,329483.3125,367524.375,366360.75,343218.125,323760.28125,309749.25,334818.5,-0.038818359375,0.9619140625,-0.2001953125,0.7324218153953552,-4.821776866912842,2.777099370956421,100.0,40350.0,1.0
1208482.3165418,309162.90625,324736.4375,362960.53125,360802.40625,339907.8125,322022.65625,307360.90625,330547.1875,-0.035888671875,0.961669921875,-0.19970703125,0.8544921278953552,-4.699706554412842,2.777099370956421,100.0,40351.0,1.0
1208482.3258954,310568.375,325434.875,364028.40625,361725.90625,340454.71875,322917.375,308253.71875,331306.4375,-0.0361328125,0.961181640625,-0.2021484375,0.7019042372703552,-4.699706554412842,2.777099370956421,100.0,40352.0,1.0
1208482.3259417,317161.625,330746.28125,369357.15625,367967.3125,344194.8125,325266.53125,311263.15625,336166.21875,-0.037353515625,0.95947265625,-0.201171875,0.7324218153953552,-4.486083507537842,2.746581792831421,100.0,40353.0,1.0
1208482.3279181,319717.3125,333180.84375,371457.65625,370775.59375,345863.21875,325737.875,312129.96875,338259.5,-0.03662109375,0.958251953125,-0.197998046875,0.6408690810203552,-4.516601085662842,2.655029058456421,100.0,40354.0,1.0
1208482.3315595,314830.15625,329550.03125,367583.5,366426.75,343283.21875,323777.09375,309781.6875,334883.59375,-0.03857421875,0.95947265625,-0.2001953125,0.6408690810203552,-4.394530773162842,2.502441167831421,100.0,40355.0,1.0
1208482.3352575,309180.0625,324780.15625,362995.03125,360839.6875,339953.78125,322022.125,307374.78125,330590.28125,-0.03857421875,0.958251953125,-0.200927734375,0.7324218153953552,-4.302978038787842,2.349853277206421,100.0,40356.0,1.0
1208482.3533735,310518.40625,325418.25,363999.15625,361693.1875,340453.21875,322885.09375,308224.59375,331288.09375,-0.038818359375,0.955322265625,-0.202392578125,0.7629393935203552,-4.180907726287842,2.227782964706421,100.0,40357.0,1.0
1208482.3534242,317096.15625,330703.375,369306.1875,367907.40625,344172.625,325218.875,311217.84375,336118.65625,-0.042724609375,0.95458984375,-0.206787109375,0.9155272841453552,-4.150390148162842,2.136230230331421,100.0,40358.0,1.0
1208482.3552704,319726.4375,333196.21875,371465.96875,370776.46875,345883.6875,325725.28125,312124.96875,338261.125,-0.04248046875,0.953857421875,-0.204345703125,1.0681151151657104,-4.119872570037842,1.9836424589157104,100.0,40359.0,1.0
1208482.357833,314890.9375,329609.75,367636.59375,366479.40625,343336.75,323790.78125,309805.84375,334931.15625,-0.04541015625,0.951904296875,-0.2021484375,1.1901854276657104,-4.089354991912842,1.8615721464157104,100.0,40360.0,1.0
1208482.360337,309223.78125,324832.375,363035.96875,360881.34375,340002.40625,322036.96875,307396.75,330633.375,-0.04638671875,0.95068359375,-0.19873046875,1.2817381620407104,-3.997802495956421,1.8615721464157104,100.0,40361.0,1.0
1208482.3628254,310505.0,325428.8125,363996.5625,361681.65625,340472.34375,322889.84375,308226.1875,331290.5,-0.04736328125,0.952880859375,-0.198486328125,1.4648436307907104,-4.180907726287842,1.7700194120407104,100.0,40362.0,1.0
1208482.3666102,317067.90625,330701.75,369290.34375,367878.53125,344180.21875,325221.375,311214.71875,336107.84375,-0.048828125,0.955078125,-0.200927734375,1.4953612089157104,-4.302978038787842,1.8615721464157104,100.0,40363.0,1.0
1208482.3734167,319732.78125,333219.09375,371479.75,370786.03125,345909.09375,325738.34375,312140.4375,338279.09375,-0.046142578125,0.95751953125,-0.201904296875,1.6784666776657104,-4.364013195037842,1.7395018339157104,100.0,40364.0,1.0
1208482.3734598,314926.34375,329662.59375,367679.78125,366530.625,343381.65625,323808.3125,309836.6875,334978.8125,-0.046630859375,0.9599609375,-0.20263671875,1.7395018339157104,-4.516601085662842,1.6174315214157104,100.0,40365.0,1.0
1208482.3752642,309231.3125,324870.625,363061.46875,360915.15625,340038.53125,322040.8125,307414.8125,330669.9375,-0.048095703125,0.963134765625,-0.203125,1.7395018339157104,-4.547118663787842,1.6174315214157104,100.0,40366.0,1.0
1208482.38967,310458.40625,325422.09375,363975.65625,361660.4375,340475.75,322866.3125,308212.15625,331285.40625,-0.045654296875,0.96533203125,-0.2021484375,1.6784666776657104,-4.577636241912842,1.6174315214157104,100.0,40367.0,1.0
1208482.3897129,317012.3125,330680.9375,369256.125,367837.125,344170.75,325192.78125,311188.96875,336083.875,-0.045166015625,0.96630859375,-0.19970703125,1.6479490995407104,-4.577636241912842,1.5869139432907104,100.0,40368.0,1.0
1208482.3916086,319737.6875,333249.15625,371493.625,370799.28125,345934.9375,325735.90625,312138.8125,338296.53125,-0.044921875,0.96875,-0.201171875,1.4648436307907104,-4.669188976287842,1.5258787870407104,100.0,40369.0,1.0
1208482.3940422,314994.375,329761.46875,367750.6875,366610.5625,343457.90625,323834.9375,309866.8125,335057.5,-0.0439453125,0.970458984375,-0.2001953125,1.2512205839157104,-4.730224132537842,1.5869139432907104,100.0,40370.0,1.0
1208482.3965832,309299.78125,324999.125,363151.59375,361014.84375,340133.5,322071.65625,307458.625,330782.84375,-0.04638671875,0.970703125,-0.203369140625,1.2512205839157104,-4.821776866912842,1.4953612089157104,100.0,40371.0,1.0
1208482.4058678,310491.40625,325548.96875,364057.8125,361744.3125,340573.0,322889.5625,308253.71875,331407.375,-0.045654296875,0.968994140625,-0.205810546875,1.0986326932907104,-4.821776866912842,1.5869139432907104,100.0,40372.0,1.0
1208482.4059112,317040.375,330817.71875,369345.6875,367927.0625,344280.625,325220.3125,311237.5,336219.78125,-0.04345703125,0.968505859375,-0.20263671875,1.0375975370407104,-4.760741710662842,1.5258787870407104,100.0,40373.0,1.0
1208482.4085197,319798.65625,333398.53125,371601.78125,370914.34375,346055.90625,325762.375,312192.5625,338444.6875,-0.042724609375,0.965087890625,-0.20458984375,1.0375975370407104,-4.821776866912842,1.4953612089157104,100.0,40374.0,1.0
1208482.4085652,315114.375,329966.125,367918.59375,366792.59375,343622.40625,323879.375,309953.53125,335271.1875,-0.041748046875,0.96435546875,-0.199462890625,0.9765624403953552,-4.669188976287842,1.4343260526657104,100.0,40375.0,1.0
1208482.4190703,309401.625,325201.8125,363312.875,361193.84375,340300.84375,322100.8125,307535.6875,331003.0625,-0.043701171875,0.963134765625,-0.202880859375,0.7934569716453552,-4.669188976287842,1.4648436307907104,100.0,40376.0,1.0
1208482.4221676,310489.78125,325640.4375,364112.4375,361810.46875,340661.6875,322868.625,308262.40625,331513.3125,-0.0439453125,0.96240234375,-0.201904296875,0.7629393935203552,-4.638671398162842,1.4038084745407104,100.0,40377.0,1.0
1208482.4222119,316971.34375,330802.78125,369307.53125,367887.5625,344289.5625,325161.40625,311186.53125,336208.0625,-0.043701171875,0.962890625,-0.204833984375,0.7629393935203552,-4.608153820037842,1.3427733182907104,100.0,40378.0,1.0
1208482.4240453,319784.8125,333417.6875,371590.53125,370903.0,346078.4375,325727.15625,312164.5625,338445.46875,-0.043701171875,0.963623046875,-0.204833984375,0.7934569716453552,-4.486083507537842,1.3732908964157104,100.0,40379.0,1.0
1208482.430421,315144.21875,330023.625,367941.90625,366827.5625,343668.46875,323863.46875,309951.03125,335304.625,-0.04443359375,0.961181640625,-0.206787109375,0.8850097060203552,-4.394530773162842,1.3427733182907104,100.0,40380.0,1.0
1208482.4365715,309392.0625,325225.3125,363310.625,361205.90625,340328.46875,322076.9375,307524.0,331016.84375,-0.044921875,0.96044921875,-0.205322265625,0.9155272841453552,-4.302978038787842,1.2207030057907104,100.0,40381.0,1.0
1208482.4428167,310403.78125,325587.0625,364037.4375,361737.78125,340635.5,322814.46875,308206.96875,331451.96875,-0.043212890625,0.95654296875,-0.203125,0.9155272841453552,-4.364013195037842,1.1596678495407104,100.0,40382.0,1.0
1208482.447119,316874.875,330724.21875,369210.6875,367781.0,344243.34375,325110.15625,311122.53125,336104.625,-0.04541015625,0.955078125,-0.205078125,1.0375975370407104,-4.333495616912842,1.2512205839157104,100.0,40383.0,1.0
1208482.4471622,319730.8125,333355.4375,371526.0625,370829.125,346045.6875,325694.53125,312115.65625,338356.875,-0.045166015625,0.956298828125,-0.206298828125,1.0986326932907104,-4.211425304412842,1.2207030057907104,100.0,40384.0,1.0
1208482.4604317,315140.375,330003.21875,367922.59375,366807.0,343665.15625,323851.40625,309925.90625,335258.21875,-0.046630859375,0.959228515625,-0.2060546875,1.0375975370407104,-4.241942882537842,1.2512205839157104,100.0,40385.0,1.0
1208482.4634019,309387.125,325218.0625,363292.65625,361186.40625,340330.28125,322068.96875,307501.625,330979.8125,-0.046875,0.959716796875,-0.207763671875,1.0681151151657104,-4.180907726287842,1.2817381620407104,100.0,40386.0,1.0
1208482.4634458,310336.28125,325524.375,363964.28125,361659.125,340597.78125,322783.875,308152.34375,331364.90625,-0.04638671875,0.95947265625,-0.208251953125,1.1596678495407104,-4.150390148162842,1.1901854276657104,100.0,40387.0,1.0
1208482.4653352,316772.5,330613.875,369101.09375,367664.84375,344172.0,325063.75,311038.125,335977.5,-0.04541015625,0.9609375,-0.206298828125,1.0070799589157104,-4.150390148162842,1.0986326932907104,100.0,40388.0,1.0
1208482.4678312,319697.09375,333308.0625,371477.25,370779.78125,346016.5625,325679.15625,312066.9375,338288.40625,-0.044921875,0.960693359375,-0.2080078125,1.0070799589157104,-4.058837413787842,1.0375975370407104,100.0,40389.0,1.0
1208482.4741308,315193.6875,330058.65625,367969.09375,366862.25,343710.125,323870.09375,309938.59375,335304.0,-0.045166015625,0.95947265625,-0.207763671875,0.9765624403953552,-4.058837413787842,0.9155272841453552,100.0,40390.0,1.0
1208482.486502,309470.09375,325342.96875,363403.53125,361311.84375,340430.84375,322105.09375,307559.21875,331125.1875,-0.043212890625,0.9599609375,-0.212158203125,0.8850097060203552,-3.936767339706421,0.8850097060203552,100.0,40391.0,1.0
1208482.4865459,310406.46875,325682.0,364097.5,361802.25,340726.34375,322829.9375,308235.21875,331561.9375,-0.04052734375,0.961181640625,-0.209228515625,0.8850097060203552,-3.936767339706421,0.7324218153953552,100.0,40392.0,1.0
1208482.4865583,316834.375,330776.59375,369226.15625,367798.0625,344302.71875,325098.4375,311118.875,336175.53125,-0.041259765625,0.960205078125,-0.2138671875,0.7019042372703552,-3.723144292831421,0.7324218153953552,100.0,40393.0,1.0
1208482.4896251,319778.8125,333476.6875,371605.28125,370924.1875,346150.03125,325705.0,312145.96875,338481.875,-0.043212890625,0.96044921875,-0.21630859375,0.7629393935203552,-3.631591558456421,0.6103515028953552,100.0,40394.0,1.0
1208482.4896708,315296.125,330234.0,368104.09375,367022.28125,343852.46875,323901.46875,310021.40625,335493.34375,-0.04345703125,0.958251953125,-0.21435546875,0.9155272841453552,-3.479003667831421,0.4882812201976776,100.0,40395.0,1.0
1208482.491445,309516.0625,325455.1875,363475.15625,361403.5,340533.3125,322113.59375,307603.65625,331235.15625,-0.044921875,0.960693359375,-0.212646484375,0.9765624403953552,-3.417968511581421,0.3662109076976776,100.0,40396.0,1.0
1208482.5052025,310320.5625,325634.0,364023.21875,361728.65625,340710.4375,322770.46875,308179.59375,331494.96875,-0.04736328125,0.96044921875,-0.20751953125,0.9765624403953552,-3.356933355331421,0.3356933295726776,100.0,40397.0,1.0
1208482.5084377,316673.90625,330607.4375,369059.78125,367619.0625,344197.375,325006.0,311000.65625,335981.5,-0.049560546875,0.959228515625,-0.208984375,0.8850097060203552,-3.326415777206421,0.2441406100988388,100.0,40398.0,1.0
1208482.5084808,319666.71875,333319.875,371467.5,370769.5,346051.6875,325640.6875,312047.90625,338291.875,-0.05029296875,0.961181640625,-0.205810546875,0.8850097060203552,-3.265380620956421,0.1831054538488388,100.0,40399.0,1.0
1208482.5102755,315242.5,330128.5,368016.5625,366921.15625,343782.8125,323866.0625,309954.15625,335347.09375,-0.05029296875,0.9599609375,-0.2080078125,0.8850097060203552,-3.295898199081421,0.0915527269244194,100.0,40400.0,1.0
1208482.5140682,309455.28125,325356.46875,363390.9375,361307.28125,340460.34375,322079.96875,307538.90625,331106.0625,-0.051025390625,0.958740234375,-0.209716796875,0.9155272841453552,-3.295898199081421,0.0610351525247097,100.0,40401.0,1.0
1208482.5229251,310234.09375,325531.34375,363930.3125,361620.5625,340634.53125,322728.625,308114.4375,331371.59375,-0.049072265625,0.95849609375,-0.2099609375,0.7934569716453552,-3.417968511581421,0.03051757626235485,100.0,40402.0,1.0
1208482.5259047,316603.1875,330532.78125,368992.8125,367531.90625,344144.5625,324971.65625,310957.125,335889.34375,-0.046875,0.9619140625,-0.2060546875,0.7629393935203552,-3.265380620956421,-0.0610351525247097,100.0,40403.0,1.0
1208482.5259487,319665.09375,333312.71875,371467.5,370759.40625,346046.78125,325631.5,312044.59375,338269.34375,-0.0458984375,0.96240234375,-0.208251953125,0.6713866591453552,-3.234863042831421,0.0610351525247097,100.0,40404.0,1.0
1208482.5277997,315297.125,330178.5625,368072.8125,366980.25,343821.15625,323877.0625,309981.0625,335385.09375,-0.044677734375,0.9609375,-0.2080078125,0.6103515028953552,-3.204345464706421,0.03051757626235485,100.0,40405.0,1.0
1208482.536567,309494.59375,325407.71875,363442.875,361362.71875,340500.9375,322083.125,307562.96875,331148.34375,-0.043701171875,0.96240234375,-0.209228515625,0.4882812201976776,-3.112792730331421,0.1220703050494194,100.0,40406.0,1.0
1208482.5410491,310201.71875,325519.90625,363922.71875,361609.59375,340633.71875,322708.0625,308105.5,331360.96875,-0.041259765625,0.962646484375,-0.2099609375,0.3662109076976776,-2.960204839706421,0.2441406100988388,100.0,40407.0,1.0
1208482.5410945,316549.34375,330488.34375,368953.46875,367487.28125,344116.9375,324945.5625,310930.9375,335841.3125,-0.041259765625,0.962646484375,-0.20947265625,0.3662109076976776,-2.685546636581421,0.3051757514476776,100.0,40408.0,1.0
1208482.5428366,319654.1875,333292.40625,371450.53125,370742.0625,346033.8125,325620.9375,312027.0625,338232.6875,-0.043701171875,0.962158203125,-0.210205078125,0.3967284858226776,-2.502441167831421,0.3967284858226776,100.0,40409.0,1.0
1208482.5515471,315311.4375,330173.625,368073.71875,366988.75,343821.53125,323865.78125,309968.28125,335366.84375,-0.04541015625,0.95947265625,-0.2119140625,0.3967284858226776,-2.349853277206421,0.4577636420726776,100.0,40410.0,1.0
1208482.558412,309485.5625,325386.25,363428.90625,361355.40625,340495.6875,322061.125,307545.1875,331124.65625,-0.04833984375,0.95751953125,-0.21240234375,0.3356933295726776,-2.197265386581421,0.4272460639476776,100.0,40411.0,1.0
1208482.5584551,310142.4375,325457.96875,363864.6875,361547.4375,340596.53125,322665.40625,308063.125,331296.9375,-0.05029296875,0.955322265625,-0.208740234375,0.3967284858226776,-2.105712652206421,0.3967284858226776,100.0,40412.0,1.0
1208482.5679481,316480.40625,330414.15625,368882.5625,367407.625,344068.375,324903.4375,310882.28125,335762.03125,-0.051513671875,0.95556640625,-0.205810546875,0.3967284858226776,-1.9531248807907104,0.3662109076976776,100.0,40413.0,1.0
1208482.5734274,319628.71875,333246.5625,371414.5,370703.625,346007.78125,325600.375,312004.71875,338188.15625,-0.052734375,0.95556640625,-0.208740234375,0.3967284858226776,-1.9836424589157104,0.3662109076976776,100.0,40414.0,1.0
1208482.5734715,315346.5625,330183.75,368090.15625,367010.65625,343835.46875,323875.71875,309985.71875,335375.4375,-0.054443359375,0.954345703125,-0.209228515625,0.4577636420726776,-1.8920897245407104,0.3051757514476776,100.0,40415.0,1.0
1208482.5752928,309500.78125,325386.78125,363433.40625,361361.90625,340501.5,322067.5625,307556.625,331124.65625,-0.055908203125,0.95654296875,-0.207763671875,0.4577636420726776,-1.8615721464157104,0.3051757514476776,100.0,40416.0,1.0
1208482.577876,310096.84375,325409.59375,363816.84375,361491.84375,340562.90625,322650.40625,308043.96875,331248.9375,-0.057373046875,0.954833984375,-0.2109375,0.4577636420726776,-1.8920897245407104,0.3356933295726776,100.0,40417.0,1.0
1208482.5817074,316426.59375,330353.0625,368828.84375,367339.84375,344030.75,324895.40625,310864.84375,335707.125,-0.05859375,0.951416015625,-0.209228515625,0.4577636420726776,-1.9226073026657104,0.2746581733226776,100.0,40418.0,1.0
1208482.5878308,319630.5,333227.5,371409.21875,370686.8125,346002.34375,325614.25,312012.9375,338172.625,-0.06005859375,0.951904296875,-0.21142578125,0.3967284858226776,-2.014159917831421,0.2746581733226776,100.0,40419.0,1.0
1208482.5965743,315379.375,330193.75,368109.375,367024.875,343843.875,323885.09375,309996.71875,335381.9375,-0.06103515625,0.954833984375,-0.2109375,0.4882812201976776,-2.136230230331421,0.2441406100988388,100.0,40420.0,1.0
1208482.5996171,309502.28125,325380.15625,363424.71875,361349.21875,340492.375,322052.53125,307545.34375,331109.8125,-0.06201171875,0.95654296875,-0.20947265625,0.5187987685203552,-2.166747808456421,0.2746581733226776,100.0,40421.0,1.0
1208482.5996602,310040.78125,325358.28125,363764.1875,361429.5,340529.5625,322621.875,308017.4375,331198.0625,-0.062255859375,0.957763671875,-0.21044921875,0.5187987685203552,-2.258300542831421,0.2746581733226776,100.0,40422.0,1.0
1208482.6017144,316357.75,330290.75,368764.375,367263.84375,343990.15625,324868.21875,310838.9375,335645.0625,-0.061767578125,0.957275390625,-0.208984375,0.4882812201976776,-2.441406011581421,0.2746581733226776,100.0,40423.0,1.0
1208482.6134122,319612.71875,333208.03125,371380.5,370655.78125,345988.84375,325602.34375,312005.96875,338140.4375,-0.0595703125,0.958251953125,-0.20751953125,0.3967284858226776,-2.624511480331421,0.3967284858226776,100.0,40424.0,1.0
1208482.6134557,315405.46875,330212.625,368122.53125,367045.34375,343864.875,323894.9375,310015.21875,335390.09375,-0.057861328125,0.960693359375,-0.20751953125,0.3051757514476776,-2.655029058456421,0.4272460639476776,100.0,40425.0,1.0
1208482.6271631,309504.09375,325385.1875,363426.96875,361360.59375,340509.09375,322061.03125,307559.40625,331114.8125,-0.05322265625,0.9619140625,-0.20849609375,0.1525878757238388,-2.624511480331421,0.6103515028953552,100.0,40426.0,1.0
1208482.6272082,309988.9375,325320.96875,363722.90625,361389.1875,340511.9375,322609.53125,308003.5625,331163.46875,-0.05419921875,0.961669921875,-0.2080078125,0.0,-2.655029058456421,0.6713866591453552,100.0,40427.0,1.0
1208482.6297391,316288.46875,330230.78125,368705.53125,367199.9375,343952.78125,324840.25,310809.59375,335590.28125,-0.05224609375,0.963134765625,-0.21044921875,-0.03051757626235485,-2.624511480331421,0.8239745497703552,100.0,40428.0,1.0
1208482.6297845,319586.96875,333173.5,371354.21875,370629.40625,345969.78125,325583.84375,311996.65625,338115.46875,-0.054443359375,0.960693359375,-0.208740234375,-0.1525878757238388,-2.655029058456421,0.8239745497703552,100.0,40429.0,1.0
1208482.6360432,315426.03125,330216.375,368128.875,367057.78125,343867.65625,323893.25,310025.5,335397.25,-0.052978515625,0.960205078125,-0.208740234375,-0.3051757514476776,-2.532958745956421,0.8850097060203552,100.0,40430.0,1.0
1208482.6360881,309508.5625,325387.15625,363421.78125,361355.3125,340502.8125,322052.53125,307559.40625,331111.78125,-0.0517578125,0.960205078125,-0.208740234375,-0.3967284858226776,-2.502441167831421,1.0070799589157104,100.0,40431.0,1.0
1208482.6471685,309926.09375,325265.375,363667.625,361323.21875,340468.21875,322572.78125,307971.65625,331110.96875,-0.051513671875,0.956787109375,-0.208251953125,-0.4577636420726776,-2.471923589706421,1.0681151151657104,100.0,40432.0,1.0
1208482.647213,316211.84375,330155.03125,368640.09375,367120.71875,343899.75,324803.3125,310775.90625,335525.90625,-0.051025390625,0.9560546875,-0.209228515625,-0.4577636420726776,-2.441406011581421,0.8544921278953552,100.0,40433.0,1.0
1208482.6534198,319577.5625,333155.4375,371342.0625,370609.46875,345954.15625,325580.25,311997.375,338097.78125,-0.051025390625,0.95751953125,-0.212158203125,-0.3662109076976776,-2.380370855331421,0.8544921278953552,100.0,40434.0,1.0
1208482.6534669,315468.78125,330250.875,368164.0,367094.4375,343889.84375,323907.71875,310051.0,335428.71875,-0.050537109375,0.95751953125,-0.20947265625,-0.3662109076976776,-2.288818120956421,0.8850097060203552,100.0,40435.0,1.0
1208482.6558689,309543.78125,325424.96875,363458.0625,361396.96875,340533.84375,322065.75,307593.375,331156.75,-0.051513671875,0.9580078125,-0.210205078125,-0.4882812201976776,-2.258300542831421,0.8544921278953552,100.0,40436.0,1.0
1208482.6559124,309901.0625,325256.78125,363653.96875,361308.0,340465.28125,322560.90625,307974.59375,331114.375,-0.050537109375,0.958740234375,-0.208251953125,-0.3967284858226776,-2.105712652206421,0.9155272841453552,100.0,40437.0,1.0
1208482.6716938,316171.25,330128.9375,368608.09375,367082.4375,343881.875,324787.3125,310768.75,335507.65625,-0.050048828125,0.955810546875,-0.2119140625,-0.4272460639476776,-2.044677495956421,0.9460448622703552,100.0,40438.0,1.0
1208482.6746548,319587.40625,333165.1875,371349.03125,370616.15625,345964.78125,325589.90625,312012.03125,338112.1875,-0.048095703125,0.9560546875,-0.211181640625,-0.3051757514476776,-1.9226073026657104,1.0986326932907104,100.0,40439.0,1.0
1208482.6746986,315518.5,330293.09375,368204.25,367143.34375,343927.03125,323929.09375,310080.125,335471.90625,-0.050048828125,0.956787109375,-0.21240234375,-0.2441406100988388,-1.8005369901657104,1.0375975370407104,100.0,40440.0,1.0
1208482.6821411,309562.8125,325448.21875,363472.03125,361417.1875,340552.1875,322065.0625,307597.9375,331173.65625,-0.05078125,0.954345703125,-0.20849609375,-0.2441406100988388,-1.6784666776657104,0.9765624403953552,100.0,40441.0,1.0
1208482.6822715,309869.40625,325239.4375,363627.21875,361281.8125,340456.96875,322548.84375,307963.78125,331092.21875,-0.0546875,0.954345703125,-0.2109375,-0.1525878757238388,-1.6784666776657104,0.9460448622703552,100.0,40442.0,1.0
1208482.6839764,316130.9375,330097.65625,368575.90625,367044.71875,343865.15625,324780.53125,310756.9375,335472.53125,-0.055908203125,0.954345703125,-0.206298828125,-0.1525878757238388,-1.6174315214157104,0.9460448622703552,100.0,40443.0,1.0
1208482.6867008,319583.5625,333154.03125,371344.3125,370609.1875,345962.90625,325587.0625,312009.28125,338096.53125,-0.05712890625,0.956298828125,-0.206787109375,-0.2136230319738388,-1.6174315214157104,0.9155272841453552,100.0,40444.0,1.0
1208482.7007862,315560.25,330321.34375,368234.28125,367178.90625,343951.15625,323937.40625,310097.21875,335488.625,-0.057373046875,0.9599609375,-0.208740234375,-0.1525878757238388,-1.6174315214157104,0.8239745497703552,100.0,40445.0,1.0
1208482.7008372,309582.75,325466.34375,363488.46875,361441.03125,340572.84375,322071.84375,307610.625,331186.53125,-0.05712890625,0.9619140625,-0.2099609375,-0.1525878757238388,-1.7089842557907104,0.7324218153953552,100.0,40446.0,1.0
1208482.7032393,309830.15625,325213.25,363595.65625,361246.9375,340443.8125,322537.5625,307945.0,331065.84375,-0.05517578125,0.963134765625,-0.210205078125,-0.1220703050494194,-1.6479490995407104,0.6713866591453552,100.0,40447.0,1.0
1208482.7032741,316074.59375,330056.96875,368526.0,366985.96875,343835.03125,324759.59375,310725.21875,335431.40625,-0.05322265625,0.96435546875,-0.210693359375,-0.1831054538488388,-1.6479490995407104,0.6408690810203552,100.0,40448.0,1.0
1208482.7170159,319577.125,333153.75,371331.875,370598.03125,345957.28125,325579.28125,312000.0625,338090.625,-0.049560546875,0.963623046875,-0.208740234375,-0.2441406100988388,-1.5258787870407104,0.7019042372703552,100.0,40449.0,1.0
1208482.7170507,315597.25,330354.59375,368253.15625,367211.375,343967.25,323939.03125,310104.71875,335514.8125,-0.04541015625,0.962158203125,-0.20703125,-0.3662109076976776,-1.4953612089157104,0.8544921278953552,100.0,40450.0,1.0
1208482.7197726,309598.84375,325481.125,363489.71875,361455.53125,340576.9375,322065.75,307609.0,331198.78125,-0.0458984375,0.9638671875,-0.206787109375,-0.3967284858226776,-1.4343260526657104,0.9155272841453552,100.0,40451.0,1.0
1208482.7198182,309781.4375,325169.4375,363544.34375,361199.75,340412.0625,322507.34375,307916.03125,331025.5,-0.049072265625,0.9619140625,-0.20849609375,-0.4882812201976776,-1.3122557401657104,1.0681151151657104,100.0,40452.0,1.0
1208482.721583,316018.46875,330000.0,368463.6875,366920.8125,343799.0,324732.3125,310694.53125,335373.28125,-0.04931640625,0.961181640625,-0.205810546875,-0.5493163466453552,-1.1901854276657104,1.0986326932907104,100.0,40453.0,1.0
1208482.7302673,319574.25,333133.71875,371313.09375,370577.28125,345949.6875,325576.5,311995.15625,338067.5625,-0.04541015625,0.95849609375,-0.208740234375,-0.6713866591453552,-1.0681151151657104,1.1901854276657104,100.0,40454.0,1.0
1208482.734588,315632.125,330362.28125,368265.46875,367225.78125,343980.21875,323943.9375,310112.78125,335517.21875,-0.0458984375,0.957763671875,-0.20849609375,-0.7019042372703552,-1.0070799589157104,1.2207030057907104,100.0,40455.0,1.0
1208482.7346168,309596.625,325456.71875,363472.09375,361440.25,340569.0,322042.96875,307594.09375,331173.375,-0.04443359375,0.956298828125,-0.20654296875,-0.7019042372703552,-0.7934569716453552,1.2817381620407104,100.0,40456.0,1.0
1208482.7428401,309723.65625,325098.375,363478.53125,361128.65625,340368.71875,322466.21875,307873.84375,330955.5,-0.04248046875,0.954345703125,-0.2099609375,-0.7019042372703552,-0.6713866591453552,1.4038084745407104,100.0,40457.0,1.0
1208482.7458284,315938.53125,329900.5,368381.71875,366833.09375,343737.03125,324684.5,310641.53125,335286.71875,-0.04052734375,0.955322265625,-0.211669921875,-0.7629393935203552,-0.5187987685203552,1.4343260526657104,100.0,40458.0,1.0
1208482.7458586,319545.125,333071.5,371272.59375,370538.28125,345918.125,325553.53125,311968.3125,338016.78125,-0.04296875,0.954345703125,-0.213134765625,-0.5187987685203552,-0.2746581733226776,1.6784666776657104,100.0,40459.0,1.0
1208482.7477363,315652.875,330342.96875,368262.8125,367231.40625,343978.15625,323943.84375,310108.03125,335503.8125,-0.044677734375,0.9541015625,-0.21142578125,-0.5493163466453552,-0.2136230319738388,1.7089842557907104,100.0,40460.0,1.0
1208482.7615138,309606.1875,325437.84375,363458.78125,361428.34375,340560.21875,322041.90625,307580.65625,331152.71875,-0.046875,0.956298828125,-0.210205078125,-0.5187987685203552,-0.2136230319738388,1.6479490995407104,100.0,40461.0,1.0
1208482.7647338,309668.9375,325024.6875,363417.75,361058.75,340323.75,322446.625,307833.5,330891.21875,-0.050048828125,0.956787109375,-0.2099609375,-0.4577636420726776,-0.1220703050494194,1.5563963651657104,100.0,40462.0,1.0
1208482.7647788,315878.4375,329817.53125,368316.1875,366754.15625,343691.71875,324672.34375,310608.625,335217.875,-0.0517578125,0.958251953125,-0.208984375,-0.3967284858226776,-0.1220703050494194,1.4953612089157104,100.0,40463.0,1.0
1208482.7693083,319533.3125,333028.75,371240.78125,370499.9375,345896.125,325554.25,311953.75,337975.90625,-0.055419921875,0.958740234375,-0.20703125,-0.2441406100988388,-0.1220703050494194,1.2207030057907104,100.0,40464.0,1.0
1208482.7740973,315676.21875,330333.5,368262.4375,367234.09375,343976.46875,323946.53125,310103.125,335488.0625,-0.05517578125,0.96044921875,-0.205322265625,-0.3356933295726776,-0.2746581733226776,1.1291502714157104,100.0,40465.0,1.0
1208482.7765901,309605.5625,325417.28125,363445.71875,361418.59375,340552.1875,322032.25,307567.625,331127.53125,-0.05615234375,0.96142578125,-0.206298828125,-0.3356933295726776,-0.3051757514476776,0.9155272841453552,100.0,40466.0,1.0
1208482.7792076,309611.09375,324962.71875,363359.28125,360996.4375,340285.125,322412.75,307798.8125,330827.375,-0.055419921875,0.961669921875,-0.205810546875,-0.4577636420726776,-0.4272460639476776,0.7324218153953552,100.0,40467.0,1.0
1208482.7827851,315806.125,329747.34375,368246.875,366679.3125,343642.25,324637.75,310573.125,335145.46875,-0.055419921875,0.964111328125,-0.208740234375,-0.5493163466453552,-0.5798339247703552,0.6103515028953552,100.0,40468.0,1.0
1208482.7864973,319515.0625,333005.59375,371216.28125,370478.9375,345875.90625,325547.625,311949.46875,337947.75,-0.0546875,0.9638671875,-0.2099609375,-0.6408690810203552,-0.6713866591453552,0.3051757514476776,100.0,40469.0,1.0
1208482.800911,315702.59375,330351.75,368273.4375,367255.71875,343983.4375,323956.625,310117.15625,335495.125,-0.052734375,0.963134765625,-0.206298828125,-0.7324218153953552,-0.7934569716453552,0.2136230319738388,100.0,40470.0,1.0
1208482.8009548,309610.375,325424.25,363432.40625,361413.40625,340543.5,322033.03125,307561.53125,331113.21875,-0.052734375,0.963134765625,-0.20556640625,-0.8239745497703552,-0.7934569716453552,0.1831054538488388,100.0,40471.0,1.0
1208482.8035239,309563.90625,324936.625,363299.90625,360938.75,340245.96875,322404.09375,307764.125,330773.65625,-0.050537109375,0.96630859375,-0.207763671875,-0.8544921278953552,-0.7934569716453552,0.0610351525247097,100.0,40472.0,1.0
1208482.8035687,315744.4375,329714.0,368175.1875,366608.78125,343593.8125,324628.34375,310527.53125,335086.28125,-0.04833984375,0.964111328125,-0.208984375,-0.8544921278953552,-0.8239745497703552,0.03051757626235485,100.0,40473.0,1.0
1208482.8052032,319501.3125,333012.3125,371180.78125,370454.15625,345851.78125,325554.875,311923.96875,337928.0,-0.045654296875,0.96630859375,-0.20556640625,-0.9155272841453552,-0.7934569716453552,0.0610351525247097,100.0,40474.0,1.0
1208482.8089486,315739.5,330410.46875,368274.5,367278.78125,343987.5625,323985.875,310115.8125,335516.5,-0.044189453125,0.965576171875,-0.20361328125,-1.0375975370407104,-0.6713866591453552,0.1831054538488388,100.0,40475.0,1.0
1208482.817844,309629.6875,325483.78125,363425.4375,361432.375,340543.40625,322062.375,307561.0,331136.46875,-0.0400390625,0.965087890625,-0.205322265625,-1.0986326932907104,-0.4882812201976776,0.2746581733226776,100.0,40476.0,1.0
1208482.822238,309523.03125,324947.09375,363245.0,360901.375,340208.40625,322412.125,307739.625,330753.625,-0.03662109375,0.966796875,-0.207275390625,-1.1901854276657104,-0.3662109076976776,0.3356933295726776,100.0,40477.0,1.0
1208482.8222828,315701.875,329723.5625,368114.375,366561.28125,343553.40625,324644.0,310509.375,335061.0625,-0.03857421875,0.968017578125,-0.2041015625,-1.2207030057907104,-0.2136230319738388,0.4577636420726776,100.0,40478.0,1.0
1208482.8278246,319515.34375,333071.21875,371162.09375,370455.9375,345841.5,325590.53125,311931.21875,337941.9375,-0.039794921875,0.967041015625,-0.203857421875,-1.1901854276657104,-0.03051757626235485,0.6713866591453552,100.0,40479.0,1.0
1208482.8371189,315795.84375,330504.625,368283.8125,367319.375,343995.6875,324022.71875,310130.375,335553.875,-0.040283203125,0.965576171875,-0.2041015625,-1.3122557401657104,0.2136230319738388,0.7934569716453552,100.0,40480.0,1.0
1208482.837162,309663.75,325560.875,363412.65625,361450.15625,340538.6875,322082.21875,307559.84375,331151.3125,-0.042236328125,0.965087890625,-0.200927734375,-1.2817381620407104,0.3662109076976776,0.8544921278953552,100.0,40481.0,1.0
1208482.839663,309503.1875,324984.09375,363187.15625,360864.71875,340173.28125,322412.65625,307715.59375,330728.5,-0.044189453125,0.96435546875,-0.200927734375,-1.1901854276657104,0.5187987685203552,0.9460448622703552,100.0,40482.0,1.0
1208482.8397072,315660.5625,329736.15625,368040.25,366499.25,343500.28125,324635.0625,310474.34375,335018.0625,-0.043701171875,0.962646484375,-0.203857421875,-1.1901854276657104,0.5798339247703552,1.0375975370407104,100.0,40483.0,1.0
1208482.8479494,319519.1875,333110.125,371124.8125,370431.46875,345808.15625,325594.21875,311908.78125,337923.0,-0.04736328125,0.9609375,-0.204345703125,-1.3122557401657104,0.6713866591453552,1.0375975370407104,100.0,40484.0,1.0
1208482.8503346,315841.15625,330570.5,368282.90625,367335.65625,343985.0625,324039.34375,310125.375,335561.125,-0.0478515625,0.959228515625,-0.2021484375,-1.2817381620407104,0.6103515028953552,1.0375975370407104,100.0,40485.0,1.0
1208482.8540544,309688.875,325603.875,363394.15625,361444.53125,340515.53125,322090.0,307542.84375,331138.96875,-0.048095703125,0.9599609375,-0.200927734375,-1.3122557401657104,0.5493163466453552,1.0681151151657104,100.0,40486.0,1.0
1208482.8791446,309478.59375,324981.9375,363123.5,360800.4375,340118.375,322400.59375,307672.40625,330672.09375,-0.048583984375,0.95849609375,-0.199951171875,-1.1901854276657104,0.6408690810203552,1.0986326932907104,100.0,40487.0,1.0
1208482.8834616,315617.28125,329708.53125,367960.78125,366418.5,343436.625,324615.28125,310423.1875,334946.1875,-0.048828125,0.957275390625,-0.201904296875,-1.2207030057907104,0.6103515028953552,1.0986326932907104,100.0,40488.0,1.0
1208482.8835025,319512.75,333103.25,371078.03125,370391.5,345768.0,325585.8125,311878.8125,337881.21875,-0.049072265625,0.955810546875,-0.2001953125,-1.2207030057907104,0.5493163466453552,1.0375975370407104,100.0,40489.0,1.0
1208482.8852031,315877.28125,330593.9375,368267.34375,367332.0625,343966.0,324041.65625,310111.34375,335546.90625,-0.05224609375,0.955322265625,-0.198974609375,-1.0681151151657104,0.4272460639476776,1.0070799589157104,100.0,40490.0,1.0
1208482.887785,309712.3125,325620.84375,363368.46875,361425.75,340488.96875,322085.78125,307521.84375,331114.375,-0.051025390625,0.958740234375,-0.19873046875,-0.9460448622703552,0.3356933295726776,0.9460448622703552,100.0,40491.0,1.0
1208482.8902956,309433.625,324934.84375,363045.90625,360723.28125,340053.09375,322368.75,307620.90625,330596.96875,-0.05078125,0.957763671875,-0.19970703125,-1.0070799589157104,0.3051757514476776,0.8850097060203552,100.0,40492.0,1.0
1208482.8929538,315553.09375,329636.375,367869.125,366320.875,343354.625,324579.4375,310365.625,334850.4375,-0.050048828125,0.956787109375,-0.198974609375,-0.8850097060203552,0.3051757514476776,0.8239745497703552,100.0,40493.0,1.0
1208482.8953318,319499.0625,333062.5625,371025.84375,370336.15625,345709.0,325571.15625,311845.375,337814.8125,-0.049560546875,0.955078125,-0.20068359375,-0.8544921278953552,0.2136230319738388,0.7019042372703552,100.0,40494.0,1.0
1208482.8978323,315892.75,330567.21875,368236.59375,367305.0625,343918.96875,324030.21875,310084.5,335491.28125,-0.04833984375,0.9541015625,-0.201416015625,-0.6713866591453552,0.2136230319738388,0.7019042372703552,100.0,40495.0,1.0
1208482.9003171,309688.875,325550.40625,363304.1875,361363.875,340415.9375,322051.8125,307468.65625,331020.21875,-0.044921875,0.952392578125,-0.19921875,-0.5187987685203552,0.1525878757238388,0.6713866591453552,100.0,40496.0,1.0
1208482.9034743,309340.1875,324790.0,362920.71875,360586.6875,339930.09375,322308.40625,307529.96875,330435.5,-0.04345703125,0.952392578125,-0.199951171875,-0.4577636420726776,0.2746581733226776,0.7019042372703552,100.0,40497.0,1.0
1208482.9035186,315433.8125,329453.5625,367720.0,366149.65625,343204.25,324512.375,310264.75,334657.5625,-0.041748046875,0.95166015625,-0.20263671875,-0.3356933295726776,0.3051757514476776,0.7324218153953552,100.0,40498.0,1.0
1208482.9090982,319418.59375,332898.5,370904.5,370196.125,345573.0,325517.78125,311764.65625,337642.15625,-0.04150390625,0.952880859375,-0.201904296875,-0.1525878757238388,0.2441406100988388,0.7019042372703552,100.0,40499.0,1.0
1208482.9158807,315863.78125,330437.5625,368153.46875,367210.03125,343810.78125,323997.3125,310027.5625,335349.125,-0.041748046875,0.9521484375,-0.202392578125,-0.03051757626235485,0.3051757514476776,0.7324218153953552,100.0,40500.0,1.0
1208482.9159256,309639.71875,325401.90625,363197.71875,361246.5,340291.375,322009.09375,307398.90625,330852.6875,-0.041259765625,0.9541015625,-0.2060546875,0.1525878757238388,0.3051757514476776,0.8239745497703552,100.0,40501.0,1.0
1208482.9353249,309223.34375,324579.875,362756.84375,360403.75,339760.3125,322236.53125,307429.03125,330208.78125,-0.041748046875,0.955322265625,-0.204345703125,0.3051757514476776,0.3662109076976776,0.8544921278953552,100.0,40502.0,1.0
1208482.9353687,315297.3125,329212.0625,367536.53125,365943.03125,343016.9375,324433.4375,310153.53125,334403.3125,-0.043701171875,0.952880859375,-0.2060546875,0.4577636420726776,0.5493163466453552,0.9460448622703552,100.0,40503.0,1.0
1208482.9353809,319315.53125,332663.96875,370735.78125,370006.40625,345392.5,325445.71875,311657.0,337386.28125,-0.043701171875,0.953857421875,-0.207275390625,0.4272460639476776,0.5187987685203552,0.8850097060203552,100.0,40504.0,1.0
1208482.9391133,315790.8125,330211.90625,367997.71875,367035.15625,343634.03125,323927.84375,309920.90625,335088.6875,-0.044189453125,0.955810546875,-0.207763671875,0.4577636420726776,0.6103515028953552,1.0070799589157104,100.0,40505.0,1.0
1208482.9391599,309561.3125,325169.96875,363037.78125,361059.1875,340104.96875,321939.0,307289.03125,330580.4375,-0.045654296875,0.957275390625,-0.2060546875,0.5187987685203552,0.6103515028953552,0.9155272841453552,100.0,40506.0,1.0
1208482.9391734,309116.875,324340.90625,362584.21875,360196.78125,339563.96875,322171.90625,307319.34375,329932.40625,-0.045654296875,0.95654296875,-0.206787109375,0.4882812201976776,0.7019042372703552,1.0070799589157104,100.0,40507.0,1.0
1208482.9415441,315197.0625,329004.09375,367391.34375,365760.65625,342840.09375,324389.375,310069.5,334170.03125,-0.044677734375,0.95947265625,-0.206787109375,0.5187987685203552,0.6408690810203552,1.0070799589157104,100.0,40508.0,1.0
1208482.9440842,319292.09375,332547.65625,370677.5,369921.375,345278.3125,325443.65625,311630.1875,337251.53125,-0.04638671875,0.96142578125,-0.208251953125,0.5493163466453552,0.6408690810203552,1.0681151151657104,100.0,40509.0,1.0
1208482.9579099,315838.46875,330177.21875,368014.59375,367041.59375,343578.6875,323951.4375,309938.15625,335040.78125,-0.048095703125,0.96240234375,-0.209716796875,0.4882812201976776,0.6713866591453552,1.0681151151657104,100.0,40510.0,1.0
1208482.9836172,309598.125,325142.71875,363053.9375,361074.9375,340054.71875,321949.0,307303.5,330547.09375,-0.046630859375,0.963623046875,-0.207763671875,0.4272460639476776,0.6103515028953552,1.0375975370407104,100.0,40511.0,1.0
1208482.9836614,309092.1875,324266.34375,362552.46875,360156.96875,339484.125,322152.75,307304.59375,329860.625,-0.047119140625,0.96435546875,-0.202880859375,0.3051757514476776,0.5798339247703552,0.9765624403953552,100.0,40512.0,1.0
1208482.9836726,315152.71875,328910.5,367340.125,365693.40625,342748.625,324364.875,310047.59375,334078.03125,-0.04638671875,0.9638671875,-0.204345703125,0.1831054538488388,0.4577636420726776,1.0375975370407104,100.0,40513.0,1.0
1208482.9836823,319281.09375,332475.78125,370648.625,369878.84375,345202.59375,325431.65625,311620.71875,337178.84375,-0.04833984375,0.966064453125,-0.20458984375,0.0915527269244194,0.5187987685203552,0.9765624403953552,100.0,40514.0,1.0
1208482.983693,315865.5625,330132.40625,368008.09375,367028.90625,343522.09375,323956.1875,309942.34375,334989.46875,-0.05078125,0.964599609375,-0.2060546875,0.0610351525247097,0.4272460639476776,0.9765624403953552,100.0,40515.0,1.0
1208482.9864773,309608.59375,325084.3125,363029.8125,361041.3125,339992.3125,321954.8125,307301.46875,330478.0625,-0.05029296875,0.962158203125,-0.20458984375,0.03051757626235485,0.3051757514476776,1.0375975370407104,100.0,40516.0,1.0
1208482.9865198,309045.34375,324163.25,362478.15625,360067.03125,339389.71875,322144.34375,307279.1875,329745.8125,-0.051025390625,0.962890625,-0.19873046875,-0.1831054538488388,0.3051757514476776,1.0681151151657104,100.0,40517.0,1.0
1208482.9865319,315066.09375,328768.34375,367233.625,365569.59375,342626.40625,324340.28125,310002.625,333934.4375,-0.0478515625,0.963134765625,-0.201416015625,-0.2746581733226776,0.1831054538488388,1.0681151151657104,100.0,40518.0,1.0
1208482.9889932,319240.9375,332362.9375,370578.0,369798.09375,345102.90625,325418.0,311595.03125,337068.875,-0.04736328125,0.962646484375,-0.20361328125,-0.3051757514476776,0.0915527269244194,1.0375975370407104,100.0,40519.0,1.0
1208482.9921873,315871.65625,330052.9375,367972.75,366992.9375,343443.40625,323947.0625,309928.3125,334909.96875,-0.046875,0.962890625,-0.20654296875,-0.1831054538488388,0.0,0.9765624403953552,100.0,40520.0,1.0
1208482.9922381,309594.84375,324989.09375,362978.3125,360989.4375,339898.625,321928.15625,307270.15625,330385.0,-0.045654296875,0.96435546875,-0.205810546875,-0.2746581733226776,-0.1525878757238388,1.0070799589157104,100.0,40521.0,1.0
1208483.0004979,308980.25,324029.59375,362386.0,359965.375,339266.6875,322097.3125,307224.84375,329622.25,-0.0419921875,0.967041015625,-0.2021484375,-0.2441406100988388,0.0,1.0986326932907104,100.0,40522.0,1.0
1208483.012164,315004.84375,328643.78125,367152.8125,365475.4375,342516.0,324312.03125,309965.6875,333831.90625,-0.038818359375,0.96630859375,-0.205810546875,-0.2746581733226776,0.03051757626235485,1.2207030057907104,100.0,40523.0,1.0
1208483.0122163,319247.375,332310.375,370562.96875,369777.0,345043.71875,325429.15625,311602.1875,337038.5625,-0.041259765625,0.96484375,-0.20458984375,-0.4272460639476776,0.0915527269244194,1.4343260526657104,100.0,40524.0,1.0
1208483.014641,315940.21875,330069.03125,368015.78125,367037.75,343430.46875,323980.3125,309969.1875,334943.84375,-0.039794921875,0.964111328125,-0.203125,-0.5187987685203552,0.0610351525247097,1.3732908964157104,100.0,40525.0,1.0
1208483.0146871,309659.125,325020.21875,363027.84375,361040.0625,339897.09375,321957.3125,307312.625,330438.71875,-0.03857421875,0.963623046875,-0.203857421875,-0.5798339247703552,0.2746581733226776,1.4648436307907104,100.0,40526.0,1.0
1208483.016524,308992.5,324026.90625,362406.09375,359979.40625,339247.1875,322109.125,307251.84375,329657.84375,-0.0390625,0.963623046875,-0.204345703125,-0.6103515028953552,0.3051757514476776,1.5563963651657104,100.0,40527.0,1.0
1208483.0254541,315003.59375,328639.3125,367172.21875,365484.375,342496.59375,324321.0625,309996.28125,333870.625,-0.04345703125,0.9619140625,-0.206298828125,-0.6103515028953552,0.2746581733226776,1.6174315214157104,100.0,40528.0,1.0
1208483.02839,319285.3125,332343.625,370623.59375,369833.15625,345057.84375,325453.03125,311654.3125,337117.15625,-0.045166015625,0.962646484375,-0.2021484375,-0.6408690810203552,0.2746581733226776,1.4953612089157104,100.0,40529.0,1.0
1208483.0284334,316022.125,330147.0,368118.84375,367149.3125,343483.5625,324020.5625,310043.5625,335064.90625,-0.047607421875,0.963623046875,-0.2021484375,-0.7019042372703552,0.1525878757238388,1.4953612089157104,100.0,40530.0,1.0
1208483.0303735,309731.28125,325104.0,363122.96875,361145.90625,339950.8125,321993.625,307381.125,330552.28125,-0.047607421875,0.964111328125,-0.20458984375,-0.7629393935203552,0.0915527269244194,1.3122557401657104,100.0,40531.0,1.0
1208483.0441,309008.6875,324075.625,362459.75,360033.34375,339276.0625,322130.5,307295.375,329731.6875,-0.0498046875,0.962158203125,-0.203369140625,-0.8544921278953552,-0.03051757626235485,1.1291502714157104,100.0,40532.0,1.0
1208483.0472682,314997.875,328671.96875,367212.90625,365520.875,342521.46875,324335.8125,310033.65625,333939.09375,-0.051025390625,0.960693359375,-0.205078125,-0.9460448622703552,-0.0915527269244194,0.7629393935203552,100.0,40533.0,1.0
1208483.0473136,319323.65625,332410.15625,370694.125,369906.53125,345104.59375,325476.46875,311710.03125,337219.625,-0.050537109375,0.95849609375,-0.2041015625,-1.0986326932907104,-0.2136230319738388,0.7019042372703552,100.0,40534.0,1.0
1208483.049049,316106.625,330251.875,368216.9375,367259.125,343550.25,324049.25,310109.1875,335193.9375,-0.04931640625,0.95947265625,-0.205078125,-1.1596678495407104,-0.3051757514476776,0.6103515028953552,100.0,40535.0,1.0
1208483.0528534,309791.4375,325191.625,363201.125,361239.0,340007.15625,322010.6875,307433.5,330668.59375,-0.045166015625,0.9580078125,-0.205810546875,-1.2512205839157104,-0.5187987685203552,0.3967284858226776,100.0,40536.0,1.0
1208483.0671615,309002.59375,324109.15625,362481.03125,360066.0625,339295.5625,322121.8125,307313.96875,329802.0625,-0.04150390625,0.958984375,-0.20703125,-1.1596678495407104,-0.4882812201976776,0.4272460639476776,100.0,40537.0,1.0
1208483.0672057,314964.875,328674.90625,367206.8125,365520.6875,342521.0,324322.5625,310037.40625,333980.125,-0.04248046875,0.95703125,-0.20751953125,-1.1596678495407104,-0.5493163466453552,0.2746581733226776,100.0,40538.0,1.0
1208483.0691954,319328.5625,332432.25,370711.65625,369932.375,345118.625,325479.6875,311726.21875,337270.0625,-0.043212890625,0.955810546875,-0.20849609375,-1.0375975370407104,-0.5798339247703552,0.2136230319738388,100.0,40539.0,1.0
1208483.0715834,316140.0625,330281.28125,368248.3125,367301.6875,343568.5,324053.90625,310123.9375,335245.0625,-0.04052734375,0.95654296875,-0.20556640625,-1.0070799589157104,-0.5493163466453552,0.2136230319738388,100.0,40540.0,1.0
1208483.0740888,309801.8125,325189.09375,363200.65625,361245.4375,339999.46875,321996.5625,307422.875,330681.65625,-0.041259765625,0.956787109375,-0.206298828125,-0.8850097060203552,-0.5493163466453552,0.3051757514476776,100.0,40541.0,1.0
1208483.080315,308952.4375,324046.03125,362426.3125,360005.625,339244.59375,322086.34375,307274.0,329755.46875,-0.042724609375,0.957275390625,-0.206298828125,-0.7934569716453552,-0.4882812201976776,0.3356933295726776,100.0,40542.0,1.0
1208483.089832,314896.125,328592.375,367141.09375,365440.21875,342452.25,324288.59375,309997.78125,333918.4375,-0.041259765625,0.95849609375,-0.207275390625,-0.7324218153953552,-0.4882812201976776,0.2746581733226776,100.0,40543.0,1.0
1208483.0898766,319320.0625,332405.0625,370708.78125,369919.6875,345090.65625,325477.90625,311729.96875,337270.21875,-0.043701171875,0.95751953125,-0.207275390625,-0.5493163466453552,-0.5187987685203552,0.2441406100988388,100.0,40544.0,1.0
1208483.0915337,316203.25,330330.09375,368313.75,367369.90625,343595.40625,324080.71875,310171.0625,335320.09375,-0.043212890625,0.9560546875,-0.206787109375,-0.5187987685203552,-0.4882812201976776,0.3356933295726776,100.0,40545.0,1.0
1208483.0940771,309867.625,325262.15625,363283.46875,361332.875,340044.53125,322025.96875,307480.1875,330782.84375,-0.04345703125,0.957763671875,-0.20654296875,-0.4577636420726776,-0.3967284858226776,0.4577636420726776,100.0,40546.0,1.0
1208483.1028417,308977.3125,324106.03125,362486.40625,360062.75,339278.5625,322106.625,307319.6875,329847.03125,-0.045166015625,0.958740234375,-0.206787109375,-0.3967284858226776,-0.4882812201976776,0.4882812201976776,100.0,40547.0,1.0
1208483.1059967,314911.96875,328658.09375,367192.0625,365485.71875,342486.21875,324304.875,310036.9375,334009.8125,-0.044921875,0.960205078125,-0.20654296875,-0.3356933295726776,-0.4882812201976776,0.5187987685203552,100.0,40548.0,1.0
1208483.1060417,319378.71875,332511.4375,370790.25,370006.25,345152.625,325506.0625,311785.75,337397.1875,-0.0478515625,0.962890625,-0.202880859375,-0.3051757514476776,-0.6103515028953552,0.5798339247703552,100.0,40549.0,1.0
1208483.1115976,316309.65625,330482.09375,368432.125,367504.625,343691.09375,324124.625,310246.78125,335483.78125,-0.046875,0.96435546875,-0.201904296875,-0.1831054538488388,-0.7629393935203552,0.7019042372703552,100.0,40550.0,1.0
1208483.120937,309957.65625,325410.65625,363388.25,361455.53125,340136.0,322060.40625,307542.5,330935.90625,-0.047607421875,0.966064453125,-0.200927734375,-0.2746581733226776,-0.7934569716453552,0.8239745497703552,100.0,40551.0,1.0
1208483.1209811,309001.625,324202.15625,362540.46875,360128.90625,339336.78125,322114.3125,307351.78125,329952.8125,-0.047607421875,0.9677734375,-0.201171875,-0.3967284858226776,-0.8239745497703552,0.9155272841453552,100.0,40552.0,1.0
1208483.1234555,314905.0625,328726.5,367226.46875,365525.96875,342532.0,324307.28125,310061.8125,334096.375,-0.049560546875,0.967529296875,-0.20361328125,-0.4272460639476776,-1.1291502714157104,1.0070799589157104,100.0,40553.0,1.0
1208483.1235042,319413.875,332612.75,370857.84375,370080.1875,345218.875,325521.78125,311824.8125,337508.84375,-0.05078125,0.96728515625,-0.201904296875,-0.5493163466453552,-1.2207030057907104,0.9460448622703552,100.0,40554.0,1.0
1208483.1317022,316386.46875,330615.21875,368534.875,367622.5625,343778.15625,324148.84375,310300.34375,335625.0625,-0.051513671875,0.96533203125,-0.205078125,-0.6103515028953552,-1.3427733182907104,0.9460448622703552,100.0,40555.0,1.0
1208483.1340843,310023.8125,325535.1875,363483.46875,361567.90625,340222.28125,322082.75,307597.03125,331074.3125,-0.048095703125,0.966064453125,-0.201171875,-0.6713866591453552,-1.3427733182907104,1.0070799589157104,100.0,40556.0,1.0
1208483.137819,309000.0,324265.625,362578.46875,360172.8125,339384.0,322110.46875,307374.0625,330035.6875,-0.04833984375,0.9658203125,-0.20263671875,-0.8239745497703552,-1.5258787870407104,0.9460448622703552,100.0,40557.0,1.0
1208483.1471872,314877.8125,328763.59375,367235.875,365535.34375,342556.875,324291.8125,310066.46875,334146.0,-0.047607421875,0.96435546875,-0.204833984375,-0.8544921278953552,-1.7700194120407104,0.8544921278953552,100.0,40558.0,1.0
1208483.1472306,319428.0,332677.375,370903.15625,370129.78125,345268.125,325526.71875,311855.03125,337588.0625,-0.045166015625,0.962646484375,-0.205078125,-1.0070799589157104,-1.8005369901657104,0.7324218153953552,100.0,40559.0,1.0
1208483.149139,316444.75,330709.8125,368617.03125,367716.96875,343851.90625,324166.46875,310350.21875,335737.78125,-0.0439453125,0.96240234375,-0.2060546875,-0.9765624403953552,-1.8310545682907104,0.7324218153953552,100.0,40560.0,1.0
1208483.1603459,310062.6875,325612.1875,363549.09375,361648.125,340280.375,322080.4375,307628.5,331172.3125,-0.0439453125,0.96337890625,-0.206787109375,-1.1596678495407104,-1.9531248807907104,0.8239745497703552,100.0,40561.0,1.0
1208483.1639876,308987.9375,324302.625,362602.0,360205.1875,339410.625,322094.09375,307384.6875,330095.59375,-0.03955078125,0.962646484375,-0.20458984375,-1.1596678495407104,-1.9226073026657104,0.7629393935203552,100.0,40562.0,1.0
1208483.164031,314842.21875,328774.78125,367247.84375,365547.5,342576.96875,324289.5,310080.75,334195.0625,-0.038818359375,0.96142578125,-0.20263671875,-1.0986326932907104,-2.014159917831421,0.6713866591453552,100.0,40563.0,1.0
1208483.1640436,319437.90625,332720.75,370946.34375,370179.40625,345313.625,325538.59375,311883.65625,337665.125,-0.038818359375,0.9609375,-0.201904296875,-1.2207030057907104,-1.8920897245407104,0.6713866591453552,100.0,40564.0,1.0
1208483.1665333,316501.25,330788.9375,368684.8125,367801.09375,343917.90625,324173.71875,310380.4375,335834.0,-0.03662109375,0.960205078125,-0.204345703125,-1.2512205839157104,-1.8005369901657104,0.7629393935203552,100.0,40565.0,1.0
1208483.1704097,310107.59375,325682.375,363602.46875,361717.5,340341.90625,322081.59375,307651.21875,331255.375,-0.03662109375,0.959716796875,-0.20458984375,-1.2207030057907104,-1.8005369901657104,0.7629393935203552,100.0,40566.0,1.0
1208483.1814944,308970.25,324317.46875,362605.125,360214.5625,339439.59375,322076.21875,307382.0,330134.9375,-0.0380859375,0.958740234375,-0.204345703125,-1.1596678495407104,-1.7089842557907104,0.7629393935203552,100.0,40567.0,1.0
1208483.1896463,314800.03125,328767.71875,367226.3125,365525.5,342586.1875,324257.03125,310065.5625,334210.375,-0.039306640625,0.95703125,-0.203125,-1.0986326932907104,-1.6784666776657104,0.7934569716453552,100.0,40568.0,1.0
1208483.1896897,319437.28125,332746.3125,370957.25,370190.25,345342.5,325527.96875,311890.34375,337704.125,-0.04052734375,0.956787109375,-0.201171875,-1.1291502714157104,-1.6479490995407104,0.6408690810203552,100.0,40569.0,1.0
1208483.1915601,316550.4375,330854.46875,368737.90625,367862.0625,343977.625,324193.375,310414.78125,335911.5,-0.041015625,0.952392578125,-0.203857421875,-1.1291502714157104,-1.5563963651657104,0.5798339247703552,100.0,40570.0,1.0
1208483.1941639,310141.90625,325736.5625,363642.6875,361767.84375,340394.5625,322093.65625,307672.9375,331322.96875,-0.041748046875,0.95166015625,-0.204833984375,-1.0375975370407104,-1.4038084745407104,0.4882812201976776,100.0,40571.0,1.0
1208483.2002651,308949.84375,324330.0,362603.25,360212.78125,339461.0625,322069.875,307378.34375,330159.0625,-0.041259765625,0.9521484375,-0.20703125,-0.8544921278953552,-1.3427733182907104,0.3356933295726776,100.0,40572.0,1.0
1208483.207152,314748.53125,328747.0625,367195.28125,365487.59375,342581.09375,324238.0,310040.96875,334201.59375,-0.043701171875,0.951416015625,-0.203857421875,-0.6713866591453552,-1.3427733182907104,0.1831054538488388,100.0,40573.0,1.0
1208483.2071954,319430.5,332752.03125,370962.1875,370193.0,345360.21875,325526.1875,311889.09375,337727.71875,-0.04345703125,0.953125,-0.203125,-0.5798339247703552,-1.2817381620407104,0.0610351525247097,100.0,40574.0,1.0
1208483.2158152,316604.4375,330909.1875,368791.5625,367921.4375,344033.96875,324212.78125,310443.03125,335978.21875,-0.044921875,0.95361328125,-0.2021484375,-0.4577636420726776,-1.3122557401657104,-0.0915527269244194,100.0,40575.0,1.0
1208483.2158628,310181.15625,325784.8125,363687.3125,361817.625,340445.15625,322101.875,307696.28125,331382.40625,-0.04443359375,0.954833984375,-0.1982421875,-0.3051757514476776,-1.2207030057907104,-0.2136230319738388,100.0,40576.0,1.0
1208483.2177608,308925.34375,324328.65625,362592.15625,360200.625,339473.21875,322049.9375,307369.40625,330169.53125,-0.045654296875,0.95751953125,-0.20068359375,-0.2441406100988388,-1.2512205839157104,-0.2136230319738388,100.0,40577.0,1.0
1208483.2216074,314707.21875,328730.53125,367173.1875,365456.5,342585.28125,324219.03125,310033.1875,334199.28125,-0.0458984375,0.957763671875,-0.1982421875,-0.2746581733226776,-1.2817381620407104,-0.3356933295726776,100.0,40578.0,1.0
1208483.2259465,319438.0,332777.15625,370977.90625,370200.78125,345389.375,325525.09375,311901.09375,337753.125,-0.048095703125,0.958251953125,-0.20166015625,-0.1831054538488388,-1.3732908964157104,-0.3356933295726776,100.0,40579.0,1.0
1208483.2259911,316648.78125,330961.03125,368836.78125,367969.90625,344080.8125,324220.375,310466.46875,336027.75,-0.047607421875,0.959716796875,-0.202880859375,-0.1831054538488388,-1.4038084745407104,-0.4882812201976776,100.0,40580.0,1.0
1208483.2390943,310212.53125,325824.78125,363724.40625,361860.8125,340488.0625,322107.34375,307713.71875,331424.34375,-0.046630859375,0.960205078125,-0.205810546875,-0.1220703050494194,-1.4343260526657104,-0.4577636420726776,100.0,40581.0,1.0
1208483.2422958,308903.90625,324324.1875,362584.46875,360189.4375,339485.1875,322037.34375,307359.3125,330170.34375,-0.04638671875,0.9599609375,-0.2060546875,-0.0915527269244194,-1.4038084745407104,-0.4882812201976776,100.0,40582.0,1.0
1208483.2423415,314658.5625,328698.34375,367141.28125,365416.96875,342579.65625,324198.84375,310012.53125,334177.0,-0.049560546875,0.96337890625,-0.203369140625,-0.0915527269244194,-1.3732908964157104,-0.5798339247703552,100.0,40583.0,1.0
1208483.2440589,319435.40625,332779.84375,370982.46875,370205.15625,345407.875,325525.46875,311905.46875,337763.75,-0.048095703125,0.963134765625,-0.200927734375,-0.2441406100988388,-1.4343260526657104,-0.5187987685203552,100.0,40584.0,1.0
1208483.2466083,316694.1875,331000.375,368877.21875,368017.75,344123.625,324228.4375,310484.25,336069.03125,-0.04931640625,0.963623046875,-0.203369140625,-0.2441406100988388,-1.4038084745407104,-0.3356933295726776,100.0,40585.0,1.0
1208483.2602981,310244.28125,325855.8125,363754.28125,361897.8125,340523.375,322101.78125,307718.09375,331455.90625,-0.046630859375,0.964599609375,-0.203857421875,-0.2746581733226776,-1.3427733182907104,-0.4577636420726776,100.0,40586.0,1.0
1208483.2635449,308875.5625,324306.21875,362572.65625,360176.21875,339488.6875,322012.03125,307340.0,330164.6875,-0.04833984375,0.96484375,-0.201904296875,-0.4272460639476776,-1.3427733182907104,-0.3051757514476776,100.0,40587.0,1.0
1208483.26359,314608.34375,328659.875,367109.375,365376.28125,342569.1875,324173.28125,309984.5625,334150.375,-0.048583984375,0.963623046875,-0.19970703125,-0.5493163466453552,-1.2207030057907104,-0.3051757514476776,100.0,40588.0,1.0
1208483.2653378,319423.875,332770.375,370978.71875,370195.96875,345417.09375,325516.78125,311896.625,337764.28125,-0.0478515625,0.96533203125,-0.201416015625,-0.5798339247703552,-1.2512205839157104,-0.2746581733226776,100.0,40589.0,1.0
1208483.2678602,316733.53125,331040.09375,368919.40625,368060.5625,344166.90625,324243.53125,310505.96875,336115.1875,-0.04833984375,0.96728515625,-0.203369140625,-0.5798339247703552,-1.1596678495407104,-0.1525878757238388,100.0,40590.0,1.0
1208483.2815973,310275.125,325894.09375,363788.59375,361935.125,340566.03125,322115.375,307737.84375,331500.875,-0.048095703125,0.96533203125,-0.20654296875,-0.6103515028953552,-1.1596678495407104,0.03051757626235485,100.0,40591.0,1.0
1208483.2847941,308846.40625,324297.28125,362557.75,360157.0625,339497.8125,322001.5625,307332.75,330166.21875,-0.048095703125,0.966064453125,-0.204833984375,-0.7629393935203552,-1.0681151151657104,0.1525878757238388,100.0,40592.0,1.0
1208483.2848398,314548.78125,328623.0625,367069.84375,365325.0625,342555.25,324148.21875,309959.625,334126.40625,-0.04736328125,0.9658203125,-0.20458984375,-0.8850097060203552,-1.0375975370407104,0.3356933295726776,100.0,40593.0,1.0
1208483.2871814,319404.5625,332762.78125,370969.0625,370177.8125,345423.59375,325502.46875,311884.46875,337760.4375,-0.045654296875,0.966796875,-0.204833984375,-0.9460448622703552,-0.8850097060203552,0.4882812201976776,100.0,40594.0,1.0
1208483.2872253,316773.59375,331079.96875,368954.71875,368097.3125,344210.4375,324250.25,310517.25,336150.6875,-0.046142578125,0.9677734375,-0.203125,-1.0375975370407104,-0.8850097060203552,0.5798339247703552,100.0,40595.0,1.0
1208483.3052826,310308.65625,325933.0625,363818.8125,361968.5625,340606.4375,322114.65625,307742.5,331534.78125,-0.04541015625,0.966064453125,-0.201416015625,-1.0986326932907104,-0.7324218153953552,0.6103515028953552,100.0,40596.0,1.0
1208483.3103254,308824.5,324293.4375,362542.4375,360137.3125,339505.5,321984.59375,307314.40625,330158.53125,-0.04638671875,0.96630859375,-0.203125,-1.1596678495407104,-0.5798339247703552,0.6713866591453552,100.0,40597.0,1.0
1208483.3103695,314505.96875,328602.40625,367043.1875,365289.03125,342556.9375,324138.3125,309947.71875,334109.5,-0.046875,0.96435546875,-0.202392578125,-1.0986326932907104,-0.5493163466453552,0.8239745497703552,100.0,40598.0,1.0
1208483.3103815,319407.4375,332778.0625,370981.21875,370184.875,345453.125,325516.875,311898.84375,337781.0,-0.046630859375,0.96240234375,-0.201904296875,-1.1901854276657104,-0.4272460639476776,0.8544921278953552,100.0,40599.0,1.0
1208483.3147934,316813.5625,331119.75,368993.6875,368142.46875,344253.09375,324266.53125,310540.03125,336193.15625,-0.046875,0.961181640625,-0.201904296875,-1.2512205839157104,-0.3967284858226776,0.8544921278953552,100.0,40600.0,1.0
1208483.3148392,310337.09375,325966.9375,363849.59375,362008.6875,340644.90625,322122.71875,307758.6875,331569.625,-0.0439453125,0.960205078125,-0.200439453125,-1.2512205839157104,-0.3051757514476776,0.9765624403953552,100.0,40601.0,1.0
1208483.3165553,308800.4375,324286.53125,362529.40625,360128.28125,339518.0,321974.75,307307.09375,330156.90625,-0.04541015625,0.960693359375,-0.2001953125,-1.1901854276657104,-0.2441406100988388,0.9765624403953552,100.0,40602.0,1.0
1208483.3253419,314445.34375,328561.1875,367000.90625,365241.90625,342543.0,324114.96875,309922.25,334081.34375,-0.04638671875,0.957763671875,-0.201416015625,-1.1901854276657104,-0.1525878757238388,1.0070799589157104,100.0,40603.0,1.0
1208483.332241,319379.25,332757.6875,370967.8125,370169.75,345456.59375,325508.8125,311897.5,337782.625,-0.045654296875,0.9560546875,-0.203125,-1.2207030057907104,-0.1831054538488388,0.9155272841453552,100.0,40604.0,1.0
1208483.3322884,316838.75,331143.4375,369024.09375,368180.0,344288.40625,324280.1875,310566.15625,336239.90625,-0.044921875,0.954833984375,-0.203369140625,-1.0986326932907104,-0.1831054538488388,0.8239745497703552,100.0,40605.0,1.0
1208483.3409901,310364.8125,325996.53125,363882.3125,362049.0,340683.34375,322139.96875,307783.4375,331619.53125,-0.044677734375,0.952392578125,-0.203125,-1.0986326932907104,-0.1525878757238388,0.6713866591453552,100.0,40606.0,1.0
1208483.3410318,308778.0,324280.28125,362519.46875,360114.4375,339528.03125,321975.8125,307305.46875,330162.375,-0.04541015625,0.9541015625,-0.201416015625,-0.9460448622703552,-0.0610351525247097,0.6103515028953552,100.0,40607.0,1.0
1208483.3471927,314396.875,328530.875,366966.5625,365196.78125,342534.96875,324109.59375,309911.0625,334058.8125,-0.044921875,0.95654296875,-0.200927734375,-0.8239745497703552,-0.03051757626235485,0.5493163466453552,100.0,40608.0,1.0
1208483.3472369,319377.75,332764.125,370971.28125,370165.375,345473.0625,325523.84375,311909.125,337786.8125,-0.04345703125,0.95703125,-0.20361328125,-0.9155272841453552,0.1220703050494194,0.5187987685203552,100.0,40609.0,1.0
1208483.3552829,316892.78125,331192.96875,369065.84375,368222.375,344333.1875,324300.84375,310591.71875,336273.25,-0.04443359375,0.9580078125,-0.20263671875,-0.7934569716453552,0.1831054538488388,0.5187987685203552,100.0,40610.0,1.0
1208483.3596461,310404.78125,326037.9375,363910.125,362079.875,340719.28125,322139.34375,307795.4375,331639.65625,-0.041259765625,0.95849609375,-0.201904296875,-0.7324218153953552,0.2136230319738388,0.4577636420726776,100.0,40611.0,1.0
1208483.3596901,308751.71875,324262.5,362495.15625,360089.5625,339525.15625,321947.75,307290.71875,330139.21875,-0.044189453125,0.956298828125,-0.2021484375,-0.7019042372703552,0.2136230319738388,0.4272460639476776,100.0,40612.0,1.0
1208483.3659804,314346.0,328485.71875,366921.4375,365142.5,342517.15625,324079.03125,309887.5625,334017.96875,-0.046142578125,0.9560546875,-0.200439453125,-0.6408690810203552,0.3051757514476776,0.4272460639476776,100.0,40613.0,1.0
1208483.3660225,319362.28125,332742.46875,370954.21875,370140.0625,345471.34375,325506.59375,311894.375,337768.75,-0.046142578125,0.95751953125,-0.199462890625,-0.6713866591453552,0.3662109076976776,0.3967284858226776,100.0,40614.0,1.0
1208483.3771868,316927.28125,331213.4375,369089.09375,368247.78125,344358.3125,324302.71875,310597.09375,336293.28125,-0.04638671875,0.95947265625,-0.19970703125,-0.7324218153953552,0.3662109076976776,0.3662109076976776,100.0,40615.0,1.0
1208483.3772308,310435.09375,326056.96875,363932.09375,362107.03125,340744.65625,322145.34375,307801.6875,331661.46875,-0.047607421875,0.961181640625,-0.201416015625,-0.7629393935203552,0.3356933295726776,0.3356933295726776,100.0,40616.0,1.0
1208483.3834474,308726.34375,324240.5,362473.875,360062.3125,339514.625,321935.6875,307269.8125,330118.28125,-0.048583984375,0.96240234375,-0.2001953125,-0.7019042372703552,0.2441406100988388,0.2746581733226776,100.0,40617.0,1.0
1208483.3834921,314290.03125,328441.375,366879.40625,365089.375,342491.875,324059.4375,309859.65625,333973.875,-0.0458984375,0.96240234375,-0.200927734375,-0.7629393935203552,0.2441406100988388,0.2441406100988388,100.0,40618.0,1.0
1208483.3896898,319347.6875,332729.6875,370942.0625,370123.90625,345470.46875,325501.21875,311890.0,337752.21875,-0.048095703125,0.962890625,-0.197509765625,-0.7324218153953552,0.3051757514476776,0.2746581733226776,100.0,40619.0,1.0
1208483.3897344,316964.5625,331244.65625,369123.34375,368285.15625,344392.65625,324321.0625,310620.34375,336321.625,-0.047607421875,0.962646484375,-0.197265625,-0.7019042372703552,0.3356933295726776,0.3662109076976776,100.0,40620.0,1.0
1208483.3959847,310458.5,326080.125,363956.78125,362137.15625,340774.625,322152.75,307814.75,331687.5625,-0.0478515625,0.96533203125,-0.19775390625,-0.6713866591453552,0.2441406100988388,0.3662109076976776,100.0,40621.0,1.0
1208483.3960323,308694.40625,324221.53125,362451.875,360041.28125,339517.28125,321917.4375,307257.03125,330107.375,-0.0478515625,0.966796875,-0.19921875,-0.7019042372703552,0.1831054538488388,0.4577636420726776,100.0,40622.0,1.0
1208483.3976635,314231.03125,328398.625,366838.46875,365039.6875,342476.9375,324035.03125,309835.78125,333944.375,-0.049072265625,0.96533203125,-0.19873046875,-0.8239745497703552,0.03051757626235485,0.4272460639476776,100.0,40623.0,1.0
1208483.4040945,319326.59375,332714.125,370935.625,370110.3125,345474.375,325497.5625,311882.75,337751.3125,-0.048828125,0.964599609375,-0.197998046875,-0.8850097060203552,0.0,0.5187987685203552,100.0,40624.0,1.0
1208483.4078404,317005.25,331277.0,369159.28125,368323.25,344427.0625,324335.4375,310636.6875,336358.0,-0.05029296875,0.962890625,-0.199951171875,-0.8850097060203552,0.0,0.6103515028953552,100.0,40625.0,1.0
1208483.4172377,310503.84375,326118.84375,363992.375,362178.5625,340812.0,322168.59375,307833.25,331722.15625,-0.048095703125,0.96337890625,-0.19677734375,-0.9460448622703552,-0.1525878757238388,0.6103515028953552,100.0,40626.0,1.0
1208483.4172824,308685.90625,324221.09375,362445.625,360029.65625,339524.71875,321918.4375,307250.125,330101.03125,-0.048583984375,0.9619140625,-0.20166015625,-0.9460448622703552,-0.2136230319738388,0.6713866591453552,100.0,40627.0,1.0
1208483.4190709,314181.40625,328361.34375,366799.125,364989.625,342460.75,324027.25,309813.78125,333910.59375,-0.048583984375,0.961181640625,-0.199951171875,-0.8850097060203552,-0.2441406100988388,0.6713866591453552,100.0,40628.0,1.0
1208483.4277616,319317.125,332708.5,370927.9375,370093.9375,345480.75,325505.4375,311886.5,337749.0,-0.04833984375,0.960205078125,-0.19873046875,-0.9765624403953552,-0.2441406100988388,0.7629393935203552,100.0,40629.0,1.0
1208483.4308354,317044.5,331310.34375,369191.03125,368356.84375,344459.71875,324352.0,310657.78125,336389.84375,-0.04833984375,0.960693359375,-0.20263671875,-0.9155272841453552,-0.3967284858226776,0.8239745497703552,100.0,40630.0,1.0
1208483.4309047,310531.5625,326141.84375,364015.875,362205.46875,340836.65625,322171.8125,307841.5625,331747.03125,-0.04833984375,0.960205078125,-0.200927734375,-0.8544921278953552,-0.5187987685203552,0.7934569716453552,100.0,40631.0,1.0
1208483.4366669,308661.59375,324198.5625,362425.875,360004.53125,339520.59375,321903.59375,307238.78125,330088.53125,-0.048828125,0.962646484375,-0.199462890625,-0.8850097060203552,-0.5187987685203552,0.8239745497703552,100.0,40632.0,1.0
1208483.4534413,314132.0625,328319.25,366752.96875,364931.5,342437.0625,324006.6875,309793.5,333873.125,-0.04736328125,0.964111328125,-0.201904296875,-0.8850097060203552,-0.5187987685203552,0.8239745497703552,100.0,40633.0,1.0
1208483.4534934,319301.46875,332690.8125,370909.78125,370069.8125,345477.59375,325499.09375,311884.1875,337739.25,-0.046875,0.96435546875,-0.20166015625,-0.9460448622703552,-0.6713866591453552,0.8544921278953552,100.0,40634.0,1.0
1208483.4553454,317082.5625,331335.65625,369218.03125,368384.46875,344488.78125,324361.28125,310678.0,336420.78125,-0.04638671875,0.962158203125,-0.201904296875,-0.9155272841453552,-0.7019042372703552,0.8850097060203552,100.0,40635.0,1.0
1208483.4584379,310571.4375,326176.25,364044.40625,362234.0,340869.75,322178.25,307860.34375,331778.9375,-0.04638671875,0.960693359375,-0.202392578125,-0.8239745497703552,-0.7629393935203552,0.8850097060203552,100.0,40636.0,1.0
1208483.4584824,308637.65625,324185.5,362407.09375,359981.03125,339518.46875,321888.125,307228.3125,330076.90625,-0.0439453125,0.9609375,-0.201171875,-0.8850097060203552,-0.8239745497703552,0.9460448622703552,100.0,40637.0,1.0
1208483.4617055,314072.34375,328274.09375,366708.8125,364877.40625,342413.0,323979.34375,309769.53125,333837.28125,-0.04443359375,0.963134765625,-0.200927734375,-0.8850097060203552,-0.7934569716453552,0.8850097060203552,100.0,40638.0,1.0
1208483.4653835,319280.28125,332673.375,370892.0,370048.0,345470.1875,325484.59375,311876.84375,337724.9375,-0.045166015625,0.9619140625,-0.200439453125,-0.7934569716453552,-0.8239745497703552,0.8544921278953552,100.0,40639.0,1.0
1208483.4746905,317116.46875,331360.96875,369244.125,368420.78125,344517.90625,324370.59375,310700.0,336449.90625,-0.0458984375,0.962158203125,-0.201171875,-0.7629393935203552,-0.8850097060203552,0.8850097060203552,100.0,40640.0,1.0
1208483.4747341,310606.84375,326207.1875,364075.6875,362280.125,340905.0625,322191.46875,307886.53125,331815.15625,-0.046142578125,0.964599609375,-0.19970703125,-0.8239745497703552,-0.8850097060203552,0.8850097060203552,100.0,40641.0,1.0
1208483.4765729,308617.34375,324172.8125,362392.6875,359972.0,339521.5,321881.40625,307228.59375,330072.59375,-0.044189453125,0.9638671875,-0.20068359375,-0.8544921278953552,-0.9460448622703552,0.9460448622703552,100.0,40642.0,1.0
1208483.4829179,314018.96875,328228.84375,366665.625,364830.90625,342393.15625,323963.34375,309754.78125,333804.8125,-0.04541015625,0.962646484375,-0.19921875,-1.0375975370407104,-0.9765624403953552,0.9460448622703552,100.0,40643.0,1.0
1208483.4872802,319270.46875,332660.03125,370886.71875,370041.28125,345471.25,325489.96875,311883.375,337721.5625,-0.046142578125,0.964111328125,-0.20166015625,-1.1901854276657104,-1.0070799589157104,0.8544921278953552,100.0,40644.0,1.0
1208483.4873251,317165.0,331394.40625,369286.0625,368470.40625,344547.96875,324397.3125,310728.59375,336485.3125,-0.04443359375,0.964111328125,-0.20166015625,-1.1901854276657104,-0.9765624403953552,0.9460448622703552,100.0,40645.0,1.0
1208483.4953176,310649.65625,326238.5625,364108.59375,362327.53125,340932.78125,322213.71875,307906.90625,331845.28125,-0.044677734375,0.963623046875,-0.203125,-1.1901854276657104,-1.0070799589157104,0.8544921278953552,100.0,40646.0,1.0
1208483.4984693,308604.65625,324160.9375,362376.96875,359967.09375,339521.40625,321880.6875,307221.6875,330062.6875,-0.04443359375,0.962646484375,-0.199951171875,-1.2207030057907104,-1.1291502714157104,0.7629393935203552,100.0,40647.0,1.0
1208483.4985124,313975.15625,328187.46875,366624.6875,364790.40625,342377.40625,323951.53125,309733.78125,333770.9375,-0.046630859375,0.9619140625,-0.19873046875,-1.1901854276657104,-1.1291502714157104,0.8544921278953552,100.0,40648.0,1.0
1208483.5242007,319261.25,332643.5,370873.03125,370026.25,345478.15625,325490.21875,311879.28125,337714.03125,-0.0458984375,0.96240234375,-0.1962890625,-1.2817381620407104,-1.1596678495407104,0.7629393935203552,100.0,40649.0,1.0
1208483.5266208,317204.625,331419.15625,369305.90625,368495.15625,344580.6875,324401.875,310736.90625,336510.09375,-0.045654296875,0.96044921875,-0.19873046875,-1.2207030057907104,-1.1596678495407104,0.6408690810203552,100.0,40650.0,1.0
1208483.5290649,310681.3125,326258.5,364126.75,362350.9375,340962.09375,322210.25,307911.75,331871.28125,-0.043701171875,0.9609375,-0.195068359375,-1.2207030057907104,-1.1291502714157104,0.7019042372703552,100.0,40651.0,1.0
1208483.5315923,308583.46875,324142.78125,362356.65625,359942.125,339521.75,321869.78125,307209.90625,330050.78125,-0.04345703125,0.961181640625,-0.198974609375,-1.2207030057907104,-1.1901854276657104,0.7324218153953552,100.0,40652.0,1.0
1208483.534172,313927.3125,328149.46875,366583.1875,364738.5625,342364.90625,323942.3125,309719.5625,333738.90625,-0.043212890625,0.9619140625,-0.19580078125,-1.1596678495407104,-1.2207030057907104,0.6713866591453552,100.0,40653.0,1.0
1208483.5366094,319252.3125,332635.625,370863.90625,370012.75,345487.8125,325499.15625,311887.59375,337710.90625,-0.04443359375,0.960693359375,-0.1923828125,-1.1596678495407104,-1.3427733182907104,0.7324218153953552,100.0,40654.0,1.0
1208483.5391111,317251.28125,331458.6875,369346.3125,368537.90625,344624.03125,324433.875,310774.28125,336551.125,-0.04638671875,0.959228515625,-0.194580078125,-1.1901854276657104,-1.4038084745407104,0.7019042372703552,100.0,40655.0,1.0
1208483.5415728,310727.09375,326302.6875,364168.0625,362394.65625,341007.53125,322236.875,307945.53125,331916.1875,-0.04541015625,0.95849609375,-0.196533203125,-1.2512205839157104,-1.4953612089157104,0.6408690810203552,100.0,40656.0,1.0
1208483.5441789,308567.90625,324133.3125,362350.40625,359929.71875,339533.375,321868.53125,307213.75,330056.96875,-0.047119140625,0.9580078125,-0.19775390625,-1.0986326932907104,-1.4648436307907104,0.6408690810203552,100.0,40657.0,1.0
1208483.5465928,313868.5625,328097.96875,366544.65625,364684.90625,342346.84375,323928.46875,309702.375,333713.4375,-0.047119140625,0.9580078125,-0.197021484375,-1.0070799589157104,-1.5563963651657104,0.6103515028953552,100.0,40658.0,1.0
1208483.5496587,319224.5,332607.46875,370849.6875,369981.5625,345481.46875,325500.59375,311883.21875,337703.59375,-0.047119140625,0.95751953125,-0.197265625,-0.8544921278953552,-1.6174315214157104,0.4882812201976776,100.0,40659.0,1.0
1208483.5497018,317267.84375,331463.59375,369361.6875,368546.75,344641.03125,324442.46875,310784.125,336570.875,-0.046142578125,0.955810546875,-0.19580078125,-0.7934569716453552,-1.6784666776657104,0.4577636420726776,100.0,40660.0,1.0
1208483.5515315,310739.6875,326307.15625,364178.875,362405.21875,341023.8125,322233.40625,307950.0,331930.21875,-0.0458984375,0.958984375,-0.19775390625,-0.7324218153953552,-1.8615721464157104,0.4272460639476776,100.0,40661.0,1.0
1208483.5660015,308526.59375,324096.46875,362319.375,359891.1875,339521.59375,321842.15625,307192.65625,330032.09375,-0.0458984375,0.962158203125,-0.196533203125,-0.6713866591453552,-1.8920897245407104,0.3967284858226776,100.0,40662.0,1.0
1208483.5660437,313800.96875,328039.03125,366492.53125,364612.75,342321.09375,323895.125,309673.25,333667.21875,-0.044921875,0.962158203125,-0.1962890625,-0.5493163466453552,-1.9836424589157104,0.3356933295726776,100.0,40663.0,1.0
1208483.5678627,319197.9375,332580.03125,370834.59375,369945.78125,345481.625,325486.46875,311878.375,337687.9375,-0.044677734375,0.9619140625,-0.197021484375,-0.5493163466453552,-2.105712652206421,0.3356933295726776,100.0,40664.0,1.0
1208483.5703212,317305.03125,331490.875,369397.5625,368572.875,344679.375,324454.09375,310807.5625,336601.71875,-0.0458984375,0.961669921875,-0.195556640625,-0.6103515028953552,-2.136230230331421,0.3967284858226776,100.0,40665.0,1.0
1208483.57285,310776.0625,326338.53125,364210.34375,362427.65625,341064.5625,322242.78125,307965.375,331960.34375,-0.044189453125,0.962158203125,-0.19677734375,-0.5187987685203552,-2.014159917831421,0.3967284858226776,100.0,40666.0,1.0
1208483.5922365,308504.96875,324081.09375,362300.53125,359855.5,339530.25,321831.0625,307179.0625,330018.4375,-0.0439453125,0.962890625,-0.195556640625,-0.4577636420726776,-2.105712652206421,0.4577636420726776,100.0,40667.0,1.0
1208483.5922771,313748.84375,327997.1875,366448.28125,364547.40625,342316.4375,323883.40625,309651.53125,333632.4375,-0.044677734375,0.9609375,-0.194091796875,-0.5187987685203552,-2.166747808456421,0.3967284858226776,100.0,40668.0,1.0
1208483.5953185,319183.0,332566.15625,370816.0,369912.1875,345498.8125,325490.40625,311874.25,337677.46875,-0.044189453125,0.9609375,-0.19580078125,-0.6408690810203552,-2.075195074081421,0.4272460639476776,100.0,40669.0,1.0
1208483.5953626,317337.65625,331514.03125,369417.03125,368585.46875,344719.71875,324465.1875,310818.90625,336623.0,-0.041748046875,0.95947265625,-0.19775390625,-0.5187987685203552,-2.014159917831421,0.4577636420726776,100.0,40670.0,1.0
1208483.5953748,310812.8125,326366.15625,364234.21875,362452.40625,341106.0625,322250.3125,307979.4375,331990.03125,-0.040283203125,0.9599609375,-0.200927734375,-0.4882812201976776,-2.075195074081421,0.5798339247703552,100.0,40671.0,1.0
1208483.597864,308489.40625,324067.125,362282.28125,359837.4375,339540.28125,321822.125,307170.75,330012.0,-0.04150390625,0.96240234375,-0.202392578125,-0.3662109076976776,-2.044677495956421,0.6408690810203552,100.0,40672.0,1.0
1208483.6001607,313705.40625,327961.09375,366407.34375,364500.09375,342304.5625,323868.375,309634.625,333602.125,-0.043212890625,0.96484375,-0.19970703125,-0.3356933295726776,-1.9226073026657104,0.5798339247703552,100.0,40673.0,1.0
1208483.6029811,319170.9375,332553.5625,370800.53125,369892.78125,345497.71875,325488.09375,311871.5,337669.59375,-0.044677734375,0.965576171875,-0.197509765625,-0.3051757514476776,-1.8310545682907104,0.5798339247703552,100.0,40674.0,1.0
1208483.6090463,317374.5,331536.28125,369441.375,368619.4375,344746.78125,324479.5,310834.71875,336653.59375,-0.04638671875,0.96484375,-0.196044921875,-0.3967284858226776,-2.014159917831421,0.5493163466453552,100.0,40675.0,1.0
1208483.6178649,310842.59375,326384.5625,364250.84375,362479.5,341127.78125,322254.3125,307984.0625,332010.25,-0.046875,0.96435546875,-0.19775390625,-0.4272460639476776,-1.9836424589157104,0.4272460639476776,100.0,40676.0,1.0
1208483.6243243,308465.09375,324044.96875,362257.5,359811.15625,339529.71875,321804.25,307148.84375,329989.46875,-0.046142578125,0.966796875,-0.194580078125,-0.5493163466453552,-1.9226073026657104,0.2746581733226776,100.0,40677.0,1.0
1208483.6243699,313652.5625,327918.34375,366360.9375,364444.125,342277.65625,323851.84375,309607.09375,333559.84375,-0.042236328125,0.964599609375,-0.197021484375,-0.5493163466453552,-1.8615721464157104,0.2441406100988388,100.0,40678.0,1.0
1208483.630414,319154.40625,332540.6875,370783.625,369868.1875,345491.375,325488.34375,311868.0,337654.5,-0.041015625,0.96337890625,-0.20068359375,-0.6408690810203552,-1.8920897245407104,0.1525878757238388,100.0,40679.0,1.0
1208483.6333851,317423.75,331581.53125,369476.0625,368653.15625,344777.1875,324499.59375,310858.34375,336682.09375,-0.041259765625,0.966064453125,-0.199951171875,-0.6408690810203552,-1.8310545682907104,0.1831054538488388,100.0,40680.0,1.0
1208483.633422,310895.96875,326435.8125,364296.4375,362530.375,341167.21875,322279.625,308011.34375,332052.0,-0.041015625,0.963623046875,-0.19580078125,-0.7019042372703552,-1.8920897245407104,0.3051757514476776,100.0,40681.0,1.0
1208483.6365966,308459.53125,324047.28125,362260.90625,359814.8125,339539.28125,321812.21875,307155.375,329996.0,-0.041748046875,0.96435546875,-0.1982421875,-0.6713866591453552,-1.8310545682907104,0.3051757514476776,100.0,40682.0,1.0
1208483.6508282,313598.375,327871.75,366320.4375,364396.40625,342252.15625,323834.78125,309587.40625,333523.4375,-0.041748046875,0.9609375,-0.19775390625,-0.6713866591453552,-1.6784666776657104,0.3662109076976776,100.0,40683.0,1.0
1208483.6508823,319139.5625,332519.3125,370772.375,369850.40625,345481.90625,325487.71875,311865.21875,337640.46875,-0.04345703125,0.957275390625,-0.198974609375,-0.7324218153953552,-1.5869139432907104,0.4882812201976776,100.0,40684.0,1.0
1208483.6529678,317460.6875,331599.84375,369510.03125,368689.0,344798.125,324520.78125,310884.71875,336711.0,-0.04541015625,0.956787109375,-0.20068359375,-0.6103515028953552,-1.5258787870407104,0.4882812201976776,100.0,40685.0,1.0
1208483.6559297,310935.84375,326464.21875,364329.25,362569.8125,341190.28125,322297.96875,308035.75,332082.84375,-0.042236328125,0.956787109375,-0.201904296875,-0.4272460639476776,-1.5563963651657104,0.5187987685203552,100.0,40686.0,1.0
1208483.6559745,308452.5625,324041.125,362249.03125,359804.1875,339532.5,321807.75,307154.125,329989.375,-0.04345703125,0.954345703125,-0.202392578125,-0.3662109076976776,-1.5258787870407104,0.4882812201976776,100.0,40687.0,1.0
1208483.6578591,313551.28125,327826.78125,366276.4375,364345.78125,342217.5625,323812.5,309565.96875,333485.1875,-0.043212890625,0.956298828125,-0.199951171875,-0.1220703050494194,-1.4343260526657104,0.3967284858226776,100.0,40688.0,1.0
1208483.671619,319124.09375,332495.53125,370755.375,369830.90625,345466.15625,325480.40625,311860.125,337626.5,-0.04150390625,0.955810546875,-0.1982421875,0.0,-1.4953612089157104,0.3662109076976776,100.0,40689.0,1.0
1208483.6742413,317498.0625,331613.96875,369530.3125,368719.84375,344809.03125,324526.34375,310899.1875,336731.71875,-0.044189453125,0.958251953125,-0.197998046875,0.03051757626235485,-1.4343260526657104,0.4882812201976776,100.0,40690.0,1.0
1208483.6765687,310971.15625,326474.34375,364346.3125,362600.9375,341201.53125,322295.0,308047.375,332102.5,-0.044921875,0.961181640625,-0.197998046875,0.03051757626235485,-1.4343260526657104,0.4272460639476776,100.0,40691.0,1.0
1208483.6796746,308432.90625,324012.0625,362224.25,359785.59375,339515.78125,321790.03125,307141.59375,329967.71875,-0.0458984375,0.96142578125,-0.19970703125,0.0,-1.3122557401657104,0.5493163466453552,100.0,40692.0,1.0
1208483.679719,313504.34375,327779.5,366232.1875,364298.5,342190.46875,323801.5,309550.125,333445.40625,-0.046142578125,0.96337890625,-0.199462890625,-0.0610351525247097,-1.3122557401657104,0.6103515028953552,100.0,40693.0,1.0
1208483.6878758,319111.75,332478.90625,370739.71875,369812.40625,345461.0625,325486.375,311863.90625,337612.75,-0.048095703125,0.96630859375,-0.199951171875,-0.0610351525247097,-1.3732908964157104,0.5493163466453552,100.0,40694.0,1.0
1208483.6910506,317548.03125,331653.59375,369567.6875,368759.1875,344846.5625,324555.125,310929.21875,336767.40625,-0.050048828125,0.965576171875,-0.2001953125,-0.0610351525247097,-1.5258787870407104,0.5798339247703552,100.0,40695.0,1.0
1208483.6910962,311029.1875,326527.09375,364395.0625,362656.0,341251.34375,322326.28125,308078.03125,332149.09375,-0.05224609375,0.966064453125,-0.197998046875,-0.2136230319738388,-1.6784666776657104,0.4272460639476776,100.0,40696.0,1.0
1208483.6928185,308433.625,324019.5,362229.71875,359792.5625,339538.21875,321798.09375,307143.46875,329978.90625,-0.0517578125,0.967041015625,-0.196533203125,-0.3356933295726776,-1.8005369901657104,0.2746581733226776,100.0,40697.0,1.0
1208483.7065787,313469.28125,327761.78125,366209.46875,364266.75,342193.25,323797.125,309535.375,333430.5625,-0.051513671875,0.970703125,-0.197998046875,-0.5798339247703552,-1.8310545682907104,0.2136230319738388,100.0,40698.0,1.0
1208483.7095275,319103.71875,332486.0625,370743.84375,369810.0,345484.3125,325493.375,311866.65625,337625.8125,-0.05126953125,0.972900390625,-0.195556640625,-0.6408690810203552,-2.044677495956421,0.1220703050494194,100.0,40699.0,1.0
1208483.7095624,317591.5625,331708.03125,369612.5625,368806.3125,344898.4375,324574.4375,310953.1875,336820.96875,-0.051025390625,0.9736328125,-0.195068359375,-0.8544921278953552,-2.136230230331421,0.03051757626235485,100.0,40700.0,1.0
1208483.7127529,311079.34375,326596.1875,364444.3125,362709.71875,341304.53125,322343.03125,308102.375,332211.125,-0.052734375,0.97314453125,-0.19775390625,-1.2207030057907104,-2.197265386581421,-0.0915527269244194,100.0,40701.0,1.0
1208483.7190109,308429.59375,324053.46875,362236.59375,359796.3125,339561.8125,321793.0625,307144.53125,330004.375,-0.050048828125,0.972900390625,-0.200439453125,-1.2512205839157104,-2.258300542831421,0.0,100.0,40702.0,1.0
1208483.7214188,313424.5,327762.78125,366185.96875,364235.0,342194.3125,323781.9375,309521.96875,333431.625,-0.046875,0.97265625,-0.200927734375,-1.4648436307907104,-2.349853277206421,-0.03051757626235485,100.0,40703.0,1.0
1208483.7251673,319106.21875,332530.21875,370758.15625,369818.84375,345510.59375,325508.375,311879.625,337662.46875,-0.0458984375,0.96923828125,-0.201904296875,-1.6174315214157104,-2.410888433456421,0.0,100.0,40704.0,1.0
1208483.7297017,317663.53125,331823.1875,369680.25,368883.28125,344962.09375,324616.375,310997.4375,336913.5,-0.042236328125,0.967529296875,-0.201171875,-1.6784666776657104,-2.410888433456421,0.0610351525247097,100.0,40705.0,1.0
1208483.7297213,311157.125,326737.28125,364520.75,362809.96875,341381.25,322384.0625,308152.25,332329.59375,-0.04248046875,0.967041015625,-0.203369140625,-1.6784666776657104,-2.349853277206421,0.03051757626235485,100.0,40706.0,1.0
1208483.7402096,308456.5,324168.09375,362276.09375,359862.125,339619.3125,321824.53125,307178.96875,330106.59375,-0.0419921875,0.96630859375,-0.19970703125,-1.7089842557907104,-2.136230230331421,0.2136230319738388,100.0,40707.0,1.0
1208483.7433306,313419.40625,327859.15625,366189.1875,364259.78125,342230.0,323809.03125,309541.71875,333503.59375,-0.0400390625,0.96484375,-0.200439453125,-1.6784666776657104,-2.105712652206421,0.3967284858226776,100.0,40708.0,1.0
1208483.7433629,319121.59375,332644.5,370772.0,369853.71875,345546.1875,325537.0,311901.71875,337740.5,-0.040771484375,0.962646484375,-0.197998046875,-1.5869139432907104,-2.075195074081421,0.4882812201976776,100.0,40709.0,1.0
1208483.745262,317726.75,331975.375,369733.1875,368966.6875,345021.1875,324659.1875,311035.90625,337024.8125,-0.0400390625,0.959228515625,-0.2001953125,-1.5258787870407104,-1.9836424589157104,0.6713866591453552,100.0,40710.0,1.0
1208483.7539415,311219.34375,326885.6875,364570.03125,362890.4375,341436.40625,322426.53125,308184.4375,332433.125,-0.039794921875,0.9619140625,-0.195068359375,-1.4343260526657104,-1.8920897245407104,0.7934569716453552,100.0,40711.0,1.0
1208483.7582574,308447.5625,324252.84375,362261.90625,359867.9375,339625.90625,321839.46875,307170.84375,330145.03125,-0.04150390625,0.958984375,-0.196044921875,-1.3427733182907104,-1.8310545682907104,0.8239745497703552,100.0,40712.0,1.0
1208483.7582793,313361.625,327893.84375,366134.65625,364212.9375,342202.1875,323809.1875,309511.3125,333499.3125,-0.043212890625,0.95751953125,-0.196044921875,-1.1901854276657104,-1.6784666776657104,0.8544921278953552,100.0,40713.0,1.0
1208483.7602278,319114.96875,332714.5,370745.0,369837.4375,345540.09375,325558.28125,311890.71875,337758.65625,-0.045654296875,0.959716796875,-0.195068359375,-1.0986326932907104,-1.6479490995407104,0.9155272841453552,100.0,40714.0,1.0
1208483.7689346,317786.21875,332094.53125,369752.3125,369010.15625,345053.5625,324702.28125,311051.90625,337084.15625,-0.042724609375,0.957275390625,-0.195068359375,-1.0681151151657104,-1.5258787870407104,0.9155272841453552,100.0,40715.0,1.0
1208483.7732499,311287.40625,327016.21875,364598.09375,362948.4375,341481.46875,322469.0,308203.65625,332503.75,-0.045654296875,0.958740234375,-0.19482421875,-1.0070799589157104,-1.4953612089157104,0.9155272841453552,100.0,40716.0,1.0
1208483.7732736,308474.5625,324355.21875,362258.84375,359885.625,339651.21875,321863.4375,307172.71875,330187.40625,-0.048583984375,0.96044921875,-0.194091796875,-0.8239745497703552,-1.4953612089157104,0.9765624403953552,100.0,40717.0,1.0
1208483.7840528,313357.53125,327973.96875,366106.21875,364195.6875,342207.625,323820.71875,309498.28125,333517.0,-0.047607421875,0.960693359375,-0.1943359375,-0.9155272841453552,-1.4953612089157104,1.0986326932907104,100.0,40718.0,1.0
1208483.7871188,319137.40625,332811.84375,370746.71875,369849.78125,345566.125,325582.84375,311899.46875,337802.28125,-0.046630859375,0.960205078125,-0.19384765625,-0.8544921278953552,-1.5258787870407104,1.0070799589157104,100.0,40719.0,1.0
1208483.7871604,317865.5,332236.4375,369804.96875,369076.3125,345115.96875,324746.28125,311090.15625,337171.34375,-0.048583984375,0.962890625,-0.19677734375,-0.9155272841453552,-1.5563963651657104,0.8544921278953552,100.0,40720.0,1.0
1208483.7890911,311375.46875,327169.84375,364659.875,363028.28125,341552.8125,322508.15625,308243.34375,332598.90625,-0.048828125,0.9599609375,-0.195556640625,-0.8239745497703552,-1.6479490995407104,0.7629393935203552,100.0,40721.0,1.0
1208483.7978962,308503.96875,324462.0625,362277.4375,359915.6875,339692.53125,321876.59375,307184.25,330242.21875,-0.047607421875,0.96142578125,-0.193603515625,-0.7324218153953552,-1.7395018339157104,0.7324218153953552,100.0,40722.0,1.0
1208483.8002998,313341.0625,328036.375,366098.875,364190.3125,342227.65625,323823.9375,309500.0625,333546.5,-0.04638671875,0.963623046875,-0.194091796875,-0.8239745497703552,-1.7700194120407104,0.5493163466453552,100.0,40723.0,1.0
1208483.8040666,319149.5625,332894.8125,370765.3125,369872.9375,345601.625,325599.03125,311918.53125,337855.125,-0.044677734375,0.963134765625,-0.19287109375,-0.9460448622703552,-1.8615721464157104,0.4577636420726776,100.0,40724.0,1.0
1208483.8128317,317941.34375,332370.28125,369874.09375,369159.90625,345185.25,324773.375,311135.9375,337268.15625,-0.044677734375,0.96142578125,-0.1943359375,-0.8850097060203552,-1.8920897245407104,0.4272460639476776,100.0,40725.0,1.0
1208483.8170547,311450.03125,327293.125,364734.71875,363116.71875,341621.03125,322526.46875,308287.6875,332696.6875,-0.04443359375,0.95849609375,-0.1923828125,-0.8850097060203552,-1.9226073026657104,0.3356933295726776,100.0,40726.0,1.0
1208483.8171005,308518.375,324525.53125,362304.0,359947.0625,339723.65625,321873.0,307198.71875,330290.9375,-0.043701171875,0.96142578125,-0.193603515625,-0.9460448622703552,-2.044677495956421,0.2441406100988388,100.0,40727.0,1.0
1208483.8259254,313312.09375,328051.75,366080.71875,364167.0625,342224.625,323804.28125,309488.25,333545.625,-0.04345703125,0.960205078125,-0.192626953125,-0.9765624403953552,-1.9531248807907104,0.3662109076976776,100.0,40728.0,1.0
1208483.8259661,319147.875,332922.0,370764.75,369864.96875,345608.15625,325585.1875,311913.96875,337859.5,-0.043701171875,0.960205078125,-0.194091796875,-0.9460448622703552,-1.9226073026657104,0.2746581733226776,100.0,40729.0,1.0
1208483.8277693,317986.125,332426.78125,369912.09375,369200.9375,345220.21875,324775.4375,311147.75,337305.71875,-0.044189453125,0.9599609375,-0.19677734375,-0.7934569716453552,-1.9531248807907104,0.2441406100988388,100.0,40730.0,1.0
1208483.8315869,311498.5,327353.75,364775.84375,363165.71875,341660.5625,322527.5625,308298.4375,332737.28125,-0.04248046875,0.956787109375,-0.197265625,-0.6713866591453552,-1.8615721464157104,0.3051757514476776,100.0,40731.0,1.0
1208483.840977,308519.4375,324551.8125,362305.34375,359947.9375,339739.75,321856.09375,307191.84375,330296.46875,-0.042724609375,0.95703125,-0.197021484375,-0.7019042372703552,-1.8615721464157104,0.4577636420726776,100.0,40732.0,1.0
1208483.8410149,313269.375,328038.0625,366048.625,364123.625,342220.78125,323776.03125,309467.59375,333519.0625,-0.04052734375,0.95654296875,-0.196044921875,-0.4882812201976776,-1.7395018339157104,0.4272460639476776,100.0,40733.0,1.0
1208483.8428387,319136.0,332927.09375,370759.9375,369846.09375,345623.625,325575.625,311913.34375,337854.3125,-0.038330078125,0.95654296875,-0.198486328125,-0.6103515028953552,-1.4648436307907104,0.3356933295726776,100.0,40734.0,1.0
1208483.8465421,318040.84375,332484.90625,369961.0,369238.21875,345272.78125,324791.5,311174.125,337343.09375,-0.0439453125,0.95166015625,-0.195068359375,-0.6103515028953552,-1.3732908964157104,0.3356933295726776,100.0,40735.0,1.0
1208483.8609128,311565.71875,327428.125,364831.71875,363216.21875,341723.5,322541.78125,308321.40625,332782.09375,-0.045654296875,0.95458984375,-0.19482421875,0.0,-1.5869139432907104,0.3967284858226776,100.0,40736.0,1.0
1208483.8609501,308527.65625,324578.09375,362320.09375,359953.9375,339774.4375,321847.96875,307188.25,330306.9375,-0.044921875,0.956298828125,-0.19091796875,0.1525878757238388,-1.6784666776657104,0.3967284858226776,100.0,40737.0,1.0
1208483.8628999,313245.21875,328040.84375,366042.03125,364098.65625,342237.5,323761.375,309455.71875,333511.1875,-0.047119140625,0.959716796875,-0.1943359375,0.1525878757238388,-1.7700194120407104,0.4272460639476776,100.0,40738.0,1.0
1208483.8653602,319148.59375,332967.78125,370787.21875,369857.71875,345665.09375,325584.5625,311926.5625,337879.8125,-0.04833984375,0.9619140625,-0.19384765625,0.1525878757238388,-1.8615721464157104,0.3967284858226776,100.0,40739.0,1.0
1208483.8678361,318106.46875,332575.375,370035.46875,369307.25,345348.6875,324818.53125,311217.3125,337414.1875,-0.047607421875,0.9619140625,-0.19873046875,0.0610351525247097,-1.9226073026657104,0.3662109076976776,100.0,40740.0,1.0
1208483.8765922,311638.3125,327531.46875,364919.59375,363302.59375,341810.75,322571.90625,308373.71875,332866.5,-0.04931640625,0.9619140625,-0.198486328125,-0.03051757626235485,-1.9836424589157104,0.3356933295726776,100.0,40741.0,1.0
1208483.879754,308534.5625,324632.09375,362357.65625,359986.125,339827.4375,321852.625,307209.90625,330342.53125,-0.0478515625,0.96533203125,-0.19384765625,0.03051757626235485,-2.166747808456421,0.3051757514476776,100.0,40742.0,1.0
1208483.8797925,313198.5625,328044.0625,366030.5,364074.53125,342255.125,323747.96875,309451.25,333500.28125,-0.05029296875,0.96630859375,-0.193603515625,0.0,-2.258300542831421,0.1831054538488388,100.0,40743.0,1.0
1208483.8852502,319128.125,332981.09375,370789.1875,369849.3125,345687.96875,325581.59375,311931.75,337879.1875,-0.052001953125,0.968994140625,-0.19775390625,0.0,-2.380370855331421,0.2441406100988388,100.0,40744.0,1.0
1208483.8946909,318138.5625,332625.34375,370071.0625,369342.3125,345395.1875,324829.34375,311233.125,337440.71875,-0.052001953125,0.969970703125,-0.197998046875,-0.0610351525247097,-2.471923589706421,0.3051757514476776,100.0,40745.0,1.0
1208483.8947299,311669.53125,327578.96875,364952.6875,363344.0625,341856.90625,322575.84375,308383.8125,332892.9375,-0.05029296875,0.971923828125,-0.194580078125,-0.2136230319738388,-2.532958745956421,0.2441406100988388,100.0,40746.0,1.0
1208483.8971051,308522.3125,324644.875,362351.125,359983.4375,339846.75,321838.3125,307199.09375,330335.375,-0.049072265625,0.971923828125,-0.19482421875,-0.4577636420726776,-2.624511480331421,0.1831054538488388,100.0,40747.0,1.0
1208483.8971417,313146.0625,328025.09375,365990.0,364031.0,342249.75,323725.0625,309424.4375,333458.90625,-0.051025390625,0.970947265625,-0.196533203125,-0.6103515028953552,-2.624511480331421,0.1831054538488388,100.0,40748.0,1.0
1208483.9028761,319097.625,332979.75,370769.25,369820.8125,345695.40625,325571.40625,311916.1875,337848.59375,-0.050537109375,0.969482421875,-0.19677734375,-0.8544921278953552,-2.685546636581421,0.0915527269244194,100.0,40749.0,1.0
1208483.9053363,318164.5,332666.21875,370099.40625,369370.71875,345435.3125,324838.625,311247.78125,337456.09375,-0.048095703125,0.96826171875,-0.197265625,-0.9155272841453552,-2.807616949081421,0.1525878757238388,100.0,40750.0,1.0
1208483.9140882,311706.53125,327625.90625,364990.5,363385.65625,341902.84375,322586.75,308401.25,332921.5625,-0.04736328125,0.9697265625,-0.19873046875,-1.0681151151657104,-2.838134527206421,0.2441406100988388,100.0,40751.0,1.0
1208483.9184324,308512.90625,324658.9375,362352.46875,359982.5625,339865.8125,321837.875,307195.5,330334.84375,-0.044189453125,0.96728515625,-0.19775390625,-1.1901854276657104,-2.838134527206421,0.2136230319738388,100.0,40752.0,1.0
1208483.9184696,313100.9375,328007.03125,365968.53125,363999.4375,342252.625,323716.40625,309409.9375,333438.4375,-0.0419921875,0.9697265625,-0.200927734375,-1.1901854276657104,-2.746581792831421,0.1831054538488388,100.0,40753.0,1.0
1208483.9310191,319082.78125,332979.59375,370770.5625,369814.625,345714.0,325564.53125,311914.5,337852.90625,-0.041259765625,0.9697265625,-0.19873046875,-1.2817381620407104,-2.593993902206421,0.2746581733226776,100.0,40754.0,1.0
1208483.9310578,318204.1875,332707.875,370146.0625,369416.25,345486.8125,324844.4375,311268.53125,337499.8125,-0.040283203125,0.966796875,-0.19482421875,-1.3122557401657104,-2.471923589706421,0.4272460639476776,100.0,40755.0,1.0
1208483.9327079,311751.25,327672.65625,365043.34375,363441.625,341960.34375,322591.03125,308421.71875,332968.0625,-0.0390625,0.962646484375,-0.19482421875,-1.4953612089157104,-2.349853277206421,0.5187987685203552,100.0,40756.0,1.0
1208483.9353389,308501.84375,324656.15625,362359.96875,359985.6875,339891.09375,321820.25,307188.71875,330337.15625,-0.0390625,0.961669921875,-0.1953125,-1.5258787870407104,-2.319335699081421,0.6103515028953552,100.0,40757.0,1.0
1208483.9440928,313049.53125,327966.09375,365936.875,363949.4375,342244.21875,323685.0,309384.28125,333400.25,-0.039794921875,0.960693359375,-0.19482421875,-1.4953612089157104,-2.166747808456421,0.7324218153953552,100.0,40758.0,1.0
1208483.9472463,319060.96875,332955.53125,370764.40625,369790.75,345719.46875,325557.375,311912.09375,337835.8125,-0.043701171875,0.95703125,-0.193603515625,-1.4648436307907104,-2.075195074081421,0.7629393935203552,100.0,40759.0,1.0
1208483.9472841,318232.34375,332716.8125,370178.15625,369441.28125,345517.5625,324858.9375,311287.65625,337516.625,-0.048828125,0.95458984375,-0.194091796875,-1.1901854276657104,-1.9836424589157104,0.7324218153953552,100.0,40760.0,1.0
1208483.9528494,311783.5,327684.0,365070.0,363462.625,341987.6875,322597.1875,308433.15625,332978.25,-0.053466796875,0.95361328125,-0.193115234375,-1.0681151151657104,-1.9836424589157104,0.6408690810203552,100.0,40761.0,1.0
1208483.9590884,308477.34375,324620.75,362340.5625,359951.625,339883.25,321798.96875,307171.09375,330302.46875,-0.053955078125,0.955322265625,-0.193359375,-0.8850097060203552,-2.044677495956421,0.3967284858226776,100.0,40762.0,1.0
1208483.9634364,312983.28125,327890.8125,365890.375,363878.1875,342212.65625,323654.4375,309353.25,333338.375,-0.0537109375,0.9560546875,-0.192626953125,-0.7934569716453552,-2.105712652206421,0.2441406100988388,100.0,40763.0,1.0
1208483.9634738,319031.28125,332912.71875,370748.3125,369748.375,345707.5625,325545.5625,311899.46875,337796.375,-0.054443359375,0.95703125,-0.19384765625,-0.5187987685203552,-2.227782964706421,0.0610351525247097,100.0,40764.0,1.0
1208483.9691797,318267.5625,332729.6875,370209.5625,369454.5,345538.59375,324864.65625,311298.5625,337516.1875,-0.05322265625,0.958984375,-0.193115234375,-0.5187987685203552,-2.349853277206421,-0.0610351525247097,100.0,40765.0,1.0
1208483.9734237,311831.15625,327706.28125,365109.15625,363493.90625,342016.5,322602.375,308445.40625,332988.71875,-0.05322265625,0.9599609375,-0.193359375,-0.4577636420726776,-2.410888433456421,-0.1831054538488388,100.0,40766.0,1.0
1208483.9734626,308468.9375,324596.875,362337.53125,359938.90625,339887.875,321786.53125,307160.625,330277.78125,-0.05322265625,0.960693359375,-0.19384765625,-0.3967284858226776,-2.441406011581421,-0.3051757514476776,100.0,40767.0,1.0
1208483.9753422,312926.59375,327832.5,365845.59375,363818.46875,342191.8125,323627.625,309323.84375,333276.78125,-0.052001953125,0.9609375,-0.1953125,-0.2746581733226776,-2.532958745956421,-0.3662109076976776,100.0,40768.0,1.0
1208483.9840901,318998.65625,332880.875,370722.5625,369708.875,345701.5625,325534.5,311886.96875,337757.59375,-0.049072265625,0.959228515625,-0.1953125,-0.2746581733226776,-2.563476324081421,-0.3967284858226776,100.0,40769.0,1.0
1208483.9879355,318283.59375,332740.6875,370227.875,369468.625,345563.15625,324874.75,311312.0625,337521.90625,-0.049560546875,0.960205078125,-0.194091796875,-0.3356933295726776,-2.655029058456421,-0.3662109076976776,100.0,40770.0,1.0
1208483.9915839,311849.9375,327724.78125,365134.625,363517.96875,342043.75,322612.5,308461.34375,333002.03125,-0.048583984375,0.9609375,-0.1953125,-0.1831054538488388,-2.685546636581421,-0.3967284858226776,100.0,40771.0,1.0
1208484.0009429,308444.34375,324583.65625,362321.96875,359916.65625,339883.78125,321782.625,307153.125,330254.375,-0.04736328125,0.96240234375,-0.1923828125,-0.1831054538488388,-2.655029058456421,-0.4272460639476776,100.0,40772.0,1.0
1208484.0009804,312864.1875,327786.125,365798.65625,363754.8125,342161.59375,323616.875,309298.90625,333224.1875,-0.047119140625,0.965087890625,-0.196533203125,-0.1525878757238388,-2.563476324081421,-0.3662109076976776,100.0,40773.0,1.0
1208484.0028411,318969.96875,332856.90625,370701.8125,369671.6875,345686.8125,325534.3125,311876.6875,337723.96875,-0.0478515625,0.966064453125,-0.194580078125,-0.0915527269244194,-2.471923589706421,-0.4272460639476776,100.0,40774.0,1.0
1208484.0116241,318315.9375,332766.0,370249.15625,369483.84375,345578.375,324884.59375,311322.71875,337523.53125,-0.04833984375,0.965576171875,-0.1953125,-0.0610351525247097,-2.380370855331421,-0.2441406100988388,100.0,40775.0,1.0
1208484.0145395,311897.6875,327765.46875,365166.46875,363550.15625,342071.28125,322625.4375,308476.96875,333013.65625,-0.050048828125,0.965576171875,-0.19580078125,-0.0610351525247097,-2.410888433456421,-0.1220703050494194,100.0,40776.0,1.0
1208484.0145684,308423.96875,324563.71875,362298.625,359887.78125,339872.25,321764.65625,307133.8125,330216.28125,-0.04541015625,0.965576171875,-0.195068359375,-0.03051757626235485,-2.410888433456421,-0.0610351525247097,100.0,40777.0,1.0
1208484.0227777,312799.53125,327727.46875,365736.0625,363678.90625,342122.625,323583.90625,309262.15625,333149.28125,-0.048583984375,0.96728515625,-0.194091796875,-0.03051757626235485,-2.258300542831421,0.03051757626235485,100.0,40778.0,1.0
1208484.0321398,318934.28125,332825.1875,370661.9375,369623.46875,345663.84375,325519.5625,311857.71875,337672.5625,-0.049560546875,0.968505859375,-0.19677734375,-0.1220703050494194,-2.319335699081421,0.1831054538488388,100.0,40779.0,1.0
1208484.0321805,318337.40625,332779.125,370259.4375,369495.8125,345592.6875,324900.59375,311336.125,337521.5625,-0.049072265625,0.96826171875,-0.195068359375,-0.1525878757238388,-2.227782964706421,0.2441406100988388,100.0,40780.0,1.0
1208484.0340455,311917.625,327776.375,365172.71875,363566.875,342083.53125,322632.96875,308484.84375,333012.5,-0.04931640625,0.966552734375,-0.1923828125,-0.1831054538488388,-2.227782964706421,0.3967284858226776,100.0,40781.0,1.0
1208484.0364913,308401.53125,324547.0,362268.40625,359863.8125,339861.5,321753.5625,307120.03125,330184.1875,-0.052001953125,0.9677734375,-0.1953125,-0.2441406100988388,-2.258300542831421,0.5493163466453552,100.0,40782.0,1.0
1208484.0390148,312737.9375,327679.09375,365678.03125,363616.75,342092.03125,323562.0,309235.40625,333095.8125,-0.05224609375,0.968994140625,-0.1953125,-0.3662109076976776,-2.197265386581421,0.5798339247703552,100.0,40783.0,1.0
1208484.0478066,318899.3125,332794.34375,370630.28125,369581.09375,345648.09375,325511.875,311847.0,337642.875,-0.0517578125,0.966796875,-0.191650390625,-0.3662109076976776,-2.136230230331421,0.6408690810203552,100.0,40784.0,1.0
1208484.0508075,318363.78125,332798.4375,370276.15625,369510.03125,345612.53125,324912.46875,311346.03125,337532.90625,-0.051513671875,0.96435546875,-0.196044921875,-0.4882812201976776,-2.166747808456421,0.6408690810203552,100.0,40785.0,1.0
1208484.0508417,311961.0,327811.875,365206.78125,363602.09375,342116.09375,322649.40625,308500.65625,333038.40625,-0.05224609375,0.9658203125,-0.19384765625,-0.5798339247703552,-2.258300542831421,0.7934569716453552,100.0,40786.0,1.0
