Time,FZ,C3,CZ,C4,PZ,PO7,OZ,PO8,AccX,AccY,AccZ,Gyro1,Gyro2,Gyro3,Battery,Counter,Validation
1136431.6689529,288168.625,282424.0625,317442.71875,288685.65625,294458.125,274933.0,274698.40625,281563.15625,-0.105224609375,0.896484375,-0.36669921875,5.798339366912842,2.990722417831421,4.821776866912842,60.0,2900358.0,1.0
1136431.6720931,287924.71875,282398.5625,316989.40625,288047.46875,294096.3125,274873.09375,274554.1875,281164.3125,-0.111572265625,0.89892578125,-0.363525390625,5.554198741912842,3.509521245956421,5.096435070037842,60.0,2900359.0,1.0
1136431.6721337,288636.9375,282488.96875,317716.375,289308.375,294522.0625,274951.15625,274790.75,281558.5,-0.1201171875,0.89794921875,-0.364013671875,5.126952648162842,4.028319835662842,5.371093273162842,60.0,2900360.0,1.0
1136431.6739424,289279.6875,282539.375,318553.78125,290632.25,295090.6875,275028.3125,275035.375,282121.40625,-0.125,0.896240234375,-0.35986328125,4.730224132537842,4.272460460662842,5.462646007537842,60.0,2900361.0,1.0
1136431.6765486,288974.625,282487.25,318346.34375,290203.53125,295004.5,274994.59375,274945.78125,282059.1875,-0.1298828125,0.896240234375,-0.359375,4.241942882537842,4.486083507537842,5.340575695037842,60.0,2900362.0,1.0
1136431.6802369,288163.25,282417.0625,317417.84375,288668.15625,294418.4375,274914.75,274670.125,281507.4375,-0.13525390625,0.89794921875,-0.357177734375,3.631591558456421,4.516601085662842,5.310058116912842,60.0,2900363.0,1.0
1136431.694598,287917.65625,282396.5,316964.5625,288024.5,294059.90625,274857.90625,274530.9375,281110.5625,-0.138916015625,0.89794921875,-0.359130859375,3.295898199081421,4.608153820037842,5.279540538787842,60.0,2900364.0,1.0
1136431.6946407,288619.40625,282481.90625,317680.09375,289266.53125,294474.78125,274927.46875,274760.53125,281488.75,-0.141845703125,0.89794921875,-0.357666015625,2.899169683456421,4.425048351287842,5.065917491912842,60.0,2900365.0,1.0
1136431.697163,289271.375,282534.90625,318529.28125,290602.375,295054.84375,275005.875,275010.6875,282066.34375,-0.142578125,0.896240234375,-0.3564453125,2.593993902206421,4.302978038787842,4.760741710662842,60.0,2900366.0,1.0
1136431.697207,288981.78125,282486.625,318356.28125,290222.3125,295009.0625,274984.84375,274945.78125,282067.21875,-0.143798828125,0.895751953125,-0.35693359375,2.075195074081421,4.150390148162842,4.486083507537842,60.0,2900367.0,1.0
1136431.7103053,288164.34375,282409.9375,317415.25,288670.5625,294416.125,274899.65625,274658.0625,281492.25,-0.1416015625,0.89599609375,-0.355712890625,1.5869139432907104,3.997802495956421,4.180907726287842,60.0,2900368.0,1.0
1136431.7127586,287896.28125,282379.625,316907.25,287956.09375,294005.125,274819.28125,274475.0625,280994.875,-0.13818359375,0.896484375,-0.3544921875,1.0681151151657104,3.784179449081421,3.967284917831421,60.0,2900369.0,1.0
1136431.7152448,288603.5,282470.4375,317612.21875,289185.625,294407.1875,274889.625,274699.8125,281347.5,-0.1328125,0.896484375,-0.358154296875,0.5187987685203552,3.662109136581421,3.601073980331421,60.0,2900370.0,1.0
1136431.7177451,289256.4375,282525.4375,318463.8125,290528.53125,294987.875,274975.90625,274960.53125,281927.65625,-0.12939453125,0.895751953125,-0.35888671875,0.0,3.631591558456421,3.540038824081421,60.0,2900371.0,1.0
1136431.7266043,288972.21875,282488.15625,318281.0625,290133.0625,294926.28125,274960.53125,274893.3125,281884.5625,-0.12109375,0.896728515625,-0.358154296875,-0.5798339247703552,3.631591558456421,3.448486089706421,60.0,2900372.0,1.0
1136431.7295843,288153.6875,282407.15625,317341.9375,288587.9375,294329.84375,274871.65625,274607.375,281316.21875,-0.114013671875,0.8984375,-0.35791015625,-1.0375975370407104,3.662109136581421,3.448486089706421,60.0,2900373.0,1.0
1136431.7296302,287888.15625,282373.09375,316873.625,287924.375,293959.25,274804.4375,274462.1875,280910.84375,-0.107666015625,0.899169921875,-0.358154296875,-1.4038084745407104,3.814697027206421,3.601073980331421,60.0,2900374.0,1.0
1136431.7321099,288600.1875,282468.5,317617.0625,289201.0,294404.5,274896.78125,274722.25,281345.25,-0.103515625,0.90185546875,-0.35546875,-2.044677495956421,4.058837413787842,3.662109136581421,60.0,2900375.0,1.0
1136431.7321559,289255.8125,282522.5,318487.53125,290567.875,295005.59375,274987.34375,274989.3125,281970.9375,-0.100830078125,0.904052734375,-0.35595703125,-2.777099370956421,4.302978038787842,3.753661870956421,60.0,2900376.0,1.0
1136431.7451979,288990.1875,282496.5625,318337.125,290209.15625,294980.09375,274987.1875,274940.96875,281995.78125,-0.097412109375,0.9052734375,-0.355224609375,-3.356933355331421,4.608153820037842,3.997802495956421,60.0,2900377.0,1.0
1136431.7484393,288188.3125,282431.125,317430.46875,288699.0,294423.53125,274921.46875,274685.875,281487.34375,-0.09619140625,0.908447265625,-0.35546875,-3.906249761581421,4.882812023162842,4.211425304412842,60.0,2900378.0,1.0
1136431.7484833,287919.375,282394.46875,316968.59375,288046.5,294064.84375,274854.59375,274542.28125,281100.46875,-0.09521484375,0.910400390625,-0.353515625,-4.577636241912842,5.126952648162842,4.272460460662842,60.0,2900379.0,1.0
1136431.7502023,288634.625,282492.1875,317711.8125,289320.375,294512.78125,274945.5,274800.75,281534.90625,-0.09521484375,0.912109375,-0.353759765625,-5.096435070037842,5.462646007537842,4.425048351287842,60.0,2900380.0,1.0
1136431.752825,289302.125,282558.15625,318591.3125,290688.28125,295123.96875,275047.875,275079.53125,282161.1875,-0.096435546875,0.913818359375,-0.35205078125,-5.737304210662842,5.706786632537842,4.760741710662842,60.0,2900381.0,1.0
1136431.7669397,289014.875,282511.21875,318418.84375,290300.34375,295074.15625,275026.6875,275010.59375,282152.6875,-0.096923828125,0.9130859375,-0.35009765625,-6.530761241912842,5.981444835662842,5.035399913787842,60.0,2900382.0,1.0
1136431.7669836,288203.6875,282436.9375,317503.25,288779.46875,294504.90625,274949.1875,274739.4375,281627.15625,-0.095947265625,0.916015625,-0.350830078125,-7.171630382537842,6.256103038787842,5.249022960662842,60.0,2900383.0,1.0
1136431.7728115,287953.59375,282421.8125,317056.28125,288132.0625,294162.46875,274901.78125,274609.875,281263.375,-0.095703125,0.916259765625,-0.35400390625,-7.690429210662842,6.530761241912842,5.279540538787842,60.0,2900384.0,1.0
1136431.7752304,288663.9375,282514.625,317792.90625,289393.0625,294608.0,274989.15625,274860.21875,281698.0625,-0.096923828125,0.9169921875,-0.3515625,-8.361815452575684,6.713866710662842,5.432128429412842,60.0,2900385.0,1.0
1136431.777756,289313.5625,282556.0,318647.90625,290742.65625,295193.78125,275061.375,275108.78125,282294.15625,-0.097900390625,0.91552734375,-0.3505859375,-9.002684593200684,6.805419445037842,5.645751476287842,60.0,2900386.0,1.0
1136431.7802389,289025.3125,282505.78125,318471.875,290357.65625,295135.125,275030.4375,275027.59375,282273.75,-0.101806640625,0.916015625,-0.348876953125,-9.490965843200684,6.958007335662842,5.737304210662842,60.0,2900387.0,1.0
1136431.7846942,288223.4375,282442.03125,317565.46875,288843.375,294574.90625,274962.78125,274765.8125,281751.8125,-0.103515625,0.9150390625,-0.348388671875,-9.979247093200684,7.049560070037842,5.676269054412842,60.0,2900388.0,1.0
1136431.7847397,287960.03125,282420.84375,317102.6875,288176.21875,294218.53125,274908.84375,274632.59375,281367.15625,-0.104248046875,0.9111328125,-0.344970703125,-10.528563499450684,7.049560070037842,5.615233898162842,60.0,2900389.0,1.0
1136431.795207,288661.09375,282511.59375,317826.625,289424.34375,294649.125,274992.28125,274881.6875,281782.71875,-0.105224609375,0.909912109375,-0.34619140625,-10.803221702575684,7.019042491912842,5.554198741912842,60.0,2900390.0,1.0
1136431.7983424,289323.59375,282566.46875,318694.5,290786.71875,295241.875,275076.5,275140.25,282383.71875,-0.103271484375,0.9111328125,-0.345947265625,-11.230467796325684,7.080077648162842,5.462646007537842,60.0,2900391.0,1.0
1136431.7983905,289037.75,282515.78125,318518.8125,290403.1875,295183.6875,275044.65625,275056.90625,282355.65625,-0.104736328125,0.912109375,-0.342529296875,-11.413573265075684,7.141112804412842,5.462646007537842,60.0,2900392.0,1.0
1136431.8002374,288225.84375,282444.96875,317598.90625,288875.5625,294613.0,274969.75,274784.03125,281820.8125,-0.108642578125,0.912841796875,-0.341064453125,-11.901854515075684,6.988524913787842,5.371093273162842,60.0,2900393.0,1.0
1136431.8096922,287968.8125,282429.6875,317137.84375,288209.5,294259.21875,274922.8125,274651.8125,281435.3125,-0.11181640625,0.915283203125,-0.339111328125,-12.176512718200684,6.805419445037842,5.187987804412842,60.0,2900394.0,1.0
1136431.8097357,288663.21875,282511.75,317847.71875,289444.1875,294674.40625,274996.125,274886.9375,281828.15625,-0.115478515625,0.91650390625,-0.337646484375,-12.451170921325684,6.591796398162842,5.035399913787842,60.0,2900395.0,1.0
1136431.812116,289312.6875,282551.0,318698.875,290788.6875,295249.21875,275068.71875,275133.28125,282405.71875,-0.114013671875,0.917724609375,-0.3369140625,-12.725829124450684,6.439208507537842,4.852294445037842,60.0,2900396.0,1.0
1136431.8121612,289034.09375,282502.28125,318528.5625,290413.8125,295196.71875,275042.0625,275055.75,282375.0625,-0.112060546875,0.918701171875,-0.337158203125,-13.031004905700684,6.317138195037842,4.760741710662842,60.0,2900397.0,1.0
1136431.8251547,288228.0,282438.28125,317614.5625,288891.03125,294632.21875,274972.25,274790.03125,281848.28125,-0.111083984375,0.917724609375,-0.339111328125,-13.366698265075684,6.103515148162842,4.516601085662842,60.0,2900398.0,1.0
1136431.8283028,287965.21875,282422.25,317153.3125,288223.25,294277.09375,274924.15625,274659.0625,281466.78125,-0.106201171875,0.917236328125,-0.33935546875,-13.610838890075684,5.889892101287842,4.333495616912842,60.0,2900399.0,1.0
1136431.8283458,288654.65625,282498.71875,317856.75,289447.875,294684.25,274989.5,274890.53125,281860.59375,-0.103271484375,0.91455078125,-0.339599609375,-13.916014671325684,5.859374523162842,4.302978038787842,60.0,2900400.0,1.0
1136431.8303466,289321.4375,282550.75,318719.875,290807.03125,295269.40625,275071.5,275151.40625,282443.625,-0.09912109375,0.912353515625,-0.3388671875,-13.916014671325684,5.767821788787842,4.211425304412842,60.0,2900401.0,1.0
1136431.8413901,289050.09375,282509.0625,318556.28125,290440.71875,295220.6875,275049.84375,275080.53125,282413.78125,-0.098388671875,0.9091796875,-0.338134765625,-13.916014671325684,5.737304210662842,4.150390148162842,60.0,2900402.0,1.0
1136431.8444241,288249.1875,282453.71875,317647.625,288924.03125,294661.53125,274985.375,274814.34375,281889.5,-0.096435546875,0.906982421875,-0.341796875,-13.946532249450684,5.828856945037842,4.241942882537842,60.0,2900403.0,1.0
1136431.8444592,287966.75,282421.375,317159.03125,288226.75,294280.65625,274916.09375,274656.28125,281475.1875,-0.09130859375,0.90380859375,-0.341552734375,-13.793944358825684,5.859374523162842,4.119872570037842,60.0,2900404.0,1.0
1136431.8463191,288654.1875,282497.1875,317852.625,289439.1875,294679.4375,274978.40625,274878.5625,281843.875,-0.0888671875,0.900634765625,-0.342529296875,-13.580321311950684,6.011962413787842,3.967284917831421,60.0,2900405.0,1.0
1136431.8626944,289307.21875,282534.28125,318702.90625,290787.34375,295249.21875,275045.75,275122.0,282413.21875,-0.0849609375,0.89697265625,-0.341796875,-13.305663108825684,6.103515148162842,3.906249761581421,60.0,2900406.0,1.0
1136431.8657827,289031.5,282491.09375,318535.96875,290414.25,295195.75,275020.53125,275050.46875,282385.25,-0.083740234375,0.893798828125,-0.34228515625,-13.000487327575684,6.256103038787842,3.997802495956421,60.0,2900407.0,1.0
1136431.8658272,288226.75,282435.59375,317620.0,288890.3125,294629.25,274953.84375,274789.78125,281849.6875,-0.08154296875,0.89208984375,-0.3388671875,-12.664793968200684,6.469726085662842,4.028319835662842,60.0,2900408.0,1.0
1136431.8683014,287965.125,282424.84375,317151.15625,288212.4375,294269.5,274906.4375,274658.59375,281453.71875,-0.080078125,0.88818359375,-0.341552734375,-12.268065452575684,6.683349132537842,4.028319835662842,60.0,2900409.0,1.0
1136431.8683444,288654.71875,282509.0,317850.125,289429.71875,294676.125,274979.5625,274891.34375,281831.0,-0.08154296875,0.886474609375,-0.340576171875,-11.779784202575684,6.958007335662842,4.058837413787842,60.0,2900410.0,1.0
1136431.8764885,289321.96875,282560.125,318715.15625,290797.8125,295260.75,275059.5,275149.0,282406.625,-0.083251953125,0.885498046875,-0.34326171875,-11.230467796325684,7.171630382537842,4.119872570037842,60.0,2900411.0,1.0
1136431.8840433,289049.5625,282514.71875,318551.71875,290434.65625,295210.0625,275035.09375,275072.90625,282368.53125,-0.083984375,0.88330078125,-0.34033203125,-10.681151390075684,7.324218273162842,4.150390148162842,60.0,2900412.0,1.0
1136431.8840862,288224.59375,282439.4375,317619.71875,288889.875,294626.03125,274951.40625,274785.46875,281819.21875,-0.087646484375,0.880859375,-0.337158203125,-10.040282249450684,7.537841320037842,4.211425304412842,60.0,2900413.0,1.0
1136431.8840985,287953.875,282425.40625,317138.625,288190.0,294253.5,274901.71875,274639.5625,281408.9375,-0.089111328125,0.880615234375,-0.33984375,-9.490965843200684,7.537841320037842,4.241942882537842,60.0,2900414.0,1.0
1136431.8877322,288649.8125,282513.46875,317841.03125,289407.1875,294660.1875,274978.6875,274869.875,281782.09375,-0.09130859375,0.880126953125,-0.339599609375,-8.972167015075684,7.690429210662842,4.211425304412842,60.0,2900415.0,1.0
1136431.8914992,289321.34375,282560.75,318707.5625,290781.1875,295246.71875,275057.28125,275123.25,282365.21875,-0.092529296875,0.880126953125,-0.34033203125,-8.270262718200684,7.690429210662842,4.119872570037842,60.0,2900416.0,1.0
1136431.9057066,289057.4375,282516.9375,318549.3125,290428.125,295198.25,275032.3125,275051.5625,282333.03125,-0.09423828125,0.884033203125,-0.336181640625,-7.751464366912842,7.659911632537842,3.997802495956421,60.0,2900417.0,1.0
1136431.9057503,288230.5,282438.0,317614.71875,288880.03125,294609.25,274945.15625,274760.625,281773.625,-0.0947265625,0.88427734375,-0.3369140625,-7.171630382537842,7.659911632537842,3.814697027206421,60.0,2900418.0,1.0
1136431.9127847,287949.59375,282419.84375,317122.8125,288166.75,294229.78125,274891.0625,274611.40625,281358.21875,-0.10009765625,0.887451171875,-0.335205078125,-6.622313976287842,7.598876476287842,3.631591558456421,60.0,2900419.0,1.0
1136431.9128278,288649.46875,282516.9375,317828.3125,289388.125,294641.15625,274974.84375,274849.21875,281740.625,-0.100830078125,0.889892578125,-0.334716796875,-6.134032726287842,7.446288585662842,3.509521245956421,60.0,2900420.0,1.0
1136431.9128401,289330.1875,282570.84375,318706.75,290777.6875,295233.5625,275057.0,275106.1875,282331.0625,-0.103271484375,0.895263671875,-0.336181640625,-5.615233898162842,7.202147960662842,3.326415777206421,60.0,2900421.0,1.0
1136431.9171526,289058.3125,282518.71875,318545.46875,290414.625,295180.8125,275026.78125,275025.25,282299.15625,-0.1064453125,0.900634765625,-0.33349609375,-5.218505382537842,7.049560070037842,3.082275152206421,60.0,2900422.0,1.0
1136431.9171961,288239.71875,282449.96875,317613.5625,288864.5625,294597.4375,274947.5625,274747.9375,281739.8125,-0.108642578125,0.90380859375,-0.3330078125,-5.065917491912842,6.774901866912842,2.807616949081421,60.0,2900423.0,1.0
1136431.9252369,287956.46875,282429.40625,317116.375,288150.9375,294215.21875,274889.46875,274604.0625,281316.75,-0.109619140625,0.90673828125,-0.33447265625,-4.821776866912842,6.530761241912842,2.563476324081421,60.0,2900424.0,1.0
1136431.9345683,288633.0,282502.625,317800.78125,289355.59375,294607.90625,274953.84375,274831.96875,281683.9375,-0.10888671875,0.90771484375,-0.3330078125,-4.577636241912842,6.286620616912842,2.288818120956421,60.0,2900425.0,1.0
1136431.9346152,289302.40625,282544.9375,318666.96875,290733.96875,295193.34375,275028.65625,275089.5625,282271.25,-0.109375,0.909912109375,-0.3369140625,-4.516601085662842,5.950927257537842,1.9836424589157104,60.0,2900426.0,1.0
1136431.940936,289046.59375,282502.1875,318516.5,290392.1875,295151.84375,275006.65625,275022.75,282249.15625,-0.109375,0.9130859375,-0.336669921875,-4.455565929412842,5.645751476287842,1.6784666776657104,60.0,2900427.0,1.0
1136431.9409869,288238.46875,282445.5,317598.8125,288857.6875,294583.75,274940.78125,274755.15625,281707.1875,-0.11083984375,0.913818359375,-0.334716796875,-4.272460460662842,5.432128429412842,1.2817381620407104,60.0,2900428.0,1.0
1136431.9471613,287951.375,282428.25,317098.9375,288132.15625,294199.40625,274886.5,274606.03125,281284.03125,-0.11181640625,0.916259765625,-0.333984375,-4.211425304412842,5.157470226287842,1.0986326932907104,60.0,2900429.0,1.0
1136431.9472047,288616.8125,282492.34375,317772.0,289323.0625,294580.0,274941.3125,274821.6875,281646.84375,-0.11083984375,0.91845703125,-0.332763671875,-4.272460460662842,4.882812023162842,0.6408690810203552,60.0,2900430.0,1.0
1136431.9489611,289302.21875,282541.8125,318656.59375,290728.53125,295177.15625,275023.84375,275087.40625,282247.1875,-0.10986328125,0.919189453125,-0.330078125,-4.425048351287842,4.547118663787842,0.3967284858226776,60.0,2900431.0,1.0
1136431.9627153,289049.09375,282496.03125,318510.0625,290391.09375,295136.28125,274998.53125,275013.03125,282222.78125,-0.109619140625,0.921142578125,-0.332275390625,-4.364013195037842,4.241942882537842,0.1831054538488388,60.0,2900432.0,1.0
1136431.9677946,288230.125,282424.40625,317572.53125,288831.84375,294547.71875,274914.84375,274724.40625,281660.15625,-0.112548828125,0.921875,-0.33642578125,-4.455565929412842,3.845214605331421,-0.03051757626235485,60.0,2900433.0,1.0
1136431.967841,287938.40625,282407.6875,317064.6875,288090.5625,294158.8125,274859.5,274577.5,281236.28125,-0.109130859375,0.92041015625,-0.33544921875,-4.669188976287842,3.631591558456421,-0.3356933295726776,60.0,2900434.0,1.0
1136431.9678535,288632.90625,282502.1875,317767.53125,289309.375,294568.375,274941.65625,274824.8125,281629.65625,-0.10546875,0.91748046875,-0.3359375,-4.638671398162842,3.448486089706421,-0.5187987685203552,60.0,2900435.0,1.0
1136431.9701328,289326.34375,282559.5,318665.4375,290733.4375,295179.03125,275032.96875,275102.0625,282247.03125,-0.106201171875,0.912353515625,-0.336181640625,-4.577636241912842,3.234863042831421,-0.7629393935203552,60.0,2900436.0,1.0
1136431.9790603,289069.65625,282510.5,318519.625,290400.59375,295137.46875,275004.78125,275028.9375,282227.25,-0.1064453125,0.90869140625,-0.337158203125,-4.608153820037842,3.112792730331421,-0.9155272841453552,60.0,2900437.0,1.0
1136431.982161,288247.3125,282442.1875,317583.34375,288841.78125,294550.84375,274925.5625,274745.40625,281664.4375,-0.107177734375,0.9033203125,-0.3388671875,-4.547118663787842,2.777099370956421,-1.2817381620407104,60.0,2900438.0,1.0
1136431.9822035,287946.53125,282420.65625,317069.4375,288099.6875,294158.71875,274867.625,274588.34375,281232.25,-0.107177734375,0.900146484375,-0.337890625,-4.333495616912842,2.563476324081421,-1.4648436307907104,60.0,2900439.0,1.0
1136431.9840617,288626.5625,282505.0625,317758.84375,289305.78125,294560.34375,274943.0,274820.15625,281615.8125,-0.10791015625,0.900390625,-0.336181640625,-4.180907726287842,2.410888433456421,-1.7700194120407104,60.0,2900440.0,1.0
1136431.9952436,289307.9375,282543.3125,318646.03125,290718.5,295159.625,275018.375,275080.78125,282226.90625,-0.10986328125,0.89794921875,-0.33740234375,-3.906249761581421,2.197265386581421,-1.9836424589157104,60.0,2900441.0,1.0
1136431.9983298,289065.1875,282503.09375,318519.15625,290407.75,295134.25,274999.59375,275021.5,282221.46875,-0.114501953125,0.8974609375,-0.33837890625,-3.631591558456421,2.014159917831421,-2.258300542831421,60.0,2900442.0,1.0
1136431.9983734,288242.75,282437.46875,317581.46875,288846.875,294547.1875,274918.59375,274739.4375,281656.5,-0.113037109375,0.896240234375,-0.337646484375,-3.479003667831421,1.7395018339157104,-2.532958745956421,60.0,2900443.0,1.0
1136432.0014864,287942.15625,282419.125,317062.46875,288091.03125,294149.96875,274860.65625,274583.5,281218.5,-0.119384765625,0.895263671875,-0.3388671875,-3.173827886581421,1.5258787870407104,-2.777099370956421,60.0,2900444.0,1.0
1136432.0103446,288625.3125,282504.53125,317754.65625,289303.8125,294552.90625,274936.65625,274822.40625,281609.65625,-0.1240234375,0.893310546875,-0.33544921875,-2.960204839706421,1.2512205839157104,-2.868652105331421,60.0,2900445.0,1.0
1136432.0127007,289326.53125,282558.59375,318664.71875,290747.3125,295171.25,275028.5625,275101.8125,282250.6875,-0.126953125,0.89306640625,-0.334716796875,-2.685546636581421,0.9460448622703552,-3.143310308456421,60.0,2900446.0,1.0
1136432.0164911,289081.28125,282512.28125,318532.3125,290431.34375,295141.03125,275004.53125,275036.25,282238.71875,-0.129150390625,0.893310546875,-0.331298828125,-2.380370855331421,0.6103515028953552,-3.295898199081421,60.0,2900447.0,1.0
1136432.0257978,288249.8125,282437.46875,317584.875,288855.375,294542.4375,274917.34375,274746.84375,281654.4375,-0.13037109375,0.89453125,-0.3310546875,-2.014159917831421,0.2136230319738388,-3.509521245956421,60.0,2900448.0,1.0
1136432.02584,287921.40625,282397.40625,317039.21875,288066.875,294121.34375,274838.9375,274575.0,281194.4375,-0.13037109375,0.897216796875,-0.328125,-1.7395018339157104,-0.1831054538488388,-3.723144292831421,60.0,2900449.0,1.0
1136432.0278745,288605.5625,282483.25,317729.875,289277.375,294525.65625,274915.84375,274814.1875,281581.46875,-0.13037109375,0.90087890625,-0.33056640625,-1.5258787870407104,-0.5493163466453552,-3.784179449081421,60.0,2900450.0,1.0
1136432.0390582,289318.40625,282546.0,318652.28125,290735.9375,295156.40625,275015.34375,275098.21875,282227.34375,-0.13134765625,0.90625,-0.327392578125,-1.3732908964157104,-1.0070799589157104,-3.784179449081421,60.0,2900451.0,1.0
1136432.0426321,289080.40625,282505.78125,318529.28125,290432.84375,295135.3125,274999.25,275035.28125,282226.375,-0.13330078125,0.91162109375,-0.328369140625,-1.2512205839157104,-1.3732908964157104,-3.814697027206421,60.0,2900452.0,1.0
1136432.0426756,288243.1875,282430.5625,317579.5,288852.59375,294539.59375,274914.5,274746.03125,281652.8125,-0.13671875,0.916259765625,-0.327392578125,-1.2207030057907104,-1.6479490995407104,-3.753661870956421,60.0,2900453.0,1.0
1136432.0426878,287921.6875,282402.25,317042.15625,288070.625,294130.375,274848.875,274583.59375,281205.875,-0.139404296875,0.91748046875,-0.32470703125,-1.4038084745407104,-2.014159917831421,-3.692626714706421,60.0,2900454.0,1.0
1136432.0452363,288599.5625,282484.5,317730.78125,289275.5,294532.53125,274925.5,274819.90625,281594.53125,-0.139892578125,0.917724609375,-0.3232421875,-1.5563963651657104,-2.532958745956421,-3.723144292831421,60.0,2900455.0,1.0
1136432.049098,289317.25,282549.75,318661.15625,290748.03125,295170.90625,275027.15625,275109.5625,282250.78125,-0.142822265625,0.91748046875,-0.32470703125,-1.8005369901657104,-3.082275152206421,-3.631591558456421,60.0,2900456.0,1.0
1136432.0602391,289071.28125,282493.875,318531.59375,290441.1875,295142.375,274996.65625,275038.59375,282249.15625,-0.145263671875,0.91552734375,-0.32470703125,-1.9226073026657104,-3.570556402206421,-3.448486089706421,60.0,2900457.0,1.0
1136432.0633009,288239.25,282421.28125,317581.5625,288856.15625,294546.21875,274909.75,274748.8125,281679.03125,-0.1474609375,0.914794921875,-0.322509765625,-2.136230230331421,-3.936767339706421,-3.295898199081421,60.0,2900458.0,1.0
1136432.063344,287921.15625,282401.59375,317047.34375,288073.78125,294138.5,274850.5625,274593.25,281231.28125,-0.148681640625,0.9150390625,-0.320556640625,-2.227782964706421,-4.486083507537842,-3.204345464706421,60.0,2900459.0,1.0
1136432.065242,288608.0625,282492.96875,317743.84375,289287.5625,294545.3125,274934.59375,274836.71875,281622.96875,-0.14892578125,0.916015625,-0.31982421875,-2.380370855331421,-4.943847179412842,-3.204345464706421,60.0,2900460.0,1.0
1136432.0790961,289324.65625,282552.78125,318672.78125,290762.0625,295179.5625,275031.625,275122.1875,282276.71875,-0.1474609375,0.912353515625,-0.3232421875,-2.532958745956421,-5.493163585662842,-3.112792730331421,60.0,2900461.0,1.0
1136432.0815541,289080.84375,282503.8125,318550.28125,290457.0,295158.5625,275009.15625,275060.125,282281.53125,-0.149169921875,0.911865234375,-0.321044921875,-2.746581792831421,-5.920409679412842,-3.173827886581421,60.0,2900462.0,1.0
1136432.0839697,288240.15625,282425.3125,317596.3125,288871.09375,294559.15625,274921.03125,274768.21875,281700.65625,-0.150146484375,0.911376953125,-0.32080078125,-2.838134527206421,-6.469726085662842,-3.143310308456421,60.0,2900463.0,1.0
1136432.0864605,287912.65625,282401.6875,317049.40625,288075.375,294146.375,274859.78125,274606.03125,281254.0625,-0.1484375,0.908447265625,-0.320068359375,-2.899169683456421,-6.774901866912842,-3.112792730331421,60.0,2900464.0,1.0
1136432.0890984,288598.0625,282494.59375,317741.5,289285.0625,294553.34375,274944.53125,274851.46875,281648.25,-0.14453125,0.90771484375,-0.31884765625,-2.990722417831421,-7.202147960662842,-3.051757574081421,60.0,2900465.0,1.0
1136432.0958407,289317.25,282548.78125,318672.84375,290765.90625,295188.15625,275039.03125,275138.71875,282296.90625,-0.14208984375,0.90869140625,-0.318115234375,-3.143310308456421,-7.568358898162842,-2.960204839706421,60.0,2900466.0,1.0
1136432.0958836,289080.03125,282494.78125,318552.15625,290472.90625,295163.46875,275009.53125,275069.0,282295.5625,-0.139404296875,0.9072265625,-0.31982421875,-3.326415777206421,-7.751464366912842,-2.807616949081421,60.0,2900467.0,1.0
1136432.1039882,288246.6875,282423.59375,317603.28125,288887.375,294566.15625,274925.3125,274778.78125,281725.34375,-0.137451171875,0.906982421875,-0.318359375,-3.387450933456421,-7.995604991912842,-2.807616949081421,60.0,2900468.0,1.0
1136432.1083312,287936.34375,282412.96875,317073.71875,288104.0,294169.625,274876.03125,274633.03125,281300.125,-0.134765625,0.9072265625,-0.3212890625,-3.448486089706421,-8.087157249450684,-2.807616949081421,60.0,2900469.0,1.0
1136432.1083746,288619.40625,282500.3125,317762.59375,289306.25,294571.6875,274955.96875,274873.0,281688.3125,-0.134521484375,0.906982421875,-0.32177734375,-3.509521245956421,-8.270262718200684,-2.655029058456421,60.0,2900470.0,1.0
1136432.1140848,289341.1875,282554.6875,318696.46875,290789.3125,295206.46875,275047.875,275155.53125,282335.4375,-0.132568359375,0.906494140625,-0.32080078125,-3.540038824081421,-8.270262718200684,-2.655029058456421,60.0,2900471.0,1.0
1136432.1183112,289103.1875,282497.625,318574.59375,290493.9375,295183.5,275017.40625,275084.8125,282334.5625,-0.132080078125,0.90869140625,-0.31982421875,-3.631591558456421,-8.331297874450684,-2.716064214706421,60.0,2900472.0,1.0
1136432.1183556,288252.9375,282412.96875,317617.21875,288896.5,294582.40625,274926.65625,274790.5625,281757.6875,-0.12939453125,0.91015625,-0.319091796875,-3.631591558456421,-8.361815452575684,-2.655029058456421,60.0,2900473.0,1.0
1136432.1452715,287924.53125,282398.21875,317075.875,288096.84375,294174.28125,274875.78125,274637.0625,281319.6875,-0.126708984375,0.9130859375,-0.320068359375,-3.784179449081421,-8.239745140075684,-2.593993902206421,60.0,2900474.0,1.0
1136432.1483361,288608.0625,282497.09375,317768.59375,289304.28125,294583.40625,274963.9375,274880.5,281711.21875,-0.12451171875,0.912109375,-0.322021484375,-3.936767339706421,-8.117674827575684,-2.593993902206421,60.0,2900475.0,1.0
1136432.148381,289340.84375,282566.84375,318721.3125,290809.71875,295234.90625,275072.125,275177.25,282377.28125,-0.120849609375,0.913330078125,-0.3203125,-4.119872570037842,-7.995604991912842,-2.563476324081421,60.0,2900476.0,1.0
1136432.1503461,289119.84375,282522.75,318621.71875,290543.0,295230.71875,275056.65625,275122.71875,282398.84375,-0.1181640625,0.91357421875,-0.318603515625,-4.333495616912842,-7.812499523162842,-2.471923589706421,60.0,2900477.0,1.0
1136432.1527692,288255.4375,282426.1875,317647.0,288934.65625,294618.4375,274949.625,274816.0625,281818.21875,-0.114501953125,0.912841796875,-0.321044921875,-4.455565929412842,-7.415771007537842,-2.471923589706421,60.0,2900478.0,1.0
1136432.1552655,287913.46875,282400.0,317087.5,288115.96875,294201.1875,274885.78125,274653.5,281371.46875,-0.11279296875,0.912841796875,-0.32080078125,-4.669188976287842,-7.049560070037842,-2.502441167831421,60.0,2900479.0,1.0
1136432.1577441,288600.1875,282492.09375,317774.0625,289319.28125,294603.6875,274966.25,274891.4375,281756.53125,-0.10986328125,0.9140625,-0.318359375,-4.791259288787842,-6.622313976287842,-2.380370855331421,60.0,2900480.0,1.0
1136432.1603489,289342.53125,282558.34375,318723.90625,290827.21875,295251.625,275068.28125,275181.71875,282417.53125,-0.1064453125,0.917724609375,-0.3173828125,-4.913329601287842,-6.134032726287842,-2.258300542831421,60.0,2900481.0,1.0
1136432.1627562,289123.9375,282517.46875,318630.65625,290564.65625,295253.5,275055.21875,275131.75,282441.5625,-0.106689453125,0.91943359375,-0.31689453125,-5.157470226287842,-5.706786632537842,-1.9836424589157104,60.0,2900482.0,1.0
1136432.1652629,288257.125,282421.53125,317664.78125,288957.09375,294647.25,274956.15625,274836.875,281868.5625,-0.106201171875,0.92138671875,-0.31298828125,-5.401610851287842,-5.249022960662842,-1.8310545682907104,60.0,2900483.0,1.0
1136432.1677442,287906.65625,282386.5,317099.65625,288133.59375,294218.8125,274885.25,274668.53125,281417.6875,-0.10595703125,0.922119140625,-0.314697265625,-5.828856945037842,-4.791259288787842,-1.7700194120407104,60.0,2900484.0,1.0
1136432.1745562,288598.0625,282491.28125,317790.9375,289336.90625,294625.875,274976.90625,274911.71875,281805.8125,-0.10400390625,0.923095703125,-0.313720703125,-6.103515148162842,-4.302978038787842,-1.7395018339157104,60.0,2900485.0,1.0
1136432.1746016,289350.6875,282569.34375,318754.125,290858.78125,295288.1875,275087.9375,275211.59375,282472.0625,-0.1044921875,0.92724609375,-0.316650390625,-6.469726085662842,-3.784179449081421,-1.6784666776657104,60.0,2900486.0,1.0
1136432.1826888,289137.8125,282529.28125,318669.375,290606.5,295297.5,275075.25,275165.625,282501.375,-0.10400390625,0.928466796875,-0.311767578125,-6.713866710662842,-3.173827886581421,-1.6784666776657104,60.0,2900487.0,1.0
1136432.1827313,288289.40625,282452.46875,317722.5625,289019.78125,294710.53125,274991.65625,274887.3125,281950.8125,-0.105712890625,0.927978515625,-0.310546875,-7.049560070037842,-2.685546636581421,-1.5258787870407104,60.0,2900488.0,1.0
1136432.1827435,287927.0625,282412.34375,317142.46875,288175.0625,294272.875,274912.25,274709.03125,281487.96875,-0.105224609375,0.9287109375,-0.307861328125,-7.476806163787842,-2.166747808456421,-1.5258787870407104,60.0,2900489.0,1.0
1136432.1852503,288599.375,282497.375,317812.6875,289356.21875,294657.34375,274983.25,274933.34375,281850.9375,-0.1064453125,0.93017578125,-0.305419921875,-7.995604991912842,-1.6784666776657104,-1.4343260526657104,60.0,2900490.0,1.0
1136432.1889905,289341.28125,282562.375,318761.5625,290864.4375,295303.40625,275083.1875,275219.375,282500.40625,-0.10986328125,0.927734375,-0.305419921875,-8.453368186950684,-1.1901854276657104,-1.4343260526657104,60.0,2900491.0,1.0
1136432.1977732,289133.0625,282524.71875,318678.84375,290620.71875,295310.625,275072.75,275172.59375,282528.65625,-0.111328125,0.926025390625,-0.302734375,-8.819579124450684,-0.7934569716453552,-1.4343260526657104,60.0,2900492.0,1.0
1136432.200256,288289.5,282454.71875,317740.6875,289042.125,294731.09375,274999.25,274900.1875,281988.625,-0.11376953125,0.926025390625,-0.30322265625,-9.155272483825684,-0.3662109076976776,-1.5563963651657104,60.0,2900493.0,1.0
1136432.2039469,287927.75,282423.78125,317167.96875,288197.9375,294301.0625,274928.78125,274728.25,281541.25,-0.11669921875,0.925537109375,-0.298583984375,-9.521483421325684,-0.03051757626235485,-1.6174315214157104,60.0,2900494.0,1.0
1136432.2182918,288602.0625,282508.4375,317834.9375,289373.3125,294682.1875,274997.90625,274947.46875,281893.40625,-0.118408203125,0.92822265625,-0.29833984375,-9.857176780700684,0.2746581733226776,-1.7395018339157104,60.0,2900495.0,1.0
1136432.2183343,289358.46875,282577.125,318795.53125,290898.3125,295332.71875,275101.25,275235.46875,282540.09375,-0.1201171875,0.927001953125,-0.295654296875,-10.131834983825684,0.6408690810203552,-1.8920897245407104,60.0,2900496.0,1.0
1136432.2253083,289148.78125,282530.625,318711.5625,290655.5625,295335.9375,275083.28125,275182.71875,282561.75,-0.120849609375,0.9287109375,-0.295166015625,-10.498045921325684,0.7934569716453552,-2.075195074081421,60.0,2900497.0,1.0
1136432.2253515,288290.125,282444.625,317754.46875,289060.8125,294739.3125,274993.625,274897.21875,282006.59375,-0.12109375,0.927734375,-0.29443359375,-10.894774436950684,1.0070799589157104,-2.075195074081421,60.0,2900498.0,1.0
1136432.2253639,287934.03125,282418.59375,317184.15625,288220.21875,294312.0625,274927.90625,274731.90625,281559.84375,-0.123046875,0.9287109375,-0.29248046875,-11.169432640075684,1.2817381620407104,-2.380370855331421,60.0,2900499.0,1.0
1136432.2295433,288617.4375,282512.5625,317855.84375,289400.75,294700.25,275004.78125,274958.46875,281921.03125,-0.12109375,0.9267578125,-0.292724609375,-11.352538108825684,1.5869139432907104,-2.441406011581421,60.0,2900500.0,1.0
1136432.2295863,289375.625,282580.78125,318814.46875,290925.75,295350.6875,275102.0625,275243.34375,282563.53125,-0.123779296875,0.927001953125,-0.294677734375,-11.779784202575684,1.7395018339157104,-2.655029058456421,60.0,2900501.0,1.0
1136432.2376114,289170.875,282542.0625,318736.15625,290686.3125,295359.625,275085.4375,275195.5,282587.84375,-0.12646484375,0.9248046875,-0.29296875,-12.084959983825684,1.9836424589157104,-2.838134527206421,60.0,2900502.0,1.0
1136432.2521583,288302.125,282451.0625,317772.625,289080.21875,294758.625,274989.875,274904.84375,282023.6875,-0.12548828125,0.921630859375,-0.288330078125,-12.390135765075684,2.166747808456421,-3.021239995956421,60.0,2900503.0,1.0
1136432.2522013,287938.125,282427.1875,317192.28125,288219.5,294325.5625,274928.625,274740.40625,281565.65625,-0.128173828125,0.9228515625,-0.286865234375,-12.664793968200684,2.319335699081421,-3.234863042831421,60.0,2900504.0,1.0
1136432.2546888,288629.78125,282532.59375,317866.3125,289400.21875,294717.25,275014.34375,274971.625,281926.21875,-0.12841796875,0.924560546875,-0.28662109375,-12.908934593200684,2.471923589706421,-3.448486089706421,60.0,2900505.0,1.0
1136432.254733,289388.75,282595.96875,318823.78125,290924.25,295359.53125,275107.53125,275250.46875,282563.4375,-0.127685546875,0.923583984375,-0.2861328125,-13.000487327575684,2.624511480331421,-3.601073980331421,60.0,2900506.0,1.0
1136432.2658117,289172.125,282539.28125,318736.25,290681.0625,295355.78125,275079.0,275188.625,282572.65625,-0.1259765625,0.92236328125,-0.283935546875,-13.244627952575684,2.777099370956421,-3.753661870956421,60.0,2900507.0,1.0
1136432.2658582,288301.3125,282449.875,317773.96875,289070.9375,294755.5,274987.96875,274899.75,282007.78125,-0.126708984375,0.91943359375,-0.281494140625,-13.336180686950684,2.868652105331421,-3.875732183456421,60.0,2900508.0,1.0
1136432.2689262,287925.71875,282419.59375,317183.875,288199.84375,294314.03125,274920.46875,274728.15625,281542.5,-0.12744140625,0.91943359375,-0.285400390625,-13.549803733825684,2.960204839706421,-3.997802495956421,60.0,2900509.0,1.0
1136432.2689708,288610.5625,282519.71875,317855.40625,289381.34375,294700.78125,275001.125,274954.71875,281903.6875,-0.12646484375,0.91796875,-0.284423828125,-13.580321311950684,3.082275152206421,-4.058837413787842,60.0,2900510.0,1.0
1136432.268983,289383.84375,282589.625,318829.3125,290934.4375,295360.25,275104.65625,275246.8125,282563.71875,-0.12451171875,0.91845703125,-0.281982421875,-13.671874046325684,3.143310308456421,-4.302978038787842,60.0,2900511.0,1.0
1136432.2727643,289186.96875,282545.09375,318767.09375,290721.46875,295380.90625,275094.28125,275207.5625,282606.25,-0.122802734375,0.91748046875,-0.27978515625,-13.702391624450684,3.387450933456421,-4.333495616912842,60.0,2900512.0,1.0
1136432.2842993,288319.46875,282455.53125,317810.8125,289123.0625,294788.21875,275003.375,274924.875,282065.25,-0.123291015625,0.916748046875,-0.281005859375,-13.702391624450684,3.631591558456421,-4.272460460662842,60.0,2900513.0,1.0
1136432.2895346,287948.40625,282427.28125,317225.90625,288257.6875,294354.6875,274935.59375,274756.0625,281620.90625,-0.125244140625,0.9150390625,-0.277587890625,-13.824461936950684,3.814697027206421,-4.394530773162842,60.0,2900514.0,1.0
1136432.2895804,288621.90625,282515.59375,317887.5,289425.5,294732.8125,275005.15625,274973.84375,281969.0625,-0.125732421875,0.916748046875,-0.27734375,-13.793944358825684,3.906249761581421,-4.486083507537842,60.0,2900515.0,1.0
1136432.2927433,289392.96875,282581.84375,318862.9375,290981.625,295388.6875,275101.34375,275259.40625,282629.34375,-0.125732421875,0.917724609375,-0.2763671875,-13.732909202575684,4.089354991912842,-4.516601085662842,60.0,2900516.0,1.0
1136432.3071774,289191.0,282532.15625,318800.4375,290771.09375,295404.5,275079.4375,275210.25,282672.0625,-0.126953125,0.914794921875,-0.2734375,-13.671874046325684,4.119872570037842,-4.669188976287842,60.0,2900517.0,1.0
1136432.3072209,288324.46875,282447.65625,317846.03125,289170.15625,294815.15625,274992.71875,274930.75,282129.8125,-0.12841796875,0.914306640625,-0.27685546875,-13.610838890075684,4.302978038787842,-4.821776866912842,60.0,2900518.0,1.0
1136432.3096717,287952.4375,282427.625,317258.71875,288290.65625,294385.8125,274936.40625,274771.625,281682.0625,-0.12744140625,0.915771484375,-0.274658203125,-13.427733421325684,4.455565929412842,-4.882812023162842,60.0,2900519.0,1.0
1136432.3097183,288630.40625,282527.59375,317913.25,289446.0,294758.09375,275011.9375,274988.15625,282019.125,-0.127685546875,0.91845703125,-0.2734375,-13.275145530700684,4.638671398162842,-5.065917491912842,60.0,2900520.0,1.0
1136432.3151881,289403.59375,282597.21875,318875.53125,290984.78125,295401.84375,275109.40625,275262.46875,282643.71875,-0.12939453125,0.91943359375,-0.274169921875,-13.275145530700684,4.730224132537842,-5.126952648162842,60.0,2900521.0,1.0
1136432.3221636,289199.40625,282541.53125,318792.21875,290750.53125,295400.75,275083.03125,275202.28125,282653.125,-0.130615234375,0.92041015625,-0.27294921875,-13.183592796325684,4.852294445037842,-5.187987804412842,60.0,2900522.0,1.0
1136432.3222077,288307.5625,282438.4375,317804.8125,289111.4375,294776.6875,274976.0,274899.03125,282067.9375,-0.130615234375,0.919677734375,-0.271484375,-13.061522483825684,4.821776866912842,-5.310058116912842,60.0,2900523.0,1.0
1136432.3245427,287913.8125,282403.84375,317189.5,288202.4375,294316.53125,274902.25,274720.21875,281578.71875,-0.1318359375,0.9228515625,-0.27001953125,-12.969969749450684,4.974364757537842,-5.432128429412842,60.0,2900524.0,1.0
1136432.3245852,288596.875,282508.53125,317848.15625,289364.71875,294693.8125,274983.5,274943.625,281918.625,-0.130615234375,0.92138671875,-0.271484375,-12.725829124450684,4.974364757537842,-5.645751476287842,60.0,2900525.0,1.0
1136432.3378844,289379.65625,282578.71875,318825.9375,290926.84375,295350.0625,275082.21875,275228.65625,282558.25,-0.131591796875,0.9208984375,-0.26806640625,-12.603758811950684,4.974364757537842,-5.767821788787842,60.0,2900526.0,1.0
1136432.3402098,289184.28125,282527.75,318755.84375,290708.84375,295355.59375,275056.1875,275173.5,282572.28125,-0.13232421875,0.919677734375,-0.269775390625,-12.451170921325684,5.004882335662842,-5.889892101287842,60.0,2900527.0,1.0
1136432.3433518,288309.8125,282439.15625,317783.53125,289084.0625,294746.125,274963.03125,274883.90625,282003.65625,-0.1328125,0.9189453125,-0.270263671875,-12.420653343200684,5.035399913787842,-5.981444835662842,60.0,2900528.0,1.0
1136432.3433947,287940.0,282426.28125,317187.0,288195.71875,294308.21875,274911.375,274723.875,281538.84375,-0.13427734375,0.919677734375,-0.268310546875,-12.115477561950684,5.126952648162842,-6.225585460662842,60.0,2900529.0,1.0
1136432.3451712,288623.34375,282532.59375,317850.03125,289364.4375,294687.46875,274997.8125,274951.3125,281885.90625,-0.134033203125,0.922607421875,-0.26904296875,-11.962889671325684,5.065917491912842,-6.347655773162842,60.0,2900530.0,1.0
1136432.3541064,289410.5,282604.21875,318836.75,290943.1875,295350.5,275101.4375,275239.03125,282541.1875,-0.13427734375,0.9228515625,-0.267578125,-11.901854515075684,5.065917491912842,-6.530761241912842,60.0,2900531.0,1.0
1136432.3571256,289203.5,282537.78125,318760.125,290723.78125,295349.625,275063.8125,275173.84375,282547.0,-0.1357421875,0.9228515625,-0.26708984375,-11.688231468200684,5.004882335662842,-6.683349132537842,60.0,2900532.0,1.0
1136432.3571695,288307.65625,282431.75,317767.53125,289072.8125,294723.59375,274952.9375,274869.59375,281960.46875,-0.13427734375,0.92529296875,-0.26220703125,-11.596678733825684,4.974364757537842,-6.896972179412842,60.0,2900533.0,1.0
1136432.362742,287924.53125,282415.28125,317163.21875,288170.15625,294277.625,274895.09375,274703.125,281495.1875,-0.1357421875,0.92724609375,-0.263916015625,-11.383055686950684,5.004882335662842,-6.988524913787842,60.0,2900534.0,1.0
1136432.369162,288597.875,282519.28125,317821.09375,289331.0,294655.71875,274979.5625,274929.78125,281846.46875,-0.13427734375,0.92724609375,-0.262939453125,-11.230467796325684,4.974364757537842,-7.080077648162842,60.0,2900535.0,1.0
1136432.3758867,289379.03125,282583.375,318806.53125,290912.875,295317.625,275078.5625,275218.5625,282499.34375,-0.134033203125,0.92529296875,-0.259765625,-11.108397483825684,4.852294445037842,-7.171630382537842,60.0,2900536.0,1.0
1136432.3759304,289204.9375,282548.59375,318765.21875,290731.21875,295355.875,275074.09375,275189.40625,282547.78125,-0.134033203125,0.926025390625,-0.262939453125,-11.077879905700684,4.882812023162842,-7.202147960662842,60.0,2900537.0,1.0
1136432.3814692,288329.1875,282461.5,317797.84375,289105.625,294757.03125,274985.03125,274908.15625,281986.84375,-0.129638671875,0.9267578125,-0.2666015625,-10.955809593200684,4.821776866912842,-7.080077648162842,60.0,2900538.0,1.0
1136432.3908252,287901.84375,282406.625,317151.5,288157.09375,294270.9375,274890.15625,274706.0,281482.40625,-0.12939453125,0.923583984375,-0.267822265625,-10.864256858825684,4.943847179412842,-7.110595226287842,60.0,2900539.0,1.0
1136432.3908701,288564.0,282497.28125,317794.34375,289307.59375,294633.03125,274960.96875,274917.4375,281815.375,-0.127685546875,0.925537109375,-0.265869140625,-10.711668968200684,4.974364757537842,-7.202147960662842,60.0,2900540.0,1.0
1136432.3927819,289357.65625,282568.34375,318787.375,290896.25,295302.59375,275066.75,275207.21875,282471.875,-0.126953125,0.927490234375,-0.260986328125,-10.589598655700684,5.035399913787842,-6.988524913787842,60.0,2900541.0,1.0
1136432.3965862,289177.5,282518.375,318732.59375,290700.90625,295323.96875,275043.875,275155.1875,282498.875,-0.126708984375,0.927490234375,-0.259765625,-10.528563499450684,5.096435070037842,-6.958007335662842,60.0,2900542.0,1.0
1136432.4032456,288295.9375,282423.78125,317749.65625,289060.5625,294708.21875,274940.96875,274858.34375,281918.8125,-0.12744140625,0.92724609375,-0.26171875,-10.406493186950684,5.187987804412842,-6.927489757537842,60.0,2900543.0,1.0
1136432.4032924,287887.875,282391.0625,317115.65625,288119.28125,294237.5625,274868.90625,274678.46875,281429.40625,-0.126708984375,0.927734375,-0.25830078125,-10.375975608825684,5.279540538787842,-6.896972179412842,60.0,2900544.0,1.0
1136432.411513,288561.5625,282495.3125,317766.375,289269.84375,294608.625,274950.34375,274899.5625,281767.4375,-0.126953125,0.92626953125,-0.26123046875,-10.345458030700684,5.493163585662842,-6.805419445037842,60.0,2900545.0,1.0
1136432.4145817,289367.65625,282573.09375,318768.53125,290873.375,295283.09375,275057.8125,275196.03125,282430.5,-0.127197265625,0.926025390625,-0.261474609375,-10.162352561950684,5.706786632537842,-6.713866710662842,60.0,2900546.0,1.0
1136432.4146254,289192.96875,282525.875,318722.75,290694.03125,295308.21875,275039.46875,275151.15625,282469.125,-0.1298828125,0.925537109375,-0.25830078125,-9.918211936950684,5.584716320037842,-6.591796398162842,60.0,2900547.0,1.0
1136432.4165608,288302.03125,282428.0625,317733.46875,289040.25,294688.4375,274936.125,274855.40625,281887.53125,-0.134033203125,0.927001953125,-0.259521484375,-9.735106468200684,5.554198741912842,-6.561278820037842,60.0,2900548.0,1.0
1136432.4327645,287893.53125,282394.53125,317099.5625,288097.46875,294220.40625,274862.46875,274674.53125,281396.75,-0.136962890625,0.92822265625,-0.259521484375,-9.521483421325684,5.493163585662842,-6.469726085662842,60.0,2900549.0,1.0
1136432.4358376,288576.5,282505.15625,317758.0625,289252.96875,294598.34375,274951.3125,274902.0625,281741.34375,-0.1376953125,0.930419921875,-0.259521484375,-9.368895530700684,5.401610851287842,-6.530761241912842,60.0,2900550.0,1.0
1136432.4358836,289402.71875,282595.4375,318780.5,290879.625,295289.71875,275071.65625,275209.8125,282420.46875,-0.13525390625,0.931396484375,-0.259765625,-9.185790061950684,5.493163585662842,-6.530761241912842,60.0,2900551.0,1.0
1136432.4377306,289245.09375,282557.0,318749.84375,290716.28125,295325.65625,275061.125,275171.34375,282467.78125,-0.13427734375,0.932861328125,-0.259521484375,-9.094237327575684,5.401610851287842,-6.469726085662842,60.0,2900552.0,1.0
1136432.440369,288375.4375,282469.375,317778.4375,289084.15625,294717.6875,274967.96875,274883.5625,281898.0625,-0.136962890625,0.9326171875,-0.2587890625,-9.033202171325684,5.401610851287842,-6.561278820037842,60.0,2900553.0,1.0
1136432.4439863,287948.875,282422.0,317119.0625,288108.375,294224.6875,274878.90625,274681.125,281381.75,-0.136962890625,0.93017578125,-0.25732421875,-8.880614280700684,5.310058116912842,-6.500243663787842,60.0,2900554.0,1.0
1136432.4532752,288604.21875,282509.96875,317751.34375,289243.3125,294579.90625,274944.875,274885.0,281705.65625,-0.138671875,0.927001953125,-0.25927734375,-8.666991233825684,5.340575695037842,-6.591796398162842,60.0,2900555.0,1.0
1136432.4533161,289417.03125,282592.9375,318771.75,290875.25,295269.15625,275060.65625,275191.03125,282391.875,-0.1396484375,0.924072265625,-0.259033203125,-8.544920921325684,5.249022960662842,-6.713866710662842,60.0,2900556.0,1.0
1136432.4558356,289259.3125,282559.3125,318749.21875,290723.4375,295314.125,275057.28125,275165.71875,282454.53125,-0.14111328125,0.92236328125,-0.25927734375,-8.178709983825684,5.218505382537842,-6.896972179412842,60.0,2900557.0,1.0
1136432.4558787,288374.1875,282465.53125,317762.4375,289072.1875,294697.84375,274959.375,274872.375,281871.875,-0.141845703125,0.9228515625,-0.2587890625,-7.843017101287842,5.065917491912842,-7.049560070037842,60.0,2900558.0,1.0
1136432.4641221,287955.40625,282434.5,317109.84375,288096.9375,294217.8125,274885.78125,274684.53125,281364.5,-0.1435546875,0.923828125,-0.25830078125,-7.415771007537842,4.943847179412842,-7.110595226287842,60.0,2900559.0,1.0
1136432.4677613,288622.53125,282536.53125,317754.46875,289238.46875,294583.5,274964.5625,274903.5,281695.84375,-0.141357421875,0.924072265625,-0.254150390625,-7.049560070037842,4.821776866912842,-7.232665538787842,60.0,2900560.0,1.0
1136432.4714931,289439.375,282619.125,318782.21875,290877.21875,295276.46875,275081.0625,275212.03125,282381.21875,-0.140869140625,0.9267578125,-0.250244140625,-6.744384288787842,4.791259288787842,-7.293700695037842,60.0,2900561.0,1.0
1136432.4808301,289261.4375,282560.75,318739.5625,290707.0625,295304.09375,275054.21875,275162.15625,282421.09375,-0.14013671875,0.926513671875,-0.25390625,-6.469726085662842,4.638671398162842,-7.415771007537842,60.0,2900562.0,1.0
1136432.4808749,288364.4375,282454.09375,317735.25,289035.78125,294673.6875,274945.4375,274853.59375,281824.125,-0.138427734375,0.92724609375,-0.254638671875,-6.164550304412842,4.669188976287842,-7.446288585662842,60.0,2900563.0,1.0
1136432.4828685,287943.0625,282422.1875,317080.25,288060.0,294188.59375,274869.53125,274663.4375,281315.84375,-0.135986328125,0.925048828125,-0.2529296875,-5.859374523162842,4.699706554412842,-7.598876476287842,60.0,2900564.0,1.0
1136432.4915404,288618.34375,282539.03125,317734.625,289210.125,294565.25,274960.53125,274894.09375,281664.0,-0.134521484375,0.92724609375,-0.25537109375,-5.645751476287842,4.638671398162842,-7.507323741912842,60.0,2900565.0,1.0
1136432.494584,289442.5,282625.5625,318771.28125,290863.09375,295264.3125,275078.0,275206.40625,282359.6875,-0.1376953125,0.926513671875,-0.25146484375,-5.279540538787842,4.638671398162842,-7.568358898162842,60.0,2900566.0,1.0
1136432.4946272,289266.375,282560.9375,318733.375,290701.78125,295291.875,275046.625,275154.09375,282400.96875,-0.140625,0.92529296875,-0.252685546875,-5.065917491912842,4.638671398162842,-7.568358898162842,60.0,2900567.0,1.0
1136432.4964776,288371.9375,282457.125,317736.9375,289041.40625,294665.03125,274938.375,274849.65625,281809.5625,-0.13916015625,0.92431640625,-0.252685546875,-4.699706554412842,4.516601085662842,-7.385253429412842,60.0,2900568.0,1.0
1136432.505369,287941.53125,282421.1875,317074.0,288051.0625,294172.9375,274862.09375,274657.1875,281293.9375,-0.141845703125,0.9267578125,-0.25439453125,-4.333495616912842,4.425048351287842,-7.324218273162842,60.0,2900569.0,1.0
1136432.5095988,288604.65625,282528.5625,317717.1875,289193.15625,294541.375,274948.90625,274878.90625,281633.59375,-0.141845703125,0.927490234375,-0.25390625,-3.936767339706421,4.455565929412842,-7.232665538787842,60.0,2900570.0,1.0
1136432.509642,289422.46875,282608.0625,318749.9375,290850.21875,295237.59375,275062.625,275185.46875,282331.0625,-0.1396484375,0.92529296875,-0.25,-3.631591558456421,4.364013195037842,-7.080077648162842,60.0,2900571.0,1.0
1136432.5127679,289260.28125,282551.90625,318726.40625,290709.84375,295280.0625,275041.625,275144.8125,282386.9375,-0.141357421875,0.92236328125,-0.25146484375,-3.204345464706421,4.394530773162842,-7.110595226287842,60.0,2900572.0,1.0
1136432.5215186,288368.375,282447.28125,317730.25,289044.625,294655.28125,274933.25,274842.96875,281793.0,-0.14111328125,0.923095703125,-0.252685546875,-3.051757574081421,4.425048351287842,-6.988524913787842,60.0,2900573.0,1.0
1136432.5259457,287929.1875,282406.53125,317055.65625,288036.40625,294155.125,274849.5,274644.46875,281268.90625,-0.14111328125,0.92333984375,-0.251953125,-2.746581792831421,4.364013195037842,-6.988524913787842,60.0,2900574.0,1.0
1136432.525989,288596.875,282520.15625,317703.0625,289177.59375,294524.125,274939.78125,274871.5625,281614.46875,-0.141357421875,0.925048828125,-0.252685546875,-2.410888433456421,4.364013195037842,-6.988524913787842,60.0,2900575.0,1.0
1136432.5364669,289425.25,282608.9375,318747.15625,290846.53125,295230.625,275063.0,275188.0625,282323.8125,-0.14208984375,0.925537109375,-0.251220703125,-2.227782964706421,4.180907726287842,-6.835937023162842,60.0,2900576.0,1.0
1136432.5395848,289254.75,282550.21875,318721.59375,290700.8125,295270.03125,275041.09375,275144.96875,282376.40625,-0.143310546875,0.923095703125,-0.2529296875,-1.7700194120407104,4.119872570037842,-6.774901866912842,60.0,2900577.0,1.0
1136432.5396282,288359.40625,282453.90625,317727.1875,289034.28125,294643.3125,274935.9375,274840.375,281778.25,-0.145751953125,0.923583984375,-0.253173828125,-1.4953612089157104,3.997802495956421,-6.744384288787842,60.0,2900578.0,1.0
1136432.5452691,287920.0,282421.8125,317056.28125,288027.1875,294147.71875,274859.5,274646.28125,281248.34375,-0.14599609375,0.924072265625,-0.2529296875,-1.2512205839157104,3.875732183456421,-6.713866710662842,60.0,2900579.0,1.0
1136432.5497169,288570.15625,282528.5625,317690.28125,289152.0,294510.0,274943.71875,274868.0,281581.375,-0.1474609375,0.925048828125,-0.25390625,-0.9155272841453552,3.753661870956421,-6.835937023162842,60.0,2900580.0,1.0
1136432.5497604,289388.84375,282609.5625,318730.34375,290822.9375,295215.40625,275061.84375,275184.15625,282289.59375,-0.146728515625,0.92431640625,-0.25341796875,-0.7019042372703552,3.753661870956421,-6.683349132537842,60.0,2900581.0,1.0
1136432.5514307,289225.96875,282547.0625,318709.59375,290694.09375,295262.4375,275034.90625,275138.46875,282346.71875,-0.1484375,0.925048828125,-0.25634765625,-0.6103515028953552,3.509521245956421,-6.744384288787842,60.0,2900582.0,1.0
1136432.5602726,288336.09375,282444.25,317717.0,289036.59375,294642.125,274930.125,274836.0,281754.84375,-0.14990234375,0.924560546875,-0.257568359375,-0.1831054538488388,3.448486089706421,-6.774901866912842,60.0,2900583.0,1.0
1136432.5640141,287895.9375,282411.8125,317041.375,288024.25,294141.28125,274857.4375,274644.21875,281231.4375,-0.147216796875,0.925048828125,-0.257568359375,0.0,3.326415777206421,-6.683349132537842,60.0,2900584.0,1.0
1136432.5734387,288549.15625,282516.5,317670.6875,289146.75,294496.84375,274939.6875,274862.71875,281566.46875,-0.14794921875,0.9248046875,-0.256103515625,0.0610351525247097,3.173827886581421,-6.713866710662842,60.0,2900585.0,1.0
1136432.5734834,289398.96875,282616.71875,318738.65625,290841.71875,295226.5,275076.0625,275197.0,282299.9375,-0.1484375,0.92333984375,-0.257568359375,0.3051757514476776,3.051757574081421,-6.652831554412842,60.0,2900586.0,1.0
1136432.575214,289260.03125,282569.6875,318742.0625,290733.71875,295289.71875,275063.71875,275167.5,282378.8125,-0.150634765625,0.924560546875,-0.257080078125,0.6408690810203552,2.899169683456421,-6.683349132537842,60.0,2900587.0,1.0
1136432.5790218,288335.46875,282430.21875,317711.65625,289035.15625,294628.375,274916.09375,274825.71875,281748.5,-0.15185546875,0.925537109375,-0.258056640625,0.8544921278953552,2.899169683456421,-6.652831554412842,60.0,2900588.0,1.0
1136432.5927241,287892.28125,282393.65625,317029.46875,288013.6875,294124.28125,274834.90625,274628.03125,281222.5,-0.150146484375,0.925048828125,-0.2587890625,1.1596678495407104,2.777099370956421,-6.713866710662842,60.0,2900589.0,1.0
1136432.5959729,288540.84375,282498.25,317659.625,289136.8125,294483.96875,274920.125,274851.625,281559.5625,-0.15185546875,0.92578125,-0.257568359375,1.2207030057907104,2.593993902206421,-6.744384288787842,60.0,2900590.0,1.0
1136432.5960162,289379.1875,282592.03125,318722.5625,290831.625,295209.59375,275053.15625,275184.5,282288.59375,-0.151123046875,0.92724609375,-0.25927734375,1.3732908964157104,2.502441167831421,-6.652831554412842,60.0,2900591.0,1.0
1136432.5977154,289238.65625,282544.03125,318722.75,290719.21875,295267.375,275040.71875,275153.03125,282360.03125,-0.15283203125,0.927734375,-0.257568359375,1.5258787870407104,2.410888433456421,-6.500243663787842,60.0,2900592.0,1.0
1136432.6002154,288335.0,282427.8125,317714.0625,289034.625,294628.0,274920.125,274836.34375,281748.59375,-0.152099609375,0.926513671875,-0.258544921875,1.6174315214157104,2.227782964706421,-6.439208507537842,60.0,2900593.0,1.0
1136432.6027387,287880.125,282385.25,317021.875,287996.78125,294116.6875,274835.46875,274629.625,281213.9375,-0.155517578125,0.92578125,-0.2578125,1.7089842557907104,2.105712652206421,-6.378173351287842,60.0,2900594.0,1.0
1136432.6122576,288529.125,282494.25,317648.6875,289113.40625,294474.21875,274922.8125,274852.875,281550.625,-0.156005859375,0.927978515625,-0.26123046875,1.8310545682907104,2.014159917831421,-6.256103038787842,60.0,2900595.0,1.0
1136432.6123007,289361.21875,282579.875,318702.4375,290803.1875,295188.78125,275043.5,275174.84375,282267.15625,-0.157958984375,0.928466796875,-0.263916015625,1.8920897245407104,1.8920897245407104,-6.134032726287842,60.0,2900596.0,1.0
1136432.6140216,289230.25,282536.0,318711.65625,290709.21875,295253.9375,275029.65625,275145.59375,282341.625,-0.15771484375,0.928955078125,-0.263427734375,1.9836424589157104,1.7700194120407104,-6.103515148162842,60.0,2900597.0,1.0
1136432.6227618,288354.6875,282445.78125,317728.8125,289057.5,294639.90625,274931.75,274849.9375,281752.5,-0.15771484375,0.928466796875,-0.26123046875,2.136230230331421,1.6174315214157104,-6.042479991912842,60.0,2900598.0,1.0
1136432.6271588,287897.625,282406.875,317030.375,288008.15625,294122.78125,274847.78125,274642.4375,281207.59375,-0.16015625,0.93115234375,-0.2626953125,2.075195074081421,1.4953612089157104,-5.828856945037842,60.0,2900599.0,1.0
1136432.6272019,288536.96875,282512.5625,317647.53125,289110.4375,294472.53125,274931.5625,274861.46875,281537.3125,-0.160400390625,0.931396484375,-0.26318359375,2.075195074081421,1.1901854276657104,-5.645751476287842,60.0,2900600.0,1.0
1136432.6408976,289379.65625,282607.4375,318713.8125,290812.65625,295199.78125,275062.28125,275191.84375,282271.0625,-0.159912109375,0.93115234375,-0.26123046875,2.075195074081421,1.1291502714157104,-5.584716320037842,60.0,2900601.0,1.0
1136432.6409406,289245.625,282556.28125,318722.75,290717.625,295266.90625,275043.875,275157.0625,282343.6875,-0.161376953125,0.929931640625,-0.26123046875,2.014159917831421,0.9460448622703552,-5.432128429412842,60.0,2900602.0,1.0
1136432.6427138,288343.78125,282439.15625,317716.5625,289041.25,294631.15625,274920.3125,274833.3125,281728.65625,-0.1640625,0.930908203125,-0.2626953125,1.9836424589157104,0.8239745497703552,-5.371093273162842,60.0,2900603.0,1.0
1136432.6452462,287880.8125,282396.59375,317013.8125,287986.40625,294110.0,274832.0625,274621.40625,281181.5625,-0.163818359375,0.931396484375,-0.262451171875,1.9836424589157104,0.5493163466453552,-5.187987804412842,60.0,2900604.0,1.0
1136432.6477982,288545.21875,282525.875,317654.15625,289110.25,294481.65625,274936.40625,274857.625,281535.4375,-0.1640625,0.93115234375,-0.262939453125,2.075195074081421,0.4272460639476776,-5.035399913787842,60.0,2900605.0,1.0
1136432.6572837,289369.8125,282598.40625,318704.25,290797.46875,295194.5,275050.125,275171.625,282248.0,-0.1640625,0.931640625,-0.26220703125,2.014159917831421,0.1831054538488388,-4.852294445037842,60.0,2900606.0,1.0
1136432.6573327,289237.3125,282542.25,318716.03125,290709.65625,295264.9375,275034.5625,275138.71875,282327.65625,-0.166015625,0.929931640625,-0.26171875,1.9836424589157104,0.0610351525247097,-4.760741710662842,60.0,2900607.0,1.0
1136432.668291,288350.21875,282436.5625,317719.25,289040.15625,294636.34375,274920.75,274824.375,281727.21875,-0.1669921875,0.92822265625,-0.26025390625,1.8310545682907104,-0.1525878757238388,-4.486083507537842,60.0,2900608.0,1.0
1136432.6683334,287890.125,282399.1875,317016.9375,287977.75,294116.875,274837.40625,274617.03125,281181.03125,-0.166015625,0.927001953125,-0.26171875,1.8005369901657104,-0.3356933295726776,-4.333495616912842,60.0,2900609.0,1.0
1136432.6708319,288530.53125,282512.28125,317631.1875,289069.75,294467.625,274927.46875,274841.34375,281507.1875,-0.16259765625,0.923828125,-0.264404296875,1.8310545682907104,-0.4882812201976776,-4.180907726287842,60.0,2900610.0,1.0
1136432.6708755,289376.53125,282608.75,318706.5625,290786.46875,295202.53125,275063.53125,275183.875,282250.78125,-0.162841796875,0.923095703125,-0.264404296875,1.8615721464157104,-0.5493163466453552,-4.089354991912842,60.0,2900611.0,1.0
1136432.6839453,289246.25,282553.59375,318726.59375,290715.46875,295276.3125,275049.03125,275156.78125,282337.6875,-0.164306640625,0.92333984375,-0.265625,1.9226073026657104,-0.7324218153953552,-3.875732183456421,60.0,2900612.0,1.0
1136432.6939817,288348.0625,282433.875,317722.71875,289046.4375,294643.40625,274928.53125,274840.28125,281732.3125,-0.16259765625,0.9248046875,-0.26513671875,1.9836424589157104,-0.8239745497703552,-3.692626714706421,60.0,2900613.0,1.0
1136432.6940247,287879.40625,282393.75,317009.0,287980.0625,294116.25,274843.9375,274633.40625,281183.53125,-0.164306640625,0.926513671875,-0.264892578125,2.075195074081421,-0.9765624403953552,-3.509521245956421,60.0,2900614.0,1.0
1136432.6940369,288509.4375,282500.9375,317612.40625,289061.53125,294456.4375,274929.15625,274848.96875,281504.5,-0.16064453125,0.92578125,-0.263916015625,2.075195074081421,-1.0375975370407104,-3.387450933456421,60.0,2900615.0,1.0
1136432.6971652,289350.6875,282587.40625,318679.21875,290770.8125,295182.4375,275055.125,275178.25,282242.46875,-0.161865234375,0.92431640625,-0.26806640625,2.014159917831421,-1.2207030057907104,-3.082275152206421,60.0,2900616.0,1.0
1136432.6972081,289231.84375,282535.09375,318706.9375,290712.0,295262.0,275041.09375,275153.65625,282336.0625,-0.166259765625,0.925048828125,-0.267822265625,1.9531248807907104,-1.1901854276657104,-2.960204839706421,60.0,2900617.0,1.0
1136432.6989988,288343.0625,282426.09375,317715.125,289052.6875,294634.71875,274925.125,274839.125,281734.71875,-0.1650390625,0.92529296875,-0.266357421875,1.8920897245407104,-1.2512205839157104,-2.685546636581421,60.0,2900618.0,1.0
1136432.7127217,287868.125,282383.8125,316996.21875,287970.5,294105.0625,274835.53125,274622.40625,281176.5625,-0.1650390625,0.924072265625,-0.266357421875,2.044677495956421,-1.4648436307907104,-2.441406011581421,60.0,2900619.0,1.0
1136432.7278081,288506.3125,282499.5,317607.03125,289058.5,294455.90625,274929.6875,274846.375,281505.75,-0.16455078125,0.923828125,-0.26416015625,2.044677495956421,-1.5563963651657104,-2.227782964706421,60.0,2900620.0,1.0
1136432.7278532,289359.15625,282594.46875,318686.1875,290780.84375,295189.75,275066.125,275184.21875,282256.0625,-0.1650390625,0.924072265625,-0.26904296875,1.9836424589157104,-1.4953612089157104,-2.105712652206421,60.0,2900621.0,1.0
1136432.7278661,289242.0625,282540.1875,318717.28125,290720.75,295265.5625,275046.53125,275153.90625,282353.6875,-0.165283203125,0.922607421875,-0.27001953125,2.044677495956421,-1.5563963651657104,-1.9226073026657104,60.0,2900622.0,1.0
1136432.7332913,288354.9375,282432.625,317724.96875,289055.8125,294640.625,274929.5,274841.0,281755.90625,-0.1640625,0.9228515625,-0.26708984375,2.105712652206421,-1.6479490995407104,-1.7089842557907104,60.0,2900623.0,1.0
1136432.7333354,287892.53125,282405.28125,317023.46875,287995.0,294129.03125,274856.8125,274645.65625,281212.9375,-0.163330078125,0.92333984375,-0.26513671875,2.075195074081421,-1.7700194120407104,-1.5258787870407104,60.0,2900624.0,1.0
1136432.7333468,288503.28125,282501.375,317612.84375,289055.625,294458.0625,274932.375,274851.28125,281519.4375,-0.16455078125,0.923095703125,-0.263671875,2.105712652206421,-1.7700194120407104,-1.3122557401657104,60.0,2900625.0,1.0
1136432.7333578,289351.46875,282597.6875,318688.78125,290774.84375,295191.53125,275067.1875,275186.09375,282263.125,-0.165771484375,0.9228515625,-0.265869140625,2.166747808456421,-1.8310545682907104,-1.1596678495407104,60.0,2900626.0,1.0
1136432.7359114,289254.28125,282563.0625,318743.125,290746.6875,295295.875,275068.1875,275176.90625,282378.4375,-0.16455078125,0.9248046875,-0.267578125,2.166747808456421,-1.8920897245407104,-0.8850097060203552,60.0,2900627.0,1.0
1136432.7359584,288368.0,282456.40625,317758.40625,289090.0625,294678.09375,274956.96875,274872.03125,281787.75,-0.16650390625,0.925048828125,-0.267578125,2.044677495956421,-2.044677495956421,-0.7324218153953552,60.0,2900628.0,1.0
1136432.7490116,287882.53125,282411.1875,317033.5,287992.6875,294142.0,274866.375,274657.09375,281232.0625,-0.1689453125,0.92431640625,-0.26611328125,1.9836424589157104,-2.166747808456421,-0.5798339247703552,60.0,2900629.0,1.0
1136432.7565462,288496.65625,282511.84375,317620.90625,289052.25,294473.0625,274942.28125,274866.03125,281538.125,-0.165771484375,0.925048828125,-0.27001953125,1.8920897245407104,-2.197265386581421,-0.3662109076976776,60.0,2900630.0,1.0
1136432.7565854,289317.25,282574.78125,318665.4375,290745.59375,295175.1875,275044.125,275172.0625,282251.6875,-0.1669921875,0.92626953125,-0.267333984375,1.9226073026657104,-2.166747808456421,-0.2746581733226776,60.0,2900631.0,1.0
1136432.7565965,289213.34375,282523.46875,318709.59375,290709.84375,295262.625,275030.8125,275147.84375,282352.53125,-0.16748046875,0.92578125,-0.265380859375,1.9836424589157104,-2.258300542831421,-0.0915527269244194,60.0,2900632.0,1.0
1136432.7596244,288347.875,282430.40625,317742.65625,289075.21875,294661.53125,274935.9375,274855.21875,281773.0625,-0.166748046875,0.926513671875,-0.26904296875,1.9836424589157104,-2.380370855331421,-0.0610351525247097,60.0,2900633.0,1.0
1136432.7596677,287870.28125,282390.0625,317017.75,287978.1875,294133.15625,274852.0,274644.84375,281217.6875,-0.166748046875,0.92724609375,-0.269287109375,1.7395018339157104,-2.380370855331421,0.1220703050494194,60.0,2900634.0,1.0
1136432.7864959,288488.0,282492.625,317599.15625,289024.875,294460.03125,274926.5625,274850.84375,281524.53125,-0.166015625,0.92724609375,-0.268310546875,1.7089842557907104,-2.410888433456421,0.1831054538488388,60.0,2900635.0,1.0
1136432.7890095,289347.0,282588.75,318681.1875,290754.0,295197.28125,275062.0,275186.46875,282263.46875,-0.164306640625,0.926025390625,-0.268310546875,1.6784666776657104,-2.410888433456421,0.2746581733226776,60.0,2900636.0,1.0
1136432.791464,289247.21875,282539.375,318729.71875,290724.78125,295284.34375,275048.25,275161.25,282359.6875,-0.1640625,0.924072265625,-0.264892578125,1.6174315214157104,-2.532958745956421,0.3662109076976776,60.0,2900637.0,1.0
1136432.799122,288364.15625,282431.5625,317741.96875,289071.625,294657.78125,274932.375,274846.28125,281757.625,-0.164306640625,0.924560546875,-0.266845703125,1.6479490995407104,-2.471923589706421,0.3967284858226776,60.0,2900638.0,1.0
1136432.8014994,287881.09375,282394.375,317019.1875,287978.0,294128.125,274850.375,274635.8125,281202.3125,-0.16357421875,0.924560546875,-0.266357421875,1.4648436307907104,-2.410888433456421,0.3967284858226776,60.0,2900639.0,1.0
1136432.8040199,288498.71875,282509.78125,317605.875,289028.09375,294461.53125,274939.25,274854.0625,281511.28125,-0.164306640625,0.92626953125,-0.267578125,1.5258787870407104,-2.410888433456421,0.4882812201976776,60.0,2900640.0,1.0
1136432.8065802,289359.15625,282613.875,318688.40625,290763.125,295199.40625,275079.53125,275196.84375,282258.65625,-0.162841796875,0.92578125,-0.265380859375,1.5258787870407104,-2.319335699081421,0.5187987685203552,60.0,2900641.0,1.0
1136432.8089687,289262.625,282564.15625,318743.21875,290749.28125,295295.25,275068.4375,275178.25,282367.375,-0.162353515625,0.925048828125,-0.266845703125,1.4953612089157104,-2.258300542831421,0.5798339247703552,60.0,2900642.0,1.0
1136432.8115298,288371.3125,282444.78125,317754.125,289099.8125,294671.09375,274948.90625,274860.40625,281764.21875,-0.15966796875,0.92529296875,-0.2666015625,1.4038084745407104,-2.319335699081421,0.4882812201976776,60.0,2900643.0,1.0
1136432.8140194,287863.3125,282385.4375,317002.1875,287970.84375,294115.09375,274847.6875,274630.4375,281183.53125,-0.160888671875,0.9267578125,-0.267822265625,1.3732908964157104,-2.197265386581421,0.6103515028953552,60.0,2900644.0,1.0
1136432.8166194,288465.46875,282484.84375,317566.96875,288994.03125,294428.46875,274923.15625,274830.90625,281473.65625,-0.16064453125,0.9267578125,-0.268798828125,1.4343260526657104,-2.136230230331421,0.6408690810203552,60.0,2900645.0,1.0
1136432.8190214,289326.1875,282581.0625,318645.6875,290722.34375,295160.625,275054.84375,275166.53125,282215.1875,-0.1611328125,0.925048828125,-0.26904296875,1.3427733182907104,-2.105712652206421,0.6103515028953552,60.0,2900646.0,1.0
1136432.8214242,289233.09375,282529.625,318701.125,290712.53125,295254.65625,275041.09375,275147.5625,282323.65625,-0.16455078125,0.92529296875,-0.2685546875,1.4343260526657104,-1.9836424589157104,0.6408690810203552,60.0,2900647.0,1.0
1136432.8244955,288355.5,282421.71875,317727.1875,289077.28125,294641.59375,274930.40625,274843.6875,281736.34375,-0.16455078125,0.924560546875,-0.2685546875,1.4038084745407104,-2.014159917831421,0.4882812201976776,60.0,2900648.0,1.0
1136432.8245276,287858.5625,282375.78125,316988.0625,287955.9375,294098.375,274839.5625,274624.28125,281168.875,-0.164306640625,0.922607421875,-0.26806640625,1.3732908964157104,-1.9531248807907104,0.4272460639476776,60.0,2900649.0,1.0
1136432.8328699,288466.96875,282482.6875,317558.59375,288979.46875,294416.375,274918.34375,274827.9375,281466.84375,-0.162109375,0.921630859375,-0.267333984375,1.3427733182907104,-1.9226073026657104,0.3356933295726776,60.0,2900650.0,1.0
1136432.8358668,289339.21875,282592.03125,318652.90625,290724.3125,295160.0625,275059.15625,275173.78125,282216.625,-0.16162109375,0.921142578125,-0.27001953125,1.3122557401657104,-1.8310545682907104,0.3662109076976776,60.0,2900651.0,1.0
1136432.8359138,289259.5625,282549.125,318727.9375,290734.34375,295269.875,275052.1875,275165.28125,282331.96875,-0.16162109375,0.92138671875,-0.268798828125,1.4953612089157104,-1.7700194120407104,0.3356933295726776,60.0,2900652.0,1.0
1136432.8389747,288380.34375,282439.78125,317754.84375,289099.96875,294656.96875,274939.34375,274858.875,281745.625,-0.1630859375,0.9228515625,-0.27099609375,1.5869139432907104,-1.7395018339157104,0.1831054538488388,60.0,2900653.0,1.0
1136432.8484269,287889.15625,282403.75,317018.84375,287980.96875,294119.5625,274856.65625,274646.8125,281187.71875,-0.162353515625,0.923095703125,-0.270263671875,1.6784666776657104,-1.7089842557907104,0.1525878757238388,60.0,2900654.0,1.0
1136432.8484729,288483.15625,282502.0,317573.875,288982.21875,294424.875,274928.71875,274842.25,281472.65625,-0.159912109375,0.923583984375,-0.2685546875,1.6479490995407104,-1.5869139432907104,0.0915527269244194,60.0,2900655.0,1.0
1136432.8509597,289345.75,282599.1875,318655.25,290713.96875,295158.28125,275060.65625,275177.625,282212.5,-0.16162109375,0.92431640625,-0.269287109375,1.7089842557907104,-1.4038084745407104,0.1831054538488388,60.0,2900656.0,1.0
1136432.851004,289266.8125,282553.34375,318728.5625,290726.03125,295267.90625,275053.53125,275164.28125,282335.53125,-0.159912109375,0.92333984375,-0.26708984375,1.6784666776657104,-1.2207030057907104,0.0915527269244194,60.0,2900657.0,1.0
1136432.8615125,288390.4375,282443.8125,317757.15625,289100.6875,294659.75,274945.78125,274864.78125,281748.9375,-0.159423828125,0.92578125,-0.266845703125,1.6784666776657104,-1.1901854276657104,0.03051757626235485,60.0,2900658.0,1.0
1136432.864017,287879.75,282391.40625,317012.21875,287975.40625,294113.75,274854.21875,274642.96875,281178.34375,-0.16015625,0.923583984375,-0.269775390625,1.7700194120407104,-1.0681151151657104,-0.1831054538488388,60.0,2900659.0,1.0
1136432.8702047,288457.6875,282479.3125,317554.28125,288967.46875,294407.4375,274913.40625,274825.15625,281450.40625,-0.159912109375,0.92333984375,-0.26953125,1.8310545682907104,-1.0070799589157104,-0.1831054538488388,60.0,2900660.0,1.0
1136432.8734805,289325.28125,282586.6875,318644.34375,290715.5625,295153.28125,275054.21875,275169.125,282208.75,-0.16064453125,0.92041015625,-0.26904296875,2.044677495956421,-0.8850097060203552,-0.1525878757238388,60.0,2900661.0,1.0
1136432.8735261,289254.75,282548.78125,318731.40625,290747.125,295275.3125,275055.125,275166.34375,282341.625,-0.16162109375,0.919677734375,-0.270263671875,1.9531248807907104,-0.8239745497703552,-0.1525878757238388,60.0,2900662.0,1.0
1136432.884014,288376.6875,282441.21875,317764.5625,289119.5625,294669.3125,274942.90625,274860.5625,281756.71875,-0.16162109375,0.920654296875,-0.26904296875,1.9836424589157104,-0.7324218153953552,-0.3051757514476776,60.0,2900663.0,1.0
1136432.8871166,287848.09375,282378.09375,316997.1875,287961.84375,294105.53125,274836.875,274621.0625,281168.25,-0.161865234375,0.920166015625,-0.268310546875,2.044677495956421,-0.5493163466453552,-0.4882812201976776,60.0,2900664.0,1.0
1136432.8871587,288439.8125,282484.5,317549.375,288961.03125,294413.625,274918.5,274823.84375,281451.9375,-0.161376953125,0.921142578125,-0.26806640625,2.105712652206421,-0.4882812201976776,-0.4577636420726776,60.0,2900665.0,1.0
1136432.892762,289323.59375,282598.03125,318648.09375,290718.0625,295161.3125,275067.65625,275178.40625,282208.3125,-0.161376953125,0.92138671875,-0.270751953125,2.227782964706421,-0.3356933295726776,-0.4577636420726776,60.0,2900666.0,1.0
1136432.9046504,289252.78125,282549.5625,318729.1875,290748.09375,295271.125,275056.375,275165.53125,282333.65625,-0.162353515625,0.92041015625,-0.273681640625,2.319335699081421,-0.2746581733226776,-0.5187987685203552,60.0,2900667.0,1.0
1136432.904693,288379.71875,282437.375,317762.25,289124.9375,294664.40625,274940.59375,274861.1875,281753.59375,-0.163330078125,0.9208984375,-0.272216796875,2.441406011581421,-0.1525878757238388,-0.7019042372703552,60.0,2900668.0,1.0
1136432.9063973,287867.15625,282390.0,317004.875,287972.90625,294112.59375,274848.0625,274636.96875,281174.78125,-0.16259765625,0.921630859375,-0.26806640625,2.563476324081421,0.03051757626235485,-0.7934569716453552,60.0,2900669.0,1.0
1136432.9089989,288457.84375,282494.15625,317553.5625,288959.4375,294417.28125,274927.90625,274836.875,281455.25,-0.162109375,0.923583984375,-0.26904296875,2.593993902206421,0.0915527269244194,-0.8544921278953552,60.0,2900670.0,1.0
1136432.9113867,289324.03125,282587.3125,318636.46875,290700.90625,295148.8125,275058.875,275172.78125,282200.1875,-0.1611328125,0.92041015625,-0.268798828125,2.777099370956421,0.1525878757238388,-0.8239745497703552,60.0,2900671.0,1.0
1136432.9175998,289264.40625,282543.59375,318731.6875,290750.4375,295272.28125,275053.53125,275167.34375,282337.5,-0.163330078125,0.92236328125,-0.2685546875,2.868652105331421,0.2746581733226776,-0.6713866591453552,60.0,2900672.0,1.0
1136432.9245242,288385.71875,282428.96875,317762.6875,289122.875,294664.5,274938.8125,274861.125,281752.15625,-0.164306640625,0.92138671875,-0.273193359375,2.838134527206421,0.3051757514476776,-0.7324218153953552,60.0,2900673.0,1.0
1136432.9245748,287860.625,282372.5625,316997.28125,287963.71875,294102.84375,274840.375,274628.84375,281163.40625,-0.164794921875,0.9208984375,-0.2724609375,2.899169683456421,0.3051757514476776,-0.8544921278953552,60.0,2900674.0,1.0
1136432.9333588,288437.21875,282473.21875,317531.9375,288935.28125,294393.40625,274911.0,274820.25,281431.53125,-0.16455078125,0.920166015625,-0.2705078125,2.990722417831421,0.3662109076976776,-0.8850097060203552,60.0,2900675.0,1.0
1136432.9334022,289297.65625,282570.40625,318614.21875,290674.34375,295127.1875,275041.28125,275156.96875,282174.4375,-0.165771484375,0.922607421875,-0.268798828125,3.112792730331421,0.4577636420726776,-0.8544921278953552,60.0,2900676.0,1.0
1136432.935814,289239.46875,282530.625,318712.375,290732.65625,295255.90625,275038.9375,275156.15625,282311.84375,-0.16748046875,0.922607421875,-0.268798828125,3.082275152206421,0.4272460639476776,-0.8544921278953552,60.0,2900677.0,1.0
1136432.9358585,288372.65625,282427.28125,317756.4375,289121.875,294661.90625,274933.1875,274859.0625,281741.25,-0.1669921875,0.922119140625,-0.266845703125,3.204345464706421,0.5187987685203552,-0.8850097060203552,60.0,2900678.0,1.0
1136432.9490784,287851.5,282379.4375,316991.375,287958.0625,294103.03125,274838.9375,274627.59375,281159.375,-0.1669921875,0.92333984375,-0.272216796875,3.204345464706421,0.5187987685203552,-0.9460448622703552,60.0,2900679.0,1.0
1136432.951502,288428.0,282477.875,317521.21875,288923.40625,294388.03125,274907.5,274812.5625,281426.1875,-0.16943359375,0.9228515625,-0.271484375,3.234863042831421,0.5798339247703552,-0.9155272841453552,60.0,2900680.0,1.0
1136432.9540797,289299.0,282575.15625,318607.9375,290669.15625,295122.875,275040.28125,275151.78125,282172.625,-0.168701171875,0.92333984375,-0.27001953125,3.234863042831421,0.5187987685203552,-0.7934569716453552,60.0,2900681.0,1.0
1136432.9564499,289261.28125,282542.5,318720.0625,290737.46875,295258.0625,275043.5,275158.3125,282312.65625,-0.170654296875,0.922119140625,-0.2705078125,3.295898199081421,0.4272460639476776,-0.7934569716453552,60.0,2900682.0,1.0
1136432.9659357,288411.09375,282446.5,317775.03125,289139.78125,294670.3125,274945.5,274866.75,281746.78125,-0.170166015625,0.921630859375,-0.272705078125,3.356933355331421,0.3662109076976776,-0.8239745497703552,60.0,2900683.0,1.0
1136432.9659788,287880.1875,282395.34375,317005.6875,287972.125,294111.59375,274852.8125,274637.96875,281162.59375,-0.17041015625,0.921142578125,-0.27197265625,3.326415777206421,0.3967284858226776,-0.7629393935203552,60.0,2900684.0,1.0
1136432.967763,288436.59375,282488.0625,317523.1875,288921.875,294394.46875,274922.09375,274822.3125,281419.46875,-0.169189453125,0.92236328125,-0.271484375,3.356933355331421,0.4577636420726776,-0.7629393935203552,60.0,2900685.0,1.0
1136432.970279,289288.28125,282573.53125,318596.875,290657.53125,295117.0625,275040.375,275146.0625,282151.28125,-0.169921875,0.92041015625,-0.27099609375,3.265380620956421,0.3662109076976776,-0.5493163466453552,60.0,2900686.0,1.0
1136432.9846089,289229.625,282521.6875,318695.9375,290720.125,295237.3125,275021.5,275130.6875,282284.125,-0.17236328125,0.919189453125,-0.2705078125,3.356933355331421,0.2746581733226776,-0.7019042372703552,60.0,2900687.0,1.0
1136432.9846521,288385.96875,282431.46875,317764.40625,289136.71875,294660.46875,274926.1875,274845.03125,281725.78125,-0.170654296875,0.919921875,-0.269775390625,3.387450933456421,0.2136230319738388,-0.6103515028953552,60.0,2900688.0,1.0
1136432.9865644,287870.28125,282395.15625,317008.1875,287975.0625,294111.34375,274844.84375,274627.75,281149.09375,-0.16845703125,0.920166015625,-0.2724609375,3.387450933456421,0.1525878757238388,-0.5798339247703552,60.0,2900689.0,1.0
1136432.9891092,288438.09375,282503.53125,317533.625,288924.375,294400.46875,274927.46875,274825.96875,281411.59375,-0.171630859375,0.9208984375,-0.272705078125,3.448486089706421,0.2136230319738388,-0.4272460639476776,60.0,2900690.0,1.0
1136432.9927676,289312.0625,282608.125,318625.46875,290678.46875,295141.75,275068.1875,275172.875,282161.8125,-0.171142578125,0.919677734375,-0.27099609375,3.479003667831421,0.0915527269244194,-0.3356933295726776,60.0,2900691.0,1.0
1136433.0083583,289275.75,282575.0625,318747.34375,290767.5,295285.59375,275073.375,275184.6875,282317.375,-0.17138671875,0.9208984375,-0.270751953125,3.509521245956421,0.0610351525247097,-0.3356933295726776,60.0,2900692.0,1.0
1136433.0084017,288404.03125,282452.46875,317785.84375,289159.96875,294681.9375,274952.75,274876.03125,281739.8125,-0.171142578125,0.9208984375,-0.270751953125,3.479003667831421,0.03051757626235485,-0.2746581733226776,60.0,2900693.0,1.0
1136433.0116055,287863.03125,282387.46875,317000.84375,287968.96875,294109.0,274846.8125,274636.53125,281145.4375,-0.171142578125,0.9208984375,-0.272216796875,3.417968511581421,0.1220703050494194,-0.2746581733226776,60.0,2900694.0,1.0
1136433.0116513,288427.90625,282486.09375,317514.3125,288904.4375,294388.5,274917.8125,274822.21875,281402.75,-0.1708984375,0.920166015625,-0.273681640625,3.387450933456421,0.0915527269244194,-0.1831054538488388,60.0,2900695.0,1.0
1136433.0116641,289298.03125,282579.15625,318594.90625,290648.15625,295118.59375,275047.15625,275158.3125,282146.0,-0.171630859375,0.920654296875,-0.27294921875,3.570556402206421,0.0,-0.1220703050494194,60.0,2900696.0,1.0
1136433.0158532,289257.34375,282530.34375,318709.15625,290731.9375,295253.5,275040.28125,275158.9375,282292.1875,-0.17138671875,0.922607421875,-0.274169921875,3.448486089706421,-0.03051757626235485,-0.0915527269244194,60.0,2900697.0,1.0
1136433.0158963,288405.5625,282424.6875,317769.03125,289141.28125,294665.21875,274930.40625,274860.84375,281727.65625,-0.169189453125,0.921142578125,-0.274658203125,3.479003667831421,-0.0610351525247097,0.0,60.0,2900698.0,1.0
1136433.0240129,287871.96875,282372.5625,316993.4375,287953.59375,294097.90625,274832.6875,274620.78125,281138.09375,-0.1708984375,0.91845703125,-0.27490234375,3.509521245956421,-0.1831054538488388,-0.03051757626235485,60.0,2900699.0,1.0
1136433.0333094,288439.71875,282483.5,317508.4375,288887.0,294378.5625,274911.375,274810.96875,281397.84375,-0.16845703125,0.91943359375,-0.273681640625,3.570556402206421,-0.1220703050494194,0.0915527269244194,60.0,2900700.0,1.0
1136433.0333593,289324.84375,282597.84375,318608.5625,290647.875,295126.5625,275059.15625,275165.46875,282153.59375,-0.16845703125,0.919921875,-0.27392578125,3.479003667831421,-0.1525878757238388,0.0915527269244194,60.0,2900701.0,1.0
1136433.0422264,289290.15625,282561.46875,318738.3125,290750.875,295271.84375,275059.96875,275172.875,282306.65625,-0.16748046875,0.919189453125,-0.273681640625,3.540038824081421,-0.2441406100988388,0.1831054538488388,60.0,2900702.0,1.0
1136433.0422711,288421.1875,282450.96875,317791.75,289160.40625,294678.0,274943.53125,274869.96875,281740.90625,-0.168212890625,0.919921875,-0.275146484375,3.479003667831421,-0.1525878757238388,0.2746581733226776,60.0,2900703.0,1.0
1136433.0483553,287866.96875,282391.25,317001.9375,287958.0,294101.125,274839.46875,274626.34375,281149.1875,-0.167236328125,0.917724609375,-0.27734375,3.509521245956421,-0.1220703050494194,0.3051757514476776,60.0,2900704.0,1.0
1136433.0483985,288407.78125,282485.28125,317499.21875,288868.0625,294369.4375,274907.96875,274806.75,281389.0625,-0.166748046875,0.91845703125,-0.279541015625,3.540038824081421,-0.0610351525247097,0.4577636420726776,60.0,2900705.0,1.0
1136433.0571608,289281.84375,282589.8125,318592.75,290622.59375,295110.625,275048.78125,275156.0625,282134.90625,-0.16796875,0.91943359375,-0.27783203125,3.570556402206421,0.03051757626235485,0.4272460639476776,60.0,2900706.0,1.0
1136433.0572039,289244.625,282542.15625,318719.1875,290727.71875,295252.96875,275044.03125,275160.0,282290.46875,-0.167724609375,0.919189453125,-0.277099609375,3.570556402206421,-0.0610351525247097,0.4272460639476776,60.0,2900707.0,1.0
1136433.0633162,288387.84375,282433.625,317778.0,289150.59375,294669.6875,274935.9375,274862.90625,281734.8125,-0.1669921875,0.917236328125,-0.27783203125,3.631591558456421,-0.03051757626235485,0.3967284858226776,60.0,2900708.0,1.0
1136433.0633585,287844.15625,282382.9375,316992.625,287954.9375,294103.5625,274844.03125,274628.65625,281146.78125,-0.1650390625,0.918701171875,-0.277099609375,3.540038824081421,-0.03051757626235485,0.4272460639476776,60.0,2900709.0,1.0
1136433.0696694,288388.9375,282479.9375,317481.875,288855.71875,294367.125,274914.3125,274806.3125,281384.4375,-0.166015625,0.916259765625,-0.27587890625,3.509521245956421,0.03051757626235485,0.4577636420726776,60.0,2900710.0,1.0
1136433.0697128,289270.46875,282585.25,318571.21875,290610.6875,295106.4375,275054.40625,275153.90625,282133.03125,-0.167236328125,0.91748046875,-0.27685546875,3.570556402206421,-0.03051757626235485,0.4577636420726776,60.0,2900711.0,1.0
1136433.0715774,289254.375,282547.875,318714.625,290739.78125,295260.84375,275054.84375,275165.90625,282295.5625,-0.167724609375,0.9150390625,-0.27490234375,3.570556402206421,-0.1220703050494194,0.3967284858226776,60.0,2900712.0,1.0
1136433.0801433,288408.59375,282444.625,317783.625,289165.875,294683.28125,274949.625,274874.4375,281737.5,-0.16845703125,0.915771484375,-0.277587890625,3.601073980331421,-0.03051757626235485,0.3662109076976776,60.0,2900713.0,1.0
1136433.0896085,287866.25,282394.28125,316997.46875,287960.65625,294114.90625,274854.40625,274637.15625,281142.3125,-0.168212890625,0.91796875,-0.27783203125,3.601073980331421,0.0,0.2746581733226776,60.0,2900714.0,1.0
1136433.0896512,288412.8125,282498.34375,317488.75,288855.71875,294375.875,274925.5625,274817.65625,281377.1875,-0.167236328125,0.91796875,-0.27978515625,3.753661870956421,0.03051757626235485,0.1831054538488388,60.0,2900715.0,1.0
1136433.0922651,289290.25,282600.09375,318574.34375,290605.5,295102.84375,275055.75,275156.5,282119.09375,-0.164794921875,0.920654296875,-0.27978515625,3.753661870956421,0.03051757626235485,0.0915527269244194,60.0,2900716.0,1.0
1136433.0923085,289270.65625,282554.3125,318712.8125,290733.09375,295246.96875,275047.53125,275160.09375,282276.875,-0.1611328125,0.9189453125,-0.280517578125,3.723144292831421,0.0610351525247097,0.0915527269244194,60.0,2900717.0,1.0
1136433.102757,288424.96875,282448.8125,317784.6875,289165.25,294665.46875,274937.375,274865.9375,281716.40625,-0.15966796875,0.922119140625,-0.280029296875,3.662109136581421,0.1220703050494194,0.2441406100988388,60.0,2900718.0,1.0
1136433.1071236,287865.53125,282385.78125,316986.46875,287945.1875,294082.375,274833.84375,274618.90625,281110.3125,-0.160888671875,0.92333984375,-0.281005859375,3.601073980331421,0.2441406100988388,0.4272460639476776,60.0,2900719.0,1.0
1136433.1071657,288395.4375,282476.34375,317459.53125,288823.34375,294331.09375,274896.25,274787.4375,281332.75,-0.159423828125,0.92333984375,-0.281005859375,3.601073980331421,0.4272460639476776,0.3051757514476776,60.0,2900720.0,1.0
1136433.1245729,289269.9375,282577.375,318544.03125,290577.0625,295061.71875,275027.15625,275128.4375,282072.6875,-0.16015625,0.92431640625,-0.280517578125,3.479003667831421,0.4882812201976776,0.3967284858226776,60.0,2900721.0,1.0
1136433.1246151,289250.71875,282536.6875,318690.28125,290711.28125,295217.21875,275025.34375,275140.0625,282239.0625,-0.159912109375,0.92138671875,-0.279052734375,3.326415777206421,0.5798339247703552,0.2746581733226776,60.0,2900722.0,1.0
1136433.1271937,288409.9375,282434.25,317770.21875,289153.8125,294647.3125,274922.0,274850.84375,281690.90625,-0.1630859375,0.920166015625,-0.278564453125,3.295898199081421,0.5798339247703552,0.3662109076976776,60.0,2900723.0,1.0
1136433.1272283,287876.28125,282391.0625,316993.34375,287958.4375,294088.53125,274837.78125,274624.53125,281110.21875,-0.165283203125,0.918212890625,-0.27880859375,3.234863042831421,0.6103515028953552,0.3662109076976776,60.0,2900724.0,1.0
1136433.1291053,288429.96875,282501.5625,317484.90625,288849.625,294357.5625,274922.8125,274815.6875,281354.90625,-0.16357421875,0.917236328125,-0.279541015625,3.204345464706421,0.7019042372703552,0.3662109076976776,60.0,2900725.0,1.0
1136433.1314916,289303.28125,282590.53125,318564.78125,290597.1875,295083.71875,275051.0,275154.71875,282090.75,-0.163818359375,0.915283203125,-0.28466796875,3.265380620956421,0.8239745497703552,0.3051757514476776,60.0,2900726.0,1.0
1136433.1402098,289284.59375,282538.5,318704.96875,290731.375,295227.03125,275036.96875,275152.84375,282243.34375,-0.1640625,0.914794921875,-0.28271484375,3.326415777206421,0.8544921278953552,0.3356933295726776,60.0,2900727.0,1.0
1136433.1478195,288429.59375,282426.1875,317772.25,289161.5,294645.53125,274923.15625,274851.09375,281684.5625,-0.161865234375,0.9150390625,-0.28173828125,3.326415777206421,0.9765624403953552,0.3967284858226776,60.0,2900728.0,1.0
1136433.147865,287871.78125,282377.90625,316977.25,287940.8125,294073.5,274831.59375,274614.96875,281089.125,-0.1611328125,0.915283203125,-0.281005859375,3.417968511581421,0.8239745497703552,0.3662109076976776,60.0,2900729.0,1.0
1136433.1478783,288399.75,282484.125,317451.03125,288809.6875,294327.15625,274904.03125,274792.1875,281316.21875,-0.16162109375,0.9169921875,-0.284423828125,3.356933355331421,0.9460448622703552,0.3967284858226776,60.0,2900730.0,1.0
1136433.1508531,289269.84375,282587.125,318536.59375,290560.96875,295059.21875,275037.25,275133.28125,282056.5,-0.159912109375,0.918212890625,-0.2841796875,3.387450933456421,0.9460448622703552,0.3967284858226776,60.0,2900731.0,1.0
1136433.150903,289268.0625,282556.71875,318704.25,290725.9375,295226.59375,275043.875,275153.65625,282233.625,-0.158935546875,0.917724609375,-0.283203125,3.356933355331421,1.0375975370407104,0.4272460639476776,60.0,2900732.0,1.0
1136433.1639968,288428.4375,282451.5,317785.75,289175.8125,294655.71875,274939.0625,274866.46875,281686.4375,-0.158203125,0.916015625,-0.284912109375,3.387450933456421,1.1901854276657104,0.5187987685203552,60.0,2900733.0,1.0
1136433.1665095,287871.96875,282393.75,316984.78125,287951.375,294077.96875,274840.71875,274624.375,281084.46875,-0.158935546875,0.914794921875,-0.285888671875,3.356933355331421,1.2512205839157104,0.4882812201976776,60.0,2900734.0,1.0
1136433.1696501,288388.9375,282486.625,317440.46875,288796.71875,294318.125,274904.21875,274790.84375,281297.0625,-0.16015625,0.914794921875,-0.28466796875,3.509521245956421,1.3732908964157104,0.5187987685203552,60.0,2900735.0,1.0
1136433.1696915,289273.0625,282598.3125,318533.28125,290560.0,295059.5,275047.875,275143.0,282057.03125,-0.1611328125,0.916015625,-0.286865234375,3.601073980331421,1.5563963651657104,0.5187987685203552,60.0,2900736.0,1.0
1136433.1714952,289271.8125,282556.28125,318696.0,290731.75,295221.5,275045.90625,275157.5,282228.53125,-0.163330078125,0.91650390625,-0.28759765625,3.662109136581421,1.5563963651657104,0.4882812201976776,60.0,2900737.0,1.0
1136433.1802624,288447.65625,282464.1875,317795.59375,289197.25,294666.71875,274954.28125,274880.6875,281690.1875,-0.168212890625,0.91357421875,-0.285888671875,3.784179449081421,1.6479490995407104,0.2441406100988388,60.0,2900738.0,1.0
1136433.184609,287863.75,282388.03125,316970.625,287941.1875,294068.59375,274838.5,274619.90625,281070.34375,-0.169189453125,0.914306640625,-0.286865234375,3.845214605331421,1.5258787870407104,0.1831054538488388,60.0,2900739.0,1.0
1136433.1846521,288378.71875,282480.71875,317421.96875,288779.0,294302.5625,274901.78125,274787.53125,281280.09375,-0.168701171875,0.91552734375,-0.285888671875,3.997802495956421,1.3427733182907104,0.0610351525247097,60.0,2900740.0,1.0
1136433.1865382,289261.90625,282588.375,318516.21875,290541.03125,295041.4375,275041.28125,275140.5,282030.65625,-0.167724609375,0.920166015625,-0.288818359375,4.089354991912842,1.3732908964157104,-0.1525878757238388,60.0,2900741.0,1.0
1136433.1977813,289258.0625,282541.34375,318678.5,290709.125,295204.6875,275032.25,275150.625,282205.4375,-0.16650390625,0.924072265625,-0.2861328125,3.936767339706421,1.3122557401657104,-0.3662109076976776,60.0,2900742.0,1.0
1136433.2008587,288416.09375,282430.21875,317762.25,289162.21875,294635.6875,274920.46875,274853.96875,281660.0625,-0.164794921875,0.9248046875,-0.285888671875,3.967284917831421,1.2817381620407104,-0.3662109076976776,60.0,2900743.0,1.0
1136433.2009018,287859.90625,282382.9375,316967.34375,287932.40625,294067.15625,274833.65625,274619.625,281066.84375,-0.1630859375,0.923095703125,-0.287353515625,3.906249761581421,1.2817381620407104,-0.4272460639476776,60.0,2900744.0,1.0
1136433.2027152,288371.40625,282475.0,317419.90625,288767.375,294304.625,274899.125,274789.5,281275.15625,-0.16259765625,0.9228515625,-0.284423828125,3.845214605331421,1.3122557401657104,-0.3051757514476776,60.0,2900745.0,1.0
1136433.2116492,289248.03125,282575.78125,318507.09375,290528.0625,295038.21875,275036.09375,275138.375,282024.59375,-0.1611328125,0.923095703125,-0.288330078125,3.784179449081421,1.3732908964157104,-0.3051757514476776,60.0,2900746.0,1.0
1136433.2150593,289251.875,282531.15625,318676.53125,290708.0625,295207.375,275033.75,275152.75,282207.875,-0.160888671875,0.9228515625,-0.28564453125,3.692626714706421,1.3122557401657104,-0.2746581733226776,60.0,2900747.0,1.0
1136433.2214869,288415.84375,282424.21875,317767.0625,289173.28125,294643.125,274926.90625,274861.84375,281669.375,-0.158935546875,0.923828125,-0.288330078125,3.784179449081421,1.3732908964157104,-0.2746581733226776,60.0,2900748.0,1.0
1136433.2240739,287848.0,282370.59375,316961.25,287931.875,294064.5625,274832.3125,274619.34375,281069.09375,-0.1591796875,0.920166015625,-0.288818359375,3.723144292831421,1.4953612089157104,-0.2441406100988388,60.0,2900749.0,1.0
1136433.2278625,288353.0625,282467.78125,317406.0625,288753.78125,294297.65625,274901.34375,274788.15625,281280.90625,-0.159912109375,0.9189453125,-0.287109375,3.692626714706421,1.4953612089157104,-0.2136230319738388,60.0,2900750.0,1.0
1136433.2395681,289247.15625,282589.8125,318510.0625,290529.6875,295044.75,275052.1875,275149.4375,282039.0625,-0.162109375,0.91748046875,-0.285888671875,3.692626714706421,1.4953612089157104,-0.0915527269244194,60.0,2900751.0,1.0
1136433.2396105,289274.0625,282560.3125,318706.03125,290743.5625,295236.25,275062.90625,275181.8125,282238.8125,-0.160400390625,0.914794921875,-0.286865234375,3.753661870956421,1.6174315214157104,0.03051757626235485,60.0,2900752.0,1.0
1136433.2421552,288447.84375,282459.375,317805.875,289216.75,294678.78125,274957.21875,274893.125,281702.09375,-0.162109375,0.91357421875,-0.290283203125,3.753661870956421,1.6479490995407104,0.0,60.0,2900753.0,1.0
1136433.2421985,287877.15625,282405.46875,316992.625,287964.78125,294096.9375,274857.625,274647.4375,281096.71875,-0.160400390625,0.911865234375,-0.287841796875,3.845214605331421,1.6784666776657104,0.1220703050494194,60.0,2900754.0,1.0
1136433.2477191,288365.78125,282484.03125,317417.84375,288768.46875,294314.46875,274908.84375,274801.375,281295.03125,-0.16357421875,0.91064453125,-0.2900390625,3.967284917831421,1.8005369901657104,0.0915527269244194,60.0,2900755.0,1.0
1136433.2596832,289251.25,282588.5625,318514.53125,290539.6875,295053.15625,275049.75,275155.34375,282043.8125,-0.16357421875,0.910400390625,-0.2880859375,4.058837413787842,1.8615721464157104,0.03051757626235485,60.0,2900756.0,1.0
1136433.2597291,289267.625,282545.09375,318699.9375,290748.09375,295231.78125,275047.0,275174.9375,282233.96875,-0.1630859375,0.91162109375,-0.28857421875,4.028319835662842,1.8615721464157104,0.0610351525247097,60.0,2900757.0,1.0
1136433.2621484,288436.59375,282433.0,317794.0,289220.6875,294670.75,274934.15625,274880.25,281696.375,-0.16162109375,0.912841796875,-0.289306640625,4.089354991912842,1.8310545682907104,0.0915527269244194,60.0,2900758.0,1.0
1136433.2621918,287865.8125,282374.6875,316978.59375,287967.46875,294088.53125,274837.875,274633.46875,281093.84375,-0.1630859375,0.912109375,-0.289306640625,4.058837413787842,1.8005369901657104,0.0915527269244194,60.0,2900759.0,1.0
1136433.264104,288375.96875,282477.59375,317422.78125,288789.75,294325.46875,274915.125,274809.875,281308.53125,-0.16357421875,0.9130859375,-0.29052734375,4.119872570037842,1.8310545682907104,0.1220703050494194,60.0,2900760.0,1.0
1136433.2777627,289259.125,282586.6875,318521.84375,290562.6875,295068.6875,275059.0625,275168.5,282069.09375,-0.1650390625,0.914306640625,-0.28857421875,4.119872570037842,1.8005369901657104,0.1525878757238388,60.0,2900761.0,1.0
1136433.2809673,289282.0,282550.75,318716.03125,290775.03125,295251.28125,275061.84375,275194.78125,282263.65625,-0.163818359375,0.911865234375,-0.288330078125,4.058837413787842,1.7395018339157104,0.1220703050494194,60.0,2900762.0,1.0
1136433.2810116,288463.5,282454.34375,317822.78125,289256.53125,294699.0,274961.6875,274911.375,281731.25,-0.1640625,0.9130859375,-0.292236328125,4.150390148162842,1.6174315214157104,0.2441406100988388,60.0,2900763.0,1.0
1136433.2871538,287882.78125,282393.84375,317000.40625,287993.9375,294109.09375,274857.71875,274656.46875,281117.8125,-0.16650390625,0.9111328125,-0.28955078125,4.119872570037842,1.5563963651657104,0.2746581733226776,60.0,2900764.0,1.0
1136433.2871965,288366.65625,282482.53125,317422.5,288781.59375,294322.5,274915.75,274810.59375,281307.96875,-0.16552734375,0.911376953125,-0.292236328125,4.119872570037842,1.5258787870407104,0.1831054538488388,60.0,2900765.0,1.0
1136433.3008179,289252.96875,282590.34375,318520.875,290553.75,295060.5625,275058.0625,275166.09375,282065.25,-0.165771484375,0.913330078125,-0.29296875,4.028319835662842,1.4343260526657104,0.0915527269244194,60.0,2900766.0,1.0
1136433.3008689,289285.3125,282554.0625,318725.78125,290780.90625,295253.6875,275065.59375,275199.34375,282274.46875,-0.164794921875,0.914794921875,-0.29248046875,4.028319835662842,1.3427733182907104,0.0,60.0,2900767.0,1.0
1136433.3033076,288470.03125,282455.4375,317838.6875,289273.4375,294705.8125,274964.8125,274916.28125,281752.5,-0.1640625,0.9130859375,-0.29345703125,3.967284917831421,1.3427733182907104,0.1220703050494194,60.0,2900768.0,1.0
1136433.3033484,287884.84375,282394.625,317013.71875,288006.34375,294116.875,274865.59375,274665.75,281140.625,-0.163330078125,0.911865234375,-0.29443359375,4.028319835662842,1.3122557401657104,0.0,60.0,2900769.0,1.0
1136433.3121164,288355.84375,282473.125,317418.125,288774.28125,294318.3125,274914.75,274811.21875,281314.875,-0.163330078125,0.912109375,-0.294677734375,3.906249761581421,1.2207030057907104,0.03051757626235485,60.0,2900770.0,1.0
1136433.3121707,289232.84375,282575.875,318505.9375,290536.5625,295046.71875,275047.71875,275155.1875,282058.90625,-0.1650390625,0.912353515625,-0.29638671875,3.845214605331421,1.1291502714157104,0.03051757626235485,60.0,2900771.0,1.0
1136433.3221801,289273.96875,282551.28125,318718.625,290779.9375,295248.40625,275059.59375,275192.8125,282273.84375,-0.165771484375,0.9130859375,-0.294677734375,3.845214605331421,1.0070799589157104,0.0,60.0,2900772.0,1.0
1136433.3222852,288468.84375,282455.96875,317842.90625,289285.59375,294708.5625,274961.59375,274915.84375,281764.125,-0.16552734375,0.912841796875,-0.297119140625,3.845214605331421,0.9765624403953552,0.0,60.0,2900773.0,1.0
1136433.3283154,287872.96875,282381.5,317007.5625,288001.875,294107.5,274846.375,274654.9375,281143.125,-0.1650390625,0.9130859375,-0.299560546875,3.784179449081421,0.9460448622703552,-0.0610351525247097,60.0,2900774.0,1.0
1136433.3283578,288357.71875,282476.34375,317426.0,288779.8125,294324.46875,274913.40625,274817.21875,281329.71875,-0.165771484375,0.914306640625,-0.294921875,3.753661870956421,0.9155272841453552,-0.0915527269244194,60.0,2900775.0,1.0
1136433.3371594,289245.28125,282586.875,318518.09375,290547.3125,295061.09375,275056.375,275170.375,282081.34375,-0.162109375,0.9150390625,-0.295166015625,3.692626714706421,0.9155272841453552,-0.1525878757238388,60.0,2900776.0,1.0
1136433.3372021,289295.78125,282561.65625,318736.6875,290796.9375,295263.0625,275066.21875,275201.65625,282296.5625,-0.163818359375,0.9150390625,-0.2998046875,3.631591558456421,0.7324218153953552,-0.1220703050494194,60.0,2900777.0,1.0
1136433.3434658,288472.78125,282450.15625,317845.65625,289285.3125,294706.5,274949.96875,274902.15625,281769.0625,-0.1630859375,0.913818359375,-0.30078125,3.723144292831421,0.7629393935203552,0.0915527269244194,60.0,2900778.0,1.0
1136433.3435103,287889.84375,282395.53125,317025.0,288008.78125,294121.78125,274854.84375,274655.9375,281158.0625,-0.164794921875,0.917724609375,-0.298583984375,3.601073980331421,0.7934569716453552,0.0,60.0,2900779.0,1.0
1136433.3495649,288357.71875,282478.0625,317423.40625,288763.8125,294320.71875,274907.875,274804.25,281329.25,-0.1640625,0.91650390625,-0.2998046875,3.540038824081421,0.6713866591453552,0.0,60.0,2900780.0,1.0
1136433.3496077,289239.71875,282586.78125,318514.78125,290535.9375,295056.0,275048.25,275159.09375,282081.25,-0.16259765625,0.915283203125,-0.300537109375,3.448486089706421,0.7019042372703552,-0.1220703050494194,60.0,2900781.0,1.0
1136433.3552642,289291.75,282560.5,318738.65625,290798.4375,295261.8125,275059.96875,275198.71875,282298.875,-0.163818359375,0.91357421875,-0.300537109375,3.417968511581421,0.6103515028953552,-0.1831054538488388,60.0,2900782.0,1.0
1136433.364569,288477.96875,282460.78125,317860.15625,289301.875,294721.96875,274959.625,274918.5,281784.0625,-0.166015625,0.91650390625,-0.302490234375,3.356933355331421,0.6408690810203552,-0.0915527269244194,60.0,2900783.0,1.0
1136433.3646106,287894.15625,282403.9375,317041.8125,288040.0625,294140.84375,274865.40625,274672.5625,281189.78125,-0.166015625,0.915283203125,-0.304443359375,3.295898199081421,0.5187987685203552,-0.0610351525247097,60.0,2900784.0,1.0
1136433.3666409,288348.15625,282475.0,317425.0,288775.4375,294329.03125,274912.6875,274813.28125,281353.59375,-0.16259765625,0.91552734375,-0.304931640625,3.204345464706421,0.4577636420726776,-0.1220703050494194,60.0,2900785.0,1.0
1136433.3777868,289230.34375,282583.8125,318512.46875,290538.1875,295062.8125,275053.4375,275167.0625,282095.21875,-0.162841796875,0.91455078125,-0.302978515625,3.051757574081421,0.3356933295726776,-0.0915527269244194,60.0,2900786.0,1.0
1136433.3863894,289282.46875,282549.40625,318735.4375,290801.9375,295263.15625,275056.1875,275199.4375,282307.28125,-0.16552734375,0.91455078125,-0.302734375,2.990722417831421,0.3051757514476776,-0.2136230319738388,60.0,2900787.0,1.0
1136433.38643,288473.9375,282443.53125,317860.0625,289315.1875,294720.8125,274951.40625,274912.96875,281789.78125,-0.167236328125,0.911865234375,-0.302734375,2.960204839706421,0.2136230319738388,-0.2746581733226776,60.0,2900788.0,1.0
1136433.3864413,287893.875,282395.34375,317042.15625,288042.5625,294138.5,274860.5,274668.1875,281186.75,-0.16552734375,0.911376953125,-0.302978515625,2.960204839706421,0.1220703050494194,-0.3662109076976776,60.0,2900789.0,1.0
1136433.3890701,288359.0625,282479.21875,317435.75,288784.375,294334.3125,274916.8125,274817.46875,281361.625,-0.16455078125,0.909912109375,-0.301513671875,2.868652105331421,0.0915527269244194,-0.3662109076976776,60.0,2900790.0,1.0
1136433.3916422,289252.78125,282589.625,318534.09375,290559.0,295077.09375,275063.625,275178.96875,282118.0,-0.16162109375,0.910888671875,-0.302001953125,2.899169683456421,0.03051757626235485,-0.4272460639476776,60.0,2900791.0,1.0
1136433.3941119,289322.6875,282568.09375,318778.90625,290851.375,295296.96875,275082.3125,275229.28125,282352.15625,-0.160888671875,0.914306640625,-0.30615234375,3.021239995956421,0.0915527269244194,-0.4577636420726776,60.0,2900792.0,1.0
1136433.3977141,288512.65625,282468.03125,317908.96875,289365.59375,294759.96875,274980.46875,274950.875,281842.625,-0.16162109375,0.91357421875,-0.30419921875,2.899169683456421,0.03051757626235485,-0.5187987685203552,60.0,2900793.0,1.0
1136433.4241116,287895.59375,282390.53125,317057.625,288053.75,294150.59375,274862.375,274680.6875,281212.125,-0.16455078125,0.916748046875,-0.30322265625,2.777099370956421,0.1525878757238388,-0.4272460639476776,60.0,2900794.0,1.0
1136433.4272338,288340.5625,282465.28125,317431.1875,288770.5,294332.0625,274909.3125,274818.1875,281367.15625,-0.16357421875,0.916015625,-0.304443359375,2.655029058456421,0.1525878757238388,-0.4577636420726776,60.0,2900795.0,1.0
1136433.4272799,289220.5,282572.5625,318516.9375,290534.78125,295060.9375,275044.5625,275166.78125,282110.9375,-0.161865234375,0.915771484375,-0.3037109375,2.532958745956421,0.03051757626235485,-0.5187987685203552,60.0,2900796.0,1.0
1136433.4290325,289297.5625,282559.9375,318767.90625,290831.0,295286.59375,275067.03125,275221.15625,282349.125,-0.162841796875,0.916015625,-0.302734375,2.471923589706421,-0.03051757626235485,-0.4577636420726776,60.0,2900797.0,1.0
1136433.4315313,288505.4375,282469.125,317910.5,289368.75,294766.59375,274978.25,274954.375,281861.21875,-0.162841796875,0.913818359375,-0.302978515625,2.380370855331421,0.03051757626235485,-0.5187987685203552,60.0,2900798.0,1.0
1136433.4340247,287916.6875,282416.4375,317084.90625,288086.09375,294182.84375,274888.125,274710.46875,281260.59375,-0.16357421875,0.9130859375,-0.30517578125,2.380370855331421,-0.0610351525247097,-0.5187987685203552,60.0,2900799.0,1.0
1136433.4365787,288355.03125,282487.8125,317447.0,288788.5,294352.28125,274926.28125,274838.3125,281396.9375,-0.162841796875,0.911376953125,-0.3076171875,2.410888433456421,-0.0610351525247097,-0.4882812201976776,60.0,2900800.0,1.0
1136433.4391224,289224.4375,282581.21875,318518.0,290536.40625,295061.625,275048.40625,275169.3125,282119.625,-0.163330078125,0.910888671875,-0.3056640625,2.471923589706421,0.03051757626235485,-0.6408690810203552,60.0,2900801.0,1.0
1136433.4415288,289289.96875,282553.6875,318761.375,290835.1875,295279.875,275058.0625,275210.59375,282350.28125,-0.162353515625,0.90771484375,-0.304931640625,2.441406011581421,-0.0915527269244194,-0.5798339247703552,60.0,2900802.0,1.0
1136433.4440242,288493.09375,282459.53125,317908.15625,289371.0625,294761.125,274964.8125,274943.375,281847.90625,-0.1640625,0.908203125,-0.304443359375,2.441406011581421,-0.0610351525247097,-0.5798339247703552,60.0,2900803.0,1.0
1136433.4466422,287904.15625,282412.6875,317085.34375,288087.0,294181.78125,274876.9375,274703.75,281253.1875,-0.163330078125,0.90771484375,-0.3046875,2.380370855331421,-0.03051757626235485,-0.6408690810203552,60.0,2900804.0,1.0
1136433.4508736,288331.15625,282477.4375,317437.0625,288775.0,294344.40625,274912.625,274824.90625,281389.34375,-0.16064453125,0.90625,-0.305908203125,2.349853277206421,0.03051757626235485,-0.7629393935203552,60.0,2900805.0,1.0
1136433.4509242,289218.25,282584.09375,318523.1875,290539.15625,295071.125,275051.375,275173.84375,282124.8125,-0.159423828125,0.9052734375,-0.3076171875,2.380370855331421,0.03051757626235485,-0.7324218153953552,60.0,2900806.0,1.0
1136433.4591131,289290.25,282553.40625,318766.375,290839.03125,295283.8125,275062.375,275213.8125,282347.59375,-0.160400390625,0.906494140625,-0.3095703125,2.532958745956421,0.0915527269244194,-0.6408690810203552,60.0,2900807.0,1.0
1136433.4621622,288505.25,282456.3125,317916.5625,289385.8125,294760.25,274970.09375,274942.03125,281851.5625,-0.160400390625,0.90625,-0.310546875,2.685546636581421,0.0610351525247097,-0.5493163466453552,60.0,2900808.0,1.0
1136433.4622051,287895.9375,282387.3125,317071.5,288078.59375,294162.03125,274868.90625,274686.5,281236.46875,-0.1591796875,0.9052734375,-0.306884765625,2.746581792831421,0.1220703050494194,-0.6713866591453552,60.0,2900809.0,1.0
1136433.4642261,288331.96875,282462.5,317432.53125,288774.53125,294340.46875,274920.125,274828.03125,281384.25,-0.15576171875,0.90576171875,-0.3037109375,2.563476324081421,0.2746581733226776,-0.5798339247703552,60.0,2900810.0,1.0
1136433.4802859,289218.0,282570.15625,318518.8125,290541.5,295067.625,275058.625,275178.6875,282124.4375,-0.157470703125,0.906005859375,-0.30615234375,2.746581792831421,0.2746581733226776,-0.6408690810203552,60.0,2900811.0,1.0
1136433.483343,289278.96875,282530.4375,318754.03125,290835.5625,295273.0,275054.40625,275204.875,282343.9375,-0.156494140625,0.90380859375,-0.307373046875,2.838134527206421,0.3051757514476776,-0.7324218153953552,60.0,2900812.0,1.0
1136433.4833871,288486.8125,282433.78125,317902.53125,289382.0625,294746.46875,274954.53125,274930.40625,281844.96875,-0.1572265625,0.902587890625,-0.30810546875,2.807616949081421,0.3967284858226776,-0.7934569716453552,60.0,2900813.0,1.0
1136433.4853097,287881.375,282377.375,317064.25,288073.6875,294152.28125,274858.53125,274681.21875,281232.96875,-0.16015625,0.90283203125,-0.306640625,2.990722417831421,0.4272460639476776,-0.6408690810203552,60.0,2900814.0,1.0
1136433.487891,288325.90625,282471.15625,317429.9375,288767.46875,294338.15625,274920.9375,274831.25,281391.3125,-0.16259765625,0.906005859375,-0.30712890625,3.021239995956421,0.4882812201976776,-0.5493163466453552,60.0,2900815.0,1.0
1136433.4914896,289213.96875,282585.4375,318519.875,290537.28125,295070.5,275061.125,275183.875,282132.6875,-0.164794921875,0.907470703125,-0.30615234375,3.173827886581421,0.5493163466453552,-0.7019042372703552,60.0,2900816.0,1.0
1136433.5008696,289286.9375,282550.21875,318768.4375,290852.1875,295286.0625,275061.28125,275218.84375,282356.28125,-0.1669921875,0.907470703125,-0.3046875,3.204345464706421,0.4577636420726776,-0.7324218153953552,60.0,2900817.0,1.0
1136433.5009127,288493.4375,282449.34375,317917.09375,289398.34375,294761.3125,274960.8125,274944.0,281855.59375,-0.16748046875,0.908447265625,-0.304931640625,3.173827886581421,0.4882812201976776,-0.8544921278953552,60.0,2900818.0,1.0
1136433.5033583,287884.59375,282387.125,317071.9375,288079.21875,294163.71875,274860.125,274686.6875,281239.21875,-0.16650390625,0.90673828125,-0.305419921875,3.143310308456421,0.3967284858226776,-0.9155272841453552,60.0,2900819.0,1.0
1136433.5034013,288321.25,282468.3125,317422.15625,288753.09375,294331.53125,274911.0,274821.6875,281375.84375,-0.168212890625,0.906494140625,-0.30615234375,3.234863042831421,0.3662109076976776,-1.0681151151657104,60.0,2900820.0,1.0
1136433.5115814,289208.6875,282574.25,318505.84375,290519.6875,295053.59375,275044.84375,275166.78125,282104.78125,-0.170166015625,0.909912109375,-0.30859375,3.234863042831421,0.3356933295726776,-0.9765624403953552,60.0,2900821.0,1.0
1136433.515284,289288.09375,282539.21875,318759.5,290835.625,295271.75,275047.875,275204.0,282331.34375,-0.1689453125,0.911376953125,-0.307373046875,3.234863042831421,0.2136230319738388,-1.0681151151657104,60.0,2900822.0,1.0
1136433.5189629,288497.90625,282437.0,317908.6875,289379.65625,294748.53125,274947.40625,274925.3125,281830.125,-0.169921875,0.912109375,-0.307861328125,3.204345464706421,0.1220703050494194,-1.1901854276657104,60.0,2900823.0,1.0
1136433.5333579,287895.65625,282385.59375,317067.375,288063.125,294155.59375,274857.4375,274676.21875,281219.46875,-0.16943359375,0.911865234375,-0.307373046875,3.204345464706421,0.0915527269244194,-1.2817381620407104,60.0,2900824.0,1.0
1136433.5334007,288328.5625,282470.09375,317415.96875,288734.40625,294324.125,274913.875,274813.1875,281355.1875,-0.166748046875,0.914306640625,-0.308349609375,3.051757574081421,0.03051757626235485,-1.2817381620407104,60.0,2900825.0,1.0
1136433.5359175,289221.5625,282583.375,318508.8125,290507.875,295055.5625,275057.0,275166.71875,282091.1875,-0.1630859375,0.912353515625,-0.309814453125,3.051757574081421,0.0,-1.2817381620407104,60.0,2900826.0,1.0
1136433.53596,289307.03125,282551.71875,318771.9375,290841.4375,295281.59375,275062.0,275206.9375,282324.53125,-0.1640625,0.915771484375,-0.30615234375,3.021239995956421,-0.0915527269244194,-1.2207030057907104,60.0,2900827.0,1.0
1136433.5471658,288518.21875,282452.84375,317924.25,289395.375,294760.5,274958.9375,274928.96875,281836.28125,-0.165771484375,0.915771484375,-0.306640625,2.838134527206421,-0.03051757626235485,-1.0986326932907104,60.0,2900828.0,1.0
1136433.5472117,287902.375,282393.21875,317075.6875,288074.75,294162.84375,274861.46875,274675.59375,281225.46875,-0.16650390625,0.9150390625,-0.308349609375,2.899169683456421,0.0610351525247097,-1.1291502714157104,60.0,2900829.0,1.0
1136433.5533698,288306.3125,282458.75,317401.59375,288726.78125,294311.15625,274900.09375,274801.21875,281334.53125,-0.1650390625,0.916259765625,-0.306396484375,2.777099370956421,0.0915527269244194,-1.0681151151657104,60.0,2900830.0,1.0
1136433.5534133,289185.0,282559.0625,318482.0625,290489.71875,295033.21875,275034.375,275152.65625,282067.9375,-0.166259765625,0.917236328125,-0.30859375,2.563476324081421,-0.03051757626235485,-0.9765624403953552,60.0,2900831.0,1.0
1136433.5596138,289283.0,282533.03125,318756.09375,290841.4375,295267.4375,275046.71875,275203.28125,282314.71875,-0.1640625,0.9169921875,-0.30908203125,2.441406011581421,0.0,-0.8850097060203552,60.0,2900832.0,1.0
1136433.5596581,288506.5,282441.40625,317927.125,289414.25,294763.46875,274958.5625,274942.84375,281835.3125,-0.16357421875,0.91796875,-0.306396484375,2.288818120956421,0.0915527269244194,-0.7629393935203552,60.0,2900833.0,1.0
1136433.5659704,287896.125,282389.09375,317081.6875,288089.5,294170.6875,274870.21875,274697.3125,281228.0625,-0.163330078125,0.9169921875,-0.303955078125,2.227782964706421,0.1525878757238388,-0.6713866591453552,60.0,2900834.0,1.0
1136433.5660141,288300.6875,282454.8125,317399.78125,288722.25,294313.5625,274905.8125,274815.96875,281344.625,-0.162353515625,0.91650390625,-0.306884765625,2.044677495956421,0.1220703050494194,-0.5798339247703552,60.0,2900835.0,1.0
1136433.576463,289191.34375,282563.15625,318484.46875,290492.3125,295040.28125,275041.71875,275165.625,282081.34375,-0.164794921875,0.914306640625,-0.310302734375,1.8920897245407104,0.1525878757238388,-0.3967284858226776,60.0,2900836.0,1.0
1136433.5832207,289300.0625,282547.15625,318771.28125,290854.15625,295287.65625,275061.375,275223.46875,282335.90625,-0.16259765625,0.912841796875,-0.308837890625,1.8310545682907104,0.1831054538488388,-0.3662109076976776,60.0,2900837.0,1.0
1136433.5832585,288506.3125,282436.65625,317921.03125,289403.15625,294761.5,274955.0,274938.71875,281834.59375,-0.163818359375,0.91064453125,-0.307861328125,1.7089842557907104,0.2441406100988388,-0.3051757514476776,60.0,2900838.0,1.0
1136433.5900941,287886.28125,282374.4375,317066.125,288068.21875,294157.28125,274858.4375,274682.46875,281218.84375,-0.16357421875,0.911865234375,-0.308837890625,1.6784666776657104,0.2746581733226776,-0.2746581733226776,60.0,2900839.0,1.0
1136433.5901289,288303.375,282455.0625,317399.875,288712.84375,294312.84375,274907.25,274811.03125,281351.875,-0.1630859375,0.910888671875,-0.306884765625,1.6174315214157104,0.2746581733226776,-0.2746581733226776,60.0,2900840.0,1.0
1136433.5901408,289191.8125,282561.8125,318486.71875,290483.8125,295040.625,275043.9375,275159.03125,282091.8125,-0.161376953125,0.9091796875,-0.308837890625,1.6479490995407104,0.3356933295726776,-0.1831054538488388,60.0,2900841.0,1.0
1136433.5941011,289309.46875,282547.34375,318782.03125,290867.1875,295291.59375,275060.84375,275220.625,282346.34375,-0.16552734375,0.909423828125,-0.307861328125,1.4953612089157104,0.1525878757238388,-0.1831054538488388,60.0,2900842.0,1.0
1136433.5976546,288539.5,282459.1875,317960.375,289456.28125,294789.9375,274970.5625,274958.84375,281866.40625,-0.1689453125,0.9072265625,-0.3046875,1.4648436307907104,0.1831054538488388,-0.1525878757238388,60.0,2900843.0,1.0
1136433.6070228,287895.65625,282384.625,317082.03125,288090.3125,294169.625,274858.6875,274686.5,281232.25,-0.169189453125,0.90869140625,-0.3046875,1.4648436307907104,0.2136230319738388,-0.0915527269244194,60.0,2900844.0,1.0
1136433.6070576,288293.625,282455.4375,317394.59375,288707.125,294312.0625,274901.53125,274809.25,281349.125,-0.167724609375,0.91015625,-0.308837890625,1.3427733182907104,0.2746581733226776,-0.1220703050494194,60.0,2900845.0,1.0
1136433.6207064,289174.71875,282556.71875,318476.53125,290478.625,295032.3125,275033.65625,275157.3125,282086.53125,-0.1689453125,0.908203125,-0.312255859375,1.4038084745407104,0.2136230319738388,-0.2136230319738388,60.0,2900846.0,1.0
1136433.620728,289284.53125,282529.90625,318764.40625,290855.5625,295278.28125,275049.6875,275216.5,282342.875,-0.16796875,0.9072265625,-0.308837890625,1.3732908964157104,0.1831054538488388,-0.3051757514476776,60.0,2900847.0,1.0
1136433.6231316,288517.125,282438.71875,317943.21875,289444.46875,294778.40625,274960.28125,274954.46875,281867.9375,-0.1669921875,0.90966796875,-0.309814453125,1.1901854276657104,0.1525878757238388,-0.2136230319738388,60.0,2900848.0,1.0
1136433.6231519,287889.5,282379.15625,317080.875,288094.25,294170.875,274862.09375,274695.09375,281244.25,-0.16943359375,0.90771484375,-0.306884765625,1.2207030057907104,0.0610351525247097,-0.2746581733226776,60.0,2900849.0,1.0
1136433.6419312,288284.3125,282444.4375,317385.03125,288698.625,294303.03125,274895.90625,274805.5,281346.875,-0.16796875,0.9072265625,-0.306884765625,1.1901854276657104,0.0,-0.3662109076976776,60.0,2900850.0,1.0
1136433.6419466,289179.90625,282551.90625,318474.1875,290472.5625,295028.65625,275031.875,275152.75,282084.9375,-0.167236328125,0.906005859375,-0.305419921875,1.1291502714157104,0.03051757626235485,-0.3967284858226776,60.0,2900851.0,1.0
1136433.6438771,289309.1875,282537.96875,318779.34375,290866.3125,295286.125,275054.40625,275217.125,282353.15625,-0.169189453125,0.90478515625,-0.30615234375,1.1291502714157104,0.0,-0.3662109076976776,60.0,2900852.0,1.0
1136433.6512153,288551.125,282452.40625,317968.0625,289463.40625,294793.25,274970.375,274962.59375,281885.09375,-0.167236328125,0.90625,-0.306640625,1.0681151151657104,-0.0610351525247097,-0.3662109076976776,60.0,2900853.0,1.0
1136433.6512283,287907.8125,282382.375,317092.9375,288095.3125,294176.25,274861.90625,274691.6875,281247.90625,-0.169677734375,0.906494140625,-0.30908203125,1.0375975370407104,-0.0610351525247097,-0.4577636420726776,60.0,2900854.0,1.0
1136433.6512327,288296.21875,282456.15625,317396.65625,288697.03125,294313.125,274905.71875,274812.9375,281356.71875,-0.16796875,0.907470703125,-0.3095703125,0.9155272841453552,-0.03051757626235485,-0.5798339247703552,60.0,2900855.0,1.0
1136433.6538793,289174.0,282550.125,318470.875,290464.15625,295026.84375,275028.65625,275151.6875,282080.625,-0.169189453125,0.90625,-0.30810546875,0.8850097060203552,-0.0915527269244194,-0.5798339247703552,60.0,2900856.0,1.0
1136433.6569176,289295.4375,282528.21875,318775.40625,290866.75,295283.0,275046.09375,275212.5625,282341.09375,-0.169677734375,0.9091796875,-0.308349609375,0.8850097060203552,-0.2441406100988388,-0.5798339247703552,60.0,2900857.0,1.0
1136433.6569304,288513.125,282423.5,317945.625,289452.875,294775.0,274942.21875,274937.5625,281854.15625,-0.167724609375,0.908447265625,-0.308837890625,0.7934569716453552,-0.1831054538488388,-0.6713866591453552,60.0,2900858.0,1.0
1136433.6588903,287867.40625,282354.9375,317065.84375,288083.0625,294156.9375,274835.1875,274668.71875,281220.625,-0.168212890625,0.91015625,-0.307373046875,0.7019042372703552,-0.2136230319738388,-0.5187987685203552,60.0,2900859.0,1.0
1136433.6725963,288254.1875,282426.65625,317360.90625,288672.53125,294286.3125,274876.75,274783.6875,281329.71875,-0.169189453125,0.90869140625,-0.30908203125,0.6713866591453552,-0.2746581733226776,-0.5187987685203552,60.0,2900860.0,1.0
1136433.6757143,289148.96875,282540.5625,318450.78125,290449.5,295013.90625,275020.625,275142.125,282061.6875,-0.169921875,0.9091796875,-0.308349609375,0.5187987685203552,-0.3967284858226776,-0.4882812201976776,60.0,2900861.0,1.0
1136433.6757404,289291.9375,282532.5,318775.9375,290878.375,295285.96875,275050.21875,275219.53125,282337.9375,-0.16943359375,0.909912109375,-0.30859375,0.5187987685203552,-0.4882812201976776,-0.4577636420726776,60.0,2900862.0,1.0
1136433.677597,288526.875,282436.5625,317956.1875,289469.0625,294784.3125,274955.875,274951.15625,281864.28125,-0.169677734375,0.909423828125,-0.308349609375,0.4882812201976776,-0.4882812201976776,-0.3356933295726776,60.0,2900863.0,1.0
1136433.6801141,287889.40625,282371.9375,317080.34375,288097.09375,294169.4375,274856.375,274685.78125,281236.28125,-0.171142578125,0.9111328125,-0.3125,0.3967284858226776,-0.4882812201976776,-0.3662109076976776,60.0,2900864.0,1.0
1136433.6889275,288288.6875,282458.46875,317387.1875,288691.125,294312.0625,274911.28125,274814.34375,281348.125,-0.168701171875,0.912841796875,-0.313720703125,0.1525878757238388,-0.5798339247703552,-0.3662109076976776,60.0,2900865.0,1.0
1136433.6920136,289175.8125,282561.75,318469.375,290463.34375,295032.9375,275044.125,275163.65625,282081.8125,-0.170166015625,0.9111328125,-0.30859375,0.0610351525247097,-0.6103515028953552,-0.3356933295726776,60.0,2900866.0,1.0
1136433.6920393,289292.125,282524.375,318769.78125,290865.5,295277.1875,275044.75,275211.78125,282337.0625,-0.17138671875,0.90966796875,-0.30859375,-0.1831054538488388,-0.6713866591453552,-0.4272460639476776,60.0,2900867.0,1.0
1136433.693971,288524.5625,282430.3125,317955.0,289461.4375,294776.0625,274948.8125,274945.59375,281860.15625,-0.17236328125,0.910400390625,-0.30712890625,-0.1831054538488388,-0.7019042372703552,-0.2746581733226776,60.0,2900868.0,1.0
1136433.7075924,287889.21875,282375.6875,317085.875,288091.90625,294167.3125,274855.21875,274687.3125,281233.6875,-0.173828125,0.908447265625,-0.30810546875,-0.2136230319738388,-0.7934569716453552,-0.2441406100988388,60.0,2900869.0,1.0
1136433.7106904,288273.875,282451.5,317379.40625,288672.71875,294297.03125,274899.5625,274805.59375,281335.25,-0.17333984375,0.90771484375,-0.310791015625,-0.2441406100988388,-0.9155272841453552,-0.0915527269244194,60.0,2900870.0,1.0
1136433.7107124,289175.625,282567.09375,318473.3125,290458.53125,295026.40625,275041.0,275162.25,282075.8125,-0.171630859375,0.907470703125,-0.312744140625,-0.2746581733226776,-0.9765624403953552,-0.0915527269244194,60.0,2900871.0,1.0
1136433.7125855,289312.40625,282543.9375,318793.03125,290885.71875,295292.3125,275056.375,275225.0,282348.15625,-0.171875,0.907958984375,-0.3134765625,-0.3356933295726776,-1.0681151151657104,-0.1220703050494194,60.0,2900872.0,1.0
1136433.7163297,288536.28125,282432.46875,317969.40625,289480.84375,294788.0625,274948.46875,274949.34375,281866.5,-0.172119140625,0.908935546875,-0.31298828125,-0.3967284858226776,-1.1901854276657104,-0.1220703050494194,60.0,2900873.0,1.0
1136433.7251465,287902.375,282380.5,317101.4375,288113.03125,294184.09375,274858.0625,274695.71875,281246.03125,-0.170654296875,0.90869140625,-0.3095703125,-0.3967284858226776,-1.0986326932907104,0.0,60.0,2900874.0,1.0
