Time,FZ,C3,CZ,C4,PZ,PO7,OZ,PO8,AccX,AccY,AccZ,Gyro1,Gyro2,Gyro3,Battery,Counter,Validation
178550.5311468,302860.15625,305940.6875,338122.53125,317432.78125,313616.8125,285352.5625,291552.40625,305796.8125,-0.057373046875,0.888427734375,-0.319091796875,0.7629393935203552,-0.5187987685203552,0.3051757514476776,100.0,64728.0,1.0
178550.5311841,303194.625,307449.25,339892.4375,318095.5625,314790.28125,285564.375,291793.625,305838.3125,-0.05615234375,0.888916015625,-0.3232421875,1.4343260526657104,-0.3662109076976776,0.1220703050494194,100.0,64729.0,1.0
178550.541877,303036.21875,306459.0625,339547.25,317618.21875,314363.34375,285247.625,291487.0625,305709.125,-0.056640625,0.889892578125,-0.32177734375,1.8615721464157104,-0.3356933295726776,0.0610351525247097,100.0,64730.0,1.0
178550.5449904,302673.75,304497.375,337838.6875,316797.625,313096.375,284899.0,291111.5625,305610.40625,-0.056396484375,0.89111328125,-0.321533203125,2.349853277206421,-0.1220703050494194,-0.0610351525247097,100.0,64731.0,1.0
178550.5450415,302477.59375,303996.25,336757.46875,316569.1875,312521.125,284915.65625,291113.875,305642.0625,-0.056884765625,0.890625,-0.32177734375,2.777099370956421,-0.1220703050494194,0.0610351525247097,100.0,64732.0,1.0
178550.550672,302810.4375,305813.09375,338002.90625,317406.0625,313583.375,285350.53125,291559.375,305803.71875,-0.0517578125,0.889892578125,-0.319580078125,3.234863042831421,0.0,-0.03051757626235485,100.0,64733.0,1.0
178550.5550181,303142.6875,307343.75,339765.03125,318070.34375,314763.375,285563.3125,291802.65625,305845.0,-0.05224609375,0.8916015625,-0.32177734375,3.723144292831421,0.3051757514476776,-0.0915527269244194,100.0,64734.0,1.0
178550.5550696,302983.8125,306360.34375,339417.5,317602.75,314346.71875,285252.96875,291502.78125,305721.90625,-0.0517578125,0.896484375,-0.320556640625,4.333495616912842,0.5798339247703552,-0.1831054538488388,100.0,64735.0,1.0
178550.5606883,302623.3125,304388.125,337697.40625,316781.28125,313081.875,284897.0625,291121.125,305617.03125,-0.0556640625,0.903564453125,-0.3212890625,4.882812023162842,0.7629393935203552,-0.3051757514476776,100.0,64736.0,1.0
178550.5744436,302429.3125,303874.40625,336598.25,316543.71875,312499.75,284908.21875,291113.96875,305643.75,-0.05859375,0.91064453125,-0.321533203125,5.126952648162842,0.9155272841453552,-0.4882812201976776,100.0,64737.0,1.0
178550.5775182,302756.71875,305673.09375,337807.03125,317370.5625,313539.8125,285345.4375,291555.8125,305804.78125,-0.0625,0.921630859375,-0.3203125,5.096435070037842,1.0070799589157104,-0.5798339247703552,100.0,64738.0,1.0
178550.5775752,303097.53125,307236.90625,339572.625,318049.96875,314725.0,285566.0,291807.03125,305853.0625,-0.067138671875,0.925048828125,-0.316650390625,4.974364757537842,0.9765624403953552,-0.5798339247703552,100.0,64739.0,1.0
178550.579357,302953.6875,306302.78125,339255.5,317597.03125,314324.375,285256.8125,291508.5,305729.15625,-0.068359375,0.92822265625,-0.31494140625,4.577636241912842,0.8850097060203552,-0.6713866591453552,100.0,64740.0,1.0
178550.5819469,302596.5,304340.21875,337545.25,316774.21875,313052.8125,284893.90625,291119.875,305618.71875,-0.07080078125,0.927734375,-0.31689453125,4.241942882537842,0.7629393935203552,-0.7324218153953552,100.0,64741.0,1.0
178550.5844454,302410.25,303817.8125,336437.5,316537.8125,312457.8125,284902.84375,291108.59375,305645.71875,-0.07080078125,0.922119140625,-0.31494140625,3.936767339706421,0.7629393935203552,-0.8850097060203552,100.0,64742.0,1.0
178550.593173,302740.4375,305615.875,337631.875,317359.5625,313486.8125,285338.4375,291549.03125,305808.90625,-0.0693359375,0.919189453125,-0.316650390625,3.875732183456421,0.7019042372703552,-1.0070799589157104,100.0,64743.0,1.0
178550.596189,303090.65625,307204.71875,339415.1875,318050.6875,314687.46875,285565.8125,291804.1875,305861.1875,-0.06982421875,0.915771484375,-0.31884765625,3.967284917831421,0.4882812201976776,-1.0375975370407104,100.0,64744.0,1.0
178550.5962371,302961.0,306297.875,339129.34375,317612.84375,314306.75,285261.375,291513.15625,305743.34375,-0.069091796875,0.913330078125,-0.32177734375,4.028319835662842,0.3051757514476776,-1.0986326932907104,100.0,64745.0,1.0
178550.606953,302616.34375,304336.28125,337434.5625,316795.40625,313038.6875,284901.96875,291128.28125,305638.46875,-0.0712890625,0.91455078125,-0.3203125,3.967284917831421,0.1525878757238388,-1.0681151151657104,100.0,64746.0,1.0
178550.6100205,302421.25,303783.125,336310.09375,316542.8125,312427.4375,284901.6875,291106.90625,305659.40625,-0.071533203125,0.91552734375,-0.319580078125,3.997802495956421,0.0915527269244194,-1.0681151151657104,100.0,64747.0,1.0
178550.6100711,302736.6875,305562.40625,337474.15625,317354.46875,313439.34375,285330.65625,291537.75,305812.1875,-0.069091796875,0.919921875,-0.3173828125,3.936767339706421,0.0610351525247097,-1.0070799589157104,100.0,64748.0,1.0
178550.6118533,303086.4375,307183.09375,339266.78125,318050.6875,314650.09375,285562.6875,291796.125,305860.03125,-0.068359375,0.921630859375,-0.317626953125,3.936767339706421,-0.1220703050494194,-1.0375975370407104,100.0,64749.0,1.0
178550.6181704,302952.15625,306299.46875,338999.96875,317615.4375,314277.15625,285257.1875,291502.625,305736.21875,-0.065673828125,0.925048828125,-0.318603515625,3.784179449081421,-0.1831054538488388,-1.0375975370407104,100.0,64750.0,1.0
178550.6300196,302608.125,304340.28125,337318.3125,316798.8125,313013.84375,284898.75,291117.8125,305630.4375,-0.066162109375,0.923828125,-0.318603515625,3.723144292831421,-0.2746581733226776,-0.9155272841453552,100.0,64751.0,1.0
178550.630068,302403.125,303763.96875,336176.59375,316532.375,312384.34375,284896.25,291089.03125,305636.0625,-0.065673828125,0.922119140625,-0.317626953125,3.631591558456421,-0.3356933295726776,-0.7934569716453552,100.0,64752.0,1.0
178550.6325186,302713.0,305534.78125,337317.0,317323.34375,313377.28125,285322.8125,291516.65625,305780.71875,-0.06396484375,0.919189453125,-0.317626953125,3.448486089706421,-0.3662109076976776,-0.6408690810203552,100.0,64753.0,1.0
178550.6325678,303065.4375,307175.46875,339129.0,318027.6875,314605.5625,285560.09375,291786.5625,305836.15625,-0.064208984375,0.921875,-0.31884765625,3.326415777206421,-0.3356933295726776,-0.3967284858226776,100.0,64754.0,1.0
178550.6612319,302935.96875,306317.8125,338900.75,317606.21875,314263.125,285264.0625,291500.125,305715.90625,-0.063232421875,0.91796875,-0.318115234375,3.234863042831421,-0.3356933295726776,-0.2441406100988388,100.0,64755.0,1.0
178550.6612801,302580.6875,304340.65625,337218.625,316779.5625,312994.71875,284896.78125,291107.25,305605.40625,-0.0625,0.91796875,-0.321533203125,3.204345464706421,-0.3051757514476776,-0.1220703050494194,100.0,64756.0,1.0
178550.6694209,302366.90625,303733.9375,336059.75,316500.53125,312348.5625,284884.71875,291076.15625,305622.46875,-0.0654296875,0.918212890625,-0.32177734375,3.143310308456421,-0.3051757514476776,-0.03051757626235485,100.0,64757.0,1.0
178550.6801243,302675.1875,305500.34375,337199.25,317295.8125,313340.0,285309.46875,291506.90625,305778.40625,-0.0673828125,0.918212890625,-0.32080078125,3.082275152206421,-0.3967284858226776,0.0,100.0,64758.0,1.0
178550.6801725,303031.28125,307171.8125,339033.6875,318012.40625,314579.28125,285550.53125,291781.5625,305835.90625,-0.06884765625,0.91796875,-0.321044921875,3.051757574081421,-0.4577636420726776,0.1220703050494194,100.0,64759.0,1.0
178550.6801833,302899.0625,306329.875,338822.34375,317598.8125,314238.625,285255.5625,291498.6875,305719.03125,-0.070556640625,0.917724609375,-0.3203125,3.082275152206421,-0.5187987685203552,0.2441406100988388,100.0,64760.0,1.0
178550.6801928,302557.15625,304361.9375,337162.21875,316783.0625,312980.21875,284890.4375,291112.34375,305617.03125,-0.06884765625,0.91748046875,-0.32080078125,2.899169683456421,-0.6408690810203552,0.1831054538488388,100.0,64761.0,1.0
178550.6802035,302348.40625,303741.96875,335996.53125,316496.0625,312323.8125,284875.0625,291077.3125,305630.25,-0.068359375,0.92041015625,-0.320068359375,2.655029058456421,-0.6713866591453552,0.1831054538488388,100.0,64762.0,1.0
178550.684981,302656.40625,305489.875,337111.25,317282.75,313301.90625,285298.84375,291508.59375,305786.0,-0.068115234375,0.9208984375,-0.321044921875,2.532958745956421,-0.7934569716453552,0.2136230319738388,100.0,64763.0,1.0
178550.6850306,303020.125,307174.84375,338955.09375,318010.71875,314554.5,285545.875,291790.25,305848.3125,-0.066162109375,0.92041015625,-0.320556640625,2.502441167831421,-0.7629393935203552,0.1831054538488388,100.0,64764.0,1.0
178550.687515,302902.09375,306357.6875,338776.8125,317610.34375,314237.75,285254.40625,291507.25,305729.3125,-0.06591796875,0.91943359375,-0.322998046875,2.319335699081421,-0.8544921278953552,0.1525878757238388,100.0,64765.0,1.0
178550.6875649,302569.78125,304388.03125,337135.3125,316796.125,312988.8125,284887.75,291113.34375,305619.15625,-0.064208984375,0.918212890625,-0.322509765625,2.227782964706421,-0.8544921278953552,0.1220703050494194,100.0,64766.0,1.0
178550.6894213,302363.9375,303743.59375,335966.5,316510.46875,312328.8125,284873.71875,291077.84375,305634.625,-0.064208984375,0.92041015625,-0.31884765625,2.136230230331421,-0.8239745497703552,0.03051757626235485,100.0,64767.0,1.0
178550.6925171,302660.875,305466.09375,337052.34375,317284.1875,313286.8125,285298.40625,291502.875,305784.3125,-0.063232421875,0.92138671875,-0.322021484375,1.9836424589157104,-0.9155272841453552,-0.03051757626235485,100.0,64768.0,1.0
178550.6925642,303023.78125,307171.71875,338900.21875,318014.1875,314541.375,285552.21875,291786.75,305839.5625,-0.064697265625,0.922119140625,-0.326904296875,1.7395018339157104,-0.8850097060203552,-0.1525878757238388,100.0,64769.0,1.0
178550.6956111,302907.09375,306379.03125,338743.5625,317620.1875,314237.125,285263.25,291508.15625,305716.4375,-0.064697265625,0.91943359375,-0.324951171875,1.5869139432907104,-0.9155272841453552,-0.1220703050494194,100.0,64770.0,1.0
178550.71502,302570.75,304400.03125,337103.3125,316803.28125,312975.125,284891.40625,291113.96875,305610.78125,-0.064208984375,0.91796875,-0.32373046875,1.4343260526657104,-0.8850097060203552,-0.1831054538488388,100.0,64771.0,1.0
178550.715068,302361.4375,303731.96875,335915.25,316497.84375,312291.34375,284867.09375,291064.96875,305616.65625,-0.0634765625,0.920166015625,-0.323974609375,1.3122557401657104,-0.9155272841453552,-0.1525878757238388,100.0,64772.0,1.0
178550.7181052,302654.0,305440.96875,336980.375,317260.21875,313233.0625,285285.875,291482.9375,305763.84375,-0.064453125,0.91748046875,-0.322998046875,1.2817381620407104,-0.9155272841453552,-0.3356933295726776,100.0,64773.0,1.0
178550.7181567,303027.875,307173.78125,338851.84375,318003.28125,314506.40625,285546.6875,291774.78125,305826.0625,-0.06298828125,0.916259765625,-0.32470703125,1.1291502714157104,-0.7934569716453552,-0.3662109076976776,100.0,64774.0,1.0
178550.7181728,302922.375,306410.5,338731.75,317622.875,314229.59375,285262.1875,291508.25,305711.15625,-0.064697265625,0.914794921875,-0.32373046875,1.0986326932907104,-0.7629393935203552,-0.3662109076976776,100.0,64775.0,1.0
178550.7206294,302581.21875,304423.96875,337095.25,316805.40625,312970.3125,284889.09375,291109.5,305601.1875,-0.06298828125,0.9150390625,-0.325439453125,1.0681151151657104,-0.8239745497703552,-0.4882812201976776,100.0,64776.0,1.0
178550.7231956,302362.625,303729.46875,335895.15625,316491.25,312274.71875,284858.0625,291057.8125,305612.8125,-0.065673828125,0.91357421875,-0.3251953125,1.0070799589157104,-0.8544921278953552,-0.6103515028953552,100.0,64777.0,1.0
178550.7319261,302644.6875,305418.09375,336939.40625,317242.875,313201.96875,285275.5,291479.625,305767.21875,-0.067138671875,0.912841796875,-0.327392578125,0.9155272841453552,-0.8850097060203552,-0.6103515028953552,100.0,64778.0,1.0
178550.7350147,303006.875,307157.34375,338812.75,317988.8125,314480.75,285536.84375,291773.53125,305830.4375,-0.06591796875,0.910400390625,-0.324462890625,0.8850097060203552,-0.8239745497703552,-0.6408690810203552,100.0,64779.0,1.0
178550.7350661,302907.8125,306425.0,338724.34375,317626.625,314226.90625,285260.75,291511.28125,305721.71875,-0.06494140625,0.90966796875,-0.32373046875,0.7629393935203552,-0.7629393935203552,-0.6408690810203552,100.0,64780.0,1.0
178550.7456722,302572.71875,304439.53125,337103.21875,316810.25,312974.78125,284885.5,291110.75,305615.0625,-0.067626953125,0.907958984375,-0.32421875,0.8850097060203552,-0.7324218153953552,-0.8239745497703552,100.0,64781.0,1.0
178550.7488144,302350.53125,303716.59375,335884.59375,316485.78125,312264.25,284849.75,291055.9375,305623.65625,-0.06689453125,0.90869140625,-0.325927734375,0.9460448622703552,-0.6713866591453552,-0.8544921278953552,100.0,64782.0,1.0
178550.7488635,302630.375,305387.25,336908.84375,317233.125,313179.6875,285268.4375,291476.96875,305772.875,-0.06884765625,0.90869140625,-0.330322265625,0.9460448622703552,-0.6713866591453552,-0.9765624403953552,100.0,64783.0,1.0
178550.7506718,303001.875,307153.5625,338801.59375,317993.71875,314470.65625,285539.15625,291776.5625,305833.40625,-0.06787109375,0.90966796875,-0.330322265625,0.9765624403953552,-0.7019042372703552,-1.0375975370407104,100.0,64784.0,1.0
178550.7593802,302904.875,306437.25,338731.59375,317637.625,314227.53125,285268.0,291513.78125,305715.46875,-0.065673828125,0.909912109375,-0.328857421875,0.8544921278953552,-0.6713866591453552,-1.0681151151657104,100.0,64785.0,1.0
178550.7637943,302573.78125,304450.34375,337121.375,316824.09375,312978.625,284898.5625,291116.90625,305605.75,-0.065673828125,0.9111328125,-0.325439453125,0.8544921278953552,-0.8239745497703552,-0.9460448622703552,100.0,64786.0,1.0
178550.7638421,302350.375,303705.78125,335891.40625,316492.03125,312255.75,284861.65625,291056.28125,305611.40625,-0.0654296875,0.91064453125,-0.323974609375,0.8239745497703552,-0.7629393935203552,-0.9765624403953552,100.0,64787.0,1.0
178550.7657079,302621.0,305357.3125,336877.375,317218.9375,313145.71875,285272.65625,291468.625,305756.15625,-0.066650390625,0.910400390625,-0.326416015625,0.7629393935203552,-0.7934569716453552,-1.0375975370407104,100.0,64788.0,1.0
178550.783174,302998.28125,307145.71875,338778.78125,317988.71875,314453.5625,285551.0625,291773.59375,305821.84375,-0.06787109375,0.9111328125,-0.3271484375,0.7324218153953552,-0.7324218153953552,-0.8850097060203552,100.0,64789.0,1.0
178550.7862671,302911.40625,306458.25,338738.5625,317646.75,314233.71875,285283.1875,291518.4375,305708.125,-0.068359375,0.912109375,-0.326904296875,0.7629393935203552,-0.7019042372703552,-0.9460448622703552,100.0,64790.0,1.0
178550.7863196,302584.875,304467.875,337137.46875,316834.28125,312989.625,284904.90625,291116.90625,305595.5625,-0.066162109375,0.912841796875,-0.32568359375,0.7019042372703552,-0.7934569716453552,-1.0375975370407104,100.0,64791.0,1.0
178550.788129,302360.46875,303703.625,335897.125,316494.09375,312257.8125,284856.71875,291047.53125,305600.5,-0.06396484375,0.909423828125,-0.325439453125,0.5187987685203552,-0.6713866591453552,-1.0681151151657104,100.0,64792.0,1.0
178550.7931193,302629.125,305338.15625,336869.3125,317218.46875,313143.46875,285265.125,291459.4375,305752.03125,-0.0634765625,0.910888671875,-0.3271484375,0.5798339247703552,-0.6713866591453552,-1.0986326932907104,100.0,64793.0,1.0
178550.7956183,303005.96875,307138.375,338773.6875,317992.125,314456.0625,285543.46875,291772.25,305824.09375,-0.06494140625,0.914306640625,-0.326171875,0.4272460639476776,-0.7324218153953552,-1.0986326932907104,100.0,64794.0,1.0
178550.7981744,302919.78125,306473.53125,338756.25,317658.53125,314250.15625,285273.0,291519.6875,305709.75,-0.06787109375,0.91650390625,-0.323974609375,0.5187987685203552,-0.6103515028953552,-1.1596678495407104,100.0,64795.0,1.0
178550.801947,302594.4375,304484.59375,337166.78125,316845.90625,313008.46875,284890.875,291113.0625,305597.8125,-0.0693359375,0.917236328125,-0.326171875,0.3967284858226776,-0.5798339247703552,-1.2207030057907104,100.0,64796.0,1.0
178550.8138424,302368.15625,303699.0625,335915.96875,316496.78125,312264.96875,284843.5,291041.09375,305602.53125,-0.070068359375,0.917236328125,-0.32861328125,0.2441406100988388,-0.5798339247703552,-1.2207030057907104,100.0,64797.0,1.0
178550.8138913,302629.5,305313.84375,336858.96875,317207.5625,313129.53125,285250.125,291451.90625,305751.03125,-0.07080078125,0.916748046875,-0.328369140625,0.2136230319738388,-0.6713866591453552,-1.2207030057907104,100.0,64798.0,1.0
178550.8162882,303004.5625,307127.1875,338761.34375,317985.21875,314442.84375,285536.5,291768.15625,305821.40625,-0.070068359375,0.91552734375,-0.327392578125,0.03051757626235485,-0.5798339247703552,-1.0986326932907104,100.0,64799.0,1.0
178550.8163391,302925.875,306495.90625,338773.0625,317665.34375,314258.21875,285277.21875,291518.625,305707.15625,-0.068359375,0.914794921875,-0.324951171875,-0.1525878757238388,-0.6713866591453552,-0.9155272841453552,100.0,64800.0,1.0
178550.8181162,302601.875,304510.25,337198.25,316850.5625,313022.34375,284896.6875,291109.84375,305582.6875,-0.067626953125,0.91259765625,-0.32666015625,-0.1831054538488388,-0.6103515028953552,-0.9155272841453552,100.0,64801.0,1.0
178550.8244328,302365.84375,303689.9375,335928.75,316486.78125,312261.5,284840.625,291035.28125,305584.65625,-0.065185546875,0.914794921875,-0.326171875,-0.2746581733226776,-0.5798339247703552,-0.9155272841453552,100.0,64802.0,1.0
178550.833136,302609.28125,305274.34375,336842.59375,317184.9375,313107.625,285238.03125,291437.34375,305730.03125,-0.061767578125,0.915771484375,-0.330810546875,-0.2441406100988388,-0.4882812201976776,-0.8544921278953552,100.0,64803.0,1.0
178550.8362266,302986.75,307107.09375,338755.0,317973.53125,314427.46875,285529.5,291759.46875,305810.40625,-0.0634765625,0.91455078125,-0.329345703125,-0.3356933295726776,-0.4272460639476776,-0.8850097060203552,100.0,64804.0,1.0
178550.8362761,302922.75,306512.78125,338798.375,317673.28125,314267.15625,285277.65625,291526.3125,305710.46875,-0.0634765625,0.914306640625,-0.327392578125,-0.3967284858226776,-0.3967284858226776,-0.7019042372703552,100.0,64805.0,1.0
178550.8381807,302602.3125,304531.28125,337233.65625,316865.125,313035.21875,284892.84375,291118.34375,305594.9375,-0.06591796875,0.916748046875,-0.328369140625,-0.5798339247703552,-0.1525878757238388,-0.8239745497703552,100.0,64806.0,1.0
178550.8468778,302361.71875,303693.96875,335949.0625,316494.71875,312256.75,284829.53125,291033.6875,305593.34375,-0.06689453125,0.916259765625,-0.32861328125,-0.6103515028953552,-0.1220703050494194,-0.7324218153953552,100.0,64807.0,1.0
178550.8493756,302604.71875,305264.125,336838.9375,317182.53125,313089.21875,285226.875,291436.625,305742.09375,-0.06689453125,0.916259765625,-0.325927734375,-0.7629393935203552,-0.1220703050494194,-0.6713866591453552,100.0,64808.0,1.0
178550.8519219,302985.0625,307109.75,338755.09375,317974.0625,314416.5625,285521.5625,291763.15625,305818.625,-0.065673828125,0.915771484375,-0.326416015625,-0.7934569716453552,-0.03051757626235485,-0.4577636420726776,100.0,64809.0,1.0
178550.8606759,302925.6875,306534.34375,338821.15625,317682.125,314268.03125,285275.0625,291530.875,305713.40625,-0.067626953125,0.91357421875,-0.32763671875,-0.8544921278953552,0.03051757626235485,-0.3967284858226776,100.0,64810.0,1.0
178550.8637961,302614.5625,304555.125,337275.40625,316877.03125,313047.46875,284894.8125,291126.9375,305601.03125,-0.067138671875,0.9140625,-0.325439453125,-0.8850097060203552,0.1220703050494194,-0.2136230319738388,100.0,64811.0,1.0
178550.863845,302379.5,303698.53125,335989.28125,316498.3125,312269.4375,284833.84375,291042.78125,305602.625,-0.066162109375,0.9111328125,-0.3291015625,-0.8544921278953552,0.2441406100988388,-0.2441406100988388,100.0,64812.0,1.0
178550.868106,302621.96875,305251.8125,336854.46875,317177.0,313086.53125,285233.40625,291442.4375,305750.25,-0.06787109375,0.911865234375,-0.3271484375,-0.8850097060203552,0.2136230319738388,-0.1220703050494194,100.0,64813.0,1.0
178550.8744242,303005.71875,307115.84375,338775.65625,317977.375,314421.1875,285536.65625,291772.1875,305824.90625,-0.06787109375,0.91259765625,-0.32568359375,-0.7629393935203552,0.3356933295726776,-0.0610351525247097,100.0,64814.0,1.0
178550.8788409,302941.78125,306556.6875,338860.25,317692.6875,314282.875,285292.40625,291543.28125,305718.875,-0.06640625,0.91259765625,-0.32666015625,-0.8544921278953552,0.3356933295726776,-0.0915527269244194,100.0,64815.0,1.0
178550.8788936,302625.75,304568.5625,337317.0,316884.375,313057.90625,284907.5,291134.4375,305603.96875,-0.06640625,0.912841796875,-0.32763671875,-0.8239745497703552,0.4272460639476776,0.0610351525247097,100.0,64816.0,1.0
178550.8881378,302391.65625,303692.0,336019.25,316502.875,312266.5,284845.09375,291047.96875,305608.71875,-0.066650390625,0.909912109375,-0.326904296875,-0.8544921278953552,0.4882812201976776,0.0915527269244194,100.0,64817.0,1.0
178550.8905898,302626.0,305222.21875,336858.0625,317171.09375,313066.5,285239.84375,291442.875,305754.25,-0.06689453125,0.908935546875,-0.326171875,-0.8850097060203552,0.5798339247703552,0.1220703050494194,100.0,64818.0,1.0
178550.8943419,303004.09375,307095.625,338779.25,317975.21875,314408.6875,285545.15625,291776.8125,305834.65625,-0.065673828125,0.911376953125,-0.32763671875,-0.8544921278953552,0.6103515028953552,0.1525878757238388,100.0,64819.0,1.0
178550.9038613,302947.15625,306573.59375,338893.9375,317703.59375,314296.03125,285297.9375,291549.8125,305727.875,-0.06591796875,0.91259765625,-0.328125,-0.7324218153953552,0.7934569716453552,0.2441406100988388,100.0,64820.0,1.0
178550.9039262,302635.5625,304596.90625,337367.6875,316898.40625,313080.375,284907.78125,291136.5,305607.71875,-0.065185546875,0.9130859375,-0.3271484375,-0.7629393935203552,0.8850097060203552,0.1525878757238388,100.0,64821.0,1.0
178550.906223,302386.65625,303688.96875,336047.59375,316496.96875,312272.65625,284829.0,291038.3125,305604.59375,-0.067138671875,0.91357421875,-0.327880859375,-0.7934569716453552,0.9765624403953552,0.1220703050494194,100.0,64822.0,1.0
178550.9062709,302607.59375,305191.8125,336851.625,317147.5,313050.78125,285214.53125,291425.8125,305743.90625,-0.066650390625,0.9111328125,-0.32958984375,-0.7629393935203552,1.0070799589157104,0.1831054538488388,100.0,64823.0,1.0
178550.9131688,302992.75,307087.3125,338781.46875,317961.90625,314402.4375,285529.0625,291766.1875,305822.46875,-0.065185546875,0.910888671875,-0.3251953125,-0.7324218153953552,1.1596678495407104,0.1220703050494194,100.0,64824.0,1.0
178550.922519,302941.625,306590.40625,338919.78125,317705.46875,314307.375,285294.5625,291547.6875,305717.25,-0.0654296875,0.91064453125,-0.329345703125,-0.6408690810203552,1.1596678495407104,0.2441406100988388,100.0,64825.0,1.0
178550.9225686,302628.34375,304605.84375,337393.875,316904.65625,313087.34375,284910.625,291137.125,305602.8125,-0.066650390625,0.91064453125,-0.32958984375,-0.5798339247703552,1.2207030057907104,0.1831054538488388,100.0,64826.0,1.0
178550.9243805,302383.875,303685.21875,336065.8125,316501.78125,312271.40625,284832.40625,291033.0625,305600.125,-0.062255859375,0.90869140625,-0.3271484375,-0.6103515028953552,1.3732908964157104,0.0915527269244194,100.0,64827.0,1.0
178550.929345,302606.78125,305176.53125,336853.5,317150.34375,313044.34375,285223.84375,291424.21875,305748.0,-0.060302734375,0.908935546875,-0.324951171875,-0.4882812201976776,1.5258787870407104,0.1525878757238388,100.0,64828.0,1.0
178550.9330466,302994.4375,307084.09375,338787.375,317971.1875,314403.40625,285543.46875,291770.84375,305831.4375,-0.0615234375,0.910400390625,-0.32958984375,-0.4272460639476776,1.7395018339157104,0.0915527269244194,100.0,64829.0,1.0
178550.942398,302944.375,306604.4375,338947.0625,317717.375,314325.28125,285312.96875,291556.625,305726.8125,-0.0625,0.91259765625,-0.330078125,-0.3662109076976776,1.8920897245407104,0.03051757626235485,100.0,64830.0,1.0
178550.9424365,302636.03125,304625.9375,337433.75,316912.53125,313116.03125,284919.65625,291144.625,305609.6875,-0.065185546875,0.915283203125,-0.32763671875,-0.4577636420726776,2.105712652206421,0.0915527269244194,100.0,64831.0,1.0
178550.9448945,302382.90625,303674.75,336084.34375,316494.28125,312279.28125,284830.875,291033.9375,305598.96875,-0.063720703125,0.914306640625,-0.328369140625,-0.4272460639476776,2.166747808456421,0.1220703050494194,100.0,64832.0,1.0
178550.9449295,302599.53125,305144.78125,336843.75,317130.9375,313031.375,285217.3125,291421.4375,305743.90625,-0.06591796875,0.911376953125,-0.32763671875,-0.4272460639476776,2.319335699081421,0.0915527269244194,100.0,64833.0,1.0
178550.9556721,302990.53125,307075.53125,338787.5625,317957.875,314402.34375,285541.84375,291772.625,305829.0,-0.06640625,0.911376953125,-0.326416015625,-0.3051757514476776,2.380370855331421,0.1525878757238388,100.0,64834.0,1.0
178550.9588449,302941.625,306624.03125,338969.21875,317716.90625,314338.5,285314.75,291560.90625,305725.9375,-0.0654296875,0.908447265625,-0.326416015625,-0.2746581733226776,2.410888433456421,0.1525878757238388,100.0,64835.0,1.0
178550.9588941,302638.25,304648.84375,337471.9375,316919.21875,313134.53125,284925.5625,291150.15625,305610.3125,-0.06396484375,0.90869140625,-0.3271484375,-0.1831054538488388,2.532958745956421,-0.03051757626235485,100.0,64836.0,1.0
178550.9606009,302391.03125,303683.15625,336125.09375,316496.25,312295.46875,284832.21875,291035.90625,305598.875,-0.064208984375,0.908935546875,-0.324951171875,-0.0610351525247097,2.685546636581421,-0.0610351525247097,100.0,64837.0,1.0
178550.9743826,302595.53125,305121.625,336852.0625,317114.0625,313027.4375,285206.5,291410.34375,305736.65625,-0.065185546875,0.91162109375,-0.3291015625,0.03051757626235485,2.868652105331421,-0.1220703050494194,100.0,64838.0,1.0
178550.976948,302979.6875,307046.09375,338778.78125,317942.6875,314388.375,285529.4375,291762.59375,305822.9375,-0.06494140625,0.91259765625,-0.328125,0.0915527269244194,2.899169683456421,-0.2136230319738388,100.0,64839.0,1.0
178550.9819231,302949.3125,306631.78125,338990.78125,317719.6875,314345.5625,285306.25,291554.65625,305717.59375,-0.06396484375,0.91552734375,-0.327880859375,0.0610351525247097,3.112792730331421,-0.3051757514476776,100.0,64840.0,1.0
178550.993172,302654.15625,304666.625,337507.6875,316925.21875,313148.9375,284915.8125,291139.8125,305596.1875,-0.06005859375,0.9150390625,-0.32763671875,0.0915527269244194,3.143310308456421,-0.4577636420726776,100.0,64841.0,1.0
178550.9956771,302407.5,303680.5625,336153.96875,316502.0625,312302.4375,284823.5625,291025.625,305591.1875,-0.05810546875,0.9169921875,-0.32666015625,-0.0915527269244194,3.204345464706421,-0.6103515028953552,100.0,64842.0,1.0
178550.9981936,302610.09375,305096.78125,336862.8125,317116.65625,313016.96875,285200.5,291404.90625,305735.75,-0.056640625,0.917724609375,-0.327880859375,-0.1220703050494194,3.479003667831421,-0.6103515028953552,100.0,64843.0,1.0
178551.0006979,303011.15625,307032.96875,338818.3125,317965.75,314388.65625,285530.5,291765.90625,305831.4375,-0.0556640625,0.919677734375,-0.322998046875,-0.1220703050494194,3.845214605331421,-0.7324218153953552,100.0,64844.0,1.0
178551.003166,302982.46875,306636.8125,339058.53125,317756.78125,314361.5625,285315.84375,291567.0625,305734.15625,-0.0595703125,0.91796875,-0.323974609375,-0.1525878757238388,4.028319835662842,-0.8239745497703552,100.0,64845.0,1.0
178551.0056725,302687.25,304672.875,337597.28125,316967.0625,313171.03125,284925.375,291152.0625,305611.21875,-0.0634765625,0.915283203125,-0.325927734375,-0.3356933295726776,4.333495616912842,-1.1291502714157104,100.0,64846.0,1.0
178551.0088417,302438.4375,303669.21875,336243.65625,316532.375,312318.78125,284827.3125,291029.75,305595.75,-0.06298828125,0.9140625,-0.326904296875,-0.4577636420726776,4.394530773162842,-1.2207030057907104,100.0,64847.0,1.0
178551.0088897,302625.03125,305065.75,336912.34375,317123.53125,313014.65625,285195.5,291400.5,305733.25,-0.06298828125,0.912109375,-0.3291015625,-0.4882812201976776,4.516601085662842,-1.2512205839157104,100.0,64848.0,1.0
178551.0156705,303003.46875,307023.3125,338835.21875,317952.59375,314386.34375,285524.15625,291758.6875,305820.6875,-0.065185546875,0.910888671875,-0.32861328125,-0.5187987685203552,4.669188976287842,-1.2817381620407104,100.0,64849.0,1.0
178551.0250234,302974.875,306661.125,339087.34375,317752.0625,314378.65625,285311.1875,291561.875,305722.09375,-0.0654296875,0.910400390625,-0.32763671875,-0.4577636420726776,4.730224132537842,-1.3732908964157104,100.0,64850.0,1.0
178551.0250723,302678.03125,304692.75,337629.28125,316961.53125,313187.5625,284915.03125,291143.03125,305601.1875,-0.0634765625,0.911865234375,-0.327392578125,-0.5187987685203552,4.913329601287842,-1.3732908964157104,100.0,64851.0,1.0
178551.0275167,302423.21875,303654.625,336251.53125,316517.4375,312310.84375,284813.1875,291017.59375,305587.34375,-0.064697265625,0.91259765625,-0.32666015625,-0.5493163466453552,4.882812023162842,-1.4648436307907104,100.0,64852.0,1.0
178551.0275681,302611.0625,305032.84375,336892.75,317098.75,312986.65625,285182.0,291387.0,305723.6875,-0.064697265625,0.911376953125,-0.325439453125,-0.4882812201976776,5.004882335662842,-1.4343260526657104,100.0,64853.0,1.0
178551.0381514,302998.375,307013.03125,338822.15625,317939.1875,314370.9375,285521.46875,291757.875,305822.125,-0.065185546875,0.9140625,-0.327392578125,-0.4882812201976776,5.096435070037842,-1.3732908964157104,100.0,64854.0,1.0
178551.0424892,302979.0625,306683.28125,339107.53125,317752.25,314390.34375,285314.5625,291568.96875,305727.0,-0.066162109375,0.9140625,-0.326904296875,-0.4272460639476776,5.004882335662842,-1.2512205839157104,100.0,64855.0,1.0
178551.0425403,302683.21875,304711.34375,337656.09375,316964.84375,313203.21875,284922.78125,291152.59375,305604.78125,-0.068115234375,0.9111328125,-0.326904296875,-0.2441406100988388,5.035399913787842,-1.2817381620407104,100.0,64856.0,1.0
178551.048893,302422.25,303647.9375,336256.4375,316509.21875,312307.34375,284814.0625,291019.5625,305587.78125,-0.071044921875,0.91259765625,-0.328369140625,-0.2746581733226776,4.943847179412842,-1.1596678495407104,100.0,64857.0,1.0
178551.048941,302603.125,305006.65625,336871.46875,317080.34375,312965.75,285179.03125,291388.4375,305729.78125,-0.072998046875,0.91259765625,-0.32373046875,-0.2746581733226776,4.943847179412842,-1.0986326932907104,100.0,64858.0,1.0
178551.0738205,302983.8125,306989.78125,338791.125,317918.09375,314342.53125,285520.21875,291754.46875,305818.625,-0.074951171875,0.912841796875,-0.324462890625,-0.3051757514476776,4.852294445037842,-0.8239745497703552,100.0,64859.0,1.0
178551.0738723,302969.3125,306689.8125,339097.625,317745.1875,314376.5,285322.0,291570.5625,305718.5,-0.07763671875,0.9111328125,-0.324462890625,-0.3662109076976776,4.699706554412842,-0.6408690810203552,100.0,64860.0,1.0
178551.0769332,302688.15625,304739.5,337674.15625,316969.3125,313205.8125,284930.9375,291155.71875,305601.5625,-0.077880859375,0.91455078125,-0.321533203125,-0.3967284858226776,4.547118663787842,-0.4272460639476776,100.0,64861.0,1.0
178551.0769903,302427.0,303656.34375,336267.4375,316508.40625,312301.53125,284816.21875,291015.53125,305581.53125,-0.078125,0.91357421875,-0.322509765625,-0.3967284858226776,4.394530773162842,-0.3356933295726776,100.0,64862.0,1.0
178551.077004,302600.875,304987.96875,336846.0,317066.9375,312936.78125,285176.71875,291376.375,305718.59375,-0.076171875,0.912841796875,-0.323486328125,-0.4882812201976776,4.241942882537842,-0.2746581733226776,100.0,64863.0,1.0
178551.0806333,302989.90625,306984.59375,338772.1875,317917.71875,314326.15625,285521.03125,291751.34375,305815.78125,-0.07763671875,0.91064453125,-0.321533203125,-0.4577636420726776,3.997802495956421,-0.1831054538488388,100.0,64864.0,1.0
178551.0806813,302982.5625,306704.125,339103.34375,317759.9375,314379.625,285323.59375,291576.375,305724.84375,-0.0791015625,0.911865234375,-0.3232421875,-0.3051757514476776,3.723144292831421,0.03051757626235485,100.0,64865.0,1.0
178551.0806937,302702.34375,304752.8125,337691.875,316989.6875,313218.6875,284928.96875,291160.09375,305603.25,-0.082275390625,0.91015625,-0.32666015625,-0.1831054538488388,3.387450933456421,0.1220703050494194,100.0,64866.0,1.0
178551.083173,302442.4375,303652.21875,336287.03125,316521.71875,312313.25,284806.3125,291012.84375,305579.75,-0.083251953125,0.90966796875,-0.32080078125,-0.1525878757238388,3.204345464706421,0.3356933295726776,100.0,64867.0,1.0
178551.0931562,302606.15625,304954.875,336844.46875,317066.75,312932.5625,285158.28125,291367.4375,305713.6875,-0.08349609375,0.909912109375,-0.319580078125,0.0,2.868652105331421,0.4882812201976776,100.0,64868.0,1.0
178551.0962786,302991.3125,306961.96875,338764.5,317916.75,314317.5,285506.1875,291746.96875,305816.125,-0.081298828125,0.911865234375,-0.321533203125,-0.03051757626235485,2.471923589706421,0.6408690810203552,100.0,64869.0,1.0
178551.096327,302986.125,306717.90625,339117.28125,317765.28125,314386.25,285315.46875,291574.75,305725.125,-0.082275390625,0.91455078125,-0.32177734375,-0.03051757626235485,2.136230230331421,0.8544921278953552,100.0,64870.0,1.0
178551.0994069,302708.71875,304784.65625,337726.03125,316998.625,313233.6875,284928.25,291162.875,305606.84375,-0.08154296875,0.91455078125,-0.324462890625,0.0,1.8310545682907104,0.9460448622703552,100.0,64871.0,1.0
178551.1138425,302443.34375,303667.15625,336312.0625,316523.4375,312317.8125,284808.53125,291018.21875,305584.46875,-0.0791015625,0.914794921875,-0.323486328125,0.0,1.5869139432907104,1.0681151151657104,100.0,64872.0,1.0
178551.1138921,302596.78125,304941.03125,336837.9375,317054.3125,312919.15625,285160.25,291367.78125,305715.8125,-0.078369140625,0.91259765625,-0.322265625,0.0610351525247097,1.2207030057907104,1.3732908964157104,100.0,64873.0,1.0
178551.1162659,302979.53125,306955.1875,338755.71875,317909.21875,314310.34375,285513.25,291750.71875,305818.1875,-0.078369140625,0.9111328125,-0.31982421875,0.0915527269244194,1.0070799589157104,1.5258787870407104,100.0,64874.0,1.0
178551.1163167,302981.125,306740.15625,339134.1875,317770.21875,314399.28125,285332.1875,291587.5625,305730.03125,-0.07958984375,0.91064453125,-0.321044921875,0.1220703050494194,0.7019042372703552,1.8005369901657104,100.0,64875.0,1.0
178551.1181564,302706.84375,304806.375,337746.84375,317002.5625,313250.40625,284940.6875,291170.1875,305609.15625,-0.0791015625,0.911865234375,-0.322509765625,0.0610351525247097,0.4577636420726776,1.8920897245407104,100.0,64876.0,1.0
178551.1319221,302447.625,303671.875,336329.65625,316526.71875,312330.3125,284815.40625,291020.53125,305590.90625,-0.076416015625,0.9111328125,-0.326171875,0.0915527269244194,0.2441406100988388,1.8615721464157104,100.0,64877.0,1.0
178551.1350195,302594.34375,304919.03125,336828.375,317043.96875,312909.0625,285157.03125,291363.21875,305717.59375,-0.076171875,0.9130859375,-0.3251953125,0.1220703050494194,0.03051757626235485,1.8310545682907104,100.0,64878.0,1.0
178551.1350683,302983.90625,306949.5625,338750.0,317905.65625,314303.8125,285512.15625,291749.03125,305819.09375,-0.07373046875,0.912353515625,-0.322265625,0.1220703050494194,-0.2746581733226776,1.8615721464157104,100.0,64879.0,1.0
178551.1412637,302992.40625,306772.15625,339163.5,317782.8125,314419.40625,285328.15625,291587.625,305730.65625,-0.07275390625,0.913330078125,-0.322998046875,0.2441406100988388,-0.5187987685203552,1.9226073026657104,100.0,64880.0,1.0
178551.1413166,302710.9375,304833.65625,337783.6875,317009.53125,313270.8125,284928.6875,291169.65625,305609.875,-0.071533203125,0.910400390625,-0.32470703125,0.1220703050494194,-0.6103515028953552,1.9226073026657104,100.0,64881.0,1.0
178551.1474792,302444.15625,303670.71875,336346.46875,316520.28125,312330.40625,284793.59375,291011.0625,305585.71875,-0.068359375,0.91015625,-0.3291015625,0.2136230319738388,-0.7629393935203552,1.9226073026657104,100.0,64882.0,1.0
178551.1475272,302588.375,304900.53125,336824.71875,317032.34375,312898.34375,285134.25,291347.65625,305712.96875,-0.065673828125,0.9091796875,-0.3291015625,0.2441406100988388,-0.7934569716453552,1.9531248807907104,100.0,64883.0,1.0
178551.1581628,302978.0,306939.71875,338749.71875,317898.40625,314298.90625,285499.5625,291740.15625,305817.5625,-0.064208984375,0.90966796875,-0.32421875,0.1525878757238388,-0.9765624403953552,1.9531248807907104,100.0,64884.0,1.0
178551.1638398,302989.71875,306779.3125,339182.46875,317782.8125,314427.90625,285330.125,291588.8125,305729.9375,-0.06396484375,0.91015625,-0.325927734375,0.2136230319738388,-1.0681151151657104,1.8920897245407104,100.0,64885.0,1.0
178551.1638887,302713.09375,304847.0625,337815.15625,317015.34375,313287.53125,284933.625,291169.03125,305605.21875,-0.065185546875,0.91015625,-0.325927734375,0.2746581733226776,-1.0681151151657104,1.8615721464157104,100.0,64886.0,1.0
178551.1656279,302451.46875,303670.71875,336376.6875,316522.09375,312347.9375,284796.8125,291009.09375,305581.09375,-0.06298828125,0.91064453125,-0.32568359375,0.3967284858226776,-1.0986326932907104,1.8005369901657104,100.0,64887.0,1.0
178551.1681991,302600.34375,304886.21875,336836.875,317025.09375,312900.65625,285136.84375,291346.34375,305709.46875,-0.062744140625,0.910888671875,-0.3271484375,0.3356933295726776,-1.2207030057907104,1.7089842557907104,100.0,64888.0,1.0
178551.1769108,302994.53125,306935.25,338771.5625,317900.90625,314304.6875,285502.875,291740.25,305814.71875,-0.063232421875,0.912109375,-0.327392578125,0.2746581733226776,-1.2512205839157104,1.6174315214157104,100.0,64889.0,1.0
178551.1800125,303004.09375,306794.6875,339222.0625,317792.46875,314445.0625,285331.5625,291589.59375,305727.53125,-0.060302734375,0.914306640625,-0.32568359375,0.3051757514476776,-1.1596678495407104,1.4648436307907104,100.0,64890.0,1.0
178551.1800606,302720.96875,304863.6875,337849.21875,317016.0625,313302.4375,284937.0,291170.46875,305602.09375,-0.058837890625,0.9130859375,-0.32763671875,0.3356933295726776,-1.2512205839157104,1.4038084745407104,100.0,64891.0,1.0
178551.1818991,302448.96875,303663.75,336387.34375,316510.65625,312344.71875,284798.34375,291003.625,305570.28125,-0.058837890625,0.91357421875,-0.327880859375,0.3967284858226776,-1.0375975370407104,1.3427733182907104,100.0,64892.0,1.0
178551.1929779,302583.90625,304847.59375,336816.125,317003.53125,312875.875,285132.375,291337.9375,305697.9375,-0.05908203125,0.913330078125,-0.326171875,0.3356933295726776,-1.1291502714157104,1.3732908964157104,100.0,64893.0,1.0
178551.2012704,302980.25,306908.96875,338748.84375,317887.5,314284.5,285503.9375,291738.90625,305810.40625,-0.0595703125,0.91259765625,-0.327392578125,0.2746581733226776,-0.9765624403953552,1.3122557401657104,100.0,64894.0,1.0
178551.2013186,303005.0,306814.90625,339242.09375,317802.75,314461.25,285346.9375,291602.65625,305731.03125,-0.0595703125,0.91357421875,-0.32763671875,0.2441406100988388,-0.9765624403953552,1.1901854276657104,100.0,64895.0,1.0
178551.203143,302728.90625,304902.125,337895.0,317037.34375,313336.78125,284950.34375,291187.1875,305611.03125,-0.061279296875,0.9111328125,-0.325927734375,0.1525878757238388,-0.9765624403953552,1.0070799589157104,100.0,64896.0,1.0
178551.2056712,302451.5625,303677.15625,336419.875,316521.5625,312364.65625,284802.28125,291013.28125,305579.90625,-0.06005859375,0.912353515625,-0.326904296875,0.1831054538488388,-0.9460448622703552,1.0375975370407104,100.0,64897.0,1.0
178551.2081613,302585.0625,304839.90625,336823.90625,317001.21875,312878.9375,285134.0625,291344.71875,305710.71875,-0.058349609375,0.91259765625,-0.322509765625,0.2441406100988388,-0.9460448622703552,1.0070799589157104,100.0,64898.0,1.0
178551.2118694,302983.375,306914.59375,338760.28125,317886.71875,314288.6875,285506.53125,291746.6875,305819.8125,-0.06005859375,0.913818359375,-0.324462890625,0.1525878757238388,-0.8850097060203552,0.8544921278953552,100.0,64899.0,1.0
178551.2212895,303003.3125,306832.15625,339256.84375,317806.15625,314464.5625,285350.78125,291611.6875,305736.46875,-0.057373046875,0.911865234375,-0.323486328125,0.2136230319738388,-0.8239745497703552,0.6713866591453552,100.0,64900.0,1.0
178551.2213383,302731.15625,304923.6875,337919.40625,317040.90625,313347.59375,284949.71875,291193.25,305613.71875,-0.0576171875,0.91455078125,-0.3251953125,0.0610351525247097,-0.7324218153953552,0.6408690810203552,100.0,64901.0,1.0
178551.229474,302454.96875,303683.5,336441.25,316518.25,312372.96875,284796.46875,291016.96875,305583.78125,-0.05810546875,0.914306640625,-0.322265625,0.0,-0.7629393935203552,0.7019042372703552,100.0,64902.0,1.0
178551.2318696,302576.375,304812.90625,336808.53125,316982.0,312863.0,285119.125,291336.84375,305707.59375,-0.05859375,0.9150390625,-0.323974609375,-0.03051757626235485,-0.6713866591453552,0.6408690810203552,100.0,64903.0,1.0
178551.2431986,302971.21875,306888.3125,338729.625,317864.53125,314267.15625,285494.46875,291735.875,305815.96875,-0.05908203125,0.9150390625,-0.3251953125,-0.0915527269244194,-0.5798339247703552,0.6103515028953552,100.0,64904.0,1.0
178551.245702,302999.90625,306843.40625,339259.71875,317798.1875,314471.09375,285345.34375,291608.5625,305738.96875,-0.059326171875,0.91650390625,-0.3251953125,-0.0915527269244194,-0.5493163466453552,0.6408690810203552,100.0,64905.0,1.0
178551.2481985,302731.78125,304948.8125,337934.0625,317038.40625,313360.5625,284951.9375,291196.65625,305618.0,-0.060302734375,0.915771484375,-0.326904296875,-0.0915527269244194,-0.4577636420726776,0.4272460639476776,100.0,64906.0,1.0
178551.2507005,302451.03125,303685.375,336435.53125,316508.6875,312366.8125,284793.0625,291009.90625,305577.0625,-0.059326171875,0.9130859375,-0.32373046875,-0.2136230319738388,-0.4882812201976776,0.5493163466453552,100.0,64907.0,1.0
178551.2538437,302569.78125,304786.96875,336773.9375,316962.6875,312833.5,285112.53125,291324.15625,305697.21875,-0.06005859375,0.914306640625,-0.323974609375,-0.2136230319738388,-0.5493163466453552,0.5493163466453552,100.0,64908.0,1.0
178551.2538931,302969.6875,306873.1875,338697.59375,317855.40625,314245.25,285489.375,291733.46875,305811.3125,-0.059814453125,0.912109375,-0.326171875,-0.3967284858226776,-0.5493163466453552,0.5187987685203552,100.0,64909.0,1.0
178551.2556295,303007.9375,306856.46875,339247.28125,317805.6875,314466.71875,285345.59375,291613.46875,305736.28125,-0.059814453125,0.91259765625,-0.325927734375,-0.3662109076976776,-0.4882812201976776,0.5187987685203552,100.0,64910.0,1.0
178551.2594462,302743.5,304959.4375,337944.625,317057.09375,313364.84375,284947.84375,291194.0625,305612.65625,-0.06103515625,0.911376953125,-0.32421875,-0.3967284858226776,-0.5798339247703552,0.5798339247703552,100.0,64911.0,1.0
178551.2738108,302469.53125,303679.21875,336454.21875,316528.6875,312368.78125,284787.0,291008.1875,305578.59375,-0.062744140625,0.912109375,-0.3271484375,-0.5187987685203552,-0.4577636420726776,0.4882812201976776,100.0,64912.0,1.0
178551.2738593,302582.375,304757.375,336768.65625,316968.9375,312822.15625,285104.03125,291323.96875,305699.5625,-0.0615234375,0.911865234375,-0.3232421875,-0.4272460639476776,-0.4882812201976776,0.4882812201976776,100.0,64913.0,1.0
178551.2762719,302982.75,306856.46875,338690.71875,317862.03125,314241.65625,285485.53125,291736.6875,305814.53125,-0.06103515625,0.912109375,-0.323486328125,-0.3051757514476776,-0.4577636420726776,0.3967284858226776,100.0,64914.0,1.0
178551.2763207,303019.75,306863.625,339259.09375,317815.71875,314474.21875,285339.25,291610.34375,305733.0,-0.060546875,0.91162109375,-0.324462890625,-0.2746581733226776,-0.4882812201976776,0.3356933295726776,100.0,64915.0,1.0
178551.2781604,302755.65625,304971.6875,337960.0,317064.0625,313373.15625,284944.625,291191.5625,305611.65625,-0.061767578125,0.912109375,-0.32470703125,-0.3356933295726776,-0.3662109076976776,0.3967284858226776,100.0,64916.0,1.0
178551.2919501,302487.15625,303690.9375,336478.96875,316535.5,312386.21875,284788.78125,291006.21875,305578.65625,-0.063720703125,0.909912109375,-0.323974609375,-0.3051757514476776,-0.3356933295726776,0.4272460639476776,100.0,64917.0,1.0
178551.2969317,302584.875,304748.25,336767.21875,316965.0,312821.1875,285100.625,291314.21875,305700.0,-0.0634765625,0.910400390625,-0.323974609375,-0.3662109076976776,-0.2746581733226776,0.3662109076976776,100.0,64918.0,1.0
178551.2969802,302978.4375,306852.0,338685.09375,317859.78125,314238.0,285492.125,291728.375,305812.75,-0.06396484375,0.909912109375,-0.3232421875,-0.2136230319738388,-0.4272460639476776,0.3662109076976776,100.0,64919.0,1.0
178551.2969919,303024.03125,306900.28125,339287.0625,317830.28125,314498.8125,285361.4375,291619.65625,305740.9375,-0.063232421875,0.908935546875,-0.32421875,-0.0915527269244194,-0.3967284858226776,0.3662109076976776,100.0,64920.0,1.0
178551.300045,302753.9375,305017.1875,338003.0,317079.28125,313405.53125,284958.90625,291198.4375,305615.5,-0.061767578125,0.9091796875,-0.325439453125,-0.0915527269244194,-0.4882812201976776,0.2441406100988388,100.0,64921.0,1.0
178551.3000921,302466.15625,303696.375,336490.78125,316530.03125,312385.75,284784.75,290995.125,305569.46875,-0.061279296875,0.909423828125,-0.32666015625,-0.0915527269244194,-0.4577636420726776,0.3051757514476776,100.0,64922.0,1.0
178551.3175214,302566.71875,304730.65625,336753.28125,316947.46875,312804.90625,285092.125,291302.6875,305694.8125,-0.061279296875,0.90869140625,-0.32763671875,0.0,-0.3662109076976776,0.2136230319738388,100.0,64923.0,1.0
178551.3175703,302965.9375,306845.9375,338672.65625,317849.78125,314228.53125,285483.8125,291723.1875,305813.8125,-0.06298828125,0.910400390625,-0.32666015625,-0.0610351525247097,-0.4577636420726776,0.2746581733226776,100.0,64924.0,1.0
178551.3199485,303014.9375,306916.09375,339292.15625,317834.125,314502.375,285355.53125,291617.9375,305743.90625,-0.063232421875,0.909423828125,-0.32470703125,-0.03051757626235485,-0.3662109076976776,0.2441406100988388,100.0,64925.0,1.0
178551.319987,302750.0,305038.375,338012.3125,317083.90625,313411.34375,284958.75,291199.6875,305620.59375,-0.0634765625,0.91015625,-0.324951171875,0.0915527269244194,-0.3967284858226776,0.1831054538488388,100.0,64926.0,1.0
178551.3388433,302470.09375,303707.28125,336497.5625,316535.6875,312389.59375,284790.46875,291002.1875,305584.21875,-0.06201171875,0.911865234375,-0.32666015625,0.1831054538488388,-0.4272460639476776,0.1525878757238388,100.0,64927.0,1.0
178551.3388927,302570.5625,304724.03125,336747.71875,316948.46875,312801.875,285096.4375,291304.84375,305704.90625,-0.0595703125,0.908935546875,-0.3232421875,0.1831054538488388,-0.3967284858226776,0.2136230319738388,100.0,64928.0,1.0
178551.3419329,302961.90625,306831.875,338650.3125,317843.875,314212.4375,285486.0625,291723.4375,305819.4375,-0.060546875,0.90869140625,-0.323486328125,0.1220703050494194,-0.3967284858226776,0.3662109076976776,100.0,64929.0,1.0
178551.3419815,303018.21875,306931.5,339298.0625,317838.34375,314509.96875,285364.65625,291623.5,305747.1875,-0.060546875,0.91162109375,-0.324951171875,0.2746581733226776,-0.3967284858226776,0.3051757514476776,100.0,64930.0,1.0
178551.3419933,302763.6875,305069.40625,338045.84375,317097.40625,313437.46875,284968.3125,291204.71875,305619.625,-0.060546875,0.913818359375,-0.322265625,0.2441406100988388,-0.2746581733226776,0.2746581733226776,100.0,64931.0,1.0
178551.3443544,302483.65625,303718.75,336527.34375,316542.1875,312409.53125,284794.75,291004.09375,305582.4375,-0.060302734375,0.91259765625,-0.325439453125,0.2441406100988388,-0.1831054538488388,0.3051757514476776,100.0,64932.0,1.0
178551.349446,302569.6875,304698.09375,336736.8125,316936.65625,312790.5,285092.75,291300.09375,305699.0,-0.060791015625,0.913818359375,-0.321533203125,0.2746581733226776,-0.1525878757238388,0.5187987685203552,100.0,64933.0,1.0
178551.3556994,302961.71875,306817.3125,338640.03125,317837.53125,314204.375,285486.96875,291722.46875,305816.9375,-0.0615234375,0.91650390625,-0.323974609375,0.3356933295726776,-0.1831054538488388,0.4577636420726776,100.0,64934.0,1.0
178551.3581969,303019.40625,306940.96875,339306.75,317841.375,314513.03125,285367.25,291625.71875,305743.96875,-0.061767578125,0.917724609375,-0.326171875,0.2441406100988388,-0.1831054538488388,0.4577636420726776,100.0,64935.0,1.0
178551.3606576,302760.21875,305081.46875,338060.6875,317095.625,313439.78125,284964.46875,291204.1875,305616.9375,-0.0625,0.9169921875,-0.323974609375,0.2441406100988388,-0.1831054538488388,0.4882812201976776,100.0,64936.0,1.0
178551.3644431,302470.0,303706.5,336529.3125,316525.125,312394.4375,284774.90625,290990.59375,305569.5625,-0.062255859375,0.91748046875,-0.3271484375,0.1831054538488388,-0.03051757626235485,0.4577636420726776,100.0,64937.0,1.0
178551.3712935,302550.0,304661.34375,336713.5,316902.4375,312757.5,285061.75,291280.625,305685.34375,-0.063720703125,0.917236328125,-0.326171875,0.0915527269244194,0.03051757626235485,0.4577636420726776,100.0,64938.0,1.0
178551.3713419,302946.96875,306792.5625,338614.09375,317806.9375,314176.84375,285458.53125,291707.625,305809.15625,-0.06494140625,0.91748046875,-0.32373046875,-0.03051757626235485,-0.1220703050494194,0.4577636420726776,100.0,64939.0,1.0
178551.3794614,303015.46875,306953.03125,339312.28125,317830.09375,314516.6875,285349.4375,291622.15625,305741.5625,-0.064453125,0.916748046875,-0.323974609375,0.0,-0.2136230319738388,0.4272460639476776,100.0,64940.0,1.0
178551.3862711,302750.46875,305095.34375,338068.4375,317086.40625,313450.0625,284949.71875,291201.21875,305609.96875,-0.065185546875,0.91845703125,-0.322509765625,-0.1220703050494194,-0.2746581733226776,0.3662109076976776,100.0,64941.0,1.0
178551.3863201,302459.34375,303705.3125,336525.5625,316512.78125,312399.71875,284766.0625,290987.53125,305564.53125,-0.063720703125,0.915771484375,-0.322509765625,-0.1831054538488388,-0.2441406100988388,0.3356933295726776,100.0,64942.0,1.0
178551.3925171,302533.90625,304639.8125,336683.53125,316885.25,312746.15625,285057.0,291274.1875,305678.09375,-0.064453125,0.91455078125,-0.323974609375,-0.2136230319738388,-0.1831054538488388,0.4577636420726776,100.0,64943.0,1.0
178551.3925676,302926.59375,306778.875,338575.375,317792.125,314159.59375,285463.09375,291703.15625,305802.375,-0.062255859375,0.91455078125,-0.324951171875,-0.1831054538488388,-0.1831054538488388,0.5493163466453552,100.0,64944.0,1.0
178551.4012721,302998.03125,306973.40625,339298.0625,317828.9375,314516.96875,285365.4375,291627.59375,305742.8125,-0.061279296875,0.9140625,-0.328125,-0.3356933295726776,-0.3051757514476776,0.5493163466453552,100.0,64945.0,1.0
178551.4013209,302748.75,305140.5625,338086.4375,317098.9375,313474.28125,284970.90625,291216.78125,305621.0625,-0.060302734375,0.9150390625,-0.328125,-0.3662109076976776,-0.2746581733226776,0.5187987685203552,100.0,64946.0,1.0
178551.4031524,302463.1875,303734.28125,336540.3125,316527.625,312417.84375,284782.34375,291002.28125,305581.34375,-0.0615234375,0.914794921875,-0.32568359375,-0.2136230319738388,-0.3356933295726776,0.4577636420726776,100.0,64947.0,1.0
178551.4118482,302538.21875,304640.25,336675.9375,316890.4375,312749.75,285068.71875,291284.28125,305695.25,-0.060302734375,0.914306640625,-0.327392578125,-0.2746581733226776,-0.2136230319738388,0.4577636420726776,100.0,64948.0,1.0
178551.4188427,302935.71875,306780.03125,338569.21875,317799.09375,314166.75,285470.5,291711.5625,305812.03125,-0.05908203125,0.91455078125,-0.325439453125,-0.0915527269244194,-0.1220703050494194,0.5187987685203552,100.0,64949.0,1.0
178551.4188941,303012.15625,306993.53125,339313.25,317848.625,314538.78125,285372.6875,291639.9375,305752.84375,-0.060791015625,0.91357421875,-0.32568359375,-0.0610351525247097,-0.1525878757238388,0.6713866591453552,100.0,64950.0,1.0
178551.4212944,302754.84375,305158.625,338102.53125,317113.4375,313487.53125,284967.84375,291219.1875,305625.15625,-0.059326171875,0.912109375,-0.326171875,0.03051757626235485,-0.1220703050494194,0.7019042372703552,100.0,64951.0,1.0
178551.4213416,302467.5,303736.8125,336553.375,316531.65625,312424.5625,284770.90625,290997.5625,305575.8125,-0.06005859375,0.912841796875,-0.32470703125,0.0,-0.0915527269244194,0.6713866591453552,100.0,64952.0,1.0
178551.4294489,302531.84375,304610.125,336656.90625,316875.59375,312731.5,285049.03125,291270.25,305682.28125,-0.060546875,0.912841796875,-0.32568359375,-0.03051757626235485,-0.1525878757238388,0.6103515028953552,100.0,64953.0,1.0
178551.4325191,302933.84375,306759.125,338546.78125,317792.75,314151.09375,285458.53125,291704.9375,305807.65625,-0.0625,0.91064453125,-0.32763671875,0.0,0.0,0.6408690810203552,100.0,64954.0,1.0
178551.4325675,303017.15625,307003.5625,339313.0,317855.40625,314542.25,285366.4375,291638.34375,305748.625,-0.06201171875,0.90869140625,-0.328125,0.0,-0.03051757626235485,0.7934569716453552,100.0,64955.0,1.0
178551.4381986,302767.34375,305182.78125,338118.34375,317126.84375,313503.71875,284965.1875,291221.15625,305619.25,-0.062744140625,0.91015625,-0.328125,0.2136230319738388,-0.0915527269244194,0.6103515028953552,100.0,64956.0,1.0
178551.4419141,302475.1875,303739.75,336559.09375,316538.1875,312430.46875,284768.9375,290996.40625,305574.1875,-0.06298828125,0.906982421875,-0.325927734375,0.3662109076976776,-0.0610351525247097,0.5798339247703552,100.0,64957.0,1.0
178551.4557203,302531.59375,304585.28125,336635.09375,316871.5625,312720.84375,285038.75,291265.96875,305682.03125,-0.059326171875,0.904296875,-0.327392578125,0.3356933295726776,-0.03051757626235485,0.6408690810203552,100.0,64958.0,1.0
178551.4588441,302930.71875,306736.5,338516.75,317787.375,314138.75,285445.5625,291700.65625,305803.0,-0.060791015625,0.902587890625,-0.3291015625,0.4577636420726776,0.0610351525247097,0.5187987685203552,100.0,64959.0,1.0
178551.4588916,303021.625,307010.625,339306.5625,317862.84375,314546.46875,285366.15625,291641.65625,305743.90625,-0.062744140625,0.90380859375,-0.329345703125,0.6408690810203552,0.1831054538488388,0.4577636420726776,100.0,64960.0,1.0
178551.4606966,302771.75,305196.375,338126.3125,317136.3125,313518.71875,284969.90625,291227.5,305616.3125,-0.05908203125,0.9052734375,-0.326171875,0.7629393935203552,0.1525878757238388,0.3662109076976776,100.0,64961.0,1.0
178551.4632033,302483.125,303743.0625,336568.1875,316538.90625,312443.78125,284766.15625,290995.5,305565.71875,-0.060546875,0.90869140625,-0.326416015625,0.9460448622703552,0.03051757626235485,0.2746581733226776,100.0,64962.0,1.0
178551.4719487,302531.6875,304559.34375,336615.9375,316854.5,312711.8125,285032.15625,291254.25,305669.59375,-0.060302734375,0.90673828125,-0.32958984375,1.0375975370407104,0.1831054538488388,0.3356933295726776,100.0,64963.0,1.0
178551.4749749,302923.8125,306704.3125,338486.78125,317772.4375,314123.75,285444.3125,291691.875,305797.09375,-0.059326171875,0.90771484375,-0.3291015625,1.1291502714157104,0.3356933295726776,0.3051757514476776,100.0,64964.0,1.0
178551.4750237,303011.71875,307004.34375,339297.8125,317853.96875,314544.3125,285364.03125,291636.09375,305740.0625,-0.05810546875,0.90771484375,-0.326171875,1.0986326932907104,0.2746581733226776,0.1831054538488388,100.0,64965.0,1.0
178551.4806992,302764.0625,305207.90625,338136.21875,317131.9375,313525.78125,284967.15625,291222.5,305613.4375,-0.057373046875,0.9052734375,-0.326171875,1.1596678495407104,0.3356933295726776,0.1220703050494194,100.0,64966.0,1.0
178551.4844717,302473.125,303739.46875,336567.5625,316533.71875,312440.21875,284764.46875,290991.375,305570.0,-0.059326171875,0.906494140625,-0.327880859375,1.2207030057907104,0.4577636420726776,0.1220703050494194,100.0,64967.0,1.0
178551.4962736,302511.75,304524.5625,336579.65625,316839.03125,312680.4375,285026.40625,291248.6875,305676.40625,-0.0595703125,0.908447265625,-0.323974609375,1.3122557401657104,0.5187987685203552,0.1220703050494194,100.0,64968.0,1.0
178551.4963275,302914.78125,306692.21875,338461.125,317765.03125,314103.90625,285448.875,291695.90625,305808.34375,-0.060791015625,0.909912109375,-0.326904296875,1.3427733182907104,0.5493163466453552,0.0610351525247097,100.0,64969.0,1.0
178551.49884,303015.375,307037.625,339304.875,317863.5625,314553.96875,285379.3125,291650.65625,305756.0625,-0.06298828125,0.909912109375,-0.32861328125,1.2817381620407104,0.4577636420726776,0.0915527269244194,100.0,64970.0,1.0
178551.4988884,302765.65625,305248.3125,338148.46875,317143.1875,313542.78125,284976.96875,291234.21875,305625.96875,-0.0615234375,0.912109375,-0.32861328125,1.2817381620407104,0.5798339247703552,0.0610351525247097,100.0,64971.0,1.0
178551.5006748,302476.6875,303763.875,336574.28125,316540.6875,312449.78125,284766.0625,290994.34375,305574.8125,-0.062255859375,0.91552734375,-0.33154296875,1.3122557401657104,0.5493163466453552,0.03051757626235485,100.0,64972.0,1.0
178551.5119506,302516.21875,304527.875,336566.9375,316834.125,312674.28125,285024.4375,291245.21875,305677.375,-0.06298828125,0.915771484375,-0.32958984375,1.2207030057907104,0.4577636420726776,-0.03051757626235485,100.0,64973.0,1.0
178551.5149777,302910.3125,306683.46875,338427.25,317752.875,314079.5,285442.59375,291684.90625,305803.0,-0.06298828125,0.915771484375,-0.326904296875,1.2207030057907104,0.4577636420726776,-0.0610351525247097,100.0,64974.0,1.0
178551.5150278,303015.09375,307049.59375,339289.46875,317858.71875,314539.5625,285374.46875,291640.9375,305746.21875,-0.060546875,0.917236328125,-0.328369140625,1.2817381620407104,0.4882812201976776,-0.0610351525247097,100.0,64975.0,1.0
178551.5244047,302768.34375,305269.9375,338149.0,317137.125,313535.4375,284974.125,291223.9375,305613.71875,-0.059326171875,0.916015625,-0.3251953125,1.2512205839157104,0.4577636420726776,0.0,100.0,64976.0,1.0
178551.5268935,302470.15625,303759.5,336564.625,316521.625,312432.34375,284758.65625,290981.625,305559.1875,-0.05908203125,0.915283203125,-0.328369140625,1.2817381620407104,0.3356933295726776,0.03051757626235485,100.0,64977.0,1.0
178551.5294487,302502.09375,304494.78125,336537.625,316804.96875,312648.09375,285009.625,291232.6875,305658.59375,-0.05810546875,0.9140625,-0.331298828125,1.2817381620407104,0.4272460639476776,0.2136230319738388,100.0,64978.0,1.0
178551.535659,302901.75,306657.46875,338399.25,317734.0,314063.40625,285433.84375,291685.0,305793.5,-0.055908203125,0.9150390625,-0.32958984375,1.1596678495407104,0.3356933295726776,0.2746581733226776,100.0,64979.0,1.0
178551.5394478,303010.46875,307048.6875,339286.4375,317855.3125,314542.53125,285370.90625,291648.78125,305741.9375,-0.0576171875,0.913818359375,-0.32763671875,1.1291502714157104,0.4272460639476776,0.3967284858226776,100.0,64980.0,1.0
178551.5462662,302767.71875,305275.5,338166.8125,317145.34375,313555.84375,284976.96875,291236.71875,305614.6875,-0.06005859375,0.911865234375,-0.325439453125,1.0375975370407104,0.4272460639476776,0.4272460639476776,100.0,64981.0,1.0
178551.5463194,302471.0625,303751.625,336577.6875,316531.21875,312450.21875,284758.90625,290990.9375,305560.0625,-0.0625,0.912109375,-0.327392578125,1.1291502714157104,0.3662109076976776,0.4577636420726776,100.0,64982.0,1.0
178551.5488465,302499.9375,304464.65625,336521.0,316806.9375,312642.1875,285008.0,291234.40625,305663.0625,-0.065673828125,0.91357421875,-0.327392578125,1.0070799589157104,0.3967284858226776,0.3662109076976776,100.0,64983.0,1.0
178551.548896,302899.59375,306631.625,338370.8125,317734.875,314049.71875,285433.75,291685.1875,305799.5,-0.0673828125,0.91357421875,-0.326171875,1.0681151151657104,0.3662109076976776,0.3356933295726776,100.0,64984.0,1.0
178551.5569488,303017.53125,307061.5625,339287.0625,317871.875,314556.28125,285378.25,291659.6875,305752.9375,-0.067626953125,0.911376953125,-0.327392578125,1.0986326932907104,0.3967284858226776,0.2136230319738388,100.0,64985.0,1.0
178551.5607074,302778.0,305303.65625,338177.34375,317161.625,313576.03125,284980.71875,291247.34375,305625.53125,-0.06787109375,0.912841796875,-0.32666015625,1.0070799589157104,0.1525878757238388,0.1525878757238388,100.0,64986.0,1.0
178551.5700174,302481.6875,303768.28125,336587.34375,316539.78125,312467.46875,284760.15625,290997.90625,305571.875,-0.067626953125,0.91357421875,-0.325439453125,1.0070799589157104,-0.03051757626235485,0.0610351525247097,100.0,64987.0,1.0
178551.5700689,302510.65625,304462.875,336512.3125,316805.3125,312646.1875,285006.75,291240.375,305674.96875,-0.069091796875,0.915283203125,-0.32958984375,0.9460448622703552,-0.1220703050494194,-0.03051757626235485,100.0,64988.0,1.0
178551.5719102,302906.75,306628.3125,338353.21875,317734.875,314047.75,285433.9375,291691.71875,305810.875,-0.066650390625,0.915771484375,-0.328125,0.8850097060203552,-0.1525878757238388,0.03051757626235485,100.0,64989.0,1.0
178551.5757032,303023.5,307076.15625,339282.5,317880.625,314562.0,285383.875,291665.5,305761.25,-0.064453125,0.91650390625,-0.325927734375,0.9460448622703552,-0.2441406100988388,0.0,100.0,64990.0,1.0
178551.5900443,302790.25,305340.21875,338199.25,317180.75,313599.8125,284992.71875,291261.21875,305636.96875,-0.06494140625,0.915771484375,-0.33056640625,0.8239745497703552,-0.2746581733226776,-0.03051757626235485,100.0,64991.0,1.0
178551.5900931,302485.8125,303778.46875,336594.40625,316550.34375,312473.90625,284767.9375,291005.25,305581.96875,-0.06298828125,0.91650390625,-0.331787109375,0.8239745497703552,-0.3051757514476776,0.0,100.0,64992.0,1.0
178551.5919483,302495.8125,304423.0,336474.15625,316792.4375,312619.125,285005.6875,291232.875,305676.125,-0.0595703125,0.916748046875,-0.330078125,0.7629393935203552,-0.3356933295726776,0.03051757626235485,100.0,64993.0,1.0
178551.5944742,302899.21875,306604.15625,338320.5,317722.71875,314030.5,285433.84375,291689.03125,305808.53125,-0.059814453125,0.917724609375,-0.3291015625,0.7019042372703552,-0.3051757514476776,0.03051757626235485,100.0,64994.0,1.0
178551.5969328,303018.9375,307085.96875,339277.5,317879.90625,314566.5,285385.46875,291667.9375,305760.6875,-0.060546875,0.9150390625,-0.328369140625,0.7629393935203552,-0.3356933295726776,0.0610351525247097,100.0,64995.0,1.0
178551.6057002,302774.0625,305343.1875,338189.0625,317173.40625,313596.5,284988.59375,291252.90625,305629.90625,-0.05908203125,0.911865234375,-0.329345703125,0.6103515028953552,-0.3051757514476776,0.1220703050494194,100.0,64996.0,1.0
178551.6093441,302473.75,303774.34375,336587.96875,316542.375,312470.6875,284761.40625,290995.0625,305571.78125,-0.05859375,0.912109375,-0.328857421875,0.5493163466453552,-0.2441406100988388,0.1220703050494194,100.0,64997.0,1.0
178551.609392,302486.71875,304406.625,336463.6875,316780.5625,312615.625,284994.9375,291223.21875,305667.90625,-0.05859375,0.910400390625,-0.329345703125,0.5187987685203552,-0.2136230319738388,0.2136230319738388,100.0,64998.0,1.0
178551.6094066,302883.21875,306573.15625,338289.46875,317707.8125,314011.28125,285423.75,291678.46875,305806.125,-0.0576171875,0.907958984375,-0.32763671875,0.5187987685203552,-0.1525878757238388,0.2136230319738388,100.0,64999.0,1.0
178551.6119738,303005.96875,307075.0,339258.0,317872.21875,314555.03125,285382.4375,291664.25,305757.84375,-0.05859375,0.907958984375,-0.329345703125,0.6103515028953552,-0.1831054538488388,0.2746581733226776,100.0,65000.0,1.0
178551.6300566,302765.375,305349.6875,338189.875,317173.59375,313598.75,284987.53125,291257.625,305627.84375,-0.060302734375,0.907470703125,-0.331298828125,0.7324218153953552,0.0,0.3662109076976776,100.0,65001.0,1.0
178551.6301068,302468.1875,303773.1875,336597.25,316540.5,312476.34375,284756.6875,290998.53125,305569.8125,-0.0595703125,0.907470703125,-0.328857421875,0.7934569716453552,0.0610351525247097,0.3662109076976776,100.0,65002.0,1.0
178551.6319498,302477.5,304382.6875,336449.46875,316764.125,312598.5625,284986.09375,291220.8125,305662.625,-0.058349609375,0.90771484375,-0.3291015625,0.8544921278953552,0.03051757626235485,0.4272460639476776,100.0,65003.0,1.0
178551.6344047,302876.15625,306557.59375,338267.375,317692.96875,313989.0,285423.125,291678.5625,305801.5625,-0.0615234375,0.910400390625,-0.32861328125,0.8239745497703552,-0.03051757626235485,0.4577636420726776,100.0,65004.0,1.0
178551.6368968,303014.5625,307102.625,339271.5,317880.71875,314563.0,285397.09375,291678.03125,305763.21875,-0.06298828125,0.909912109375,-0.327880859375,0.6103515028953552,-0.1220703050494194,0.4272460639476776,100.0,65005.0,1.0
178551.6394715,302783.8125,305403.0625,338230.46875,317191.46875,313626.1875,285004.875,291270.25,305631.875,-0.06298828125,0.907958984375,-0.327880859375,0.4882812201976776,-0.0915527269244194,0.4272460639476776,100.0,65006.0,1.0
178551.6481988,302478.75,303804.125,336617.5625,316547.125,312483.9375,284767.0625,291002.84375,305570.8125,-0.06201171875,0.90771484375,-0.32568359375,0.4882812201976776,-0.1220703050494194,0.3662109076976776,100.0,65007.0,1.0
178551.6525422,302477.0625,304374.28125,336428.09375,316757.21875,312576.28125,284990.21875,291217.84375,305663.96875,-0.062255859375,0.906494140625,-0.3271484375,0.5187987685203552,-0.0915527269244194,0.3051757514476776,100.0,65008.0,1.0
178551.6525949,302883.84375,306560.09375,338252.4375,317696.4375,313979.71875,285426.6875,291680.53125,305808.71875,-0.062255859375,0.90380859375,-0.32861328125,0.4272460639476776,-0.1220703050494194,0.1831054538488388,100.0,65009.0,1.0
178551.6637913,303026.09375,307136.9375,339281.09375,317895.5625,314570.0625,285401.21875,291684.03125,305772.40625,-0.063720703125,0.906494140625,-0.327880859375,0.4882812201976776,-0.0610351525247097,0.1831054538488388,100.0,65010.0,1.0
178551.6638409,302795.0625,305453.9375,338254.0625,317206.9375,313642.28125,285007.8125,291277.75,305641.15625,-0.061767578125,0.905517578125,-0.329345703125,0.5187987685203552,-0.1525878757238388,0.0915527269244194,100.0,65011.0,1.0
178551.6688389,302491.90625,303847.65625,336647.875,316559.0,312501.625,284767.84375,291012.40625,305583.3125,-0.0625,0.904541015625,-0.3291015625,0.5187987685203552,-0.1831054538488388,-0.0610351525247097,100.0,65012.0,1.0
178551.6688872,302482.6875,304386.78125,336431.3125,316754.53125,312568.96875,284978.84375,291216.0625,305668.96875,-0.0625,0.90478515625,-0.3291015625,0.5798339247703552,-0.1220703050494194,-0.0915527269244194,100.0,65013.0,1.0
178551.6706998,302884.75,306570.1875,338248.59375,317689.75,313966.46875,285416.84375,291675.53125,305807.90625,-0.063232421875,0.90380859375,-0.33154296875,0.5493163466453552,-0.2441406100988388,-0.1525878757238388,100.0,65014.0,1.0
178551.674405,303026.09375,307171.90625,339303.25,317897.78125,314576.3125,285398.8125,291682.21875,305768.84375,-0.06103515625,0.904052734375,-0.33203125,0.6408690810203552,-0.2136230319738388,-0.2441406100988388,100.0,65015.0,1.0
178551.6807027,302783.09375,305479.34375,338278.1875,317203.8125,313644.96875,285001.65625,291272.3125,305633.9375,-0.06201171875,0.90576171875,-0.32861328125,0.6713866591453552,-0.2136230319738388,-0.2746581733226776,100.0,65016.0,1.0
178551.7125474,302475.0,303851.0625,336656.96875,316547.9375,312486.25,284755.96875,290997.65625,305570.625,-0.0634765625,0.905517578125,-0.328125,0.6408690810203552,-0.2746581733226776,-0.2136230319738388,100.0,65017.0,1.0
178551.7125964,302476.59375,304394.21875,336452.25,316747.03125,312567.0,284969.03125,291205.5,305661.8125,-0.061767578125,0.90478515625,-0.328369140625,0.7019042372703552,-0.3356933295726776,-0.3356933295726776,100.0,65018.0,1.0
178551.714405,302871.25,306563.84375,338247.90625,317673.65625,313946.90625,285404.625,291663.28125,305801.03125,-0.06298828125,0.905517578125,-0.33203125,0.7019042372703552,-0.3967284858226776,-0.4272460639476776,100.0,65019.0,1.0
178551.7169217,303025.21875,307197.65625,339330.15625,317900.21875,314577.46875,285398.0,291685.4375,305768.65625,-0.06298828125,0.90576171875,-0.33203125,0.7629393935203552,-0.4577636420726776,-0.4882812201976776,100.0,65020.0,1.0
178551.7192997,302798.46875,305540.21875,338340.6875,317219.625,313674.65625,285008.625,291282.6875,305634.46875,-0.064208984375,0.90478515625,-0.331298828125,0.7629393935203552,-0.3967284858226776,-0.4882812201976776,100.0,65021.0,1.0
178551.7257235,302491.625,303903.09375,336720.90625,316558.75,312518.1875,284759.71875,291005.78125,305568.5625,-0.067138671875,0.90771484375,-0.332275390625,0.7934569716453552,-0.4577636420726776,-0.3662109076976776,100.0,65022.0,1.0
178551.7281993,302478.21875,304395.71875,336467.8125,316737.46875,312563.5,284971.15625,291208.90625,305658.6875,-0.06640625,0.90869140625,-0.334228515625,0.8544921278953552,-0.6103515028953552,-0.5493163466453552,100.0,65023.0,1.0
178551.7306695,302872.5,306559.46875,338248.34375,317665.0625,313937.34375,285411.5,291671.3125,305804.78125,-0.065673828125,0.909912109375,-0.330322265625,0.8850097060203552,-0.6408690810203552,-0.5187987685203552,100.0,65024.0,1.0
178551.7331959,303025.46875,307210.96875,339342.78125,317899.125,314577.65625,285402.71875,291694.84375,305771.6875,-0.06591796875,0.91064453125,-0.33203125,0.8544921278953552,-0.7019042372703552,-0.4577636420726776,100.0,65025.0,1.0
178551.73568,302801.96875,305561.9375,338371.71875,317228.59375,313688.0625,285016.125,291297.25,305646.25,-0.065185546875,0.9091796875,-0.333740234375,0.7324218153953552,-0.7324218153953552,-0.3967284858226776,100.0,65026.0,1.0
178551.7381444,302499.59375,303914.0,336757.84375,316569.65625,312535.4375,284766.6875,291018.28125,305583.78125,-0.0634765625,0.908935546875,-0.33154296875,0.7324218153953552,-0.7019042372703552,-0.3356933295726776,100.0,65027.0,1.0
178551.7406671,302472.21875,304370.0625,336476.28125,316727.71875,312559.03125,284964.46875,291206.5,305662.90625,-0.061767578125,0.908447265625,-0.331298828125,0.7324218153953552,-0.8239745497703552,-0.1220703050494194,100.0,65028.0,1.0
178551.7431963,302860.59375,306531.03125,338248.34375,317652.90625,313930.8125,285401.5625,291666.21875,305803.4375,-0.06298828125,0.91015625,-0.33251953125,0.7019042372703552,-0.8239745497703552,-0.1220703050494194,100.0,65029.0,1.0
178551.7462917,303022.25,307219.28125,339366.09375,317904.9375,314592.40625,285402.09375,291696.34375,305774.84375,-0.06298828125,0.91064453125,-0.335693359375,0.7629393935203552,-0.8239745497703552,0.0,100.0,65030.0,1.0
178551.7463399,302801.34375,305588.5,338404.4375,317237.53125,313709.25,285014.53125,291295.09375,305643.9375,-0.064697265625,0.91064453125,-0.3359375,0.7019042372703552,-0.7934569716453552,0.0,100.0,65031.0,1.0
178551.7506673,302497.25,303921.15625,336774.09375,316570.90625,312540.78125,284762.40625,291010.78125,305573.5,-0.0654296875,0.911865234375,-0.336181640625,0.7629393935203552,-0.8544921278953552,0.03051757626235485,100.0,65032.0,1.0
178551.7537958,302477.5,304360.5,336473.15625,316727.0,312550.8125,284959.53125,291198.1875,305656.28125,-0.063232421875,0.9111328125,-0.33447265625,0.7324218153953552,-0.8239745497703552,0.1831054538488388,100.0,65033.0,1.0
178551.7538492,302875.28125,306526.65625,338243.96875,317662.1875,313923.90625,285403.53125,291664.96875,305802.09375,-0.063720703125,0.912353515625,-0.336669921875,0.7629393935203552,-0.8239745497703552,0.1525878757238388,100.0,65034.0,1.0
178551.7556633,303043.90625,307243.59375,339388.0,317928.28125,314604.9375,285413.5625,291703.78125,305775.0,-0.06396484375,0.91357421875,-0.3359375,0.7934569716453552,-0.8850097060203552,0.2441406100988388,100.0,65035.0,1.0
178551.7593891,302819.9375,305621.125,338439.40625,317262.71875,313730.34375,285023.75,291304.21875,305642.5,-0.064697265625,0.91357421875,-0.333984375,0.7629393935203552,-0.9460448622703552,0.2441406100988388,100.0,65036.0,1.0
178551.7737637,302518.28125,303947.25,336820.15625,316598.0,312566.71875,284767.0625,291018.65625,305576.53125,-0.0634765625,0.912841796875,-0.333740234375,0.7019042372703552,-0.8850097060203552,0.1831054538488388,100.0,65037.0,1.0
178551.7738132,302489.5625,304356.9375,336495.78125,316740.15625,312556.71875,284957.3125,291198.90625,305659.75,-0.06396484375,0.91162109375,-0.336669921875,0.7324218153953552,-0.8239745497703552,0.3051757514476776,100.0,65038.0,1.0
178551.7762953,302874.65625,306509.3125,338246.375,317661.84375,313916.0625,285395.40625,291662.03125,305804.4375,-0.06396484375,0.912109375,-0.33544921875,0.6713866591453552,-0.8850097060203552,0.2441406100988388,100.0,65039.0,1.0
178551.776348,303043.53125,307250.3125,339408.84375,317932.46875,314613.78125,285406.84375,291703.59375,305779.75,-0.063720703125,0.9140625,-0.336181640625,0.7019042372703552,-0.8544921278953552,0.2746581733226776,100.0,65040.0,1.0
178551.7818721,302819.3125,305642.15625,338477.3125,317269.0,313747.0625,285017.75,291305.46875,305649.84375,-0.063232421875,0.914306640625,-0.333984375,0.5798339247703552,-0.8239745497703552,0.2136230319738388,100.0,65041.0,1.0
178551.7963009,302507.90625,303944.65625,336839.8125,316591.46875,312564.65625,284756.9375,291016.96875,305584.3125,-0.06689453125,0.914306640625,-0.33349609375,0.6408690810203552,-0.7934569716453552,0.1220703050494194,100.0,65042.0,1.0
178551.7963501,302472.5,304324.375,336487.90625,316724.0625,312539.53125,284945.5,291194.59375,305663.15625,-0.06689453125,0.9130859375,-0.334228515625,0.6103515028953552,-0.8850097060203552,0.0610351525247097,100.0,65043.0,1.0
178551.799344,302862.65625,306481.59375,338234.125,317652.1875,313901.3125,285394.34375,291662.03125,305809.96875,-0.065185546875,0.912109375,-0.33154296875,0.4882812201976776,-0.9155272841453552,0.03051757626235485,100.0,65044.0,1.0
178551.7993926,303038.09375,307251.90625,339416.625,317938.65625,314612.4375,285416.78125,291712.8125,305786.8125,-0.064453125,0.909423828125,-0.335205078125,0.4577636420726776,-0.9155272841453552,0.0610351525247097,100.0,65045.0,1.0
178551.7994042,302821.71875,305658.15625,338499.84375,317281.15625,313759.59375,285032.84375,291317.09375,305653.9375,-0.06298828125,0.90234375,-0.3369140625,0.3051757514476776,-0.9460448622703552,0.03051757626235485,100.0,65046.0,1.0
178551.8031962,302520.3125,303955.40625,336865.65625,316601.03125,312580.75,284772.78125,291024.28125,305584.21875,-0.0615234375,0.8984375,-0.3388671875,0.5187987685203552,-0.8850097060203552,0.03051757626235485,100.0,65047.0,1.0
178551.806918,302476.4375,304298.71875,336479.4375,316712.4375,312526.5,284950.0625,291189.875,305657.34375,-0.061279296875,0.900634765625,-0.3369140625,0.7324218153953552,-0.8544921278953552,-0.0610351525247097,100.0,65048.0,1.0
178551.8212961,302861.5,306445.375,338206.125,317634.5625,313874.65625,285395.9375,291654.53125,305801.84375,-0.06005859375,0.90576171875,-0.337890625,1.0681151151657104,-0.7324218153953552,-0.1220703050494194,100.0,65049.0,1.0
178551.8213447,303043.0,307247.375,339408.65625,317932.3125,314602.34375,285424.90625,291711.46875,305780.375,-0.0595703125,0.910400390625,-0.337890625,1.2512205839157104,-0.5798339247703552,-0.1831054538488388,100.0,65050.0,1.0
178551.8318896,302828.25,305679.4375,338515.03125,317280.4375,313765.9375,285041.34375,291316.8125,305645.625,-0.05908203125,0.91162109375,-0.3388671875,1.1291502714157104,-0.5493163466453552,-0.1525878757238388,100.0,65051.0,1.0
178551.8319382,302516.65625,303960.59375,336875.40625,316590.84375,312582.90625,284770.53125,291014.1875,305571.59375,-0.059814453125,0.9130859375,-0.3369140625,1.1291502714157104,-0.5798339247703552,-0.2136230319738388,100.0,65052.0,1.0
178551.8319498,302468.1875,304279.59375,336466.90625,316695.71875,312516.125,284942.5625,291180.03125,305648.3125,-0.05810546875,0.91064453125,-0.3369140625,1.0070799589157104,-0.5798339247703552,-0.0610351525247097,100.0,65053.0,1.0
178551.8343385,302851.9375,306419.09375,338175.375,317619.03125,313855.0625,285386.5625,291648.71875,305796.28125,-0.056396484375,0.907958984375,-0.337646484375,1.0070799589157104,-0.5798339247703552,-0.0610351525247097,100.0,65054.0,1.0
178551.8375449,303036.28125,307237.15625,339390.15625,317928.46875,314597.40625,285417.3125,291710.84375,305775.09375,-0.05615234375,0.90234375,-0.337890625,1.0681151151657104,-0.3662109076976776,-0.03051757626235485,100.0,65055.0,1.0
178551.8375926,302828.15625,305683.90625,338516.65625,317288.3125,313776.84375,285035.4375,291320.3125,305645.0,-0.05615234375,0.90185546875,-0.33740234375,1.2207030057907104,-0.0915527269244194,0.0,100.0,65056.0,1.0
178551.8407072,302520.78125,303955.84375,336877.71875,316603.0,312589.0625,284763.03125,291018.65625,305577.96875,-0.061279296875,0.903076171875,-0.336669921875,1.3122557401657104,0.0,-0.03051757626235485,100.0,65057.0,1.0
178551.8600473,302475.09375,304256.34375,336455.71875,316705.5625,312515.84375,284938.625,291185.125,305664.59375,-0.06787109375,0.906005859375,-0.337890625,1.5258787870407104,0.0,-0.0610351525247097,100.0,65058.0,1.0
178551.8600959,302861.6875,306400.78125,338160.71875,317632.0625,313858.28125,285389.40625,291653.0,305816.21875,-0.069580078125,0.90869140625,-0.338134765625,1.5563963651657104,-0.03051757626235485,-0.1525878757238388,100.0,65059.0,1.0
178551.8631309,303055.6875,307251.21875,339405.53125,317958.59375,314623.71875,285431.25,291724.0625,305799.5,-0.07177734375,0.910400390625,-0.336181640625,1.5258787870407104,-0.1525878757238388,-0.2746581733226776,100.0,65060.0,1.0
178551.8631827,302849.78125,305714.375,338546.5,317320.9375,313808.5,285048.59375,291334.78125,305668.4375,-0.078857421875,0.907470703125,-0.3349609375,1.4343260526657104,-0.2746581733226776,-0.4882812201976776,100.0,65061.0,1.0
178551.8631984,302539.5625,303972.375,336899.90625,316627.3125,312607.75,284769.28125,291024.8125,305591.90625,-0.07666015625,0.905517578125,-0.3369140625,1.4343260526657104,-0.5493163466453552,-0.5493163466453552,100.0,65062.0,1.0
178551.8656604,302479.375,304238.375,336447.25,316707.96875,312501.09375,284932.375,291177.0,305663.25,-0.07470703125,0.90478515625,-0.336669921875,1.6174315214157104,-0.6103515028953552,-0.6713866591453552,100.0,65063.0,1.0
178551.8694519,302857.125,306367.34375,338131.125,317623.75,313824.84375,285379.125,291644.3125,305809.34375,-0.0751953125,0.904052734375,-0.33544921875,1.6174315214157104,-0.7019042372703552,-0.8239745497703552,100.0,65064.0,1.0
178551.8838461,303049.34375,307242.625,339395.4375,317957.0625,314605.65625,285422.21875,291717.28125,305791.8125,-0.072265625,0.905517578125,-0.336669921875,1.7395018339157104,-0.7629393935203552,-0.9155272841453552,100.0,65065.0,1.0
178551.8838939,302839.6875,305718.40625,338554.28125,317321.75,313804.5625,285043.40625,291331.40625,305660.21875,-0.0712890625,0.9072265625,-0.340087890625,1.7395018339157104,-1.0070799589157104,-0.9155272841453552,100.0,65066.0,1.0
178551.8856591,302532.84375,303969.78125,336911.71875,316622.59375,312609.46875,284766.96875,291024.1875,305586.1875,-0.07421875,0.908935546875,-0.339111328125,1.7700194120407104,-1.1291502714157104,-0.8850097060203552,100.0,65067.0,1.0
178551.8882219,302471.40625,304209.5,336431.84375,316687.3125,312490.71875,284922.71875,291172.4375,305655.03125,-0.07080078125,0.909912109375,-0.33984375,1.5869139432907104,-1.3732908964157104,-0.7324218153953552,100.0,65068.0,1.0
178551.8918784,302852.21875,306345.59375,338113.4375,317605.78125,313818.25,285372.4375,291642.4375,305804.6875,-0.0693359375,0.912109375,-0.340087890625,1.5258787870407104,-1.4343260526657104,-0.7629393935203552,100.0,65069.0,1.0
178551.8981982,303048.0,307249.25,339396.78125,317953.3125,314612.53125,285425.625,291724.6875,305793.25,-0.068115234375,0.91064453125,-0.337646484375,1.4648436307907104,-1.4953612089157104,-0.7934569716453552,100.0,65070.0,1.0
178551.9025547,302838.25,305734.0625,338565.09375,317324.4375,313814.75,285051.4375,291339.90625,305661.8125,-0.066162109375,0.910400390625,-0.338623046875,1.4648436307907104,-1.5258787870407104,-0.7019042372703552,100.0,65071.0,1.0
178551.9026182,302533.65625,303978.09375,336927.1875,316624.90625,312616.25,284772.59375,291030.28125,305585.8125,-0.06396484375,0.912841796875,-0.338623046875,1.3427733182907104,-1.5258787870407104,-0.5187987685203552,100.0,65072.0,1.0
178551.9082064,302467.5,304189.5625,336428.375,316681.59375,312481.25,284929.40625,291176.0,305656.90625,-0.063720703125,0.912109375,-0.3408203125,1.2817381620407104,-1.4953612089157104,-0.3662109076976776,100.0,65073.0,1.0
178551.9175529,302850.78125,306318.4375,338094.03125,317603.1875,313802.3125,285384.59375,291648.53125,305810.875,-0.06298828125,0.911376953125,-0.340576171875,1.3427733182907104,-1.4648436307907104,-0.3051757514476776,100.0,65074.0,1.0
178551.917603,303053.5625,307246.90625,339391.40625,317963.40625,314607.15625,285442.78125,291737.75,305801.28125,-0.064208984375,0.91064453125,-0.334716796875,1.2817381620407104,-1.4953612089157104,-0.0610351525247097,100.0,65075.0,1.0
178551.9194449,302855.4375,305761.40625,338587.46875,317345.96875,313830.03125,285072.46875,291357.875,305672.09375,-0.06396484375,0.908935546875,-0.3349609375,1.2512205839157104,-1.4038084745407104,0.0,100.0,65076.0,1.0
178551.9255094,302552.6875,304000.8125,336955.96875,316649.65625,312638.875,284794.125,291049.15625,305600.03125,-0.065185546875,0.909912109375,-0.335693359375,1.0681151151657104,-1.4038084745407104,0.0915527269244194,100.0,65077.0,1.0
178551.9324684,302482.15625,304187.5,336435.15625,316694.1875,312487.40625,284943.28125,291187.0,305669.40625,-0.065673828125,0.910888671875,-0.3359375,1.0681151151657104,-1.3122557401657104,0.1831054538488388,100.0,65078.0,1.0
178551.9325069,302855.0625,306298.3125,338078.46875,317600.0625,313792.40625,285390.125,291651.5625,305816.9375,-0.066162109375,0.912109375,-0.335205078125,0.9765624403953552,-1.4038084745407104,0.2136230319738388,100.0,65079.0,1.0
178551.9343385,303065.34375,307258.625,339406.15625,317975.5,314623.4375,285455.5625,291747.3125,305811.9375,-0.063720703125,0.912109375,-0.337646484375,0.9460448622703552,-1.3732908964157104,0.2136230319738388,100.0,65080.0,1.0
178551.9437812,302865.625,305795.40625,338626.96875,317363.03125,313863.75,285083.0,291367.4375,305681.03125,-0.064697265625,0.91259765625,-0.33837890625,0.6713866591453552,-1.4343260526657104,0.2136230319738388,100.0,65081.0,1.0
178551.9438256,302550.90625,304013.0625,336986.1875,316653.6875,312658.8125,284788.59375,291047.1875,305601.125,-0.06640625,0.913330078125,-0.337158203125,0.4882812201976776,-1.2817381620407104,0.3356933295726776,100.0,65082.0,1.0
178551.9455605,302470.78125,304164.59375,336440.1875,316685.875,312487.3125,284926.1875,291175.84375,305669.78125,-0.065673828125,0.912841796875,-0.334716796875,0.4577636420726776,-1.3427733182907104,0.3051757514476776,100.0,65083.0,1.0
178551.9568872,302846.40625,306278.09375,338077.84375,317598.0,313790.25,285371.0,291641.5625,305822.9375,-0.06591796875,0.91162109375,-0.337646484375,0.1831054538488388,-1.2207030057907104,0.3051757514476776,100.0,65084.0,1.0
178551.9599862,303062.75,307269.28125,339426.1875,317982.46875,314634.78125,285437.78125,291742.40625,305812.65625,-0.0654296875,0.9111328125,-0.34033203125,0.0915527269244194,-1.2207030057907104,0.2136230319738388,100.0,65085.0,1.0
178551.9600188,302862.3125,305814.625,338665.5,317372.96875,313885.84375,285064.875,291364.125,305679.625,-0.06591796875,0.9111328125,-0.337158203125,0.0915527269244194,-1.1291502714157104,0.2441406100988388,100.0,65086.0,1.0
178551.9687824,302550.46875,304023.625,337022.3125,316658.6875,312674.28125,284772.9375,291041.625,305600.21875,-0.065673828125,0.910888671875,-0.33740234375,0.0610351525247097,-1.1596678495407104,0.2746581733226776,100.0,65087.0,1.0
178551.9688151,302464.1875,304143.96875,336446.78125,316674.96875,312473.46875,284906.96875,291162.78125,305662.28125,-0.06494140625,0.911376953125,-0.33740234375,0.0,-1.0681151151657104,0.1220703050494194,100.0,65088.0,1.0
178551.9706403,302834.3125,306244.3125,338064.15625,317578.53125,313761.1875,285355.78125,291629.3125,305813.1875,-0.0673828125,0.90966796875,-0.33984375,-0.1831054538488388,-1.1596678495407104,0.1831054538488388,100.0,65089.0,1.0
178551.9744148,303059.09375,307260.25,339435.9375,317978.96875,314625.6875,285436.25,291738.46875,305807.8125,-0.067626953125,0.91015625,-0.3388671875,-0.3051757514476776,-1.0986326932907104,0.03051757626235485,100.0,65090.0,1.0
178551.9837822,302877.875,305845.90625,338705.125,317382.625,313902.28125,285072.90625,291367.875,305680.59375,-0.066650390625,0.91162109375,-0.339599609375,-0.4882812201976776,-1.0070799589157104,-0.0610351525247097,100.0,65091.0,1.0
178551.9838147,302567.875,304043.46875,337059.3125,316667.375,312688.21875,284780.625,291046.625,305601.90625,-0.0673828125,0.9091796875,-0.3388671875,-0.5187987685203552,-0.9460448622703552,0.0,100.0,65092.0,1.0
178551.9856187,302478.125,304134.03125,336460.03125,316673.53125,312473.46875,284910.375,291165.1875,305662.34375,-0.06640625,0.910400390625,-0.338134765625,-0.4577636420726776,-0.9155272841453552,-0.1831054538488388,100.0,65093.0,1.0
178551.9944009,302847.1875,306228.46875,338063.4375,317577.96875,313753.5,285363.46875,291633.6875,305814.4375,-0.06591796875,0.908935546875,-0.339111328125,-0.6103515028953552,-0.8850097060203552,-0.2746581733226776,100.0,65094.0,1.0
178551.9975333,303072.78125,307272.75,339451.03125,317988.53125,314629.875,285453.0625,291748.03125,305814.0,-0.06298828125,0.90625,-0.337158203125,-0.7019042372703552,-0.8850097060203552,-0.2746581733226776,100.0,65095.0,1.0
178551.997572,302879.46875,305858.96875,338725.3125,317391.375,313910.3125,285086.9375,291376.625,305682.84375,-0.06591796875,0.90576171875,-0.335205078125,-0.6713866591453552,-0.9155272841453552,-0.3967284858226776,100.0,65096.0,1.0
178551.9994061,302568.25,304052.21875,337080.9375,316670.0625,312693.59375,284785.75,291044.3125,305597.0,-0.066162109375,0.905517578125,-0.3349609375,-0.7934569716453552,-0.8850097060203552,-0.3662109076976776,100.0,65097.0,1.0
178552.0131275,302482.25,304130.1875,336476.84375,316674.6875,312473.90625,284913.5,291157.78125,305661.28125,-0.066162109375,0.90673828125,-0.33837890625,-0.8239745497703552,-0.7934569716453552,-0.3356933295726776,100.0,65098.0,1.0
178552.0162959,302849.0625,306207.8125,338068.0,317577.625,313745.09375,285363.84375,291622.40625,305813.90625,-0.065673828125,0.90673828125,-0.337646484375,-0.8544921278953552,-0.6713866591453552,-0.3051757514476776,100.0,65099.0,1.0
178552.0163496,303081.96875,307272.40625,339479.28125,317999.53125,314634.71875,285454.40625,291741.40625,305813.09375,-0.066162109375,0.906005859375,-0.33935546875,-0.8544921278953552,-0.6713866591453552,-0.3967284858226776,100.0,65100.0,1.0
178552.0182267,302899.9375,305888.03125,338785.125,317414.71875,313931.78125,285091.40625,291373.40625,305683.1875,-0.068603515625,0.90673828125,-0.339111328125,-0.7934569716453552,-0.6408690810203552,-0.3356933295726776,100.0,65101.0,1.0
178552.0218707,302587.90625,304075.90625,337152.65625,316695.53125,312720.84375,284793.0625,291045.46875,305605.40625,-0.067138671875,0.906005859375,-0.337158203125,-0.9765624403953552,-0.5187987685203552,-0.3051757514476776,100.0,65102.0,1.0
178552.0400477,302486.875,304110.6875,336521.53125,316681.40625,312477.21875,284907.6875,291149.71875,305664.3125,-0.067626953125,0.9072265625,-0.338134765625,-1.0681151151657104,-0.4577636420726776,-0.1525878757238388,100.0,65103.0,1.0
178552.0400974,302855.25,306174.5625,338103.3125,317583.625,313738.3125,285359.90625,291617.0625,305823.09375,-0.068359375,0.90966796875,-0.338623046875,-1.0070799589157104,-0.3967284858226776,-0.0915527269244194,100.0,65104.0,1.0
178552.0425438,303098.96875,307268.46875,339543.65625,318024.375,314647.21875,285461.21875,291748.65625,305829.625,-0.067138671875,0.909912109375,-0.337890625,-1.1291502714157104,-0.4272460639476776,0.03051757626235485,100.0,65105.0,1.0
178552.0425966,302923.0,305909.9375,338877.59375,317447.90625,313965.21875,285100.09375,291385.65625,305700.09375,-0.06982421875,0.909423828125,-0.33740234375,-1.0986326932907104,-0.4272460639476776,0.0610351525247097,100.0,65106.0,1.0
178552.0444739,302615.90625,304097.1875,337252.78125,316723.6875,312755.90625,284797.28125,291054.0625,305613.71875,-0.069091796875,0.90869140625,-0.338134765625,-1.0375975370407104,-0.3051757514476776,0.1220703050494194,100.0,65107.0,1.0
178552.0488426,302513.09375,304102.5625,336602.4375,316695.96875,312492.0625,284910.1875,291155.0,305673.96875,-0.07275390625,0.906005859375,-0.334716796875,-1.2207030057907104,-0.3967284858226776,0.2136230319738388,100.0,65108.0,1.0
178552.0488996,302872.6875,306153.65625,338166.8125,317589.34375,313739.75,285355.4375,291619.03125,305828.65625,-0.072998046875,0.906494140625,-0.336181640625,-1.2817381620407104,-0.4577636420726776,0.3051757514476776,100.0,65109.0,1.0
178552.0569526,303113.71875,307270.0625,339627.53125,318039.3125,314666.34375,285460.40625,291755.28125,305834.28125,-0.070068359375,0.9072265625,-0.33837890625,-1.3732908964157104,-0.5493163466453552,0.3967284858226776,100.0,65110.0,1.0
178552.0600428,302927.65625,305924.40625,338963.9375,317458.09375,313991.34375,285100.4375,291393.0,305702.21875,-0.06884765625,0.91064453125,-0.34130859375,-1.3732908964157104,-0.5187987685203552,0.5187987685203552,100.0,65111.0,1.0
178552.0600958,302602.40625,304096.125,337310.09375,316713.40625,312766.375,284791.53125,291058.71875,305616.21875,-0.06982421875,0.90966796875,-0.33935546875,-1.2817381620407104,-0.6103515028953552,0.4577636420726776,100.0,65112.0,1.0
178552.0707024,302481.6875,304074.3125,336609.15625,316658.875,312477.9375,284896.59375,291150.625,305664.21875,-0.07080078125,0.909912109375,-0.33642578125,-1.3732908964157104,-0.5798339247703552,0.4577636420726776,100.0,65113.0,1.0
178552.0738451,302839.6875,306126.5625,338138.1875,317542.75,313722.21875,285348.375,291610.96875,305809.15625,-0.071533203125,0.911865234375,-0.3369140625,-1.4038084745407104,-0.5493163466453552,0.4882812201976776,100.0,65114.0,1.0
178552.0738936,303079.84375,307272.5625,339586.75,317995.96875,314661.875,285461.5625,291753.9375,305817.125,-0.071533203125,0.909912109375,-0.33349609375,-1.5258787870407104,-0.5798339247703552,0.5798339247703552,100.0,65115.0,1.0
178552.0756961,302886.1875,305953.65625,338906.46875,317410.6875,313992.03125,285105.09375,291394.875,305686.59375,-0.071044921875,0.91064453125,-0.33642578125,-1.5869139432907104,-0.5798339247703552,0.6103515028953552,100.0,65116.0,1.0
178552.0844535,302562.09375,304127.78125,337225.34375,316662.1875,312764.03125,284799.3125,291058.0,305599.6875,-0.070556640625,0.908935546875,-0.335693359375,-1.4953612089157104,-0.6408690810203552,0.6408690810203552,100.0,65117.0,1.0
178552.0888475,302438.4375,304073.5,336477.375,316601.125,312451.21875,284899.09375,291142.65625,305649.21875,-0.070068359375,0.906982421875,-0.33544921875,-1.5563963651657104,-0.7324218153953552,0.7324218153953552,100.0,65118.0,1.0
178552.088895,302797.84375,306109.75,337973.9375,317489.65625,313676.25,285349.53125,291604.8125,305804.6875,-0.071044921875,0.90771484375,-0.337646484375,-1.6479490995407104,-0.7324218153953552,0.8239745497703552,100.0,65119.0,1.0
178552.0907366,303054.1875,307289.03125,339443.53125,317960.90625,314632.375,285466.03125,291752.3125,305812.46875,-0.070556640625,0.907470703125,-0.3359375,-1.6479490995407104,-0.7934569716453552,0.7629393935203552,100.0,65120.0,1.0
178552.105051,302868.21875,305991.71875,338792.46875,317390.3125,313985.34375,285110.90625,291396.65625,305682.5625,-0.068115234375,0.908447265625,-0.3359375,-1.5563963651657104,-0.7019042372703552,0.8239745497703552,100.0,65121.0,1.0
178552.1050999,302542.59375,304151.375,337110.90625,316644.3125,312756.09375,284800.40625,291057.8125,305598.59375,-0.06494140625,0.90869140625,-0.334716796875,-1.6174315214157104,-0.7324218153953552,0.9155272841453552,100.0,65122.0,1.0
178552.1075428,302422.34375,304081.71875,336355.6875,316583.0625,312439.59375,284896.96875,291139.34375,305652.625,-0.064453125,0.911376953125,-0.335693359375,-1.6174315214157104,-0.6713866591453552,0.7019042372703552,100.0,65123.0,1.0
178552.1075954,302778.34375,306106.53125,337838.125,317468.0,313658.125,285341.65625,291601.21875,305808.09375,-0.06494140625,0.90966796875,-0.335205078125,-1.6784666776657104,-0.6408690810203552,0.8850097060203552,100.0,65124.0,1.0
178552.1181817,303032.625,307300.65625,339317.75,317951.34375,314625.6875,285463.1875,291758.9375,305824.53125,-0.065185546875,0.91015625,-0.3359375,-1.5869139432907104,-0.5798339247703552,0.8850097060203552,100.0,65125.0,1.0
178552.1224494,302851.5,306021.59375,338686.53125,317392.90625,313991.40625,285116.4375,291412.75,305702.5,-0.064697265625,0.91015625,-0.336669921875,-1.6479490995407104,-0.5493163466453552,0.9155272841453552,100.0,65126.0,1.0
178552.1224979,302524.875,304170.0625,337005.84375,316643.84375,312757.875,284804.59375,291069.96875,305615.9375,-0.063232421875,0.907958984375,-0.334716796875,-1.6479490995407104,-0.4577636420726776,0.9765624403953552,100.0,65127.0,1.0
178552.1338454,302398.90625,304066.96875,336227.125,316569.03125,312417.84375,284895.25,291142.9375,305661.8125,-0.06298828125,0.909423828125,-0.332763671875,-1.5258787870407104,-0.3662109076976776,1.1291502714157104,100.0,65128.0,1.0
178552.1338938,302750.5625,306068.34375,337691.15625,317449.25,313618.15625,285339.875,291601.21875,305815.15625,-0.06396484375,0.9091796875,-0.331298828125,-1.6174315214157104,-0.3051757514476776,1.0681151151657104,100.0,65129.0,1.0
178552.1400437,303016.90625,307286.625,339198.75,317947.59375,314601.8125,285470.15625,291762.78125,305827.65625,-0.062744140625,0.907470703125,-0.330322265625,-1.6784666776657104,-0.2441406100988388,1.1596678495407104,100.0,65130.0,1.0
178552.1400981,302847.46875,306034.8125,338602.125,317398.625,313991.96875,285124.78125,291416.875,305698.75,-0.0625,0.9111328125,-0.33154296875,-1.6174315214157104,-0.1220703050494194,1.0986326932907104,100.0,65131.0,1.0
178552.1438065,302528.46875,304186.15625,336937.71875,316648.78125,312765.84375,284806.75,291071.21875,305609.96875,-0.0654296875,0.90869140625,-0.332275390625,-1.5563963651657104,0.03051757626235485,1.1291502714157104,100.0,65132.0,1.0
178552.1438533,302392.21875,304042.5625,336132.875,316558.84375,312401.75,284887.84375,291141.0625,305656.90625,-0.065673828125,0.908203125,-0.33203125,-1.5563963651657104,0.0,1.1291502714157104,100.0,65133.0,1.0
178552.1519497,302741.6875,306032.40625,337587.1875,317437.96875,313593.65625,285335.0625,291600.78125,305811.65625,-0.066162109375,0.907958984375,-0.33154296875,-1.4343260526657104,0.1525878757238388,1.0986326932907104,100.0,65134.0,1.0
178552.1638438,303009.5625,307273.75,339118.8125,317945.96875,314589.46875,285467.8125,291759.84375,305820.0625,-0.065185546875,0.908447265625,-0.33154296875,-1.4953612089157104,0.1525878757238388,1.1291502714157104,100.0,65135.0,1.0
178552.1638924,302836.8125,306028.5625,338532.75,317394.4375,313979.53125,285116.28125,291409.8125,305688.65625,-0.065673828125,0.909423828125,-0.3349609375,-1.5563963651657104,0.1831054538488388,1.0986326932907104,100.0,65136.0,1.0
178552.1662982,302528.28125,304173.5625,336874.6875,316644.65625,312753.3125,284802.90625,291070.0625,305604.59375,-0.064697265625,0.90869140625,-0.33203125,-1.4953612089157104,0.2136230319738388,1.1596678495407104,100.0,65137.0,1.0
178552.166351,302398.65625,304013.4375,336065.46875,316545.96875,312383.78125,284881.84375,291130.5,305647.34375,-0.0654296875,0.908447265625,-0.33544921875,-1.4648436307907104,0.2746581733226776,1.2207030057907104,100.0,65138.0,1.0
178552.1706859,302743.125,305988.59375,337502.15625,317413.90625,313559.84375,285324.40625,291583.09375,305799.9375,-0.065673828125,0.9072265625,-0.3349609375,-1.4648436307907104,0.2136230319738388,1.2512205839157104,100.0,65139.0,1.0
178552.1757296,303015.375,307253.71875,339054.0,317935.875,314571.75,285463.1875,291753.125,305817.3125,-0.066650390625,0.907470703125,-0.330078125,-1.5869139432907104,0.3051757514476776,1.3122557401657104,100.0,65140.0,1.0
178552.1800708,302845.3125,306035.53125,338496.09375,317396.5625,313981.9375,285121.90625,291411.78125,305689.53125,-0.06494140625,0.907470703125,-0.32861328125,-1.4343260526657104,0.3662109076976776,1.2207030057907104,100.0,65141.0,1.0
178552.1801181,302525.34375,304170.5,336835.625,316641.8125,312748.21875,284801.125,291064.78125,305603.15625,-0.065673828125,0.9072265625,-0.328857421875,-1.3732908964157104,0.3662109076976776,1.2207030057907104,100.0,65142.0,1.0
178552.185702,302388.375,303985.0,336006.90625,316537.28125,312360.8125,284876.5625,291123.34375,305655.375,-0.066650390625,0.909912109375,-0.331298828125,-1.2512205839157104,0.4577636420726776,1.1291502714157104,100.0,65143.0,1.0
178552.191876,302741.25,305959.71875,337446.34375,317410.34375,313542.25,285325.3125,291580.75,305809.0625,-0.06494140625,0.907958984375,-0.3330078125,-1.1291502714157104,0.6408690810203552,1.0986326932907104,100.0,65144.0,1.0
178552.2012931,303030.03125,307261.125,339037.34375,317954.75,314581.0625,285481.59375,291767.4375,305833.21875,-0.066650390625,0.9091796875,-0.33203125,-0.9765624403953552,0.6713866591453552,1.0375975370407104,100.0,65145.0,1.0
178552.2013422,302861.3125,306059.3125,338499.9375,317420.53125,314000.4375,285137.71875,291423.03125,305700.25,-0.066162109375,0.908203125,-0.3310546875,-0.8544921278953552,0.6103515028953552,1.0986326932907104,100.0,65146.0,1.0
178552.2075462,302540.53125,304185.25,336846.0,316659.9375,312764.65625,284812.46875,291066.75,305603.71875,-0.06591796875,0.90625,-0.33203125,-0.7019042372703552,0.6103515028953552,1.1291502714157104,100.0,65147.0,1.0
178552.2075947,302394.875,303963.90625,335994.5625,316538.4375,312355.0,284879.53125,291116.65625,305644.84375,-0.064697265625,0.908447265625,-0.33349609375,-0.7629393935203552,0.5493163466453552,1.2512205839157104,100.0,65148.0,1.0
178552.213843,302741.25,305922.0,337406.3125,317407.21875,313516.125,285324.40625,291572.25,305803.25,-0.064697265625,0.906982421875,-0.3330078125,-0.6408690810203552,0.5493163466453552,1.2207030057907104,100.0,65149.0,1.0
178552.2138943,303037.71875,307249.5,339017.875,317964.75,314571.21875,285482.21875,291760.5625,305827.9375,-0.0654296875,0.9072265625,-0.33349609375,-0.4882812201976776,0.6408690810203552,1.0986326932907104,100.0,65150.0,1.0
178552.2156804,302886.09375,306083.28125,338525.21875,317450.5,314019.9375,285149.625,291427.875,305704.65625,-0.064453125,0.90673828125,-0.33154296875,-0.4882812201976776,0.6713866591453552,1.1596678495407104,100.0,65151.0,1.0
178552.2344716,302566.90625,304205.8125,336883.0,316692.9375,312789.53125,284820.0625,291071.6875,305611.3125,-0.06396484375,0.907958984375,-0.3310546875,-0.3662109076976776,0.6713866591453552,1.1596678495407104,100.0,65152.0,1.0
178552.2399703,302419.375,303962.625,336020.21875,316562.59375,312368.5,284878.4375,291114.5,305649.5625,-0.06396484375,0.90625,-0.330078125,-0.3356933295726776,0.7324218153953552,1.2207030057907104,100.0,65153.0,1.0
178552.2400183,302757.34375,305899.28125,337412.03125,317422.78125,313517.03125,285322.90625,291568.78125,305806.9375,-0.06494140625,0.906005859375,-0.332275390625,-0.2746581733226776,0.7019042372703552,1.3427733182907104,100.0,65154.0,1.0
178552.2400287,303044.78125,307236.375,339019.65625,317979.15625,314566.21875,285481.5,291757.59375,305829.8125,-0.064208984375,0.906494140625,-0.3330078125,-0.0915527269244194,0.6713866591453552,1.3122557401657104,100.0,65155.0,1.0
178552.2400395,302883.5,306076.75,338530.34375,317459.59375,314014.65625,285144.0,291421.25,305697.75,-0.06396484375,0.906494140625,-0.333251953125,0.0610351525247097,0.7019042372703552,1.2207030057907104,100.0,65156.0,1.0
178552.2425102,302568.0625,304197.5,336894.09375,316699.375,312785.5,284820.59375,291067.90625,305605.03125,-0.0673828125,0.9072265625,-0.333984375,0.0915527269244194,0.6408690810203552,1.2207030057907104,100.0,65157.0,1.0
178552.2425614,302425.28125,303942.34375,336031.59375,316563.125,312365.09375,284880.875,291109.21875,305645.28125,-0.066162109375,0.90673828125,-0.332763671875,0.2136230319738388,0.5798339247703552,1.1291502714157104,100.0,65158.0,1.0
178552.2531927,302759.21875,305866.65625,337408.0,317413.21875,313501.46875,285320.9375,291559.84375,305803.09375,-0.0654296875,0.90771484375,-0.332275390625,0.3051757514476776,0.5187987685203552,1.0681151151657104,100.0,65159.0,1.0
178552.2625143,303044.875,307218.9375,339029.40625,317977.375,314562.90625,285481.6875,291754.5625,305830.1875,-0.066162109375,0.9091796875,-0.33447265625,0.4577636420726776,0.5187987685203552,1.0681151151657104,100.0,65160.0,1.0
178552.2625621,302897.0,306093.65625,338572.4375,317474.71875,314038.0,285149.1875,291426.34375,305705.625,-0.064697265625,0.9111328125,-0.3310546875,0.4882812201976776,0.4577636420726776,1.0070799589157104,100.0,65161.0,1.0
178552.2650422,302585.3125,304213.5,336942.625,316712.53125,312811.0625,284818.8125,291065.78125,305608.4375,-0.066650390625,0.9111328125,-0.330810546875,0.6408690810203552,0.5798339247703552,1.1291502714157104,100.0,65162.0,1.0
178552.2650919,302430.46875,303917.40625,336042.75,316557.75,312358.40625,284869.5,291101.0,305642.5,-0.0654296875,0.91015625,-0.33349609375,0.5493163466453552,0.4272460639476776,1.0986326932907104,100.0,65163.0,1.0
178552.273219,302764.75,305829.09375,337400.21875,317404.09375,313482.875,285310.09375,291551.78125,305796.46875,-0.065185546875,0.90869140625,-0.330078125,0.5798339247703552,0.3967284858226776,1.0070799589157104,100.0,65164.0,1.0
178552.2757355,303057.125,307208.8125,339037.625,317979.6875,314552.8125,285483.1875,291753.65625,305827.75,-0.064453125,0.910400390625,-0.333251953125,0.5493163466453552,0.3967284858226776,1.0681151151657104,100.0,65165.0,1.0
178552.2794549,302903.53125,306100.71875,338607.21875,317482.6875,314044.09375,285152.3125,291427.4375,305700.8125,-0.064453125,0.909912109375,-0.3310546875,0.6408690810203552,0.4577636420726776,1.0681151151657104,100.0,65166.0,1.0
178552.2881827,302589.96875,304216.28125,336985.90625,316715.75,312817.6875,284817.375,291062.28125,305600.5625,-0.06396484375,0.909912109375,-0.33447265625,0.6408690810203552,0.3356933295726776,0.9460448622703552,100.0,65167.0,1.0
178552.2912987,302431.375,303903.0,336070.375,316550.4375,312350.4375,284864.78125,291092.15625,305635.8125,-0.06201171875,0.91015625,-0.33154296875,0.5187987685203552,0.2746581733226776,0.9155272841453552,100.0,65168.0,1.0
178552.291351,302752.25,305797.90625,337397.53125,317383.6875,313457.21875,285300.71875,291539.28125,305787.15625,-0.0625,0.9091796875,-0.3310546875,0.5798339247703552,0.2441406100988388,0.8850097060203552,100.0,65169.0,1.0
178552.2932326,303047.125,307204.8125,339043.875,317968.34375,314543.96875,285478.1875,291746.78125,305817.21875,-0.06494140625,0.908935546875,-0.333251953125,0.5798339247703552,0.1525878757238388,0.8850097060203552,100.0,65170.0,1.0
178552.3069756,302899.5,306121.8125,338618.5625,317475.96875,314043.90625,285152.75,291423.40625,305690.78125,-0.064453125,0.91015625,-0.335205078125,0.5798339247703552,0.1220703050494194,0.9155272841453552,100.0,65171.0,1.0
178552.3100473,302577.46875,304224.4375,336983.59375,316703.59375,312811.15625,284812.75,291056.21875,305591.1875,-0.06201171875,0.910888671875,-0.333740234375,0.5798339247703552,0.1220703050494194,0.8850097060203552,100.0,65172.0,1.0
178552.3100962,302412.5,303879.40625,336043.375,316531.65625,312330.25,284851.90625,291080.34375,305624.71875,-0.0625,0.911376953125,-0.32958984375,0.5493163466453552,0.1831054538488388,0.9460448622703552,100.0,65173.0,1.0
178552.3119288,302744.03125,305771.875,337363.46875,317371.90625,313434.15625,285291.25,291528.1875,305781.8125,-0.062255859375,0.912109375,-0.33251953125,0.5798339247703552,0.1220703050494194,1.0070799589157104,100.0,65174.0,1.0
178552.3144697,303049.4375,307203.90625,339039.59375,317971.375,314538.59375,285472.375,291740.71875,305811.84375,-0.062744140625,0.91259765625,-0.331787109375,0.4882812201976776,0.03051757626235485,1.0070799589157104,100.0,65175.0,1.0
178552.3488455,302902.0,306136.65625,338644.9375,317486.53125,314053.28125,285147.375,291422.59375,305682.5625,-0.0615234375,0.912353515625,-0.330322265625,0.5493163466453552,0.0,0.8850097060203552,100.0,65176.0,1.0
178552.3488943,302588.28125,304236.9375,337027.5,316721.1875,312826.8125,284809.78125,291059.96875,305587.15625,-0.063232421875,0.912109375,-0.33251953125,0.6408690810203552,-0.0610351525247097,0.8544921278953552,100.0,65177.0,1.0
178552.3512917,302421.1875,303868.125,336072.4375,316541.9375,312330.5,284845.5625,291079.4375,305621.6875,-0.064453125,0.910888671875,-0.334228515625,0.5187987685203552,0.03051757626235485,0.8239745497703552,100.0,65178.0,1.0
178552.3513422,302739.28125,305743.0,337363.65625,317367.4375,313413.84375,285282.5625,291525.59375,305778.0625,-0.064453125,0.910400390625,-0.33251953125,0.5798339247703552,-0.03051757626235485,0.8239745497703552,100.0,65179.0,1.0
178552.3531738,303053.5625,307207.03125,339059.78125,317984.34375,314540.8125,285478.46875,291752.6875,305821.6875,-0.0634765625,0.910888671875,-0.33447265625,0.5493163466453552,-0.0610351525247097,0.7324218153953552,100.0,65180.0,1.0
178552.3557227,302917.46875,306174.03125,338699.21875,317516.03125,314086.09375,285162.9375,291442.34375,305700.0,-0.06103515625,0.90869140625,-0.3330078125,0.4577636420726776,-0.0610351525247097,0.7934569716453552,100.0,65181.0,1.0
178552.3582309,302594.1875,304263.9375,337075.6875,316738.09375,312854.875,284822.125,291070.78125,305600.21875,-0.0615234375,0.909912109375,-0.33203125,0.5187987685203552,-0.2441406100988388,0.7324218153953552,100.0,65182.0,1.0
178552.3607045,302418.03125,303867.6875,336095.40625,316536.125,312339.90625,284850.375,291079.375,305625.6875,-0.0625,0.910888671875,-0.3330078125,0.5187987685203552,-0.3356933295726776,0.6713866591453552,100.0,65183.0,1.0
178552.3632309,302735.875,305727.25,337366.34375,317354.65625,313413.40625,285287.40625,291527.1875,305783.78125,-0.06396484375,0.9091796875,-0.333740234375,0.3967284858226776,-0.2746581733226776,0.6713866591453552,100.0,65184.0,1.0
178552.3657224,303049.875,307203.1875,339061.75,317977.625,314544.65625,285485.96875,291758.125,305826.3125,-0.062744140625,0.908203125,-0.334228515625,0.2746581733226776,-0.2746581733226776,0.6408690810203552,100.0,65185.0,1.0
178552.3682522,302913.90625,306186.5625,338705.65625,317516.75,314097.90625,285172.40625,291452.46875,305708.59375,-0.063232421875,0.907470703125,-0.3359375,0.2441406100988388,-0.3051757514476776,0.7324218153953552,100.0,65186.0,1.0
178552.3707275,302594.4375,304271.53125,337077.03125,316739.6875,312865.6875,284827.5,291082.40625,305610.6875,-0.061767578125,0.9091796875,-0.330078125,0.3051757514476776,-0.3967284858226776,0.6408690810203552,100.0,65187.0,1.0
178552.3738404,302416.625,303854.1875,336076.5625,316531.03125,312339.625,284849.9375,291087.5,305639.46875,-0.0625,0.90869140625,-0.3330078125,0.3662109076976776,-0.4272460639476776,0.6408690810203552,100.0,65188.0,1.0
178552.373893,302724.8125,305704.28125,337308.5,317332.1875,313395.4375,285280.96875,291527.90625,305791.09375,-0.062255859375,0.909912109375,-0.334228515625,0.1831054538488388,-0.4882812201976776,0.6103515028953552,100.0,65189.0,1.0
178552.375677,303035.125,307208.375,338995.4375,317954.03125,314533.21875,285483.75,291762.15625,305830.53125,-0.064208984375,0.91015625,-0.3349609375,0.3051757514476776,-0.4882812201976776,0.5187987685203552,100.0,65190.0,1.0
178552.3800433,302894.21875,306216.0625,338640.375,317490.8125,314094.6875,285170.53125,291452.28125,305703.125,-0.063720703125,0.90966796875,-0.33447265625,0.3356933295726776,-0.5798339247703552,0.5798339247703552,100.0,65191.0,1.0
178552.3800933,302575.84375,304302.375,337001.65625,316711.09375,312861.75,284826.3125,291079.625,305602.8125,-0.0654296875,0.910400390625,-0.3349609375,0.2746581733226776,-0.6713866591453552,0.5798339247703552,100.0,65192.0,1.0
178552.3882249,302385.84375,303856.59375,335958.0,316487.5625,312311.90625,284842.6875,291080.15625,305627.9375,-0.06396484375,0.91015625,-0.33447265625,0.2746581733226776,-0.7019042372703552,0.6408690810203552,100.0,65193.0,1.0
178552.3912632,302683.21875,305687.84375,337151.3125,317282.5,313355.65625,285270.3125,291521.46875,305783.15625,-0.06298828125,0.909912109375,-0.3349609375,0.2441406100988388,-0.6103515028953552,0.6103515028953552,100.0,65194.0,1.0
178552.3913187,302990.0625,307211.875,338826.96875,317905.125,314500.6875,285475.875,291759.46875,305826.875,-0.06201171875,0.910400390625,-0.333984375,0.2136230319738388,-0.6713866591453552,0.6408690810203552,100.0,65195.0,1.0
178552.4019752,302847.71875,306248.96875,338468.8125,317446.90625,314074.03125,285168.84375,291459.4375,305705.1875,-0.06005859375,0.908447265625,-0.336181640625,0.1831054538488388,-0.7019042372703552,0.6103515028953552,100.0,65196.0,1.0
178552.4049768,302514.6875,304328.84375,336801.1875,316654.59375,312832.34375,284820.5,291083.75,305600.21875,-0.06201171875,0.9091796875,-0.333251953125,0.1831054538488388,-0.6713866591453552,0.5493163466453552,100.0,65197.0,1.0
178552.4050261,302306.46875,303854.375,335697.65625,316406.21875,312258.90625,284830.875,291075.4375,305619.34375,-0.0625,0.911376953125,-0.333740234375,0.0915527269244194,-0.6713866591453552,0.5798339247703552,100.0,65198.0,1.0
178552.4069349,302588.8125,305671.84375,336822.5625,317179.5,313278.40625,285256.65625,291508.6875,305768.21875,-0.062744140625,0.910400390625,-0.333740234375,0.0915527269244194,-0.6713866591453552,0.5187987685203552,100.0,65199.0,1.0
178552.4157214,302902.53125,307221.25,338492.25,317820.90625,314439.34375,285476.40625,291754.90625,305817.46875,-0.063720703125,0.909912109375,-0.331298828125,0.03051757626235485,-0.6713866591453552,0.4882812201976776,100.0,65200.0,1.0
178552.4188936,302771.46875,306268.625,338150.4375,317381.1875,314029.875,285175.5625,291455.84375,305699.0,-0.0615234375,0.909423828125,-0.331787109375,0.0,-0.7324218153953552,0.5187987685203552,100.0,65201.0,1.0
178552.4189409,302451.40625,304329.375,336488.8125,316598.4375,312782.375,284825.0625,291075.0625,305597.4375,-0.06298828125,0.9091796875,-0.334716796875,-0.03051757626235485,-0.7324218153953552,0.4882812201976776,100.0,65202.0,1.0
178552.4319749,302262.125,303839.625,335394.5625,316362.40625,312206.59375,284831.6875,291066.21875,305618.0,-0.062744140625,0.91015625,-0.331787109375,0.0,-0.7019042372703552,0.4577636420726776,100.0,65203.0,1.0
178552.4350481,302544.90625,305634.90625,336505.34375,317138.28125,313215.09375,285258.53125,291502.25,305769.46875,-0.0615234375,0.910400390625,-0.3349609375,0.0,-0.6713866591453552,0.5187987685203552,100.0,65204.0,1.0
178552.4350978,302858.1875,307194.78125,338175.28125,317784.25,314382.21875,285479.53125,291754.90625,305815.25,-0.063232421875,0.909912109375,-0.334716796875,-0.03051757626235485,-0.7019042372703552,0.5187987685203552,100.0,65205.0,1.0
178552.4369141,302734.625,306274.0625,337855.125,317356.25,313989.8125,285175.5625,291461.21875,305695.96875,-0.06396484375,0.908447265625,-0.33203125,-0.0610351525247097,-0.7324218153953552,0.5187987685203552,100.0,65206.0,1.0
178552.445723,302422.59375,304344.3125,336208.15625,316584.84375,312753.03125,284826.15625,291084.46875,305597.28125,-0.063720703125,0.90966796875,-0.333251953125,-0.1220703050494194,-0.8544921278953552,0.3356933295726776,100.0,65207.0,1.0
178552.4487671,302224.65625,303822.71875,335088.59375,316334.59375,312161.4375,284831.25,291069.53125,305616.84375,-0.064208984375,0.90966796875,-0.332763671875,-0.1525878757238388,-0.8850097060203552,0.3662109076976776,100.0,65208.0,1.0
178552.4488167,302492.96875,305591.625,336156.65625,317091.78125,313145.1875,285250.84375,291497.59375,305766.96875,-0.06396484375,0.91064453125,-0.33251953125,-0.2136230319738388,-0.8544921278953552,0.4272460639476776,100.0,65209.0,1.0
178552.4507254,302819.21875,307179.15625,337846.28125,317755.71875,314327.78125,285477.65625,291754.125,305818.8125,-0.06591796875,0.91064453125,-0.329833984375,-0.1220703050494194,-0.8544921278953552,0.4272460639476776,100.0,65210.0,1.0
178552.4693706,302715.5,306284.09375,337576.96875,317356.625,313965.21875,285185.5625,291469.34375,305704.03125,-0.0654296875,0.9111328125,-0.33349609375,-0.1525878757238388,-0.8239745497703552,0.3356933295726776,100.0,65211.0,1.0
178552.4724797,302402.5,304347.8125,335949.25,316583.5,312736.0625,284834.0,291090.53125,305603.15625,-0.064697265625,0.91015625,-0.333740234375,-0.1831054538488388,-0.8239745497703552,0.3662109076976776,100.0,65212.0,1.0
178552.4725298,302184.6875,303803.21875,334789.4375,316302.6875,312121.46875,284827.5,291069.875,305617.46875,-0.06298828125,0.910400390625,-0.336181640625,-0.1525878757238388,-0.8544921278953552,0.3662109076976776,100.0,65213.0,1.0
178552.4743502,302446.65625,305567.21875,335820.03125,317046.375,313094.40625,285245.65625,291501.28125,305769.5625,-0.0625,0.908203125,-0.3369140625,-0.2136230319738388,-0.9460448622703552,0.3662109076976776,100.0,65214.0,1.0
178552.4768845,302770.5625,307160.28125,337509.375,317718.71875,314279.84375,285473.28125,291762.59375,305824.1875,-0.064697265625,0.90869140625,-0.3349609375,-0.3356933295726776,-0.8544921278953552,0.4882812201976776,100.0,65215.0,1.0
178552.479385,302679.65625,306275.0625,337279.71875,317338.625,313930.625,285177.0625,291473.5625,305705.90625,-0.063232421875,0.908447265625,-0.334716796875,-0.2746581733226776,-0.8544921278953552,0.4882812201976776,100.0,65216.0,1.0
178552.4818662,302396.84375,304325.90625,335714.8125,316592.8125,312708.96875,284820.0625,291086.5,305599.59375,-0.061767578125,0.909423828125,-0.335693359375,-0.3051757514476776,-0.8239745497703552,0.4882812201976776,100.0,65217.0,1.0
178552.4843752,302202.3125,303733.9375,334614.9375,316331.375,312084.28125,284805.84375,291050.40625,305607.46875,-0.06005859375,0.908447265625,-0.3369140625,-0.2441406100988388,-0.7934569716453552,0.5493163466453552,100.0,65218.0,1.0
178552.4981062,302481.53125,305472.0,335705.0625,317086.96875,313053.28125,285225.71875,291474.71875,305757.46875,-0.0634765625,0.909423828125,-0.337158203125,-0.2441406100988388,-0.7934569716453552,0.6713866591453552,100.0,65219.0,1.0
178552.5012047,302821.53125,307091.09375,337469.15625,317776.28125,314260.09375,285464.4375,291742.40625,305812.28125,-0.06298828125,0.9091796875,-0.335205078125,-0.2441406100988388,-0.8239745497703552,0.6713866591453552,100.0,65220.0,1.0
178552.5012498,302733.21875,306236.71875,337308.65625,317405.15625,313932.21875,285176.34375,291455.40625,305690.0625,-0.06201171875,0.90966796875,-0.332275390625,-0.2441406100988388,-0.7934569716453552,0.6713866591453552,100.0,65221.0,1.0
178552.5030778,302448.53125,304293.4375,335784.28125,316651.90625,312712.71875,284819.34375,291066.84375,305580.0,-0.06201171875,0.909423828125,-0.33349609375,-0.2441406100988388,-0.7934569716453552,0.7324218153953552,100.0,65222.0,1.0
178552.5056606,302253.28125,303697.09375,334697.53125,316380.8125,312082.5,284807.09375,291035.8125,305591.375,-0.0615234375,0.90869140625,-0.3310546875,-0.2746581733226776,-0.7934569716453552,0.6713866591453552,100.0,65223.0,1.0
178552.5199713,302522.90625,305430.0,335780.0,317121.03125,313043.78125,285223.90625,291459.6875,305741.3125,-0.060546875,0.90966796875,-0.33349609375,-0.1831054538488388,-0.7934569716453552,0.7629393935203552,100.0,65224.0,1.0
178552.5200111,302854.8125,307059.78125,337548.28125,317806.9375,314251.15625,285466.125,291729.71875,305799.5,-0.06005859375,0.910888671875,-0.335693359375,-0.1220703050494194,-0.7324218153953552,0.7629393935203552,100.0,65225.0,1.0
178552.5224485,302777.28125,306237.78125,337423.125,317447.34375,313947.875,285181.375,291455.40625,305686.9375,-0.061767578125,0.90966796875,-0.33349609375,-0.1831054538488388,-0.8239745497703552,0.8850097060203552,100.0,65226.0,1.0
178552.522484,302497.15625,304304.0,335916.15625,316692.21875,312741.6875,284820.5,291068.09375,305579.28125,-0.063232421875,0.906982421875,-0.332275390625,-0.0915527269244194,-0.7019042372703552,0.9155272841453552,100.0,65227.0,1.0
178552.5286682,302297.0,303686.375,334818.59375,316406.03125,312102.78125,284800.9375,291027.59375,305589.03125,-0.06396484375,0.909423828125,-0.33203125,-0.1220703050494194,-0.7629393935203552,0.8239745497703552,100.0,65228.0,1.0
178552.5286857,302562.09375,305396.625,335870.28125,317138.28125,313044.5,285218.03125,291450.03125,305739.25,-0.060791015625,0.908935546875,-0.335205078125,-0.1525878757238388,-0.7019042372703552,0.8850097060203552,100.0,65229.0,1.0
178552.536818,302903.53125,307060.0625,337659.15625,317840.03125,314271.1875,285468.71875,291730.15625,305801.90625,-0.0615234375,0.91015625,-0.33740234375,-0.1525878757238388,-0.7324218153953552,0.9765624403953552,100.0,65230.0,1.0
178552.543514,302830.84375,306269.0625,337559.46875,317490.8125,313986.6875,285193.78125,291461.65625,305693.28125,-0.062255859375,0.91015625,-0.33349609375,-0.0915527269244194,-0.6713866591453552,1.0070799589157104,100.0,65231.0,1.0
178552.5435342,302555.0,304340.125,336057.96875,316744.625,312786.40625,284837.15625,291080.34375,305592.78125,-0.06201171875,0.910888671875,-0.332275390625,-0.0610351525247097,-0.7019042372703552,0.9460448622703552,100.0,65232.0,1.0
178552.5499164,302349.375,303699.78125,334941.1875,316452.25,312133.53125,284812.5625,291040.03125,305607.1875,-0.062744140625,0.908203125,-0.333251953125,-0.03051757626235485,-0.5798339247703552,1.0070799589157104,100.0,65233.0,1.0
178552.5499413,302603.375,305397.53125,335972.21875,317172.15625,313065.15625,285223.28125,291460.5,305756.59375,-0.0615234375,0.90673828125,-0.337158203125,0.0,-0.5798339247703552,1.0070799589157104,100.0,65234.0,1.0
178552.5661752,302935.4375,307069.0,337755.53125,317871.3125,314293.34375,285472.5625,291742.21875,305816.9375,-0.063232421875,0.908447265625,-0.334716796875,-0.03051757626235485,-0.4577636420726776,1.0070799589157104,100.0,65235.0,1.0
178552.5661991,302859.28125,306297.3125,337664.59375,317528.8125,314018.875,285197.1875,291479.09375,305709.84375,-0.063232421875,0.90869140625,-0.334716796875,0.0610351525247097,-0.4577636420726776,0.9460448622703552,100.0,65236.0,1.0
178552.5705054,302579.875,304368.46875,336170.25,316780.375,312826.0,284839.75,291093.40625,305606.9375,-0.062255859375,0.905029296875,-0.3359375,0.0915527269244194,-0.5493163466453552,0.9765624403953552,100.0,65237.0,1.0
178552.5705256,302365.75,303700.125,335028.25,316470.21875,312156.78125,284808.4375,291043.6875,305614.0,-0.063232421875,0.907958984375,-0.3359375,0.1525878757238388,-0.5187987685203552,1.0375975370407104,100.0,65238.0,1.0
178552.5705322,302607.21875,305369.46875,336016.21875,317170.1875,313062.9375,285213.8125,291454.0625,305757.5625,-0.06494140625,0.907958984375,-0.332763671875,0.2746581733226776,-0.5493163466453552,0.9765624403953552,100.0,65239.0,1.0
178552.5748827,302937.21875,307055.0625,337795.84375,317871.0625,314294.40625,285462.53125,291736.9375,305811.65625,-0.066650390625,0.907470703125,-0.334228515625,0.3662109076976776,-0.5493163466453552,0.7629393935203552,100.0,65240.0,1.0
178552.5749029,302860.25,306302.59375,337717.4375,317530.96875,314031.46875,285189.0625,291473.46875,305698.21875,-0.066650390625,0.906005859375,-0.33349609375,0.3967284858226776,-0.6713866591453552,0.7324218153953552,100.0,65241.0,1.0
178552.5831316,302574.0625,304354.6875,336210.5,316770.0,312826.1875,284825.875,291082.65625,305591.71875,-0.066650390625,0.90478515625,-0.334228515625,0.4272460639476776,-0.5493163466453552,0.6408690810203552,100.0,65242.0,1.0
178552.610596,302359.03125,303664.28125,335052.75,316448.9375,312147.5,284789.9375,291027.875,305597.90625,-0.064208984375,0.903564453125,-0.336181640625,0.4882812201976776,-0.5187987685203552,0.4882812201976776,100.0,65243.0,1.0
178552.610629,302595.0625,305319.84375,336019.5,317140.5,313043.25,285194.5,291438.875,305742.375,-0.0625,0.902587890625,-0.3369140625,0.6103515028953552,-0.6408690810203552,0.5187987685203552,100.0,65244.0,1.0
178552.6106357,302928.5625,307030.71875,337813.46875,317849.25,314288.15625,285455.3125,291727.46875,305798.625,-0.0634765625,0.902099609375,-0.333984375,0.8544921278953552,-0.6103515028953552,0.4882812201976776,100.0,65245.0,1.0
178552.6156082,302852.125,306301.0,337752.03125,317513.6875,314036.65625,285188.34375,291469.09375,305689.71875,-0.0634765625,0.902099609375,-0.33349609375,0.9460448622703552,-0.7019042372703552,0.3967284858226776,100.0,65246.0,1.0
