Time,FZ,C3,CZ,C4,PZ,PO7,OZ,PO8,AccX,AccY,AccZ,Gyro1,Gyro2,Gyro3,Battery,Counter,Validation
84391.7454394,315218.25,336208.4375,331246.25,320558.375,313403.84375,294832.125,302236.46875,271277.15625,0.1025390625,0.755859375,-0.694091796875,5.126952648162842,6.439208507537842,-2.502441167831421,100.0,85759.0,1.0
84391.7479082,315567.03125,338281.25,333117.4375,322051.90625,316081.65625,296667.46875,303461.78125,272393.21875,0.098876953125,0.765625,-0.690185546875,4.730224132537842,6.225585460662842,-2.746581792831421,100.0,85760.0,1.0
84391.7505838,315785.28125,338693.59375,333276.96875,322442.25,316720.03125,296617.5,303577.75,272477.0,0.09814453125,0.76953125,-0.683349609375,4.089354991912842,5.798339366912842,-3.021239995956421,100.0,85761.0,1.0
84391.7530513,315557.125,336924.65625,331548.8125,321237.3125,314559.5,294775.34375,302495.1875,271478.9375,0.097412109375,0.773681640625,-0.6865234375,3.417968511581421,5.126952648162842,-3.265380620956421,100.0,85762.0,1.0
84391.7555798,315191.25,335418.59375,330286.28125,320062.6875,312590.78125,293640.78125,301742.5,270804.71875,0.099365234375,0.774658203125,-0.687255859375,2.807616949081421,4.730224132537842,-3.601073980331421,100.0,85763.0,1.0
84391.7581037,315193.84375,336233.1875,331227.03125,320527.53125,313511.75,294691.9375,302359.46875,271403.03125,0.10009765625,0.775634765625,-0.6875,2.624511480331421,4.486083507537842,-4.180907726287842,100.0,85764.0,1.0
84391.7605683,315546.125,338298.5,333157.59375,322000.3125,316170.1875,296504.21875,303618.4375,272533.84375,0.097412109375,0.777099609375,-0.69091796875,2.166747808456421,4.577636241912842,-4.821776866912842,100.0,85765.0,1.0
84391.7630619,315789.46875,338795.5,333408.75,322446.5625,316855.125,296517.375,303814.59375,272679.03125,0.094482421875,0.7822265625,-0.689697265625,1.9226073026657104,4.516601085662842,-5.249022960662842,100.0,85766.0,1.0
84391.7655652,315576.78125,337112.96875,331658.15625,321297.5,314690.5,294744.15625,302761.8125,271793.65625,0.089111328125,0.789794921875,-0.690673828125,1.6784666776657104,4.577636241912842,-6.042479991912842,100.0,85767.0,1.0
84391.7968729,315201.1875,335596.4375,330283.0625,320113.75,312638.4375,293594.03125,301982.1875,271197.21875,0.08349609375,0.8037109375,-0.688720703125,0.6408690810203552,4.180907726287842,-6.439208507537842,100.0,85768.0,1.0
84391.7993763,315199.75,336408.15625,331170.0,320561.84375,313487.15625,294628.90625,302577.46875,271827.625,0.0771484375,0.810546875,-0.68212890625,-0.9155272841453552,3.875732183456421,-5.950927257537842,100.0,85769.0,1.0
84391.801868,315523.0625,338419.28125,333005.34375,321996.28125,316059.59375,296410.625,303726.875,272938.3125,0.072998046875,0.817138671875,-0.675048828125,-2.380370855331421,3.448486089706421,-5.615233898162842,100.0,85770.0,1.0
84391.8042893,315769.1875,338933.03125,333252.09375,322461.03125,316753.1875,296457.28125,303853.28125,273096.21875,0.071044921875,0.81884765625,-0.6650390625,-4.119872570037842,2.838134527206421,-5.584716320037842,100.0,85771.0,1.0
84391.8068426,315581.0625,337302.40625,331611.3125,321347.5625,314639.8125,294702.65625,302787.28125,272171.03125,0.07568359375,0.819091796875,-0.658447265625,-5.706786632537842,2.532958745956421,-5.523681163787842,100.0,85772.0,1.0
84391.8092261,315204.59375,335744.6875,330299.875,320146.90625,312605.15625,293533.03125,301985.84375,271464.28125,0.080078125,0.81787109375,-0.65625,-7.263183116912842,2.410888433456421,-5.249022960662842,100.0,85773.0,1.0
84391.8132221,315175.34375,336436.875,331135.21875,320528.3125,313394.1875,294528.0625,302536.59375,271982.75,0.083740234375,0.813720703125,-0.65771484375,-8.911131858825684,2.258300542831421,-5.096435070037842,100.0,85774.0,1.0
84391.8132628,315509.46875,338444.59375,333001.59375,321983.6875,316007.0,296345.15625,303717.21875,273072.53125,0.088623046875,0.809326171875,-0.662841796875,-9.857176780700684,2.166747808456421,-4.852294445037842,100.0,85775.0,1.0
84391.8132734,315786.25,339033.59375,333360.375,322514.84375,316835.1875,296469.875,303905.6875,273216.65625,0.087890625,0.802978515625,-0.669677734375,-10.803221702575684,2.288818120956421,-4.760741710662842,100.0,85776.0,1.0
84391.8156736,315611.21875,337435.09375,331770.09375,321432.3125,314795.28125,294772.0625,302866.96875,272244.15625,0.089599609375,0.8046875,-0.6728515625,-11.444090843200684,2.258300542831421,-4.943847179412842,100.0,85777.0,1.0
84391.8157064,315222.46875,335829.34375,330416.90625,320201.71875,312708.34375,293569.15625,302023.21875,271461.875,0.10009765625,0.807861328125,-0.669189453125,-12.237547874450684,2.349853277206421,-4.669188976287842,100.0,85778.0,1.0
84391.8180675,315185.4375,336512.0625,331247.3125,320561.65625,313493.4375,294576.25,302556.90625,271924.90625,0.112548828125,0.81201171875,-0.663818359375,-13.488768577575684,2.838134527206421,-3.967284917831421,100.0,85779.0,1.0
84391.8231303,315520.8125,338513.25,333113.96875,322006.03125,316128.4375,296470.15625,303759.5,272954.15625,0.10888671875,0.81787109375,-0.659912109375,-14.892577171325684,3.601073980331421,-2.838134527206421,100.0,85780.0,1.0
84391.8330899,315791.625,339071.6875,333443.53125,322530.6875,316955.8125,296653.4375,303956.5625,273041.875,0.09912109375,0.822265625,-0.655029296875,-16.571043014526367,4.333495616912842,-2.502441167831421,100.0,85781.0,1.0
84391.8355121,315611.375,337425.875,331827.9375,321445.90625,314904.90625,294969.71875,302898.25,272004.03125,0.095703125,0.8251953125,-0.653076171875,-18.127439498901367,4.943847179412842,-2.288818120956421,100.0,85782.0,1.0
84391.8406301,315226.5,335782.75,330471.8125,320216.03125,312813.75,293804.84375,302049.15625,271161.625,0.083984375,0.830078125,-0.644287109375,-19.775388717651367,5.706786632537842,-2.349853277206421,100.0,85783.0,1.0
84391.8455629,315190.375,336411.125,331271.65625,320560.15625,313577.03125,294836.40625,302598.65625,271589.71875,0.08837890625,0.83837890625,-0.634765625,-21.423337936401367,5.981444835662842,-2.655029058456421,100.0,85784.0,1.0
84391.8481164,315516.0,338369.21875,333112.1875,321984.40625,316187.15625,296719.25,303808.3125,272595.53125,0.087890625,0.84423828125,-0.632568359375,-23.376462936401367,6.164550304412842,-2.410888433456421,100.0,85785.0,1.0
84391.8531008,315807.28125,338985.0625,333504.40625,322553.5625,317071.9375,296963.78125,304051.15625,272708.09375,0.080322265625,0.841552734375,-0.630859375,-25.238035202026367,6.408690929412842,-2.075195074081421,100.0,85786.0,1.0
84391.8556675,315664.9375,337485.59375,332004.15625,321555.15625,315151.21875,295392.34375,303071.78125,271733.65625,0.073974609375,0.838623046875,-0.63134765625,-26.580808639526367,6.225585460662842,-2.471923589706421,100.0,85787.0,1.0
84391.8579956,315266.90625,335868.875,330645.15625,320316.4375,313069.53125,294204.65625,302203.90625,270886.71875,0.082275390625,0.83837890625,-0.6328125,-27.557371139526367,5.767821788787842,-2.593993902206421,100.0,85788.0,1.0
84391.8580357,315195.90625,336391.90625,331342.625,320587.78125,313734.28125,295157.40625,302691.625,271271.34375,0.096923828125,0.843505859375,-0.633056640625,-28.717039108276367,5.950927257537842,-1.8920897245407104,100.0,85789.0,1.0
84391.8606406,315495.59375,338282.65625,333117.71875,321971.8125,316300.90625,297041.71875,303887.34375,272250.34375,0.077880859375,0.842041015625,-0.635009765625,-29.693601608276367,6.408690929412842,-1.3122557401657104,100.0,85790.0,1.0
84391.863262,315791.53125,338939.375,333535.15625,322562.78125,317215.78125,297322.21875,304124.90625,272358.96875,0.0751953125,0.843505859375,-0.63330078125,-30.517576217651367,6.256103038787842,-1.5563963651657104,100.0,85791.0,1.0
84391.8633008,315659.5,337457.09375,332046.0,321578.84375,315291.5,295735.5,303134.90625,271379.25,0.067626953125,0.8359375,-0.6357421875,-31.524656295776367,6.195067882537842,-1.2817381620407104,100.0,85792.0,1.0
84391.8655607,315272.53125,335830.5,330677.90625,320342.8125,313197.21875,294544.6875,302299.21875,270542.03125,0.0634765625,0.83349609375,-0.6328125,-31.677244186401367,6.378173351287842,-1.4343260526657104,100.0,85793.0,1.0
84391.8679307,315194.3125,336343.15625,331357.125,320596.1875,313846.75,295479.625,302794.28125,270933.09375,0.049560546875,0.827880859375,-0.63134765625,-31.646726608276367,6.195067882537842,-1.9836424589157104,100.0,85794.0,1.0
84391.8706544,315507.59375,338284.1875,333167.875,322001.21875,316446.0,297364.84375,303998.84375,271981.03125,0.051513671875,0.8291015625,-0.628173828125,-31.402585983276367,5.432128429412842,-2.593993902206421,100.0,85795.0,1.0
84391.8706962,315816.75,338993.53125,333625.8125,322620.1875,317412.21875,297651.125,304269.3125,272161.90625,0.03466796875,0.82568359375,-0.62353515625,-31.158445358276367,4.608153820037842,-2.990722417831421,100.0,85796.0,1.0
84391.8731345,315689.0,337517.09375,332144.15625,321636.96875,315497.75,296027.15625,303270.28125,271213.75,0.04443359375,0.828857421875,-0.61962890625,-30.792234420776367,3.417968511581421,-3.509521245956421,100.0,85797.0,1.0
84391.8756672,315286.75,335840.59375,330725.625,320365.59375,313321.3125,294752.1875,302377.0,270369.9375,0.036376953125,0.824462890625,-0.616455078125,-30.426023483276367,2.288818120956421,-3.448486089706421,100.0,85798.0,1.0
84391.8779783,315183.40625,336296.59375,331345.5,320564.34375,313845.78125,295610.59375,302812.34375,270757.875,0.03515625,0.824462890625,-0.612060546875,-29.937742233276367,0.7934569716453552,-3.814697027206421,100.0,85799.0,1.0
84391.8804687,315489.875,338247.0,333153.84375,321952.5625,316426.15625,297483.40625,303996.15625,271836.03125,0.028076171875,0.823486328125,-0.61083984375,-29.876707077026367,-0.0915527269244194,-3.631591558456421,100.0,85800.0,1.0
84391.8831184,315810.40625,339023.6875,333654.34375,322605.15625,317428.40625,297782.375,304276.46875,272062.125,0.023681640625,0.818359375,-0.609619140625,-29.602048873901367,-0.8239745497703552,-3.936767339706421,100.0,85801.0,1.0
84391.8831613,315706.875,337619.53125,332210.78125,321660.75,315551.125,296165.90625,303283.0625,271130.59375,0.02197265625,0.819091796875,-0.605224609375,-29.296873092651367,-1.5869139432907104,-4.577636241912842,100.0,85802.0,1.0
84391.8857433,315308.28125,335929.65625,330764.15625,320380.8125,313355.8125,294843.21875,302362.25,270299.21875,0.021728515625,0.816162109375,-0.59521484375,-28.961179733276367,-2.136230230331421,-5.004882335662842,100.0,85803.0,1.0
84391.8857809,315175.875,336305.09375,331298.1875,320533.5,313811.8125,295637.0625,302768.53125,270681.59375,0.025390625,0.821533203125,-0.591064453125,-29.022214889526367,-2.655029058456421,-5.462646007537842,100.0,85804.0,1.0
84391.88799,315457.875,338195.3125,333049.15625,321890.25,316361.0625,297480.53125,303939.21875,271746.34375,0.03125,0.824462890625,-0.5859375,-29.418943405151367,-2.990722417831421,-5.401610851287842,100.0,85805.0,1.0
84391.8906302,315803.4375,339008.84375,333596.5,322573.59375,317423.3125,297822.875,304240.875,272004.90625,0.02978515625,0.8212890625,-0.584228515625,-29.846189498901367,-3.265380620956421,-5.279540538787842,100.0,85806.0,1.0
84391.8906722,315719.375,337656.5625,332216.6875,321670.3125,315584.90625,296239.40625,303272.40625,271110.9375,0.031494140625,0.8134765625,-0.588623046875,-29.998777389526367,-3.540038824081421,-5.462646007537842,100.0,85807.0,1.0
84391.9006715,315302.125,335944.21875,330772.21875,320370.15625,313365.21875,294890.25,302328.90625,270255.03125,0.0361328125,0.80810546875,-0.58984375,-29.510496139526367,-3.967284917831421,-5.523681163787842,100.0,85808.0,1.0
84391.900708,315154.15625,336253.03125,331279.78125,320483.625,313787.125,295643.9375,302702.8125,270611.96875,0.038330078125,0.805419921875,-0.591552734375,-29.022214889526367,-4.302978038787842,-5.462646007537842,100.0,85809.0,1.0
84391.9031685,315436.25,338118.625,333021.59375,321838.65625,316304.28125,297483.21875,303881.375,271690.90625,0.04052734375,0.80126953125,-0.59326171875,-27.923582077026367,-4.577636241912842,-5.310058116912842,100.0,85810.0,1.0
84391.9056908,315786.71875,338975.75,333603.375,322551.875,317386.125,297854.8125,304213.59375,271975.40625,0.042236328125,0.801025390625,-0.592041015625,-26.672361373901367,-4.760741710662842,-5.432128429412842,100.0,85811.0,1.0
84391.9218449,315720.71875,337688.125,332260.5,321687.3125,315586.1875,296302.4375,303264.09375,271096.09375,0.045654296875,0.803955078125,-0.590087890625,-25.299070358276367,-4.882812023162842,-5.432128429412842,100.0,85812.0,1.0
84391.9244024,315301.78125,335966.75,330786.4375,320386.625,313361.5625,294939.5,302315.5,270230.46875,0.046875,0.806640625,-0.584716796875,-24.322507858276367,-5.096435070037842,-5.218505382537842,100.0,85813.0,1.0
84391.924444,315130.46875,336207.71875,331217.46875,320458.6875,313741.96875,295638.125,302664.28125,270561.96875,0.0517578125,0.80615234375,-0.579833984375,-23.101804733276367,-5.035399913787842,-4.943847179412842,100.0,85814.0,1.0
84391.9268656,315408.625,338051.5625,332940.78125,321798.875,316245.28125,297459.0,303845.53125,271646.5,0.053466796875,0.806396484375,-0.578125,-22.125242233276367,-4.791259288787842,-4.638671398162842,100.0,85815.0,1.0
84391.9293819,315788.3125,338966.09375,333579.3125,322550.53125,317384.0625,297871.53125,304212.71875,271969.59375,0.050537109375,0.807373046875,-0.57421875,-21.057126998901367,-4.486083507537842,-4.180907726287842,100.0,85816.0,1.0
84391.9318655,315741.90625,337734.4375,332284.34375,321720.125,315645.90625,296341.5,303278.40625,271108.34375,0.05126953125,0.80419921875,-0.57666015625,-20.111082077026367,-4.272460460662842,-3.814697027206421,100.0,85817.0,1.0
84391.9343389,315319.375,336009.59375,330793.0625,320411.65625,313419.9375,294954.78125,302315.40625,270235.1875,0.049072265625,0.8056640625,-0.572509765625,-18.951414108276367,-4.089354991912842,-3.479003667831421,100.0,85818.0,1.0
84391.9469577,315132.875,336201.28125,331170.71875,320455.90625,313762.4375,295627.84375,302648.71875,270549.28125,0.045654296875,0.806396484375,-0.567138671875,-17.791746139526367,-3.936767339706421,-3.112792730331421,100.0,85819.0,1.0
84391.9469991,315396.625,338007.9375,332871.21875,321777.59375,316240.0,297448.1875,303819.21875,271618.5,0.046875,0.80712890625,-0.568359375,-16.387937545776367,-3.875732183456421,-2.777099370956421,100.0,85820.0,1.0
84391.9518666,315781.09375,338961.0,333547.59375,322549.1875,317411.5,297889.21875,304201.71875,271956.625,0.043701171875,0.8076171875,-0.56689453125,-15.014647483825684,-3.814697027206421,-2.166747808456421,100.0,85821.0,1.0
84391.9519068,315752.75,337785.21875,332303.84375,321751.21875,315724.5,296384.9375,303289.9375,271123.46875,0.041015625,0.814453125,-0.563720703125,-13.946532249450684,-3.662109136581421,-1.6174315214157104,100.0,85822.0,1.0
84391.9542677,315334.03125,336062.875,330812.4375,320443.21875,313498.25,294987.96875,302321.5,270244.9375,0.037841796875,0.8173828125,-0.560546875,-12.969969749450684,-3.601073980331421,-1.0986326932907104,100.0,85823.0,1.0
84391.9581105,315130.375,336200.375,331144.875,320447.21875,313789.09375,295611.03125,302622.78125,270529.53125,0.03564453125,0.81982421875,-0.560546875,-12.145995140075684,-3.540038824081421,-0.7934569716453552,100.0,85824.0,1.0
84391.9729962,315380.53125,337980.125,332830.1875,321752.75,316260.03125,297418.84375,303792.0625,271602.75,0.0341796875,0.819580078125,-0.559326171875,-11.627196311950684,-3.448486089706421,-0.5798339247703552,100.0,85825.0,1.0
84391.9730368,315772.40625,338961.0,333541.96875,322548.03125,317471.6875,297886.53125,304193.125,271964.0625,0.03369140625,0.822021484375,-0.55322265625,-10.711668968200684,-3.326415777206421,-0.1220703050494194,100.0,85826.0,1.0
84391.9756836,315749.53125,337814.09375,332328.4375,321767.15625,315797.4375,296384.0625,303273.5,271131.84375,0.0322265625,0.82421875,-0.54931640625,-10.009764671325684,-3.387450933456421,0.3662109076976776,100.0,85827.0,1.0
84391.9757207,315331.09375,336081.375,330832.03125,320454.375,313550.65625,294956.59375,302289.125,270249.40625,0.031494140625,0.82373046875,-0.5498046875,-9.338377952575684,-3.295898199081421,0.8239745497703552,100.0,85828.0,1.0
84391.9781686,315123.65625,336184.46875,331139.84375,320439.8125,313811.25,295551.59375,302578.34375,270529.96875,0.0322265625,0.81884765625,-0.55078125,-8.514403343200684,-3.326415777206421,1.4953612089157104,100.0,85829.0,1.0
84391.9804599,315371.0625,337956.4375,332817.65625,321739.25,316275.40625,297359.84375,303749.125,271605.34375,0.03173828125,0.815185546875,-0.54736328125,-7.598876476287842,-3.387450933456421,2.105712652206421,100.0,85830.0,1.0
84392.0005474,315775.8125,338982.0,333561.71875,322558.84375,317530.3125,297869.90625,304178.28125,271987.75,0.031494140625,0.815185546875,-0.544677734375,-6.835937023162842,-3.509521245956421,2.532958745956421,100.0,85831.0,1.0
84392.0005863,315775.1875,337902.0625,332393.6875,321819.34375,315924.125,296420.8125,303305.5,271194.625,0.030029296875,0.814453125,-0.544677734375,-5.920409679412842,-3.662109136581421,2.807616949081421,100.0,85832.0,1.0
84392.0031372,315370.0625,336189.9375,330907.125,320522.0625,313699.78125,295010.3125,302342.21875,270326.46875,0.027587890625,0.814208984375,-0.540771484375,-5.249022960662842,-3.631591558456421,3.356933355331421,100.0,85833.0,1.0
84392.0055955,315141.5625,336248.84375,331173.375,320474.6875,313919.09375,295573.75,302609.8125,270578.875,0.02490234375,0.816650390625,-0.539306640625,-4.486083507537842,-3.662109136581421,3.723144292831421,100.0,85834.0,1.0
84392.0081179,315377.40625,337996.375,332837.53125,321756.40625,316367.5,297373.96875,303771.3125,271638.34375,0.021484375,0.81982421875,-0.539306640625,-3.875732183456421,-3.784179449081421,4.150390148162842,100.0,85835.0,1.0
84392.0106281,315784.375,339060.15625,333614.375,322592.71875,317664.625,297919.09375,304216.90625,272032.625,0.019775390625,0.822998046875,-0.541015625,-3.265380620956421,-4.028319835662842,4.333495616912842,100.0,85836.0,1.0
84392.0129611,315792.96875,338032.34375,332479.0,321874.4375,316104.46875,296501.34375,303364.875,271252.90625,0.021728515625,0.823974609375,-0.5400390625,-2.471923589706421,-4.486083507537842,4.852294445037842,100.0,85837.0,1.0
84392.0155853,315370.625,336298.46875,330969.90625,320553.0,313861.6875,295065.21875,302380.75,270355.34375,0.0205078125,0.826171875,-0.538330078125,-2.136230230331421,-4.730224132537842,5.249022960662842,100.0,85838.0,1.0
84392.0219786,315142.96875,336311.5,331216.3125,320491.84375,314048.8125,295600.125,302629.21875,270584.5,0.01513671875,0.826904296875,-0.538818359375,-1.8615721464157104,-5.187987804412842,5.493163585662842,100.0,85839.0,1.0
84392.0220191,315386.25,338049.0625,332887.40625,321778.6875,316498.125,297400.34375,303790.0,271642.8125,0.011962890625,0.826171875,-0.53662109375,-1.3732908964157104,-5.554198741912842,5.462646007537842,100.0,85840.0,1.0
84392.0469871,315791.28125,339129.4375,333683.3125,322623.84375,317822.96875,297963.96875,304246.25,272056.3125,0.011962890625,0.828125,-0.53564453125,-1.0986326932907104,-5.950927257537842,5.493163585662842,100.0,85841.0,1.0
84392.0470247,315803.34375,338124.34375,332559.71875,321910.1875,316279.25,296559.28125,303397.9375,271290.1875,0.012451171875,0.83447265625,-0.533203125,-1.0375975370407104,-6.439208507537842,5.645751476287842,100.0,85842.0,1.0
84392.0494434,315372.3125,336382.0625,331022.28125,320574.1875,314019.40625,295086.75,302396.40625,270386.21875,0.013427734375,0.83544921875,-0.529052734375,-1.0681151151657104,-6.988524913787842,5.889892101287842,100.0,85843.0,1.0
84392.0494799,315127.875,336347.1875,331213.34375,320478.96875,314161.90625,295570.0,302613.75,270600.4375,0.011474609375,0.832763671875,-0.525390625,-1.3427733182907104,-7.385253429412842,5.950927257537842,100.0,85844.0,1.0
84392.0517374,315357.90625,338049.40625,332853.15625,321748.90625,316590.9375,297352.34375,303764.5,271663.46875,0.008544921875,0.830810546875,-0.524658203125,-1.5869139432907104,-7.751464366912842,6.011962413787842,100.0,85845.0,1.0
84392.0544797,315774.28125,339145.625,333660.5,322608.65625,317935.15625,297935.625,304227.90625,272085.28125,0.00830078125,0.825439453125,-0.525634765625,-1.6479490995407104,-8.178709983825684,5.950927257537842,100.0,85846.0,1.0
84392.0569764,315799.3125,338180.5625,332560.53125,321917.34375,316421.21875,296555.28125,303395.1875,271332.125,0.004638671875,0.82275390625,-0.530029296875,-1.8005369901657104,-8.605956077575684,5.828856945037842,100.0,85847.0,1.0
84392.0593608,315378.46875,336432.46875,331025.875,320589.125,314153.5,295080.0625,302391.40625,270435.375,0.0029296875,0.81884765625,-0.532470703125,-1.5563963651657104,-9.155272483825684,5.828856945037842,100.0,85848.0,1.0
84392.0618286,315133.3125,336364.625,331207.28125,320487.28125,314271.25,295545.34375,302604.28125,270654.5,-0.000244140625,0.82275390625,-0.533447265625,-1.2817381620407104,-9.857176780700684,5.615233898162842,100.0,85849.0,1.0
84392.0656497,315364.25,338047.25,332852.09375,321759.8125,316702.40625,297325.96875,303762.375,271719.8125,-0.001220703125,0.830810546875,-0.53466796875,-1.1596678495407104,-10.528563499450684,5.554198741912842,100.0,85850.0,1.0
84392.0656919,315766.96875,339162.625,333676.78125,322623.40625,318080.8125,297929.0,304245.0,272145.1875,0.0009765625,0.8349609375,-0.53369140625,-1.3122557401657104,-11.108397483825684,5.554198741912842,100.0,85851.0,1.0
84392.116899,315797.0,338242.09375,332600.6875,321941.59375,316600.84375,296573.34375,303429.78125,271396.5,0.00146484375,0.834716796875,-0.53173828125,-1.4648436307907104,-11.688231468200684,5.615233898162842,100.0,85852.0,1.0
84392.1169358,315378.84375,336502.5,331062.15625,320605.3125,314326.25,295103.21875,302424.84375,270489.65625,-0.001708984375,0.83349609375,-0.53173828125,-1.6479490995407104,-12.298583030700684,5.737304210662842,100.0,85853.0,1.0
84392.1194255,315116.15625,336392.0625,331203.34375,320475.5625,314399.84375,295535.59375,302609.375,270675.71875,-0.000732421875,0.833251953125,-0.532958984375,-1.7700194120407104,-12.908934593200684,5.798339366912842,100.0,85854.0,1.0
84392.1194627,315339.84375,338044.9375,332833.125,321742.46875,316802.65625,297309.0625,303751.28125,271736.25,-0.00048828125,0.833251953125,-0.529541015625,-1.9531248807907104,-13.519286155700684,5.828856945037842,100.0,85855.0,1.0
84392.1218768,315779.46875,339212.0625,333709.40625,322653.15625,318227.96875,297976.84375,304279.9375,272204.375,-0.000244140625,0.83642578125,-0.528564453125,-2.258300542831421,-14.129637718200684,6.042479991912842,100.0,85856.0,1.0
84392.1242462,315819.78125,338328.8125,332652.4375,321983.78125,316774.5625,296643.6875,303480.1875,271438.4375,-0.002197265625,0.839111328125,-0.529052734375,-2.471923589706421,-14.892577171325684,6.164550304412842,100.0,85857.0,1.0
84392.1269812,315415.6875,336623.90625,331131.625,320658.0625,314518.90625,295191.375,302488.84375,270520.84375,-0.007080078125,0.841796875,-0.526611328125,-2.960204839706421,-15.502928733825684,6.530761241912842,100.0,85858.0,1.0
84392.1343611,315172.84375,336532.25,331288.4375,320542.1875,314607.15625,295645.5625,302690.1875,270701.90625,-0.011962890625,0.8408203125,-0.522705078125,-3.417968511581421,-16.296384811401367,6.927489757537842,100.0,85859.0,1.0
84392.134399,315392.25,338148.84375,332898.3125,321797.46875,317000.15625,297412.6875,303833.625,271729.28125,-0.014892578125,0.8408203125,-0.525634765625,-3.875732183456421,-16.937253952026367,7.049560070037842,100.0,85860.0,1.0
84392.1344088,315807.90625,339291.625,333759.5625,322688.84375,318418.84375,298077.59375,304355.59375,272160.75,-0.01708984375,0.836669921875,-0.522216796875,-4.241942882537842,-17.761228561401367,7.232665538787842,100.0,85861.0,1.0
84392.1421287,315862.25,338453.09375,332739.53125,322039.75,316991.21875,296798.625,303586.25,271416.8125,-0.01953125,0.834716796875,-0.523193359375,-4.547118663787842,-18.585203170776367,7.141112804412842,100.0,85862.0,1.0
84392.1421712,315465.46875,336750.40625,331249.03125,320710.71875,314706.125,295354.0,302593.28125,270487.5,-0.017822265625,0.834228515625,-0.52392578125,-4.913329601287842,-19.317625045776367,7.293700695037842,100.0,85863.0,1.0
84392.1421803,315186.53125,336574.375,331378.84375,320548.625,314708.65625,295727.375,302742.15625,270631.90625,-0.02197265625,0.836181640625,-0.51806640625,-5.065917491912842,-20.141599655151367,7.202147960662842,100.0,85864.0,1.0
84392.1421892,315388.40625,338158.03125,332968.84375,321792.71875,317075.25,297458.1875,303868.75,271654.8125,-0.0263671875,0.837158203125,-0.515625,-5.340575695037842,-20.996091842651367,6.927489757537842,100.0,85865.0,1.0
84392.1468075,315802.71875,339322.84375,333844.40625,322689.125,318505.21875,298132.78125,304388.5625,272099.96875,-0.02392578125,0.83935546875,-0.515625,-5.371093273162842,-21.850584030151367,6.439208507537842,100.0,85866.0,1.0
84392.1494772,315858.59375,338513.96875,332830.1875,322040.28125,317086.34375,296851.5625,303606.34375,271372.1875,-0.023193359375,0.840087890625,-0.513427734375,-5.432128429412842,-22.674558639526367,6.286620616912842,100.0,85867.0,1.0
84392.1495208,315451.875,336795.28125,331278.4375,320704.46875,314800.28125,295367.6875,302601.40625,270459.0625,-0.021484375,0.8369140625,-0.51611328125,-5.462646007537842,-23.773191452026367,6.134032726287842,100.0,85868.0,1.0
84392.1518347,315170.0625,336583.40625,331339.15625,320539.59375,314786.15625,295710.65625,302743.21875,270616.875,-0.0166015625,0.8369140625,-0.519287109375,-5.371093273162842,-24.902341842651367,6.378173351287842,100.0,85869.0,1.0
84392.1568339,315377.40625,338159.5625,332938.5625,321801.5625,317160.28125,297436.375,303871.53125,271679.125,-0.012939453125,0.83837890625,-0.524169921875,-5.157470226287842,-25.970457077026367,6.683349132537842,100.0,85870.0,1.0
84392.164359,315820.25,339389.25,333878.84375,322742.5,318670.71875,298163.15625,304443.90625,272190.78125,-0.0146484375,0.83837890625,-0.521728515625,-4.974364757537842,-26.855466842651367,7.141112804412842,100.0,85871.0,1.0
84392.1668707,315873.25,338629.65625,332883.375,322089.8125,317301.4375,296915.75,303691.125,271466.34375,-0.01611328125,0.83984375,-0.5185546875,-4.852294445037842,-27.832029342651367,7.202147960662842,100.0,85872.0,1.0
84392.1693435,315456.96875,336915.0,331315.53125,320731.1875,315015.3125,295424.625,302675.96875,270531.59375,-0.014404296875,0.84375,-0.519775390625,-4.638671398162842,-28.350828170776367,7.141112804412842,100.0,85873.0,1.0
84392.1718845,315182.15625,336673.96875,331394.59375,320563.625,314995.90625,295754.1875,302803.46875,270684.1875,-0.013916015625,0.84912109375,-0.514892578125,-4.669188976287842,-28.900144577026367,7.324218273162842,100.0,85874.0,1.0
84392.1743284,315375.1875,338211.5,332990.125,321818.71875,317358.5,297474.03125,303914.28125,271725.34375,-0.018798828125,0.849609375,-0.51416015625,-4.821776866912842,-29.510496139526367,7.537841320037842,100.0,85875.0,1.0
84392.1769631,315803.0,339439.0625,333921.75,322749.28125,318870.34375,298217.0,304477.96875,272213.5,-0.024169921875,0.851806640625,-0.51318359375,-4.852294445037842,-30.212400436401367,7.507323741912842,100.0,85876.0,1.0
84392.179246,315874.0625,338723.34375,332949.1875,322103.75,317527.1875,296998.28125,303730.375,271497.0,-0.022705078125,0.855712890625,-0.5146484375,-4.913329601287842,-30.944822311401367,7.537841320037842,100.0,85877.0,1.0
84392.1819614,315451.71875,337006.9375,331360.0625,320737.34375,315221.125,295493.5625,302709.25,270543.03125,-0.02392578125,0.8564453125,-0.515625,-4.791259288787842,-31.768796920776367,7.904052257537842,100.0,85878.0,1.0
84392.1820031,315160.40625,336712.875,331368.28125,320554.78125,315147.8125,295786.71875,302826.0,270660.3125,-0.02587890625,0.8583984375,-0.516357421875,-4.943847179412842,-32.562252044677734,8.300780296325684,100.0,85879.0,1.0
84392.1841884,315353.53125,338217.6875,332949.09375,321818.71875,317499.3125,297498.6875,303942.4375,271693.59375,-0.029296875,0.8603515625,-0.513427734375,-5.035399913787842,-33.386226654052734,8.361815452575684,100.0,85880.0,1.0
84392.1869935,315788.15625,339468.125,333908.96875,322762.59375,319035.21875,298266.6875,304519.375,272192.6875,-0.0302734375,0.86279296875,-0.513427734375,-5.249022960662842,-34.179683685302734,8.453368186950684,100.0,85881.0,1.0
84392.1870328,315861.71875,338797.65625,332958.75,322116.0,317699.03125,297077.21875,303787.3125,271474.09375,-0.03076171875,0.86279296875,-0.512451171875,-5.584716320037842,-34.973140716552734,8.605956077575684,100.0,85882.0,1.0
84392.1906574,315457.4375,337112.25,331393.5,320756.40625,315396.09375,295597.71875,302771.03125,270517.09375,-0.03515625,0.863037109375,-0.512939453125,-5.798339366912842,-35.614009857177734,8.789061546325684,100.0,85883.0,1.0
84392.2217484,315171.0625,336798.34375,331395.84375,320579.28125,315318.03125,295882.84375,302873.40625,270630.8125,-0.039306640625,0.86328125,-0.513427734375,-6.011962413787842,-36.437984466552734,8.605956077575684,100.0,85884.0,1.0
84392.2258358,315364.4375,338274.71875,332966.71875,321849.3125,317667.75,297575.84375,303978.65625,271674.46875,-0.0390625,0.86474609375,-0.51025390625,-6.256103038787842,-37.445064544677734,8.422850608825684,100.0,85885.0,1.0
84392.225874,315797.34375,339535.8125,333939.46875,322794.875,319219.03125,298349.9375,304557.375,272185.96875,-0.0400390625,0.866455078125,-0.507568359375,-6.591796398162842,-38.299556732177734,8.514403343200684,100.0,85886.0,1.0
84392.2258841,315870.75,338904.9375,333007.9375,322137.75,317898.5,297177.90625,303830.3125,271467.03125,-0.036376953125,0.865966796875,-0.50732421875,-6.988524913787842,-39.031978607177734,8.544920921325684,100.0,85887.0,1.0
84392.2281879,315462.0625,337214.875,331426.21875,320759.96875,315578.125,295673.90625,302801.25,270498.3125,-0.037353515625,0.869384765625,-0.5068359375,-7.385253429412842,-39.855953216552734,8.850096702575684,100.0,85888.0,1.0
84392.2304839,315165.25,336848.9375,331398.0625,320572.59375,315463.15625,295909.21875,302879.375,270593.8125,-0.0390625,0.872802734375,-0.502197265625,-7.751464366912842,-40.466304779052734,8.789061546325684,100.0,85889.0,1.0
84392.2330714,315349.5,338271.59375,332959.28125,321847.53125,317794.0,297571.8125,303969.96875,271629.9375,-0.036865234375,0.874755859375,-0.5,-8.422850608825684,-41.015621185302734,8.575438499450684,100.0,85890.0,1.0
84392.2356185,315780.09375,339530.25,333941.6875,322793.90625,319355.84375,298354.9375,304552.46875,272139.9375,-0.035400390625,0.87109375,-0.5,-9.124754905700684,-41.778560638427734,8.636473655700684,100.0,85891.0,1.0
84392.2379945,315865.65625,338945.34375,333033.84375,322136.125,318056.75,297215.71875,303840.78125,271429.21875,-0.037109375,0.86767578125,-0.50048828125,-9.613036155700684,-42.205806732177734,8.819579124450684,100.0,85892.0,1.0
84392.2406196,315460.375,337277.03125,331465.03125,320756.125,315740.21875,295728.0625,302821.8125,270466.5,-0.032470703125,0.861083984375,-0.502197265625,-10.009764671325684,-42.755123138427734,9.094237327575684,100.0,85893.0,1.0
84392.2431248,315162.84375,336875.59375,331429.34375,320577.125,315614.6875,295948.5625,302904.96875,270567.53125,-0.031005859375,0.859619140625,-0.505615234375,-10.284422874450684,-43.395992279052734,9.338377952575684,100.0,85894.0,1.0
84392.245497,315347.28125,338262.46875,332978.78125,321867.625,317946.4375,297602.40625,304001.96875,271601.6875,-0.036865234375,0.851806640625,-0.510498046875,-10.437010765075684,-43.975826263427734,9.368895530700684,100.0,85895.0,1.0
84392.2481577,315771.875,339542.0625,333975.21875,322817.5,319528.03125,298409.03125,304599.40625,272114.625,-0.031494140625,0.8486328125,-0.511474609375,-10.131834983825684,-44.586177825927734,9.094237327575684,100.0,85896.0,1.0
84392.2481982,315860.125,339001.59375,333092.6875,322143.1875,318235.75,297280.0,303888.78125,271395.4375,-0.023193359375,0.849609375,-0.517333984375,-9.735106468200684,-44.982906341552734,9.185790061950684,100.0,85897.0,1.0
84392.271775,315467.96875,337366.4375,331542.90625,320767.03125,315925.125,295793.6875,302874.28125,270437.25,-0.017333984375,0.85400390625,-0.512451171875,-9.338377952575684,-45.227046966552734,9.521483421325684,100.0,85898.0,1.0
84392.2743868,315171.25,336943.0,331475.59375,320594.125,315784.46875,296002.65625,302944.84375,270541.40625,-0.014892578125,0.85693359375,-0.51416015625,-9.277342796325684,-45.410152435302734,9.613036155700684,100.0,85899.0,1.0
84392.2744297,315337.8125,338263.4375,332982.625,321876.3125,318075.1875,297606.875,303997.6875,271563.6875,-0.012451171875,0.860107421875,-0.513916015625,-9.002684593200684,-45.532222747802734,9.613036155700684,100.0,85900.0,1.0
84392.2769614,315757.9375,339533.28125,333978.53125,322820.90625,319648.75,298399.75,304578.375,272079.75,-0.00830078125,0.8603515625,-0.511962890625,-8.819579124450684,-45.440670013427734,9.948729515075684,100.0,85901.0,1.0
84392.2794488,315862.0,339060.34375,333118.0625,322153.75,318382.1875,297320.3125,303891.03125,271388.8125,-0.004150390625,0.85791015625,-0.51171875,-8.728026390075684,-45.288082122802734,10.223387718200684,100.0,85902.0,1.0
84392.279485,315474.40625,337435.71875,331543.09375,320763.5625,316051.96875,295835.09375,302868.375,270436.0,-0.00244140625,0.856201171875,-0.511962890625,-8.758543968200684,-45.043941497802734,10.620116233825684,100.0,85903.0,1.0
84392.2819529,315167.46875,336962.03125,331444.46875,320582.25,315871.75,295994.25,302920.96875,270543.5625,0.0009765625,0.8544921875,-0.511962890625,-8.544920921325684,-44.647212982177734,11.016844749450684,100.0,85904.0,1.0
84392.2842353,315336.90625,338254.15625,332955.0,321884.8125,318170.46875,297592.65625,303995.28125,271597.65625,0.001953125,0.856201171875,-0.51025390625,-8.392333030700684,-44.219966888427734,11.413573265075684,100.0,85905.0,1.0
84392.28685,315761.59375,339533.65625,333971.5625,322836.1875,319769.71875,298405.625,304592.40625,272126.25,0.002197265625,0.857421875,-0.512939453125,-8.178709983825684,-43.823238372802734,11.688231468200684,100.0,85906.0,1.0
84392.2906223,315870.3125,339097.875,333138.90625,322158.5625,318519.96875,297355.1875,303915.4375,271421.09375,0.002685546875,0.86083984375,-0.51318359375,-8.148192405700684,-43.395992279052734,12.207030296325684,100.0,85907.0,1.0
84392.2906627,315481.125,337489.09375,331568.21875,320761.9375,316183.21875,295885.53125,302894.125,270442.875,0.001220703125,0.863037109375,-0.51318359375,-8.178709983825684,-42.877193450927734,12.756346702575684,100.0,85908.0,1.0
84392.3218775,315173.375,336976.78125,331449.84375,320584.75,315977.96875,296026.25,302930.15625,270533.8125,-0.00048828125,0.8681640625,-0.510986328125,-8.178709983825684,-42.327877044677734,13.153075218200684,100.0,85909.0,1.0
84392.3270349,315326.1875,338210.6875,332934.625,321887.9375,318250.15625,297589.4375,303977.21875,271571.75,-0.002197265625,0.8701171875,-0.513916015625,-8.117674827575684,-41.931148529052734,13.580321311950684,100.0,85910.0,1.0
84392.3270702,315744.25,339490.1875,333958.5,322837.71875,319853.84375,298412.625,304574.28125,272092.09375,-0.003662109375,0.869873046875,-0.51611328125,-8.117674827575684,-41.381832122802734,13.916014671325684,100.0,85911.0,1.0
84392.3293691,315860.21875,339114.34375,333147.84375,322153.21875,318622.625,297402.5,303911.21875,271383.625,-0.01025390625,0.870849609375,-0.511962890625,-8.026122093200684,-40.832515716552734,14.068602561950684,100.0,85912.0,1.0
84392.3317143,315486.125,337554.53125,331592.09375,320763.0,316305.8125,295960.90625,302910.6875,270421.53125,-0.0126953125,0.870361328125,-0.5087890625,-7.904052257537842,-40.435787200927734,14.129637718200684,100.0,85913.0,1.0
84392.334227,315185.53125,337028.90625,331466.46875,320604.0625,316103.125,296099.375,302958.96875,270517.28125,-0.015380859375,0.86962890625,-0.506591796875,-7.781981945037842,-40.039058685302734,14.373778343200684,100.0,85914.0,1.0
84392.3369543,315334.65625,338217.75,332938.71875,321918.4375,318368.4375,297657.3125,304007.78125,271541.875,-0.021240234375,0.873046875,-0.508056640625,-7.843017101287842,-39.611812591552734,14.617918968200684,100.0,85915.0,1.0
84392.3369966,315766.0625,339509.6875,333984.0625,322880.25,319990.4375,298536.09375,304617.375,272035.59375,-0.0263671875,0.8740234375,-0.506103515625,-7.904052257537842,-39.245601654052734,14.739989280700684,100.0,85916.0,1.0
84392.3394837,315881.5625,339173.78125,333186.46875,322181.375,318764.15625,297604.28125,303952.34375,271260.34375,-0.02978515625,0.87646484375,-0.505859375,-7.934569835662842,-39.093013763427734,14.587401390075684,100.0,85917.0,1.0
84392.3443366,315484.0625,337605.59375,331605.21875,320758.8125,316413.46875,296215.875,302923.90625,270201.125,-0.03076171875,0.87841796875,-0.50634765625,-7.965087413787842,-39.001461029052734,14.709471702575684,100.0,85918.0,1.0
84392.346754,315164.4375,337025.34375,331436.25,320585.09375,316167.9375,296390.5,302940.4375,270207.5625,-0.033935546875,0.8798828125,-0.510986328125,-8.056639671325684,-38.757320404052734,14.709471702575684,100.0,85919.0,1.0
84392.3493486,315314.28125,338179.5,332891.78125,321918.25,318429.3125,297999.09375,303982.9375,271186.40625,-0.03564453125,0.880859375,-0.511474609375,-7.904052257537842,-38.909908294677734,14.465331077575684,100.0,85920.0,1.0
84392.3518531,315744.34375,339496.09375,333951.53125,322892.78125,320083.0625,298927.25,304605.375,271682.15625,-0.03564453125,0.884765625,-0.512451171875,-7.781981945037842,-38.879390716552734,14.190672874450684,100.0,85921.0,1.0
84392.3518898,315871.90625,339229.3125,333191.21875,322197.09375,318892.625,298022.0,303963.09375,270941.6875,-0.036865234375,0.88525390625,-0.51318359375,-7.385253429412842,-38.757320404052734,13.885497093200684,100.0,85922.0,1.0
84392.3544114,315490.78125,337702.78125,331629.90625,320775.625,316556.15625,296604.0,302941.78125,269925.75,-0.03271484375,0.89111328125,-0.51123046875,-7.476806163787842,-38.726802825927734,13.610838890075684,100.0,85923.0,1.0
84392.3580479,315173.375,337121.1875,331460.125,320611.03125,316316.1875,296723.53125,302960.46875,269980.65625,-0.029052734375,0.8955078125,-0.51318359375,-7.598876476287842,-38.635250091552734,13.488768577575684,100.0,85924.0,1.0
84392.3580895,315317.25,338260.84375,332914.3125,321959.09375,318592.75,298304.4375,304008.25,270992.5625,-0.025634765625,0.896484375,-0.513916015625,-7.781981945037842,-38.452144622802734,13.641356468200684,100.0,85925.0,1.0
84392.3718447,315740.9375,339580.9375,333983.34375,322934.96875,320266.625,299242.40625,304633.5625,271491.8125,-0.025634765625,0.898193359375,-0.51416015625,-8.087157249450684,-38.238521575927734,13.549803733825684,100.0,85926.0,1.0
84392.3771128,315882.1875,339353.84375,333244.21875,322233.21875,319103.4375,298379.09375,304002.6875,270753.9375,-0.028076171875,0.897705078125,-0.516357421875,-8.270262718200684,-38.055416107177734,13.458250999450684,100.0,85927.0,1.0
84392.3771507,315503.5625,337841.53125,331676.3125,320799.6875,316759.5625,296976.75,302977.5625,269722.90625,-0.02783203125,0.899658203125,-0.514404296875,-8.544920921325684,-37.811275482177734,13.458250999450684,100.0,85928.0,1.0
84392.3792035,315181.78125,337226.3125,331482.1875,320628.0,316492.5,297071.25,302977.8125,269765.375,-0.025634765625,0.90283203125,-0.511474609375,-8.880614280700684,-37.628170013427734,13.366698265075684,100.0,85929.0,1.0
84392.3816963,315327.59375,338333.1875,332927.71875,321988.59375,318754.3125,298616.28125,304020.75,270801.0625,-0.026611328125,0.904296875,-0.510498046875,-9.460448265075684,-37.292476654052734,13.305663108825684,100.0,85930.0,1.0
84392.3880645,315751.75,339644.96875,334000.53125,322970.03125,320425.59375,299535.03125,304652.875,271342.84375,-0.024658203125,0.90185546875,-0.51025390625,-10.131834983825684,-37.200923919677734,13.488768577575684,100.0,85931.0,1.0
84392.3905415,315879.4375,339430.65625,333260.40625,322247.71875,319254.09375,298651.59375,304019.59375,270624.21875,-0.02392578125,0.89794921875,-0.509521484375,-10.589598655700684,-36.895748138427734,13.427733421325684,100.0,85932.0,1.0
84392.3905827,315501.875,337930.9375,331687.65625,320800.375,316877.375,297234.5,302996.25,269618.1875,-0.022216796875,0.899169921875,-0.504638671875,-11.169432640075684,-36.682125091552734,13.580321311950684,100.0,85933.0,1.0
84392.3968677,315182.59375,337293.5625,331478.625,320631.40625,316581.0,297313.71875,302990.96875,269677.28125,-0.02001953125,0.89794921875,-0.50537109375,-11.779784202575684,-36.468502044677734,13.671874046325684,100.0,85934.0,1.0
84392.4389251,315318.03125,338357.6875,332911.1875,321996.375,318832.1875,298847.9375,304016.46875,270717.71875,-0.019287109375,0.894775390625,-0.505126953125,-12.420653343200684,-36.132808685302734,13.885497093200684,100.0,85935.0,1.0
84392.43896,315737.28125,339685.65625,334005.09375,322989.6875,320552.0,299790.8125,304671.5625,271288.5,-0.021728515625,0.89453125,-0.50390625,-12.817381858825684,-35.888668060302734,14.007567405700684,100.0,85936.0,1.0
84392.4470426,315872.46875,339520.6875,333285.8125,322264.25,319421.46875,298920.1875,304064.90625,270602.84375,-0.01904296875,0.895263671875,-0.49853515625,-13.488768577575684,-35.614009857177734,13.793944358825684,100.0,85937.0,1.0
84392.4470707,315504.1875,338066.9375,331727.875,320823.1875,317103.5,297500.9375,303076.25,269625.4375,-0.0185546875,0.896728515625,-0.49169921875,-14.221190452575684,-35.278316497802734,13.702391624450684,100.0,85938.0,1.0
84392.4470801,315188.65625,337466.9375,331535.65625,320683.71875,316884.28125,297568.4375,303145.625,269748.09375,-0.017822265625,0.8994140625,-0.478759765625,-14.831542015075684,-34.698482513427734,13.488768577575684,100.0,85939.0,1.0
84392.4871097,315331.71875,338564.21875,332994.59375,322090.1875,319238.0,299080.3125,304274.21875,270879.8125,-0.018798828125,0.8955078125,-0.47021484375,-15.686034202575684,-33.966060638427734,13.153075218200684,100.0,85940.0,1.0
84392.4871501,315752.03125,339909.0625,334103.875,323092.34375,321028.90625,299967.21875,304993.84375,271516.84375,-0.014404296875,0.8896484375,-0.4677734375,-16.387937545776367,-33.294673919677734,12.786864280700684,100.0,85941.0,1.0
84392.4871589,315891.59375,339764.6875,333400.78125,322355.25,319938.5,299045.6875,304428.90625,270874.375,-0.00927734375,0.876953125,-0.470703125,-16.876218795776367,-32.592769622802734,12.664793968200684,100.0,85942.0,1.0
84392.4871685,315522.875,338288.46875,331833.375,320887.125,317604.28125,297554.75,303440.21875,269904.375,-0.005615234375,0.86376953125,-0.482421875,-17.059324264526367,-31.890867233276367,12.634276390075684,100.0,85943.0,1.0
84392.4906193,315193.84375,337601.46875,331594.21875,320715.71875,317314.5,297519.0,303449.34375,269987.90625,-0.005615234375,0.850341796875,-0.494140625,-16.815183639526367,-31.433103561401367,12.847899436950684,100.0,85944.0,1.0
84392.4906603,315326.8125,338602.46875,333005.34375,322100.1875,319585.4375,298954.59375,304497.03125,271068.8125,-0.00634765625,0.843994140625,-0.50244140625,-16.113279342651367,-30.914304733276367,13.061522483825684,100.0,85945.0,1.0
84392.4906707,315745.0625,339895.75,334096.375,323090.28125,321311.96875,299828.09375,305157.75,271665.4375,-0.007080078125,0.837158203125,-0.50732421875,-15.045165061950684,-30.456541061401367,13.183592796325684,100.0,85946.0,1.0
84392.4929634,315889.1875,339746.0,333389.875,322332.1875,320167.84375,298919.0,304546.65625,270974.0625,-0.008056640625,0.836669921875,-0.508056640625,-13.946532249450684,-29.876707077026367,13.244627952575684,100.0,85947.0,1.0
84392.4957086,315527.0625,338272.375,331817.84375,320853.75,317782.28125,297438.78125,303519.09375,269971.0,-0.010009765625,0.837646484375,-0.506591796875,-13.122557640075684,-29.388425827026367,13.275145530700684,100.0,85948.0,1.0
84392.5004349,315212.28125,337578.6875,331575.53125,320696.5,317447.34375,297424.3125,303510.25,270052.1875,-0.01318359375,0.84130859375,-0.497802734375,-12.268065452575684,-28.778074264526367,13.366698265075684,100.0,85949.0,1.0
84392.5031191,315332.53125,338557.34375,332973.875,322091.15625,319675.28125,298872.875,304538.0625,271121.40625,-0.0126953125,0.843505859375,-0.49365234375,-11.596678733825684,-28.106687545776367,13.641356468200684,100.0,85950.0,1.0
84392.5142382,315743.8125,339852.5625,334072.59375,323086.34375,321410.3125,299773.46875,305188.84375,271699.59375,-0.013427734375,0.84228515625,-0.48876953125,-11.108397483825684,-27.618406295776367,13.824461936950684,100.0,85951.0,1.0
84392.5157214,315889.25,339722.03125,333377.90625,322318.96875,320273.78125,298893.0,304568.8125,270984.53125,-0.01611328125,0.8408203125,-0.4921875,-10.498045921325684,-27.191160202026367,13.916014671325684,100.0,85952.0,1.0
84392.5230723,315531.0,338248.78125,331800.5,320826.9375,317868.1875,297417.0625,303528.125,269951.34375,-0.015380859375,0.841064453125,-0.49365234375,-9.796141624450684,-26.702878952026367,13.641356468200684,100.0,85953.0,1.0
84392.5253865,315200.375,337518.59375,331527.625,320653.3125,317480.4375,297368.6875,303488.0625,269998.96875,-0.015625,0.840576171875,-0.49755859375,-8.941649436950684,-26.519773483276367,13.580321311950684,100.0,85954.0,1.0
84392.5279146,315324.125,338478.21875,332923.78125,322062.1875,319691.125,298800.625,304514.375,271072.5,-0.016845703125,0.840576171875,-0.495849609375,-8.117674827575684,-26.092527389526367,13.458250999450684,100.0,85955.0,1.0
84392.5328647,315732.625,339773.0,334029.21875,323064.71875,321418.90625,299695.96875,305177.84375,271661.6875,-0.016845703125,0.840087890625,-0.49755859375,-7.202147960662842,-25.726316452026367,13.305663108825684,100.0,85956.0,1.0
84392.5355572,315875.21875,339652.75,333337.65625,322284.8125,320262.59375,298805.5625,304559.78125,270953.9375,-0.01416015625,0.84228515625,-0.496337890625,-6.256103038787842,-25.329587936401367,13.183592796325684,100.0,85957.0,1.0
84392.5380983,315517.78125,338190.5,331752.84375,320778.75,317825.625,297314.875,303505.78125,269928.96875,-0.0146484375,0.8427734375,-0.5009765625,-5.371093273162842,-24.963376998901367,13.000487327575684,100.0,85958.0,1.0
84392.5405934,315194.03125,337460.9375,331475.84375,320610.84375,317419.90625,297251.75,303461.0625,270002.375,-0.015625,0.84375,-0.497314453125,-4.577636241912842,-24.353025436401367,12.603758811950684,100.0,85959.0,1.0
84392.5428908,315315.8125,338407.9375,332875.34375,322039.3125,319632.1875,298672.78125,304488.71875,271114.0625,-0.011474609375,0.8466796875,-0.494873046875,-3.814697027206421,-23.895261764526367,12.359618186950684,100.0,85960.0,1.0
84392.5429038,315724.3125,339704.875,333994.625,323056.125,321395.40625,299570.6875,305159.53125,271738.5,-0.010009765625,0.849609375,-0.49755859375,-3.173827886581421,-23.406980514526367,12.237547874450684,100.0,85961.0,1.0
84392.5455443,315870.9375,339602.9375,333309.75,322269.15625,320298.8125,298691.65625,304551.28125,271032.71875,-0.0078125,0.8515625,-0.49853515625,-2.685546636581421,-22.949216842651367,12.115477561950684,100.0,85962.0,1.0
84392.5481097,315515.53125,338148.5625,331718.21875,320753.375,317870.0625,297203.46875,303492.90625,269996.03125,-0.010009765625,0.856201171875,-0.501220703125,-2.349853277206421,-22.460935592651367,12.176512718200684,100.0,85963.0,1.0
84392.5481241,315196.96875,337418.28125,331438.75,320591.53125,317446.71875,297140.25,303443.90625,270064.59375,-0.01025390625,0.85791015625,-0.50146484375,-1.9226073026657104,-21.820066452026367,11.779784202575684,100.0,85964.0,1.0
84392.5505755,315313.21875,338349.46875,332828.75,322019.4375,319650.4375,298552.625,304456.34375,271158.0625,-0.010009765625,0.859130859375,-0.5009765625,-1.5258787870407104,-21.362302780151367,11.566161155700684,100.0,85965.0,1.0
84392.5530786,315721.09375,339643.53125,333950.8125,323044.0625,321416.125,299460.90625,305118.5,271781.3125,-0.011474609375,0.8623046875,-0.502197265625,-1.1291502714157104,-20.721433639526367,11.077879905700684,100.0,85966.0,1.0
84392.5555743,315871.28125,339547.59375,333278.03125,322258.875,320284.34375,298585.625,304490.84375,271095.1875,-0.012939453125,0.862548828125,-0.501708984375,-0.8239745497703552,-20.202634811401367,10.894774436950684,100.0,85967.0,1.0
84392.5579545,315514.8125,338101.8125,331690.4375,320729.125,317827.78125,297077.59375,303402.6875,270054.5,-0.012451171875,0.8681640625,-0.500732421875,-0.7934569716453552,-19.531248092651367,10.803221702575684,100.0,85968.0,1.0
84392.5605593,315174.09375,337346.59375,331378.5625,320539.125,317389.4375,296969.59375,303303.71875,270071.59375,-0.0126953125,0.879638671875,-0.48779296875,-0.8850097060203552,-19.012449264526367,10.467528343200684,100.0,85969.0,1.0
84392.5605764,315303.90625,338296.0,332794.96875,322000.21875,319624.875,298396.53125,304329.03125,271177.375,-0.013427734375,0.888671875,-0.47216796875,-1.3122557401657104,-18.341062545776367,10.192870140075684,100.0,85970.0,1.0
84392.5630703,315703.21875,339590.4375,333931.0625,323034.65625,321415.0625,299296.40625,304992.0625,271822.0,-0.01123046875,0.89111328125,-0.460693359375,-2.380370855331421,-17.700193405151367,10.040282249450684,100.0,85971.0,1.0
84392.5653666,315847.40625,339495.46875,333253.875,322236.09375,320290.0625,298401.53125,304377.5,271140.09375,-0.007080078125,0.88232421875,-0.460693359375,-3.509521245956421,-16.998289108276367,9.796141624450684,100.0,85972.0,1.0
84392.5679597,315495.15625,338041.1875,331657.53125,320693.8125,317819.46875,296873.03125,303309.6875,270113.34375,0.001953125,0.866455078125,-0.46875,-4.547118663787842,-16.082761764526367,9.521483421325684,100.0,85973.0,1.0
84392.5679759,315174.46875,337277.03125,331358.28125,320516.34375,317361.625,296759.9375,303249.15625,270177.25,0.007080078125,0.84423828125,-0.487060546875,-4.913329601287842,-15.380858421325684,9.460448265075684,100.0,85974.0,1.0
84392.5730697,315288.28125,338181.28125,332751.6875,321964.5625,319560.125,298152.875,304272.625,271285.375,0.01025390625,0.826904296875,-0.504638671875,-4.516601085662842,-14.587401390075684,9.521483421325684,100.0,85975.0,1.0
84392.5755853,315681.9375,339457.65625,333892.34375,323004.28125,321341.9375,299051.6875,304953.28125,271920.53125,0.01220703125,0.81298828125,-0.521728515625,-3.540038824081421,-13.946532249450684,9.582518577575684,100.0,85976.0,1.0
84392.5781,315824.71875,339370.84375,333227.59375,322204.53125,320209.0625,298178.1875,304347.71875,271224.84375,0.01318359375,0.80517578125,-0.523681640625,-1.9531248807907104,-13.305663108825684,9.521483421325684,100.0,85977.0,1.0
84392.578127,315479.0625,337929.25,331628.90625,320655.375,317722.71875,296669.0,303283.15625,270178.6875,0.012939453125,0.802978515625,-0.5185546875,-0.1525878757238388,-12.420653343200684,9.368895530700684,100.0,85978.0,1.0
84392.5806223,315162.46875,337178.6875,331315.28125,320477.0,317245.5625,296579.3125,303220.90625,270226.96875,0.01416015625,0.807373046875,-0.51220703125,1.4038084745407104,-11.566161155700684,9.307860374450684,100.0,85979.0,1.0
84392.5806479,315283.53125,338107.78125,332711.90625,321943.625,319455.09375,298012.5,304251.4375,271335.875,0.0146484375,0.810546875,-0.50732421875,2.624511480331421,-10.589598655700684,9.155272483825684,100.0,85980.0,1.0
84392.582961,315671.09375,339388.90625,333847.09375,322987.625,321261.0,298945.65625,304934.21875,271967.8125,0.013671875,0.81298828125,-0.500244140625,3.631591558456421,-9.735106468200684,8.819579124450684,100.0,85981.0,1.0
84392.5968861,315813.71875,339295.125,333178.0625,322181.28125,320135.375,298077.25,304323.40625,271265.0625,0.01416015625,0.814208984375,-0.4970703125,4.669188976287842,-8.605956077575684,8.544920921325684,100.0,85982.0,1.0
84392.6043948,315479.59375,337853.53125,331583.75,320631.125,317635.65625,296562.25,303249.4375,270214.625,0.012939453125,0.81396484375,-0.49609375,5.584716320037842,-7.690429210662842,8.361815452575684,100.0,85983.0,1.0
84392.604437,315168.46875,337095.15625,331270.125,320450.0,317137.84375,296455.125,303162.90625,270255.65625,0.01220703125,0.814453125,-0.49951171875,6.225585460662842,-6.835937023162842,8.148192405700684,100.0,85984.0,1.0
84392.6069225,315283.71875,338019.46875,332667.1875,321919.75,319339.46875,297879.46875,304179.4375,271361.46875,0.010498046875,0.81591796875,-0.503662109375,6.958007335662842,-6.256103038787842,8.056639671325684,100.0,85985.0,1.0
84392.6092227,315666.625,339305.40625,333814.8125,322977.0,321160.15625,298819.6875,304867.25,271994.90625,0.01123046875,0.8134765625,-0.506103515625,7.781981945037842,-5.462646007537842,7.904052257537842,100.0,85986.0,1.0
84392.6142146,315803.4375,339215.09375,333144.71875,322173.5,320056.34375,297954.9375,304267.875,271283.40625,0.013427734375,0.811279296875,-0.50537109375,8.697508811950684,-4.852294445037842,7.659911632537842,100.0,85987.0,1.0
84392.6195493,315465.65625,337767.25,331536.46875,320610.40625,317545.53125,296426.875,303183.0,270220.34375,0.01513671875,0.814453125,-0.508544921875,9.582518577575684,-4.119872570037842,7.507323741912842,100.0,85988.0,1.0
84392.6268615,315159.78125,337017.125,331218.96875,320422.46875,317021.34375,296314.40625,303086.90625,270258.875,0.01513671875,0.818603515625,-0.51123046875,10.375975608825684,-3.387450933456421,7.324218273162842,100.0,85989.0,1.0
84392.6268929,315273.53125,337923.78125,332600.84375,321880.96875,319194.90625,297726.9375,304088.15625,271366.1875,0.018310546875,0.82275390625,-0.51025390625,11.047362327575684,-2.563476324081421,7.385253429412842,100.0,85990.0,1.0
84392.6367749,315641.5,339137.59375,333703.34375,322914.6875,320967.84375,298634.0625,304737.8125,271998.21875,0.018798828125,0.828857421875,-0.5107421875,11.810301780700684,-1.7089842557907104,7.324218273162842,100.0,85991.0,1.0
84392.6418103,315786.4375,339054.0,333052.0,322125.5625,319865.625,297789.4375,304115.0,271306.28125,0.019287109375,0.833740234375,-0.511962890625,12.481688499450684,-0.7324218153953552,7.171630382537842,100.0,85992.0,1.0
84392.6443218,315469.125,337686.40625,331499.90625,320596.71875,317391.125,296305.125,303043.0,270259.25,0.0166015625,0.838623046875,-0.517578125,13.031004905700684,0.1220703050494194,7.080077648162842,100.0,85993.0,1.0
84392.6468276,315171.5,336969.5625,331198.25,320418.875,316879.71875,296203.09375,302950.09375,270289.5625,0.015869140625,0.842041015625,-0.51708984375,13.397215843200684,0.9155272841453552,6.927489757537842,100.0,85994.0,1.0
84392.6493038,315279.59375,337863.875,332570.1875,321868.875,319044.15625,297607.5,303938.78125,271380.59375,0.0166015625,0.84765625,-0.521728515625,13.519286155700684,1.8005369901657104,6.988524913787842,100.0,85995.0,1.0
84392.6517951,315645.8125,339085.90625,333691.625,322916.5625,320845.71875,298530.1875,304600.75,272024.6875,0.015869140625,0.846923828125,-0.522216796875,13.671874046325684,2.624511480331421,7.080077648162842,100.0,85996.0,1.0
84392.6543325,315789.65625,338985.6875,333035.03125,322128.71875,319755.84375,297681.25,303996.15625,271344.65625,0.016357421875,0.849365234375,-0.52294921875,13.793944358825684,3.417968511581421,6.896972179412842,100.0,85997.0,1.0
84392.6568734,315467.53125,337586.46875,331459.65625,320581.78125,317263.34375,296177.625,302911.5625,270290.1875,0.016357421875,0.85107421875,-0.526123046875,14.038084983825684,4.211425304412842,6.805419445037842,100.0,85998.0,1.0
84392.6568852,315173.5625,336876.125,331156.5625,320388.9375,316720.5625,296063.875,302815.5625,270311.90625,0.01611328125,0.85009765625,-0.526611328125,14.190672874450684,5.065917491912842,6.683349132537842,100.0,85999.0,1.0
84392.659118,315287.1875,337809.25,332552.3125,321849.9375,318887.53125,297483.03125,303821.28125,271397.3125,0.0146484375,0.853515625,-0.527587890625,14.221190452575684,5.798339366912842,6.744384288787842,100.0,86000.0,1.0
84392.6718118,315644.65625,339052.65625,333680.71875,322907.625,320730.84375,298428.96875,304524.84375,272027.8125,0.014892578125,0.856689453125,-0.52978515625,14.282225608825684,6.561278820037842,6.927489757537842,100.0,86001.0,1.0
84392.6742191,315770.625,338913.15625,332993.0,322101.0,319628.09375,297567.53125,303931.09375,271322.90625,0.012451171875,0.860595703125,-0.531982421875,14.160155296325684,7.354735851287842,6.805419445037842,100.0,86002.0,1.0
84392.6742347,315446.25,337461.8125,331379.1875,320527.25,317074.71875,296031.25,302807.59375,270259.5,0.01171875,0.8603515625,-0.53173828125,13.977049827575684,8.026122093200684,6.774901866912842,100.0,86003.0,1.0
84392.6767829,315162.84375,336749.4375,331072.625,320324.5625,316515.375,295914.5,302696.53125,270271.84375,0.013671875,0.8603515625,-0.52880859375,13.824461936950684,8.819579124450684,6.713866710662842,100.0,86004.0,1.0
84392.6805583,315291.21875,337735.6875,332507.34375,321806.5,318714.0625,297368.34375,303717.125,271385.25,0.0126953125,0.8623046875,-0.527099609375,13.549803733825684,9.368895530700684,6.713866710662842,100.0,86005.0,1.0
84392.7016586,315648.9375,339014.28125,333670.875,322897.25,320598.0625,298342.875,304413.59375,272061.4375,0.0146484375,0.86669921875,-0.521728515625,13.061522483825684,10.040282249450684,6.652831554412842,100.0,86006.0,1.0
84392.7042637,315761.59375,338841.5625,332965.71875,322091.34375,319507.5625,297461.5,303793.65625,271366.5625,0.014404296875,0.8681640625,-0.517333984375,12.481688499450684,10.803221702575684,6.469726085662842,100.0,86007.0,1.0
84392.7042947,315431.59375,337356.5,331323.84375,320498.46875,316929.59375,295896.6875,302686.09375,270274.09375,0.014404296875,0.869140625,-0.516357421875,11.657713890075684,11.505125999450684,6.317138195037842,100.0,86008.0,1.0
84392.7068337,315147.53125,336628.03125,331003.78125,320279.3125,316318.78125,295759.1875,302595.96875,270268.625,0.0166015625,0.86767578125,-0.5166015625,10.681151390075684,12.237547874450684,6.134032726287842,100.0,86009.0,1.0
84392.7093528,315275.65625,337628.3125,332451.46875,321766.15625,318494.75,297220.28125,303650.59375,271382.8125,0.018310546875,0.86328125,-0.521484375,9.796141624450684,12.939452171325684,6.103515148162842,100.0,86010.0,1.0
84392.7117099,315645.8125,338933.8125,333644.40625,322884.375,320411.8125,298227.0,304383.9375,272075.0,0.020751953125,0.857177734375,-0.52978515625,9.094237327575684,13.580321311950684,6.164550304412842,100.0,86011.0,1.0
84392.726671,315747.71875,338746.78125,332935.15625,322079.34375,319331.53125,297346.96875,303775.25,271366.65625,0.021240234375,0.853271484375,-0.531494140625,8.575438499450684,14.251708030700684,6.256103038787842,100.0,86012.0,1.0
84392.7292774,315420.5,337273.8125,331303.75,320489.6875,316767.15625,295797.53125,302681.09375,270273.375,0.02001953125,0.84912109375,-0.5390625,8.270262718200684,14.739989280700684,6.317138195037842,100.0,86013.0,1.0
84392.7317628,315133.5,336556.125,330975.4375,320255.90625,316146.21875,295667.8125,302573.96875,270260.78125,0.016357421875,0.84716796875,-0.539794921875,8.361815452575684,15.228270530700684,6.347655773162842,100.0,86014.0,1.0
84392.7317758,315249.65625,337525.125,332382.875,321708.6875,318285.1875,297109.875,303603.21875,271352.78125,0.016357421875,0.845703125,-0.541748046875,8.422850608825684,15.655516624450684,6.256103038787842,100.0,86015.0,1.0
84392.7340964,315601.1875,338770.84375,333537.5625,322807.65625,320159.15625,298088.78125,304323.5,272028.0,0.016845703125,0.8447265625,-0.540771484375,8.422850608825684,16.204832077026367,6.011962413787842,100.0,86016.0,1.0
84392.7367763,315729.65625,338642.8125,332888.65625,322054.9375,319131.96875,297261.21875,303749.59375,271362.4375,0.016357421875,0.844970703125,-0.538330078125,8.483885765075684,16.662595748901367,5.889892101287842,100.0,86017.0,1.0
84392.7393409,315417.28125,337220.25,331288.0,320488.1875,316599.6875,295734.34375,302670.96875,270281.5,0.01708984375,0.845458984375,-0.53759765625,8.636473655700684,17.059324264526367,5.645751476287842,100.0,86018.0,1.0
84392.7730991,315128.59375,336492.28125,330938.6875,320231.59375,315948.28125,295584.5,302551.09375,270253.625,0.016845703125,0.850341796875,-0.537109375,8.666991233825684,17.639158248901367,5.554198741912842,100.0,86019.0,1.0
84392.7731331,315242.21875,337463.25,332344.96875,321672.375,318074.5625,297030.65625,303571.9375,271339.28125,0.0166015625,0.85107421875,-0.539794921875,8.636473655700684,18.035886764526367,5.523681163787842,100.0,86020.0,1.0
84392.7731412,315584.5625,338720.21875,333512.625,322783.25,319975.34375,298026.46875,304298.09375,272020.03125,0.015380859375,0.852783203125,-0.536865234375,8.575438499450684,18.371580123901367,5.371093273162842,100.0,86021.0,1.0
84392.775539,315708.125,338565.03125,332852.53125,322039.9375,318956.5625,297184.6875,303716.21875,271354.46875,0.015625,0.851806640625,-0.537109375,8.392333030700684,18.768308639526367,5.279540538787842,100.0,86022.0,1.0
84392.7755731,315400.46875,337118.5,331241.5,320469.40625,316406.46875,295639.65625,302625.46875,270269.15625,0.01708984375,0.852783203125,-0.53466796875,8.270262718200684,19.226072311401367,5.035399913787842,100.0,86023.0,1.0
84392.7804791,315112.75,336401.5625,330891.125,320195.71875,315732.96875,295482.375,302494.21875,270229.46875,0.015625,0.8515625,-0.53759765625,8.087157249450684,19.561765670776367,4.852294445037842,100.0,86024.0,1.0
84392.7831445,315229.15625,337401.03125,332305.0,321630.4375,317859.34375,296937.3125,303514.09375,271317.65625,0.017822265625,0.85205078125,-0.53759765625,8.026122093200684,19.866941452026367,4.760741710662842,100.0,86025.0,1.0
84392.785494,315591.90625,338705.46875,333516.03125,322781.375,319815.5625,297977.125,304274.65625,272039.0625,0.01708984375,0.850830078125,-0.53564453125,8.056639671325684,20.141599655151367,4.669188976287842,100.0,86026.0,1.0
84392.788124,315716.78125,338553.84375,332873.0,322057.1875,318837.28125,297145.53125,303709.78125,271392.03125,0.016845703125,0.848388671875,-0.537841796875,8.087157249450684,20.416257858276367,4.516601085662842,100.0,86027.0,1.0
84392.7905973,315405.3125,337086.9375,331248.9375,320475.9375,316280.40625,295573.5,302604.625,270295.0,0.018310546875,0.845947265625,-0.53759765625,8.056639671325684,20.843503952026367,4.455565929412842,100.0,86028.0,1.0
84392.793139,315122.5,336371.78125,330896.65625,320192.40625,315587.0625,295407.65625,302465.96875,270245.03125,0.0185546875,0.84619140625,-0.537841796875,7.934569835662842,21.179197311401367,4.425048351287842,100.0,86029.0,1.0
84392.7954418,315241.96875,337403.96875,332331.46875,321633.46875,317721.375,296883.40625,303494.5,271335.96875,0.01953125,0.84423828125,-0.537841796875,7.965087413787842,21.453855514526367,4.272460460662842,100.0,86030.0,1.0
84392.7981198,315587.4375,338716.46875,333557.875,322788.34375,319697.03125,297923.65625,304252.3125,272050.4375,0.02099609375,0.84521484375,-0.53955078125,7.904052257537842,21.575925827026367,4.180907726287842,100.0,86031.0,1.0
84392.798162,315695.4375,338512.96875,332888.65625,322058.0,318713.53125,297063.1875,303672.25,271390.0625,0.022216796875,0.845703125,-0.537353515625,7.904052257537842,21.820066452026367,4.180907726287842,100.0,86032.0,1.0
84392.8005055,315390.28125,337011.65625,331242.9375,320472.4375,316137.8125,295470.3125,302556.71875,270289.1875,0.02490234375,0.843994140625,-0.539794921875,7.904052257537842,22.033689498901367,4.241942882537842,100.0,86033.0,1.0
84392.8044318,315118.5625,336322.5,330893.53125,320181.4375,315433.46875,295312.4375,302418.125,270238.0625,0.02880859375,0.846435546875,-0.54248046875,7.904052257537842,22.186277389526367,4.150390148162842,100.0,86034.0,1.0
84392.8044697,315247.3125,337419.8125,332357.40625,321630.96875,317588.4375,296831.8125,303462.6875,271340.53125,0.031005859375,0.846923828125,-0.54296875,7.781981945037842,22.399900436401367,4.241942882537842,100.0,86035.0,1.0
84392.8355283,315585.90625,338745.1875,333577.28125,322794.4375,319596.96875,297902.8125,304236.84375,272072.5,0.034423828125,0.84375,-0.541015625,7.720946788787842,22.735593795776367,4.272460460662842,100.0,86036.0,1.0
84392.8381347,315692.84375,338507.96875,332886.15625,322068.09375,318622.4375,297036.90625,303659.1875,271425.28125,0.03515625,0.843017578125,-0.543701171875,7.629394054412842,22.979734420776367,4.364013195037842,100.0,86037.0,1.0
84392.8381767,315383.65625,336971.6875,331219.0625,320468.0625,316023.8125,295423.90625,302533.1875,270314.78125,0.037109375,0.84130859375,-0.54541015625,7.690429210662842,23.284910202026367,4.516601085662842,100.0,86038.0,1.0
84392.8634512,315118.65625,336284.34375,330867.625,320164.25,315294.09375,295263.6875,302387.1875,270251.28125,0.03466796875,0.84228515625,-0.54443359375,7.537841320037842,23.712156295776367,4.608153820037842,100.0,86039.0,1.0
84392.8705686,315250.4375,337415.59375,332343.71875,321612.375,317453.71875,296804.71875,303438.71875,271351.71875,0.0361328125,0.84375,-0.54443359375,7.324218273162842,23.986814498901367,4.730224132537842,100.0,86040.0,1.0
84392.8728779,315588.5,338768.78125,333581.75,322794.875,319499.6875,297907.90625,304231.65625,272089.75,0.038330078125,0.844482421875,-0.54296875,7.202147960662842,24.353025436401367,4.913329601287842,100.0,86041.0,1.0
84392.8755427,315689.0,338504.03125,332879.53125,322077.21875,318543.9375,297033.96875,303656.59375,271436.65625,0.039306640625,0.841796875,-0.54150390625,6.958007335662842,24.566648483276367,4.913329601287842,100.0,86042.0,1.0
84392.8780586,315382.5,336934.15625,331193.3125,320471.5625,315929.40625,295391.71875,302520.3125,270314.21875,0.038330078125,0.8369140625,-0.54345703125,6.683349132537842,24.932859420776367,5.126952648162842,100.0,86043.0,1.0
84392.8805839,315123.21875,336248.125,330838.75,320154.0625,315184.03125,295221.75,302376.28125,270242.625,0.0390625,0.832763671875,-0.546875,6.622313976287842,25.146482467651367,5.249022960662842,100.0,86044.0,1.0
84392.8828921,315264.5625,337424.09375,332343.1875,321608.28125,317358.03125,296786.5625,303450.53125,271344.1875,0.0380859375,0.82763671875,-0.550537109375,6.683349132537842,25.390623092651367,5.218505382537842,100.0,86045.0,1.0
84392.8854453,315604.84375,338816.78125,333614.8125,322816.15625,319454.625,297916.5,304272.78125,272103.0,0.03564453125,0.822509765625,-0.550048828125,6.866454601287842,25.634763717651367,5.249022960662842,100.0,86046.0,1.0
84392.8854655,315683.0,338504.75,332885.8125,322091.59375,318496.625,297009.90625,303693.0,271442.0,0.034912109375,0.818603515625,-0.551025390625,6.927489757537842,25.756834030151367,5.249022960662842,100.0,86047.0,1.0
84392.8878969,315362.65625,336845.8125,331141.8125,320450.8125,315823.90625,295306.0625,302533.28125,270294.21875,0.03466796875,0.8154296875,-0.5517578125,7.293700695037842,25.909421920776367,5.249022960662842,100.0,86048.0,1.0
84392.8906035,315108.03125,336139.9375,330765.96875,320110.625,315032.75,295115.09375,302373.59375,270204.25,0.03564453125,0.81201171875,-0.551513671875,7.720946788787842,26.123044967651367,5.249022960662842,100.0,86049.0,1.0
84392.895409,315256.09375,337370.90625,332306.4375,321576.625,317229.21875,296726.65625,303465.53125,271323.71875,0.036376953125,0.811279296875,-0.552490234375,8.087157249450684,26.123044967651367,5.279540538787842,100.0,86050.0,1.0
84392.8978964,315594.84375,338810.625,333614.8125,322808.28125,319373.09375,297902.8125,304309.4375,272102.375,0.039306640625,0.8134765625,-0.554931640625,8.575438499450684,26.214597702026367,5.096435070037842,100.0,86051.0,1.0
84392.9005465,315674.78125,338479.53125,332883.21875,322095.90625,318432.96875,296991.03125,303725.34375,271444.875,0.04150390625,0.814697265625,-0.559814453125,9.094237327575684,26.336668014526367,5.035399913787842,100.0,86052.0,1.0
84392.9030225,315351.03125,336778.21875,331112.84375,320442.40625,315732.8125,295250.375,302536.59375,270284.625,0.042724609375,0.81591796875,-0.563232421875,9.643553733825684,26.184080123901367,4.974364757537842,100.0,86053.0,1.0
84392.9054268,315100.59375,336071.71875,330731.28125,320091.5625,314903.90625,295049.75,302365.21875,270199.875,0.0458984375,0.81884765625,-0.560302734375,10.009764671325684,26.214597702026367,4.943847179412842,100.0,86054.0,1.0
84392.9131654,315255.71875,337330.65625,332279.15625,321547.28125,317067.65625,296663.0,303447.21875,271322.75,0.0478515625,0.816650390625,-0.561279296875,10.467528343200684,26.306150436401367,4.943847179412842,100.0,86055.0,1.0
84392.9131899,315593.59375,338787.71875,333602.75,322790.59375,319225.46875,297848.71875,304291.84375,272115.4375,0.04736328125,0.81689453125,-0.563232421875,10.772704124450684,26.458738327026367,4.882812023162842,100.0,86056.0,1.0
84392.9131954,315671.65625,338452.28125,332877.9375,322097.3125,318319.0625,296943.28125,303717.40625,271479.46875,0.051025390625,0.820556640625,-0.56298828125,11.138915061950684,26.702878952026367,4.913329601287842,100.0,86057.0,1.0
84392.9155968,315346.28125,336729.75,331092.375,320438.03125,315608.4375,295187.15625,302521.21875,270314.5,0.052001953125,0.822998046875,-0.5634765625,11.352538108825684,26.824949264526367,4.882812023162842,100.0,86058.0,1.0
84392.9156245,315094.34375,336009.9375,330693.28125,320057.78125,314747.0,294958.1875,302329.53125,270196.125,0.056396484375,0.825439453125,-0.56298828125,11.535643577575684,27.160642623901367,5.126952648162842,100.0,86059.0,1.0
84392.9181148,315257.34375,337301.6875,332255.125,321516.71875,316917.625,296586.28125,303420.46875,271315.5,0.058349609375,0.828857421875,-0.56201171875,11.779784202575684,27.526853561401367,5.340575695037842,100.0,86060.0,1.0
84392.9204344,315590.375,338782.625,333593.53125,322777.8125,319103.0,297792.9375,304280.03125,272120.6875,0.064453125,0.8291015625,-0.562255859375,11.718749046325684,27.740476608276367,5.584716320037842,100.0,86061.0,1.0
84392.9255349,315659.5,338422.5,332859.59375,322092.6875,318214.03125,296874.375,303697.0,271490.90625,0.067138671875,0.828125,-0.5595703125,11.749266624450684,28.076169967651367,5.737304210662842,100.0,86062.0,1.0
84392.934292,315338.0625,336666.09375,331055.375,320428.09375,315484.0625,295084.4375,302478.03125,270319.25,0.06787109375,0.82421875,-0.563232421875,11.718749046325684,28.320310592651367,5.859374523162842,100.0,86063.0,1.0
84392.9343296,315090.15625,335941.5625,330646.40625,320032.375,314589.71875,294844.65625,302269.4375,270201.125,0.0673828125,0.819091796875,-0.56591796875,11.779784202575684,28.778074264526367,6.042479991912842,100.0,86064.0,1.0
84392.9368417,315250.90625,337253.25,332214.34375,321479.25,316752.03125,296483.65625,303359.3125,271327.65625,0.06884765625,0.813232421875,-0.567626953125,12.023924827575684,29.144285202026367,6.256103038787842,100.0,86065.0,1.0
84392.939329,315571.5,338717.375,333549.8125,322737.75,318946.09375,297694.21875,304215.40625,272132.0625,0.069580078125,0.8125,-0.57177734375,12.451170921325684,29.571531295776367,6.347655773162842,100.0,86066.0,1.0
84392.9418285,315651.96875,338372.53125,332850.84375,322092.84375,318090.1875,296804.09375,303652.40625,271520.25,0.06884765625,0.812255859375,-0.571044921875,13.061522483825684,29.785154342651367,6.530761241912842,100.0,86067.0,1.0
84392.9442296,315361.75,336712.40625,331131.1875,320487.71875,315444.90625,295089.34375,302481.15625,270389.0625,0.069580078125,0.810546875,-0.574951171875,13.641356468200684,30.029294967651367,6.713866710662842,100.0,86068.0,1.0
84392.9468488,315109.625,335984.5625,330703.65625,320063.6875,314530.46875,294835.0,302258.4375,270250.84375,0.06689453125,0.810791015625,-0.577880859375,14.221190452575684,30.273435592651367,6.805419445037842,100.0,86069.0,1.0
84392.9468859,315249.90625,337232.125,332204.6875,321453.0625,316620.4375,296421.78125,303310.875,271333.03125,0.065185546875,0.8125,-0.57568359375,14.556883811950684,30.487058639526367,6.866454601287842,100.0,86070.0,1.0
84392.9542363,315579.46875,338718.09375,333557.6875,322734.96875,318837.625,297658.28125,304183.90625,272155.375,0.065673828125,0.812255859375,-0.578857421875,14.678954124450684,30.639646530151367,7.019042491912842,100.0,86071.0,1.0
84392.9804698,315668.0625,338413.90625,332899.9375,322136.125,318058.46875,296803.46875,303649.0,271572.625,0.06591796875,0.8134765625,-0.578369140625,14.892577171325684,30.853269577026367,7.171630382537842,100.0,86072.0,1.0
84392.9829509,315351.03125,336686.03125,331124.5625,320496.21875,315381.59375,295023.1875,302437.96875,270400.875,0.06640625,0.810791015625,-0.579833984375,14.923094749450684,31.005857467651367,7.202147960662842,100.0,86073.0,1.0
84392.9879793,315102.5625,335935.75,330671.375,320048.75,314431.75,294739.3125,302199.90625,270241.28125,0.069091796875,0.806884765625,-0.57861328125,15.106200218200684,31.005857467651367,7.202147960662842,100.0,86074.0,1.0
84392.9880202,315268.0625,337224.71875,332199.34375,321450.09375,316530.21875,296353.65625,303271.4375,271341.15625,0.072998046875,0.801025390625,-0.580322265625,15.289305686950684,31.005857467651367,7.324218273162842,100.0,86075.0,1.0
84392.9930525,315596.90625,338734.8125,333575.75,322742.9375,318779.15625,297610.28125,304161.5625,272180.4375,0.076416015625,0.79638671875,-0.584716796875,15.563963890075684,31.127927780151367,7.415771007537842,100.0,86076.0,1.0
84392.9981284,315663.6875,338394.78125,332899.84375,322141.84375,317998.1875,296728.28125,303614.5625,271596.6875,0.07763671875,0.79248046875,-0.58447265625,16.113279342651367,31.188962936401367,7.415771007537842,100.0,86077.0,1.0
84393.0004958,315354.34375,336641.78125,331114.09375,320502.65625,315316.4375,294928.59375,302405.15625,270433.59375,0.07861328125,0.787841796875,-0.587158203125,16.632078170776367,31.433103561401367,7.446288585662842,100.0,86078.0,1.0
84393.0056345,315105.625,335891.125,330655.71875,320037.03125,314341.0,294632.125,302154.84375,270268.46875,0.078125,0.7861328125,-0.59130859375,17.242429733276367,31.524656295776367,7.446288585662842,100.0,86079.0,1.0
84393.0080482,315252.9375,337198.25,332182.78125,321416.84375,316416.5,296252.625,303212.5,271357.625,0.080322265625,0.785400390625,-0.59375,17.791746139526367,31.799314498901367,7.446288585662842,100.0,86080.0,1.0
84393.010457,315575.4375,338732.9375,333572.0,322725.3125,318687.6875,297539.1875,304118.65625,272211.4375,0.079345703125,0.7880859375,-0.594970703125,18.432615280151367,31.860349655151367,7.476806163787842,100.0,86081.0,1.0
84393.0130946,315648.9375,338371.8125,332896.09375,322145.0625,317929.0,296668.28125,303585.96875,271637.90625,0.0791015625,0.787841796875,-0.597900390625,18.951414108276367,31.829832077026367,7.507323741912842,100.0,86082.0,1.0
84393.0154736,315339.0625,336568.03125,331087.5625,320502.46875,315208.96875,294845.8125,302358.84375,270457.71875,0.078857421875,0.7939453125,-0.596923828125,19.561765670776367,31.860349655151367,7.568358898162842,100.0,86083.0,1.0
84393.0180359,315093.4375,335789.1875,330609.21875,320014.21875,314172.90625,294527.4375,302091.09375,270266.03125,0.077392578125,0.794921875,-0.5986328125,20.050046920776367,31.707761764526367,7.537841320037842,100.0,86084.0,1.0
84393.0180742,315249.375,337118.875,332149.25,321384.03125,316229.28125,296159.28125,303150.90625,271345.53125,0.07861328125,0.79638671875,-0.602783203125,20.416257858276367,31.616209030151367,7.598876476287842,100.0,86085.0,1.0
84393.0205077,315577.21875,338688.75,333565.65625,322711.65625,318534.46875,297480.8125,304072.96875,272210.375,0.077392578125,0.79736328125,-0.60400390625,20.721433639526367,31.494138717651367,7.751464366912842,100.0,86086.0,1.0
84393.0229813,315644.71875,338324.15625,332890.0,322146.0625,317806.6875,296618.21875,303547.34375,271645.0625,0.074462890625,0.797607421875,-0.603515625,20.965574264526367,31.463621139526367,7.476806163787842,100.0,86087.0,1.0
84393.0257065,315328.6875,336489.0625,331053.40625,320487.46875,315073.15625,294771.4375,302298.5,270453.09375,0.073974609375,0.802734375,-0.60400390625,21.240232467651367,31.219480514526367,7.415771007537842,100.0,86088.0,1.0
84393.0279608,315088.71875,335717.9375,330570.96875,319985.625,314024.5,294445.90625,302011.0625,270251.46875,0.076416015625,0.804443359375,-0.60546875,21.453855514526367,31.066892623901367,7.110595226287842,100.0,86089.0,1.0
84393.030243,315257.15625,337092.40625,332138.53125,321363.84375,316094.1875,296103.0625,303079.9375,271339.28125,0.0751953125,0.803955078125,-0.60595703125,21.728513717651367,30.853269577026367,7.110595226287842,100.0,86090.0,1.0
84393.0302857,315586.34375,338686.78125,333577.375,322710.375,318423.40625,297449.96875,304020.9375,272222.4375,0.074951171875,0.804443359375,-0.602294921875,21.850584030151367,30.548093795776367,7.019042491912842,100.0,86091.0,1.0
84393.0369751,315646.25,338298.6875,332893.21875,322154.1875,317707.09375,296590.59375,303499.96875,271665.53125,0.07763671875,0.804443359375,-0.6083984375,21.881101608276367,30.151365280151367,6.835937023162842,100.0,86092.0,1.0
84393.039306,315320.46875,336427.84375,331030.78125,320481.65625,314965.5,294723.21875,302239.125,270463.375,0.07666015625,0.804931640625,-0.612060546875,21.972654342651367,29.785154342651367,6.591796398162842,100.0,86093.0,1.0
84393.0393451,315083.4375,335646.875,330535.8125,319955.9375,313884.03125,294377.3125,301942.21875,270248.96875,0.077392578125,0.802490234375,-0.6142578125,22.094724655151367,29.388425827026367,6.347655773162842,100.0,86094.0,1.0
84393.0418409,315257.875,337057.53125,332118.6875,321326.28125,315943.09375,296044.3125,303016.90625,271338.46875,0.0751953125,0.8037109375,-0.61474609375,22.186277389526367,28.930662155151367,6.195067882537842,100.0,86095.0,1.0
84393.0418758,315589.03125,338680.875,333579.78125,322686.875,318307.28125,297415.53125,303964.15625,272227.8125,0.078125,0.802001953125,-0.6142578125,22.033689498901367,28.533933639526367,6.072997570037842,100.0,86096.0,1.0
84393.0731149,315633.46875,338279.0,332885.8125,322141.59375,317611.25,296556.625,303441.5,271675.625,0.075927734375,0.7998046875,-0.6162109375,22.033689498901367,28.045652389526367,5.828856945037842,100.0,86097.0,1.0
84393.075649,315301.40625,336372.75,330995.28125,320462.59375,314848.28125,294667.8125,302174.9375,270465.5,0.07861328125,0.7998046875,-0.61962890625,21.942136764526367,27.496335983276367,5.676269054412842,100.0,86098.0,1.0
84393.0756904,315076.71875,335585.8125,330496.125,319925.09375,313745.09375,294320.09375,301872.125,270239.40625,0.0810546875,0.798095703125,-0.61865234375,22.003171920776367,26.977537155151367,5.371093273162842,100.0,86099.0,1.0
84393.0781652,315262.34375,337026.40625,332098.3125,321297.65625,315806.84375,295999.34375,302942.0625,271319.875,0.0810546875,0.794189453125,-0.62109375,22.125242233276367,26.458738327026367,5.035399913787842,100.0,86100.0,1.0
84393.0806903,315594.125,338684.8125,333583.8125,322680.625,318194.625,297393.46875,303905.875,272231.65625,0.0849609375,0.794677734375,-0.626953125,22.155759811401367,25.817869186401367,4.791259288787842,100.0,86101.0,1.0
84393.0807318,315635.34375,338266.75,332886.6875,322146.59375,317526.46875,296536.21875,303392.125,271700.125,0.087158203125,0.793212890625,-0.625244140625,22.155759811401367,25.299070358276367,4.486083507537842,100.0,86102.0,1.0
84393.0844861,315300.875,336320.09375,330973.65625,320458.0625,314752.1875,294606.8125,302106.5625,270483.75,0.08935546875,0.79150390625,-0.63037109375,22.308347702026367,24.780271530151367,4.272460460662842,100.0,86103.0,1.0
84393.0845306,315075.375,335522.78125,330461.71875,319900.0625,313612.6875,294221.21875,301781.28125,270243.875,0.09130859375,0.78955078125,-0.634521484375,22.369382858276367,24.322507858276367,4.058837413787842,100.0,86104.0,1.0
84393.0845408,315262.34375,336988.25,332076.3125,321261.375,315654.3125,295893.84375,302845.21875,271328.8125,0.093505859375,0.7861328125,-0.63525390625,22.399900436401367,23.773191452026367,3.967284917831421,100.0,86105.0,1.0
84393.0894765,315588.125,338677.125,333584.25,322659.78125,318063.1875,297303.34375,303819.15625,272258.21875,0.09716796875,0.782470703125,-0.64013671875,22.521970748901367,23.376462936401367,3.662109136581421,100.0,86106.0,1.0
84393.0917643,315621.3125,338247.71875,332885.53125,322140.875,317417.59375,296449.78125,303311.3125,271738.75,0.0966796875,0.77880859375,-0.639892578125,22.705076217651367,22.918699264526367,3.417968511581421,100.0,86107.0,1.0
84393.0967863,315284.78125,336282.5625,330956.84375,320455.0,314645.625,294523.0625,302031.34375,270528.8125,0.095947265625,0.775390625,-0.640380859375,22.583005905151367,22.521970748901367,3.234863042831421,100.0,86108.0,1.0
84393.1018345,315067.4375,335477.25,330429.59375,319884.5,313478.84375,294119.5625,301693.21875,270273.65625,0.097412109375,0.7724609375,-0.6396484375,22.583005905151367,22.033689498901367,3.234863042831421,100.0,86109.0,1.0
84393.104305,315268.25,336969.1875,332061.375,321249.9375,315515.28125,295804.6875,302757.625,271352.4375,0.096923828125,0.77197265625,-0.63720703125,22.491453170776367,21.697996139526367,3.265380620956421,100.0,86110.0,1.0
84393.1068559,315593.9375,338676.59375,333589.25,322656.5625,317953.65625,297241.5625,303742.59375,272276.625,0.095458984375,0.76953125,-0.637939453125,22.460935592651367,21.240232467651367,3.326415777206421,100.0,86111.0,1.0
84393.1068941,315608.875,338227.96875,332879.71875,322142.125,317336.03125,296397.75,303241.84375,271746.25,0.09521484375,0.7705078125,-0.6396484375,22.369382858276367,20.599363327026367,3.479003667831421,100.0,86112.0,1.0
84393.1092588,315277.09375,336239.28125,330936.0,320459.21875,314557.375,294468.96875,301962.5,270531.75,0.095947265625,0.76953125,-0.64404296875,22.277830123901367,19.958494186401367,3.295898199081421,100.0,86113.0,1.0
84393.1467509,315065.75,335416.1875,330396.09375,319869.9375,313359.21875,294056.53125,301619.28125,270264.0,0.096923828125,0.76904296875,-0.64794921875,22.216794967651367,19.317625045776367,3.387450933456421,100.0,86114.0,1.0
84393.1544422,315275.03125,336934.25,332045.90625,321224.8125,315397.96875,295759.46875,302696.8125,271339.71875,0.09619140625,0.768798828125,-0.650390625,22.277830123901367,18.646238327026367,3.387450933456421,100.0,86115.0,1.0
84393.1544553,315597.53125,338675.71875,333602.84375,322649.9375,317875.0,297231.1875,303708.71875,272280.03125,0.09765625,0.768798828125,-0.656005859375,22.430418014526367,18.127439498901367,3.448486089706421,100.0,86116.0,1.0
84393.1544572,315616.75,338210.34375,332881.96875,322146.59375,317258.71875,296380.84375,303223.4375,271762.90625,0.100830078125,0.77001953125,-0.66064453125,22.491453170776367,17.486570358276367,3.356933355331421,100.0,86117.0,1.0
84393.1544591,315284.96875,336175.25,330902.46875,320442.125,314445.53125,294418.90625,301932.84375,270535.96875,0.101806640625,0.77197265625,-0.659912109375,22.705076217651367,16.937253952026367,3.204345464706421,100.0,86118.0,1.0
84393.1580766,315061.53125,335371.9375,330367.375,319843.1875,313237.09375,294015.125,301587.625,270265.6875,0.099853515625,0.77490234375,-0.661376953125,22.766111373901367,16.479490280151367,3.112792730331421,100.0,86119.0,1.0
84393.1580888,315286.9375,336998.78125,332089.53125,321236.875,315343.15625,295782.09375,302693.96875,271368.4375,0.100341796875,0.777587890625,-0.6572265625,22.644041061401367,16.052244186401367,3.051757574081421,100.0,86120.0,1.0
84393.1580911,315612.5625,338789.6875,333672.75,322680.15625,317867.46875,297283.75,303719.4375,272328.9375,0.10107421875,0.7822265625,-0.658935546875,22.460935592651367,15.686034202575684,2.960204839706421,100.0,86121.0,1.0
84393.160383,315599.125,338256.125,332897.59375,322149.09375,317230.53125,296409.625,303216.0,271806.96875,0.101318359375,0.783447265625,-0.656494140625,22.247312545776367,15.258788108825684,2.746581792831421,100.0,86122.0,1.0
84393.1630389,315251.78125,336159.34375,330868.78125,320418.8125,314389.0,294430.6875,301905.125,270565.46875,0.101318359375,0.785888671875,-0.65673828125,21.972654342651367,14.862059593200684,2.563476324081421,100.0,86123.0,1.0
84393.1655373,315058.40625,335355.65625,330333.59375,319820.3125,313167.625,294034.4375,301556.875,270293.9375,0.102294921875,0.7841796875,-0.65576171875,21.514890670776367,14.312743186950684,2.471923589706421,100.0,86124.0,1.0
84393.167878,315286.84375,336926.53125,332017.65625,321183.59375,315189.28125,295760.1875,302634.6875,271376.5625,0.10302734375,0.78271484375,-0.65576171875,21.148679733276367,13.763426780700684,2.288818120956421,100.0,86125.0,1.0
84393.1734102,315618.71875,338738.65625,333634.03125,322650.3125,317726.125,297286.25,303673.125,272352.53125,0.107421875,0.783203125,-0.657958984375,20.690916061401367,13.122557640075684,2.349853277206421,100.0,86126.0,1.0
84393.2681211,315601.375,338230.09375,332880.15625,322138.0,317139.8125,296439.21875,303179.15625,271837.46875,0.108154296875,0.781005859375,-0.657958984375,20.263669967651367,12.603758811950684,2.563476324081421,100.0,86127.0,1.0
84393.2705491,315231.9375,336072.1875,330794.84375,320374.71875,314249.71875,294417.71875,301840.5625,270569.03125,0.1083984375,0.779296875,-0.659912109375,19.927976608276367,11.993407249450684,2.624511480331421,100.0,86128.0,1.0
84393.2705898,315043.65625,335237.8125,330237.46875,319760.75,312976.46875,293996.8125,301474.1875,270278.375,0.108642578125,0.77880859375,-0.66162109375,19.622800827026367,11.505125999450684,2.593993902206421,100.0,86129.0,1.0
84393.2731173,315308.03125,336911.78125,332007.46875,321170.53125,315059.3125,295789.0625,302585.40625,271383.625,0.108154296875,0.779541015625,-0.659423828125,19.378660202026367,10.925292015075684,2.624511480331421,100.0,86130.0,1.0
84393.2781286,315645.375,338788.53125,333666.6875,322662.46875,317651.84375,297356.53125,303644.34375,272368.625,0.109375,0.781005859375,-0.665283203125,19.012449264526367,10.437010765075684,2.777099370956421,100.0,86131.0,1.0
84393.2831404,315609.96875,338270.0625,332903.0625,322148.8125,317092.78125,296509.5,303155.21875,271843.0,0.107421875,0.78125,-0.665283203125,18.676755905151367,9.887694358825684,2.777099370956421,100.0,86132.0,1.0
84393.3418833,315236.21875,336091.9375,330803.15625,320376.15625,314203.9375,294473.96875,301816.96875,270567.875,0.108154296875,0.780517578125,-0.665283203125,18.371580123901367,9.307860374450684,2.685546636581421,100.0,86133.0,1.0
84393.3442616,315042.3125,335218.34375,330215.65625,319731.25,312893.78125,294018.09375,301428.3125,270249.40625,0.109619140625,0.77783203125,-0.668701171875,17.761228561401367,8.575438499450684,2.593993902206421,100.0,86134.0,1.0
84393.3530521,315303.03125,336880.59375,331976.09375,321128.5,314962.8125,295793.25,302525.59375,271331.0625,0.113037109375,0.776123046875,-0.67041015625,17.303464889526367,8.087157249450684,2.471923589706421,100.0,86135.0,1.0
84393.3579666,315647.25,338789.25,333667.21875,322650.40625,317598.09375,297386.125,303606.96875,272338.5,0.117919921875,0.773193359375,-0.6708984375,17.028806686401367,7.598876476287842,2.471923589706421,100.0,86136.0,1.0
84393.3605586,315617.09375,338292.5,332924.96875,322162.5,317087.84375,296559.125,303142.25,271842.28125,0.12060546875,0.770263671875,-0.67138671875,16.693113327026367,7.171630382537842,2.441406011581421,100.0,86137.0,1.0
84393.3631236,315243.03125,336098.625,330811.46875,320383.9375,314204.21875,294508.46875,301799.25,270566.0,0.121826171875,0.7646484375,-0.671875,16.479490280151367,6.835937023162842,2.410888433456421,100.0,86138.0,1.0
84393.3654839,315050.34375,335214.3125,330207.78125,319725.1875,312863.0,294028.09375,301403.46875,270247.71875,0.123291015625,0.76123046875,-0.674072265625,16.296384811401367,6.591796398162842,2.410888433456421,100.0,86139.0,1.0
84393.3681122,315318.21875,336882.8125,331971.53125,321118.9375,314912.5,295795.75,302500.65625,271336.5,0.125244140625,0.75927734375,-0.678466796875,16.113279342651367,6.317138195037842,2.441406011581421,100.0,86140.0,1.0
84393.4243898,315660.46875,338806.5,333681.875,322653.78125,317574.21875,297405.0,303588.75,272349.40625,0.1220703125,0.755859375,-0.678955078125,15.869139671325684,6.134032726287842,2.593993902206421,100.0,86141.0,1.0
84393.4267267,315627.3125,338331.5,332959.28125,322186.1875,317108.3125,296607.125,303137.5,271868.03125,0.121826171875,0.754638671875,-0.679931640625,15.838622093200684,6.011962413787842,2.563476324081421,100.0,86142.0,1.0
84393.4293511,315260.375,336184.1875,330877.09375,320429.34375,314271.0,294589.75,301815.625,270605.96875,0.124267578125,0.7509765625,-0.678955078125,15.411375999450684,5.798339366912842,2.593993902206421,100.0,86143.0,1.0
84393.4318494,315062.875,335297.5625,330260.4375,319751.65625,312924.25,294096.5,301408.28125,270264.25,0.12451171875,0.74853515625,-0.68115234375,15.136717796325684,5.645751476287842,2.685546636581421,100.0,86144.0,1.0
84393.4341872,315295.59375,336856.90625,331931.75,321076.375,314875.75,295785.03125,302451.125,271294.40625,0.125732421875,0.746337890625,-0.67919921875,14.831542015075684,5.584716320037842,2.716064214706421,100.0,86145.0,1.0
84393.4367077,315626.5,338689.65625,333586.3125,322579.9375,317459.0625,297351.09375,303508.625,272276.28125,0.12353515625,0.744384765625,-0.68310546875,14.709471702575684,5.310058116912842,2.777099370956421,100.0,86146.0,1.0
84393.4392106,315635.34375,338302.6875,332951.0625,322189.0625,317084.0,296633.84375,303117.65625,271839.78125,0.124267578125,0.74658203125,-0.685546875,14.556883811950684,5.065917491912842,2.777099370956421,100.0,86147.0,1.0
84393.4416937,315291.84375,336214.5,330914.1875,320472.625,314309.875,294656.71875,301831.0,270601.3125,0.120361328125,0.74853515625,-0.687255859375,14.465331077575684,4.852294445037842,2.655029058456421,100.0,86148.0,1.0
84393.4468719,315063.3125,335250.34375,330225.3125,319738.6875,312887.875,294104.1875,301385.03125,270219.71875,0.11865234375,0.748291015625,-0.687744140625,14.343260765075684,4.486083507537842,2.716064214706421,100.0,86149.0,1.0
84393.5104733,315305.875,336801.375,331893.8125,321059.9375,314811.375,295779.03125,302430.75,271253.4375,0.1171875,0.746826171875,-0.691162109375,14.221190452575684,4.180907726287842,2.716064214706421,100.0,86150.0,1.0
84393.5129755,315645.1875,338716.46875,333613.75,322603.0,317461.9375,297389.34375,303525.625,272270.8125,0.1162109375,0.746337890625,-0.691650390625,14.038084983825684,3.936767339706421,2.716064214706421,100.0,86151.0,1.0
84393.5155912,315626.21875,338319.78125,332966.875,322199.0625,317102.59375,296662.75,303133.46875,271836.28125,0.1162109375,0.7451171875,-0.689208984375,13.946532249450684,3.692626714706421,2.685546636581421,100.0,86152.0,1.0
84393.518132,315274.9375,336208.59375,330907.125,320465.65625,314321.59375,294670.03125,301839.03125,270596.59375,0.1181640625,0.745849609375,-0.688232421875,13.671874046325684,3.448486089706421,2.746581792831421,100.0,86153.0,1.0
84393.5205183,315053.125,335235.15625,330202.59375,319717.9375,312876.96875,294094.0625,301382.4375,270210.78125,0.116455078125,0.74462890625,-0.6865234375,13.183592796325684,3.204345464706421,2.868652105331421,100.0,86154.0,1.0
84393.520555,315308.125,336806.28125,331889.96875,321049.65625,314795.625,295779.9375,302431.8125,271249.96875,0.113037109375,0.7431640625,-0.684326171875,12.847899436950684,2.868652105331421,3.021239995956421,100.0,86155.0,1.0
84393.5229829,315660.1875,338722.5625,333622.875,322609.8125,317460.59375,297406.96875,303533.9375,272280.75,0.110595703125,0.7412109375,-0.68505859375,12.481688499450684,2.349853277206421,3.295898199081421,100.0,86156.0,1.0
84393.5255587,315633.1875,338311.90625,332968.6875,322209.1875,317097.25,296688.40625,303133.3125,271839.15625,0.107177734375,0.7421875,-0.68896484375,12.084959983825684,1.8615721464157104,3.448486089706421,100.0,86157.0,1.0
84393.5280698,315267.0,336189.75,330891.03125,320464.40625,314306.3125,294701.875,301831.1875,270575.75,0.1083984375,0.744140625,-0.68798828125,11.840819358825684,1.3427733182907104,3.875732183456421,100.0,86158.0,1.0
84393.5306149,315060.0,335198.3125,330179.0,319713.8125,312853.71875,294134.40625,301379.21875,270175.21875,0.108154296875,0.7431640625,-0.68798828125,11.566161155700684,0.7324218153953552,4.119872570037842,100.0,86159.0,1.0
84393.5329816,315316.34375,336755.96875,331860.84375,321033.5625,314753.53125,295816.40625,302416.78125,271194.0,0.109619140625,0.744384765625,-0.691162109375,11.383055686950684,0.1220703050494194,4.302978038787842,100.0,86160.0,1.0
84393.5993699,315675.5,338744.28125,333649.4375,322633.15625,317473.71875,297498.15625,303549.65625,272240.59375,0.11181640625,0.745849609375,-0.69189453125,11.260985374450684,-0.3356933295726776,4.486083507537842,100.0,86161.0,1.0
84393.6018325,315635.4375,338332.125,332987.53125,322227.9375,317131.65625,296781.03125,303152.875,271800.1875,0.112548828125,0.752197265625,-0.689453125,11.108397483825684,-0.6103515028953552,4.608153820037842,100.0,86162.0,1.0
84393.6131937,315246.59375,336101.3125,330816.90625,320420.59375,314261.25,294708.3125,301805.53125,270502.625,0.114501953125,0.755859375,-0.68505859375,10.803221702575684,-0.9765624403953552,4.760741710662842,100.0,86163.0,1.0
84393.6132343,315048.84375,335087.0,330085.9375,319657.0625,312753.59375,294104.34375,301340.6875,270102.59375,0.115234375,0.757568359375,-0.680419921875,10.375975608825684,-1.2817381620407104,4.821776866912842,100.0,86164.0,1.0
84393.613243,315315.625,336671.90625,331794.3125,320992.875,314635.875,295776.53125,302380.59375,271143.9375,0.11474609375,0.760009765625,-0.682373046875,9.887694358825684,-1.3122557401657104,5.004882335662842,100.0,86165.0,1.0
84393.6132509,315667.34375,338665.34375,333597.84375,322602.5625,317360.71875,297446.9375,303515.78125,272217.09375,0.115966796875,0.761474609375,-0.684326171875,9.277342796325684,-1.4953612089157104,5.187987804412842,100.0,86166.0,1.0
84393.6132586,315615.6875,338277.40625,332954.1875,322211.6875,317062.71875,296744.8125,303134.8125,271793.65625,0.11767578125,0.761474609375,-0.683837890625,9.002684593200684,-1.5258787870407104,5.371093273162842,100.0,86167.0,1.0
84393.6132663,315230.25,336063.59375,330797.875,320411.75,314230.40625,294695.34375,301805.4375,270509.125,0.1171875,0.7607421875,-0.6845703125,8.331297874450684,-1.7089842557907104,5.737304210662842,100.0,86168.0,1.0
84393.6132739,315038.65625,335027.90625,330051.25,319636.65625,312723.09375,294082.09375,301335.875,270104.03125,0.119873046875,0.755859375,-0.68505859375,7.812499523162842,-2.075195074081421,6.134032726287842,100.0,86169.0,1.0
84393.6132817,315311.6875,336577.5,331738.875,320962.21875,314599.84375,295742.28125,302360.8125,271125.59375,0.121826171875,0.750732421875,-0.6875,7.476806163787842,-2.319335699081421,6.774901866912842,100.0,86170.0,1.0
84393.6132894,315690.0625,338593.28125,333571.28125,322600.78125,317359.90625,297449.25,303512.03125,272203.40625,0.118896484375,0.74462890625,-0.684814453125,7.141112804412842,-2.532958745956421,7.293700695037842,100.0,86171.0,1.0
84393.6132975,315659.21875,338255.125,332972.0625,322245.46875,317110.28125,296794.78125,303156.1875,271803.40625,0.117431640625,0.73583984375,-0.689208984375,7.049560070037842,-2.838134527206421,7.659911632537842,100.0,86172.0,1.0
84393.6133052,315257.6875,336057.6875,330804.9375,320431.75,314261.4375,294746.03125,301815.96875,270512.28125,0.116943359375,0.7314453125,-0.690185546875,7.110595226287842,-3.143310308456421,7.965087413787842,100.0,86173.0,1.0
84393.6133132,315052.15625,335006.34375,330023.625,319625.59375,312697.6875,294109.0,301322.625,270084.0,0.11962890625,0.7275390625,-0.688232421875,7.110595226287842,-3.509521245956421,8.209227561950684,100.0,86174.0,1.0
84393.6133222,315328.40625,336556.59375,331701.96875,320947.46875,314542.4375,295761.34375,302347.6875,271113.1875,0.122314453125,0.724609375,-0.690673828125,7.385253429412842,-3.601073980331421,8.422850608825684,100.0,86175.0,1.0
84393.6155056,315701.0625,338581.1875,333543.75,322598.375,317306.1875,297466.15625,303508.625,272213.875,0.124267578125,0.72216796875,-0.693359375,7.659911632537842,-3.753661870956421,8.575438499450684,100.0,86176.0,1.0
84393.6180827,315682.90625,338276.78125,332983.4375,322273.375,317116.1875,296839.5,303186.125,271852.125,0.124755859375,0.719970703125,-0.69189453125,7.934569835662842,-3.814697027206421,8.880614280700684,100.0,86177.0,1.0
84393.685653,315295.59375,336101.6875,330838.5625,320468.96875,314312.40625,294808.15625,301864.53125,270572.875,0.126220703125,0.716796875,-0.690673828125,8.178709983825684,-3.936767339706421,9.338377952575684,100.0,86178.0,1.0
84393.6856659,315070.75,335018.4375,330028.15625,319632.375,312754.28125,294148.4375,301351.78125,270123.15625,0.127685546875,0.71533203125,-0.6904296875,8.422850608825684,-4.028319835662842,9.796141624450684,100.0,86179.0,1.0
84393.6856679,315324.84375,336511.96875,331672.53125,320928.25,314587.0625,295767.5,302354.5625,271129.1875,0.12939453125,0.714111328125,-0.694091796875,8.972167015075684,-4.089354991912842,10.101317405700684,100.0,86180.0,1.0
84393.6872875,315704.625,338544.71875,333539.4375,322601.75,317396.84375,297500.3125,303534.90625,272248.09375,0.130126953125,0.71435546875,-0.695068359375,9.490965843200684,-4.058837413787842,10.345458030700684,100.0,86181.0,1.0
84393.7842319,315686.5625,338291.78125,333003.8125,322288.125,317244.125,296909.5,303216.34375,271890.3125,0.131103515625,0.71435546875,-0.69677734375,9.918211936950684,-4.119872570037842,10.711668968200684,100.0,86182.0,1.0
84393.7867607,315304.53125,336148.71875,330867.71875,320488.625,314441.59375,294891.125,301891.09375,270607.9375,0.132080078125,0.715576171875,-0.697021484375,10.437010765075684,-4.180907726287842,11.108397483825684,100.0,86183.0,1.0
84393.7892629,315083.53125,335058.84375,330042.125,319640.5,312829.5625,294213.78125,301372.4375,270148.28125,0.129638671875,0.71533203125,-0.69873046875,10.803221702575684,-4.089354991912842,11.444090843200684,100.0,86184.0,1.0
84393.861666,315342.8125,336539.78125,331675.6875,320927.875,314618.4375,295823.03125,302367.8125,271156.34375,0.130126953125,0.716796875,-0.697998046875,11.077879905700684,-4.089354991912842,11.962889671325684,100.0,86185.0,1.0
84393.8617059,315709.65625,338574.125,333543.375,322601.21875,317427.40625,297556.53125,303537.0625,272275.8125,0.131591796875,0.717041015625,-0.6982421875,11.444090843200684,-4.150390148162842,12.084959983825684,100.0,86186.0,1.0
84393.8617147,315683.4375,338336.9375,333029.65625,322303.78125,317334.78125,296990.15625,303230.40625,271931.59375,0.1337890625,0.716552734375,-0.697265625,11.718749046325684,-4.058837413787842,12.512206077575684,100.0,86187.0,1.0
84393.8617225,315297.9375,336194.9375,330896.21875,320502.40625,314587.0625,294975.90625,301918.53125,270657.1875,0.135986328125,0.71923828125,-0.6962890625,12.054442405700684,-4.028319835662842,12.817381858825684,100.0,86188.0,1.0
84393.8617302,315074.6875,335052.5625,330039.625,319630.84375,312977.1875,294255.1875,301383.4375,270187.53125,0.13720703125,0.718017578125,-0.697998046875,12.207030296325684,-3.967284917831421,13.122557640075684,100.0,86189.0,1.0
84393.8617379,315333.5,336474.15625,331642.9375,320899.90625,314740.75,295813.1875,302351.875,271177.90625,0.13623046875,0.71923828125,-0.6943359375,12.451170921325684,-3.875732183456421,13.397215843200684,100.0,86190.0,1.0
84393.861746,315706.0625,338483.125,333510.75,322579.84375,317544.28125,297530.4375,303509.25,272300.21875,0.13623046875,0.7177734375,-0.692138671875,12.634276390075684,-3.692626714706421,13.671874046325684,100.0,86191.0,1.0
84393.8617539,315700.78125,338287.6875,333031.1875,322312.71875,317452.8125,296992.46875,303224.9375,271980.15625,0.137451171875,0.71630859375,-0.696044921875,12.847899436950684,-3.540038824081421,13.854979515075684,100.0,86192.0,1.0
84393.8617616,315302.3125,336167.65625,330892.1875,320496.5,314658.5625,294981.25,301905.84375,270691.71875,0.139892578125,0.715576171875,-0.69580078125,13.092040061950684,-3.356933355331421,13.977049827575684,100.0,86193.0,1.0
84393.8617693,315055.375,335007.4375,329994.8125,319588.84375,312978.875,294236.21875,301341.84375,270187.625,0.145263671875,0.718505859375,-0.699462890625,13.275145530700684,-3.204345464706421,14.160155296325684,100.0,86194.0,1.0
84393.861777,315297.9375,336387.59375,331555.78125,320835.71875,314651.4375,295756.59375,302285.71875,271151.25,0.14599609375,0.720947265625,-0.69921875,13.519286155700684,-2.960204839706421,14.312743186950684,100.0,86195.0,1.0
84393.8617846,315681.46875,338403.09375,333436.46875,322537.375,317425.0,297478.9375,303456.5,272282.09375,0.14794921875,0.722412109375,-0.699951171875,13.580321311950684,-2.685546636581421,14.404295921325684,100.0,86196.0,1.0
84393.8617923,315682.28125,338244.125,332988.78125,322295.375,317378.96875,296971.5625,303199.09375,271978.90625,0.150390625,0.723876953125,-0.703857421875,13.732909202575684,-2.471923589706421,14.434813499450684,100.0,86197.0,1.0
84393.8617999,315304.09375,336153.53125,330867.875,320501.59375,314636.9375,294976.34375,301903.0625,270711.75,0.150634765625,0.72314453125,-0.70751953125,13.885497093200684,-2.227782964706421,14.404295921325684,100.0,86198.0,1.0
84393.8618093,315066.0,334970.3125,329960.3125,319586.5,312957.53125,294190.8125,301329.4375,270209.71875,0.1669921875,0.734375,-0.7392578125,14.648436546325684,-1.8615721464157104,14.526366233825684,100.0,86199.0,1.0
84393.8642255,315311.875,336314.1875,331507.15625,320824.25,314625.40625,295648.3125,302259.625,271179.875,0.17431640625,0.741943359375,-0.74267578125,16.143796920776367,-1.1901854276657104,15.045165061950684,100.0,86200.0,1.0
84393.8668733,315687.90625,338327.03125,333399.875,322536.03125,317427.6875,297335.15625,303432.09375,272329.5625,0.171630859375,0.736572265625,-0.7255859375,15.899657249450684,-0.1831054538488388,15.899657249450684,100.0,86201.0,1.0
84393.8685637,315674.59375,338205.5,332978.96875,322303.21875,317419.90625,296850.9375,303178.71875,272026.90625,0.164794921875,0.7255859375,-0.70703125,15.747069358825684,0.4272460639476776,16.662595748901367,100.0,86202.0,1.0
84393.8754581,315281.125,336153.0,330871.46875,320498.46875,314698.375,294896.5,301883.84375,270726.9375,0.14306640625,0.71533203125,-0.69580078125,15.655516624450684,1.3732908964157104,16.265867233276367,100.0,86203.0,1.0
84393.8779077,315054.03125,334971.03125,329959.25,319579.96875,313021.71875,294118.75,301324.34375,270213.03125,0.14208984375,0.713134765625,-0.690673828125,15.960692405700684,2.044677495956421,14.678954124450684,100.0,86204.0,1.0
84393.9392469,315298.28125,336249.125,331485.25,320805.9375,314687.8125,295533.09375,302251.3125,271174.78125,0.144287109375,0.71923828125,-0.687744140625,16.052244186401367,2.258300542831421,13.702391624450684,100.0,86205.0,1.0
84393.9629577,315671.28125,338214.8125,333377.28125,322521.21875,317497.5,297217.96875,303427.1875,272314.8125,0.14404296875,0.72509765625,-0.692626953125,15.838622093200684,2.288818120956421,13.305663108825684,100.0,86206.0,1.0
84393.9629969,315680.0625,338161.0625,333022.21875,322334.625,317539.90625,296797.375,303220.03125,272038.28125,0.1455078125,0.730224609375,-0.696044921875,15.594481468200684,1.9836424589157104,13.122557640075684,100.0,86207.0,1.0
84393.9630053,315307.5,336199.03125,330969.28125,320561.84375,314855.375,294873.53125,301955.1875,270773.5,0.151123046875,0.734375,-0.695068359375,14.892577171325684,1.1901854276657104,12.786864280700684,100.0,86208.0,1.0
84393.9630131,315063.40625,334988.84375,330004.3125,319599.03125,313095.21875,294048.84375,301351.6875,270228.9375,0.1669921875,0.734130859375,-0.697265625,14.221190452575684,0.8239745497703552,12.878417015075684,100.0,86209.0,1.0
84393.9630221,315294.53125,336252.78125,331486.125,320791.71875,314668.3125,295480.6875,302239.59375,271136.34375,0.15087890625,0.72119140625,-0.697265625,13.488768577575684,1.2207030057907104,13.092040061950684,100.0,86210.0,1.0
84393.9630298,315665.375,338240.46875,333382.0,322513.6875,317460.59375,297190.34375,303411.90625,272276.8125,0.1318359375,0.711669921875,-0.69482421875,13.183592796325684,1.0986326932907104,11.230467796325684,100.0,86211.0,1.0
84393.9630376,315681.5625,338204.625,333039.5625,322343.03125,317530.5,296708.96875,303213.6875,272098.78125,0.158203125,0.7177734375,-0.697998046875,12.908934593200684,0.2136230319738388,9.399413108825684,100.0,86212.0,1.0
84393.9630453,315297.125,336219.78125,330961.5,320546.65625,314827.65625,294710.09375,301937.125,270896.8125,0.18359375,0.725830078125,-0.703857421875,12.329100608825684,0.6408690810203552,9.704588890075684,100.0,86213.0,1.0
84393.963053,315060.46875,335023.4375,330003.125,319586.96875,313065.0625,293936.53125,301356.4375,270338.0,0.18505859375,0.7255859375,-0.706787109375,11.383055686950684,2.136230230331421,10.803221702575684,100.0,86214.0,1.0
84393.9630607,315292.28125,336259.125,331469.59375,320769.625,314596.4375,295400.3125,302239.5,271183.8125,0.16259765625,0.715576171875,-0.70751953125,11.138915061950684,3.082275152206421,10.772704124450684,100.0,86215.0,1.0
84394.0330827,315660.1875,338250.5625,333379.0625,322505.5625,317379.21875,297150.8125,303414.5,272304.53125,0.161865234375,0.715087890625,-0.70849609375,10.711668968200684,3.479003667831421,9.582518577575684,100.0,86216.0,1.0
84394.0331242,315660.1875,338250.5625,333379.0625,322505.5625,317379.21875,297150.8125,303414.5,272304.53125,0.161865234375,0.715087890625,-0.70849609375,10.711668968200684,3.479003667831421,9.582518577575684,100.0,86217.0,0.0
84394.0331259,315660.1875,338250.5625,333379.0625,322505.5625,317379.21875,297150.8125,303414.5,272304.53125,0.161865234375,0.715087890625,-0.70849609375,10.711668968200684,3.479003667831421,9.582518577575684,100.0,86218.0,0.0
84394.0331274,315041.0625,335028.96875,330006.625,319562.375,312989.15625,293963.8125,301350.15625,270271.125,0.1572265625,0.70751953125,-0.70703125,9.552000999450684,3.906249761581421,7.141112804412842,100.0,86219.0,1.0
84394.0331362,315272.25,336239.71875,331452.59375,320731.90625,314482.25,295322.34375,302217.40625,271188.0,0.165771484375,0.709228515625,-0.704833984375,9.002684593200684,3.662109136581421,6.896972179412842,100.0,86220.0,1.0
84394.0331455,315652.0625,338235.90625,333375.84375,322485.1875,317287.59375,297056.03125,303403.75,272352.25,0.17822265625,0.712158203125,-0.705078125,8.422850608825684,3.601073980331421,7.080077648162842,100.0,86221.0,1.0
84394.0379712,315673.0625,338258.0,333091.15625,322360.375,317448.15625,296738.375,303245.59375,272118.03125,0.18896484375,0.716552734375,-0.707763671875,7.965087413787842,4.058837413787842,7.812499523162842,100.0,86222.0,1.0
84394.0380039,315300.59375,336293.46875,331028.90625,320576.25,314802.34375,294870.75,301989.4375,270810.4375,0.171630859375,0.71533203125,-0.70947265625,7.476806163787842,4.943847179412842,7.965087413787842,100.0,86223.0,1.0
84394.040562,315036.9375,335030.59375,330000.1875,319550.9375,312952.78125,294022.28125,301355.8125,270200.0625,0.132568359375,0.70361328125,-0.70849609375,7.293700695037842,5.249022960662842,6.317138195037842,100.0,86224.0,1.0
84394.040947,315252.25,336207.34375,331414.15625,320691.65625,314392.3125,295301.0625,302200.53125,271147.59375,0.161865234375,0.713134765625,-0.710205078125,7.232665538787842,4.547118663787842,4.028319835662842,100.0,86225.0,1.0
84394.0444389,315651.25,338221.15625,333365.1875,322470.96875,317213.03125,296978.0625,303400.53125,272402.5,0.1884765625,0.72119140625,-0.712646484375,6.500243663787842,4.791259288787842,4.455565929412842,100.0,86226.0,1.0
84394.0444703,315691.3125,338281.15625,333123.0,322383.4375,317422.9375,296703.59375,303266.78125,272189.8125,0.1865234375,0.722412109375,-0.713134765625,5.218505382537842,6.195067882537842,5.828856945037842,100.0,86227.0,1.0
84394.0444793,315321.09375,336350.3125,331075.9375,320611.03125,314789.46875,294891.0625,302020.09375,270859.71875,0.161865234375,0.714599609375,-0.7099609375,4.425048351287842,6.591796398162842,5.828856945037842,100.0,86228.0,1.0
84394.044487,315057.5,335083.34375,330032.71875,319570.9375,312935.0625,294030.40625,301379.75,270245.5625,0.15185546875,0.7080078125,-0.708740234375,4.150390148162842,6.317138195037842,4.455565929412842,100.0,86229.0,1.0
84394.0493496,315265.75,336232.75,331426.40625,320689.15625,314358.53125,295324.84375,302212.40625,271142.6875,0.15625,0.7099609375,-0.711181640625,4.028319835662842,6.652831554412842,3.143310308456421,100.0,86230.0,1.0
84394.1244103,315646.6875,338235.09375,333371.28125,322459.4375,317166.625,297058.4375,303406.4375,272326.4375,0.152587890625,0.71533203125,-0.707275390625,3.784179449081421,6.988524913787842,2.716064214706421,100.0,86231.0,1.0
84394.1244519,315699.375,338355.8125,333177.875,322413.03125,317430.71875,296811.15625,303307.46875,272160.5625,0.160400390625,0.72216796875,-0.706298828125,3.112792730331421,6.683349132537842,2.166747808456421,100.0,86232.0,1.0
84394.1244617,315347.09375,336471.03125,331161.75,320664.03125,314845.71875,294962.5,302084.09375,270912.8125,0.171142578125,0.729248046875,-0.708984375,2.288818120956421,6.439208507537842,2.410888433456421,100.0,86233.0,1.0
84394.1244698,315075.21875,335164.0625,330084.21875,319594.65625,312967.34375,294096.84375,301415.34375,270244.0625,0.16064453125,0.729248046875,-0.7109375,1.3427733182907104,7.049560070037842,2.624511480331421,100.0,86234.0,1.0
84394.1244775,315278.53125,336274.6875,331445.1875,320691.75,314348.78125,295457.71875,302229.9375,271047.0,0.146728515625,0.727783203125,-0.7080078125,0.7019042372703552,7.171630382537842,1.7700194120407104,100.0,86235.0,1.0
84394.1244854,315665.03125,338294.125,333408.28125,322481.40625,317177.625,297232.09375,303439.53125,272230.65625,0.1318359375,0.7255859375,-0.702880859375,0.1831054538488388,6.561278820037842,0.4577636420726776,100.0,86236.0,1.0
84394.1244944,315707.0625,338432.96875,333229.03125,322444.125,317473.5625,296945.25,303332.5,272099.6875,0.155029296875,0.72705078125,-0.70458984375,-0.5493163466453552,6.195067882537842,-0.7934569716453552,100.0,86237.0,1.0
84394.1245027,315362.125,336595.03125,331246.0625,320712.84375,314938.78125,295094.4375,302111.8125,270875.09375,0.16357421875,0.73291015625,-0.706787109375,-1.4343260526657104,6.378173351287842,-0.4577636420726776,100.0,86238.0,1.0
84394.1245105,315083.25,335264.03125,330141.1875,319618.4375,313047.46875,294202.875,301433.84375,270193.4375,0.162109375,0.7333984375,-0.7041015625,-2.838134527206421,6.652831554412842,-0.03051757626235485,100.0,86239.0,1.0
84394.1245186,315281.65625,336314.46875,331462.0,320684.15625,314409.3125,295512.4375,302229.9375,270989.6875,0.138916015625,0.7255859375,-0.698974609375,-3.814697027206421,6.286620616912842,-0.9765624403953552,100.0,86240.0,1.0
84394.1245288,315640.875,338260.6875,333367.0625,322435.71875,317196.84375,297220.46875,303411.71875,272184.53125,0.144775390625,0.719482421875,-0.693359375,-4.425048351287842,5.615233898162842,-2.899169683456421,100.0,86241.0,1.0
84394.1294048,315695.25,338429.03125,333222.40625,322435.375,317530.5,296959.125,303335.90625,272100.84375,0.177734375,0.7265625,-0.701904296875,-5.035399913787842,5.920409679412842,-3.326415777206421,100.0,86242.0,1.0
84394.1294475,315359.78125,336647.96875,331285.5,320738.4375,315045.25,295179.84375,302148.46875,270872.65625,0.177490234375,0.7265625,-0.702392578125,-6.164550304412842,6.866454601287842,-2.593993902206421,100.0,86243.0,1.0
84394.1319038,315071.46875,335298.1875,330152.96875,319619.0625,313118.375,294283.15625,301455.5625,270164.5625,0.172607421875,0.718017578125,-0.701416015625,-7.110595226287842,6.866454601287842,-2.685546636581421,100.0,86244.0,1.0
84394.1341127,315263.15625,336347.375,331456.28125,320662.4375,314435.25,295560.96875,302238.59375,270972.4375,0.154296875,0.703857421875,-0.7021484375,-7.232665538787842,6.683349132537842,-3.479003667831421,100.0,86245.0,1.0
84394.1366914,315651.96875,338376.46875,333446.375,322459.78125,317278.90625,297332.5625,303456.78125,272198.9375,0.15673828125,0.699462890625,-0.698974609375,-6.988524913787842,6.835937023162842,-4.760741710662842,100.0,86246.0,1.0
84394.2031036,315702.65625,338564.75,333332.28125,322476.15625,317659.96875,297104.0625,303392.84375,272108.625,0.173583984375,0.7060546875,-0.694091796875,-6.744384288787842,6.866454601287842,-5.523681163787842,100.0,86247.0,1.0
84394.2067184,315358.90625,336710.8125,331338.34375,320752.8125,315135.75,295244.5625,302179.59375,270887.34375,0.1865234375,0.71630859375,-0.696533203125,-7.202147960662842,6.744384288787842,-5.432128429412842,100.0,86248.0,1.0
84394.2092287,315073.15625,335342.78125,330181.40625,319620.75,313170.65625,294292.375,301469.4375,270200.5,0.191650390625,0.723876953125,-0.703125,-8.026122093200684,7.019042491912842,-4.913329601287842,100.0,86249.0,1.0
84394.2118276,315246.25,336357.65625,331445.8125,320633.375,314435.59375,295561.5,302227.59375,270967.625,0.19384765625,0.72607421875,-0.704833984375,-8.666991233825684,7.507323741912842,-4.394530773162842,100.0,86250.0,1.0
84394.2143831,315630.875,338380.21875,333421.34375,322437.59375,317280.25,297407.84375,303447.375,272129.375,0.17138671875,0.720947265625,-0.703857421875,-9.246825218200684,8.239745140075684,-4.211425304412842,100.0,86251.0,1.0
84394.2219152,315706.0625,338622.96875,333350.28125,322501.53125,317724.0625,297296.625,303421.28125,272020.75,0.16796875,0.718017578125,-0.697021484375,-9.582518577575684,8.880614280700684,-5.279540538787842,100.0,86252.0,1.0
84394.2219546,315378.40625,336794.65625,331378.75,320794.5625,315224.25,295461.65625,302220.90625,270808.65625,0.166748046875,0.716796875,-0.695556640625,-9.552000999450684,9.399413108825684,-6.042479991912842,100.0,86253.0,1.0
84394.2219635,315102.125,335409.40625,330212.4375,319653.9375,313249.34375,294464.40625,301512.71875,270134.0625,0.1630859375,0.718505859375,-0.698486328125,-9.979247093200684,10.070799827575684,-6.591796398162842,100.0,86254.0,1.0
84394.2219712,315270.5625,336377.125,331448.59375,320636.875,314476.0,295666.375,302250.21875,270902.1875,0.155029296875,0.719482421875,-0.695556640625,-10.467528343200684,10.040282249450684,-7.324218273162842,100.0,86255.0,1.0
84394.221979,315648.75,338394.0625,333428.40625,322438.5,317323.09375,297466.0625,303470.625,272113.375,0.151123046875,0.72216796875,-0.69482421875,-10.925292015075684,9.368895530700684,-7.934569835662842,100.0,86256.0,1.0
84394.2219866,315720.90625,338650.75,333375.9375,322520.75,317796.59375,297320.59375,303447.125,272048.90625,0.15625,0.721435546875,-0.69384765625,-11.260985374450684,9.002684593200684,-8.331297874450684,100.0,86257.0,1.0
84394.2219943,315384.8125,336828.03125,331405.5,320814.34375,315306.59375,295471.21875,302238.15625,270835.28125,0.157470703125,0.725341796875,-0.690185546875,-11.474608421325684,8.605956077575684,-8.453368186950684,100.0,86258.0,1.0
84394.2220036,315091.84375,335412.15625,330198.21875,319633.8125,313278.03125,294450.28125,301496.25,270129.875,0.159423828125,0.7275390625,-0.691162109375,-11.932372093200684,8.392333030700684,-8.483885765075684,100.0,86259.0,1.0
84394.22425,315256.15625,336363.1875,331406.28125,320594.125,314459.375,295656.5625,302224.9375,270883.3125,0.155029296875,0.727783203125,-0.689697265625,-12.268065452575684,8.422850608825684,-8.666991233825684,100.0,86260.0,1.0
84394.2243009,315256.15625,336363.1875,331406.28125,320594.125,314459.375,295656.5625,302224.9375,270883.3125,0.155029296875,0.727783203125,-0.689697265625,-12.268065452575684,8.422850608825684,-8.666991233825684,100.0,86261.0,0.0
84394.2243032,315256.15625,336363.1875,331406.28125,320594.125,314459.375,295656.5625,302224.9375,270883.3125,0.155029296875,0.727783203125,-0.689697265625,-12.268065452575684,8.422850608825684,-8.666991233825684,100.0,86262.0,0.0
84394.2243046,315256.15625,336363.1875,331406.28125,320594.125,314459.375,295656.5625,302224.9375,270883.3125,0.155029296875,0.727783203125,-0.689697265625,-12.268065452575684,8.422850608825684,-8.666991233825684,100.0,86263.0,0.0
84394.2243059,315256.15625,336363.1875,331406.28125,320594.125,314459.375,295656.5625,302224.9375,270883.3125,0.155029296875,0.727783203125,-0.689697265625,-12.268065452575684,8.422850608825684,-8.666991233825684,100.0,86264.0,0.0
84394.2243072,315256.15625,336363.1875,331406.28125,320594.125,314459.375,295656.5625,302224.9375,270883.3125,0.155029296875,0.727783203125,-0.689697265625,-12.268065452575684,8.422850608825684,-8.666991233825684,100.0,86265.0,0.0
84394.2243085,315256.15625,336363.1875,331406.28125,320594.125,314459.375,295656.5625,302224.9375,270883.3125,0.155029296875,0.727783203125,-0.689697265625,-12.268065452575684,8.422850608825684,-8.666991233825684,100.0,86266.0,0.0
84394.2243097,315256.15625,336363.1875,331406.28125,320594.125,314459.375,295656.5625,302224.9375,270883.3125,0.155029296875,0.727783203125,-0.689697265625,-12.268065452575684,8.422850608825684,-8.666991233825684,100.0,86267.0,0.0
84394.224311,315256.15625,336363.1875,331406.28125,320594.125,314459.375,295656.5625,302224.9375,270883.3125,0.155029296875,0.727783203125,-0.689697265625,-12.268065452575684,8.422850608825684,-8.666991233825684,100.0,86268.0,0.0
84394.2243123,315256.15625,336363.1875,331406.28125,320594.125,314459.375,295656.5625,302224.9375,270883.3125,0.155029296875,0.727783203125,-0.689697265625,-12.268065452575684,8.422850608825684,-8.666991233825684,100.0,86269.0,0.0
84394.2243136,315256.15625,336363.1875,331406.28125,320594.125,314459.375,295656.5625,302224.9375,270883.3125,0.155029296875,0.727783203125,-0.689697265625,-12.268065452575684,8.422850608825684,-8.666991233825684,100.0,86270.0,0.0
84394.2243149,315256.15625,336363.1875,331406.28125,320594.125,314459.375,295656.5625,302224.9375,270883.3125,0.155029296875,0.727783203125,-0.689697265625,-12.268065452575684,8.422850608825684,-8.666991233825684,100.0,86271.0,0.0
84394.2243162,315256.15625,336363.1875,331406.28125,320594.125,314459.375,295656.5625,302224.9375,270883.3125,0.155029296875,0.727783203125,-0.689697265625,-12.268065452575684,8.422850608825684,-8.666991233825684,100.0,86272.0,0.0
84394.2243176,315256.15625,336363.1875,331406.28125,320594.125,314459.375,295656.5625,302224.9375,270883.3125,0.155029296875,0.727783203125,-0.689697265625,-12.268065452575684,8.422850608825684,-8.666991233825684,100.0,86273.0,0.0
84394.2243189,315256.15625,336363.1875,331406.28125,320594.125,314459.375,295656.5625,302224.9375,270883.3125,0.155029296875,0.727783203125,-0.689697265625,-12.268065452575684,8.422850608825684,-8.666991233825684,100.0,86274.0,0.0
84394.2243201,315256.15625,336363.1875,331406.28125,320594.125,314459.375,295656.5625,302224.9375,270883.3125,0.155029296875,0.727783203125,-0.689697265625,-12.268065452575684,8.422850608825684,-8.666991233825684,100.0,86275.0,0.0
84394.2243214,315256.15625,336363.1875,331406.28125,320594.125,314459.375,295656.5625,302224.9375,270883.3125,0.155029296875,0.727783203125,-0.689697265625,-12.268065452575684,8.422850608825684,-8.666991233825684,100.0,86276.0,0.0
84394.2243227,315256.15625,336363.1875,331406.28125,320594.125,314459.375,295656.5625,302224.9375,270883.3125,0.155029296875,0.727783203125,-0.689697265625,-12.268065452575684,8.422850608825684,-8.666991233825684,100.0,86277.0,0.0
84394.224324,315256.15625,336363.1875,331406.28125,320594.125,314459.375,295656.5625,302224.9375,270883.3125,0.155029296875,0.727783203125,-0.689697265625,-12.268065452575684,8.422850608825684,-8.666991233825684,100.0,86278.0,0.0
84394.2243252,315256.15625,336363.1875,331406.28125,320594.125,314459.375,295656.5625,302224.9375,270883.3125,0.155029296875,0.727783203125,-0.689697265625,-12.268065452575684,8.422850608825684,-8.666991233825684,100.0,86279.0,0.0
84394.2243265,315256.15625,336363.1875,331406.28125,320594.125,314459.375,295656.5625,302224.9375,270883.3125,0.155029296875,0.727783203125,-0.689697265625,-12.268065452575684,8.422850608825684,-8.666991233825684,100.0,86280.0,0.0
84394.2243278,315256.15625,336363.1875,331406.28125,320594.125,314459.375,295656.5625,302224.9375,270883.3125,0.155029296875,0.727783203125,-0.689697265625,-12.268065452575684,8.422850608825684,-8.666991233825684,100.0,86281.0,0.0
84394.2243291,315256.15625,336363.1875,331406.28125,320594.125,314459.375,295656.5625,302224.9375,270883.3125,0.155029296875,0.727783203125,-0.689697265625,-12.268065452575684,8.422850608825684,-8.666991233825684,100.0,86282.0,0.0
84394.2243304,315256.15625,336363.1875,331406.28125,320594.125,314459.375,295656.5625,302224.9375,270883.3125,0.155029296875,0.727783203125,-0.689697265625,-12.268065452575684,8.422850608825684,-8.666991233825684,100.0,86283.0,0.0
