Time,FZ,C3,CZ,C4,PZ,PO7,OZ,PO8,AccX,AccY,AccZ,Gyro1,Gyro2,Gyro3,Battery,Counter,Validation
85426.1491314,316548.8125,346359.25,341719.84375,317867.84375,325762.03125,314146.625,321144.0625,284120.0,0.094970703125,0.894775390625,-0.46142578125,-0.3356933295726776,1.7089842557907104,-0.7629393935203552,100.0,344563.0,1.0
85426.1517186,316649.125,347687.65625,342587.71875,318816.96875,328325.59375,314864.46875,322406.40625,284770.09375,0.091552734375,0.89404296875,-0.4609375,-0.5798339247703552,1.4038084745407104,-1.0986326932907104,100.0,344564.0,1.0
85426.1542395,316736.84375,347126.09375,342097.125,318350.0,327791.21875,314238.625,322046.0,284364.0,0.0908203125,0.8935546875,-0.460693359375,-0.6713866591453552,1.0070799589157104,-1.4953612089157104,100.0,344565.0,1.0
85426.1567195,316660.21875,345446.0625,340926.96875,317131.125,324955.75,313146.96875,320581.78125,283478.53125,0.09375,0.8916015625,-0.46337890625,-0.7629393935203552,0.5798339247703552,-2.105712652206421,100.0,344566.0,1.0
85426.1591761,316534.34375,344942.6875,340670.65625,316812.375,323704.9375,313077.59375,320018.15625,283313.90625,0.098388671875,0.889892578125,-0.4619140625,-0.8239745497703552,-0.1220703050494194,-2.777099370956421,100.0,344567.0,1.0
85426.1615439,316544.78125,346322.6875,341695.875,317854.25,325738.15625,314132.59375,321122.78125,284104.1875,0.103515625,0.890625,-0.461181640625,-0.6103515028953552,-0.7629393935203552,-3.540038824081421,100.0,344568.0,1.0
85426.1640142,316659.59375,347673.90625,342584.125,318823.875,328318.875,314871.8125,322398.34375,284772.15625,0.11083984375,0.890625,-0.460205078125,-0.4577636420726776,-1.3732908964157104,-4.577636241912842,100.0,344569.0,1.0
85426.1640261,316739.96875,347131.1875,342098.75,318363.875,327803.1875,314240.34375,322037.34375,284364.53125,0.118408203125,0.88818359375,-0.458740234375,-0.3051757514476776,-1.7700194120407104,-5.554198741912842,100.0,344570.0,1.0
85426.1667471,316663.25,345467.0625,340936.375,317152.75,324986.4375,313145.625,320571.78125,283480.40625,0.125732421875,0.88427734375,-0.462158203125,-0.1220703050494194,-1.9531248807907104,-6.713866710662842,100.0,344571.0,1.0
85426.1667606,316553.8125,344972.28125,340690.3125,316839.375,323739.8125,313086.09375,320017.8125,283332.5,0.125244140625,0.88134765625,-0.46240234375,0.0,-2.075195074081421,-7.781981945037842,100.0,344572.0,1.0
85426.1742467,316551.5,346312.5,341692.5625,317853.09375,325725.375,314119.0,321100.96875,284107.59375,0.123291015625,0.876953125,-0.46044921875,0.2136230319738388,-2.136230230331421,-8.880614280700684,100.0,344573.0,1.0
85426.17426,316657.71875,347644.75,342571.34375,318809.5625,328278.125,314847.75,322361.0,284764.0,0.123046875,0.876220703125,-0.4619140625,0.4882812201976776,-2.166747808456421,-10.009764671325684,100.0,344574.0,1.0
85426.1904353,316745.96875,347129.3125,342111.625,318371.1875,327795.15625,314240.34375,322020.53125,284374.03125,0.1220703125,0.873046875,-0.4638671875,0.7934569716453552,-2.441406011581421,-11.230467796325684,100.0,344575.0,1.0
85426.1929641,316688.46875,345496.375,340972.9375,317186.03125,325013.4375,313167.1875,320591.625,283511.25,0.121337890625,0.873779296875,-0.4658203125,1.0681151151657104,-2.655029058456421,-12.420653343200684,100.0,344576.0,1.0
85426.2004589,316569.375,344975.3125,340705.34375,316855.5625,323740.90625,313083.5,320023.875,283345.84375,0.12158203125,0.87255859375,-0.467529296875,1.2512205839157104,-2.807616949081421,-13.702391624450684,100.0,344577.0,1.0
85426.2041373,316563.5625,346300.78125,341690.25,317848.09375,325698.71875,314109.875,321088.8125,284104.0,0.121826171875,0.873291015625,-0.46533203125,1.5258787870407104,-3.204345464706421,-14.770506858825684,100.0,344578.0,1.0
85426.2041578,316669.15625,347654.65625,342577.96875,318810.0,328262.125,314854.375,322356.0625,284766.6875,0.122314453125,0.870849609375,-0.462890625,1.7700194120407104,-3.479003667831421,-15.838622093200684,100.0,344579.0,1.0
85426.2041619,316764.28125,347170.09375,342135.75,318394.28125,327816.59375,314259.375,322040.0,284397.34375,0.123046875,0.87060546875,-0.462158203125,2.014159917831421,-3.631591558456421,-16.845701217651367,100.0,344580.0,1.0
85426.2067402,316696.53125,345524.5625,340984.5625,317199.34375,325034.0,313172.53125,320610.40625,283529.375,0.12353515625,0.874755859375,-0.466552734375,2.319335699081421,-3.723144292831421,-17.639158248901367,100.0,344581.0,1.0
85426.2115721,316574.21875,344980.78125,340702.125,316850.125,323731.59375,313072.75,320036.3125,283352.53125,0.12109375,0.876953125,-0.470947265625,2.502441167831421,-3.875732183456421,-18.463132858276367,100.0,344582.0,1.0
85426.211595,316576.4375,346304.71875,341689.78125,317836.71875,325673.34375,314096.375,321097.65625,284111.96875,0.12109375,0.87646484375,-0.4697265625,2.746581792831421,-3.784179449081421,-19.134519577026367,100.0,344583.0,1.0
85426.2164986,316683.375,347665.21875,342585.28125,318802.0625,328247.0,314843.28125,322366.09375,284774.90625,0.12158203125,0.873046875,-0.467041015625,2.929687261581421,-3.723144292831421,-19.714353561401367,100.0,344584.0,1.0
85426.2280189,316779.65625,347196.28125,342155.4375,318404.1875,327831.53125,314260.90625,322067.71875,284416.40625,0.12109375,0.86865234375,-0.46630859375,3.112792730331421,-3.540038824081421,-20.141599655151367,100.0,344585.0,1.0
85426.2280328,316700.625,345541.28125,340994.46875,317214.09375,325056.4375,313172.4375,320638.75,283551.21875,0.12158203125,0.864990234375,-0.465087890625,3.204345464706421,-3.417968511581421,-20.385740280151367,100.0,344586.0,1.0
85426.2280347,316570.53125,344974.34375,340689.5,316846.625,323732.75,313062.65625,320045.625,283361.84375,0.12109375,0.865966796875,-0.46533203125,3.234863042831421,-3.356933355331421,-20.416257858276367,100.0,344587.0,1.0
85426.2355242,316563.5625,346280.46875,341663.59375,317808.375,325642.3125,314073.59375,321081.40625,284098.5625,0.1220703125,0.863525390625,-0.469970703125,3.356933355331421,-3.265380620956421,-20.416257858276367,100.0,344588.0,1.0
85426.2355381,316668.0,347650.1875,342569.125,318776.84375,328218.5,314827.8125,322349.71875,284760.625,0.122802734375,0.863525390625,-0.474365234375,3.601073980331421,-3.326415777206421,-20.416257858276367,100.0,344589.0,1.0
85426.2379348,316777.53125,347205.84375,342164.53125,318408.46875,327846.375,314273.21875,322078.46875,284422.28125,0.122802734375,0.862060546875,-0.482421875,3.936767339706421,-3.265380620956421,-20.233152389526367,100.0,344590.0,1.0
85426.2429402,316719.21875,345565.125,341017.375,317239.5,325096.75,313199.71875,320664.5,283566.40625,0.11669921875,0.8583984375,-0.482666015625,4.180907726287842,-3.112792730331421,-19.989011764526367,100.0,344591.0,1.0
85426.2454527,316584.125,344980.3125,340698.28125,316858.625,323751.90625,313075.34375,320051.6875,283363.4375,0.112060546875,0.85791015625,-0.485595703125,4.455565929412842,-3.021239995956421,-19.592283248901367,100.0,344592.0,1.0
85426.2629962,316569.03125,346270.8125,341659.65625,317803.09375,325633.90625,314073.125,321076.21875,284093.625,0.1044921875,0.85400390625,-0.486083984375,4.760741710662842,-2.777099370956421,-19.256589889526367,100.0,344593.0,1.0
85426.2630154,316672.5625,347648.6875,342570.8125,318770.40625,328212.59375,314831.75,322350.34375,284756.15625,0.10009765625,0.85205078125,-0.484619140625,5.035399913787842,-2.624511480331421,-19.134519577026367,100.0,344594.0,1.0
85426.2654564,316772.875,347208.34375,342163.1875,318407.78125,327852.71875,314277.0,322079.71875,284410.84375,0.097900390625,0.850830078125,-0.4833984375,5.310058116912842,-2.655029058456421,-18.890378952026367,100.0,344595.0,1.0
85426.2677887,316701.71875,345555.84375,341003.78125,317236.96875,325109.1875,313197.84375,320666.1875,283550.84375,0.09912109375,0.851806640625,-0.482177734375,5.767821788787842,-2.777099370956421,-18.768308639526367,100.0,344596.0,1.0
85426.2741034,316563.03125,344956.71875,340672.6875,316842.53125,323752.0625,313065.78125,320051.78125,283339.84375,0.099609375,0.855224609375,-0.4794921875,6.195067882537842,-3.082275152206421,-18.615720748901367,100.0,344597.0,1.0
85426.2767239,316558.5625,346246.5,341639.09375,317782.09375,325617.8125,314065.8125,321066.09375,284067.53125,0.100830078125,0.858642578125,-0.482666015625,6.591796398162842,-3.356933355331421,-18.310544967651367,100.0,344598.0,1.0
85426.2791983,316665.5,347633.65625,342557.75,318753.25,328195.96875,314825.5,322328.875,284728.875,0.10009765625,0.86376953125,-0.482666015625,6.774901866912842,-3.601073980331421,-18.005369186401367,100.0,344599.0,1.0
85426.2817139,316768.75,347211.84375,342164.0,318407.59375,327866.21875,314279.3125,322075.34375,284397.625,0.10009765625,0.87109375,-0.480224609375,7.049560070037842,-3.845214605331421,-17.547605514526367,100.0,344600.0,1.0
85426.2842584,316694.1875,345560.40625,341004.21875,317240.75,325131.96875,313197.03125,320672.0,283542.25,0.096435546875,0.87255859375,-0.482666015625,7.080077648162842,-4.119872570037842,-17.272947311401367,100.0,344601.0,1.0
85426.2881787,316559.1875,344959.21875,340672.53125,316841.53125,323761.8125,313061.0625,320054.5625,283332.15625,0.093505859375,0.874755859375,-0.48046875,7.080077648162842,-4.272460460662842,-16.906736373901367,100.0,344602.0,1.0
85426.295573,316553.03125,346240.0625,341630.875,317761.625,325593.40625,314048.1875,321047.6875,284045.8125,0.092041015625,0.875732421875,-0.481689453125,7.019042491912842,-4.333495616912842,-16.540525436401367,100.0,344603.0,1.0
85426.2956135,316670.6875,347647.34375,342567.15625,318743.3125,328182.71875,314825.0625,322320.40625,284716.4375,0.09130859375,0.879150390625,-0.48291015625,6.835937023162842,-4.455565929412842,-16.143796920776367,100.0,344604.0,1.0
85426.2979874,316777.6875,347242.15625,342186.4375,318417.96875,327883.21875,314296.03125,322085.53125,284401.28125,0.087158203125,0.88134765625,-0.48046875,6.774901866912842,-4.516601085662842,-15.655516624450684,100.0,344605.0,1.0
85426.3004863,316705.625,345582.65625,341020.125,317258.25,325158.96875,313215.90625,320686.5625,283551.46875,0.086181640625,0.8818359375,-0.480224609375,6.561278820037842,-4.852294445037842,-15.258788108825684,100.0,344606.0,1.0
85426.3028959,316564.71875,344952.34375,340671.09375,316848.5,323765.125,313067.9375,320055.1875,283331.53125,0.0859375,0.885498046875,-0.48046875,6.439208507537842,-5.249022960662842,-14.770506858825684,100.0,344607.0,1.0
85426.3055047,316556.5,346227.375,341629.0,317763.9375,325586.78125,314055.78125,321048.03125,284046.0625,0.0830078125,0.89013671875,-0.47900390625,6.286620616912842,-5.706786632537842,-14.434813499450684,100.0,344608.0,1.0
85426.3055397,316664.96875,347626.78125,342562.40625,318741.4375,328160.375,314823.625,322302.59375,284714.65625,0.082275390625,0.890625,-0.478759765625,5.920409679412842,-6.134032726287842,-14.099120140075684,100.0,344609.0,1.0
85426.3103742,316760.96875,347226.3125,342179.65625,318416.25,327867.90625,314292.71875,322059.40625,284394.75,0.087158203125,0.893310546875,-0.476806640625,5.584716320037842,-6.683349132537842,-13.641356468200684,100.0,344610.0,1.0
85426.317923,316690.53125,345581.84375,341020.59375,317263.90625,325163.28125,313216.625,320676.125,283552.28125,0.090087890625,0.8955078125,-0.479736328125,5.187987804412842,-7.202147960662842,-13.366698265075684,100.0,344611.0,1.0
85426.3179633,316552.40625,344937.9375,340661.6875,316841.625,323743.21875,313054.34375,320030.15625,283323.03125,0.0947265625,0.898193359375,-0.48095703125,4.699706554412842,-7.476806163787842,-12.939452171325684,100.0,344612.0,1.0
85426.323026,316549.96875,346199.5625,341611.03125,317743.03125,325531.34375,314028.6875,320998.15625,284024.71875,0.095703125,0.904541015625,-0.48193359375,4.302978038787842,-7.720946788787842,-12.603758811950684,100.0,344613.0,1.0
85426.3256156,316663.875,347609.6875,342552.125,318724.625,328117.0,314801.71875,322267.1875,284696.78125,0.09619140625,0.90625,-0.4814453125,3.814697027206421,-7.720946788787842,-12.145995140075684,100.0,344614.0,1.0
85426.3256551,316759.8125,347211.75,342173.5625,318405.53125,327842.25,314277.875,322039.375,284381.625,0.097900390625,0.907470703125,-0.481201171875,3.387450933456421,-7.659911632537842,-11.840819358825684,100.0,344615.0,1.0
85426.3279237,316692.3125,345567.71875,341014.40625,317259.0625,325143.78125,313214.03125,320660.65625,283542.96875,0.095947265625,0.90625,-0.478271484375,2.960204839706421,-7.751464366912842,-11.444090843200684,100.0,344616.0,1.0
85426.3305809,316557.84375,344929.90625,340661.0,316843.78125,323734.71875,313065.625,320034.0,283328.40625,0.092529296875,0.906494140625,-0.479248046875,2.410888433456421,-7.843017101287842,-11.230467796325684,100.0,344617.0,1.0
85426.3306224,316545.96875,346179.28125,341600.75,317732.125,325499.96875,314030.75,320996.0,284022.125,0.0888671875,0.908203125,-0.478271484375,2.075195074081421,-7.934569835662842,-11.047362327575684,100.0,344618.0,1.0
85426.3344991,316653.0625,347582.875,342542.09375,318709.25,328074.71875,314797.34375,322253.53125,284689.25,0.0888671875,0.907958984375,-0.478759765625,1.5258787870407104,-8.056639671325684,-10.681151390075684,100.0,344619.0,1.0
85426.3805245,316754.71875,347200.65625,342174.5625,318399.8125,327819.625,314278.78125,322032.875,284378.5625,0.0888671875,0.908935546875,-0.47509765625,0.7629393935203552,-8.117674827575684,-10.589598655700684,100.0,344620.0,1.0
85426.3828595,316704.46875,345577.5625,341032.375,317273.28125,325151.1875,313223.5,320678.875,283555.6875,0.086669921875,0.906982421875,-0.474609375,0.2136230319738388,-8.331297874450684,-10.375975608825684,100.0,344621.0,1.0
85426.3852996,316570.8125,344922.21875,340662.3125,316841.0,323717.28125,313052.125,320032.65625,283318.03125,0.082275390625,0.9033203125,-0.47216796875,-0.4272460639476776,-8.483885765075684,-10.223387718200684,100.0,344622.0,1.0
85426.3877652,316565.09375,346161.5625,341597.78125,317720.125,325463.21875,314006.96875,320979.65625,284001.375,0.080810546875,0.90234375,-0.4716796875,-1.0070799589157104,-8.636473655700684,-10.253905296325684,100.0,344623.0,1.0
85426.3902969,316668.625,347574.28125,342545.3125,318699.78125,328040.125,314784.90625,322237.25,284674.15625,0.077880859375,0.903076171875,-0.46826171875,-1.3122557401657104,-8.880614280700684,-10.162352561950684,100.0,344624.0,1.0
85426.3903037,316753.8125,347198.78125,342179.21875,318398.125,327792.90625,314279.3125,322019.71875,284373.21875,0.078125,0.908447265625,-0.46875,-1.8005369901657104,-9.063719749450684,-9.918211936950684,100.0,344625.0,1.0
85426.3953116,316689.90625,345576.75,341029.0,317269.25,325126.25,313225.65625,320663.15625,283548.25,0.073974609375,0.911865234375,-0.464599609375,-2.288818120956421,-9.307860374450684,-9.918211936950684,100.0,344626.0,1.0
85426.3953195,316559.71875,344924.28125,340660.53125,316840.09375,323684.9375,313057.65625,320016.1875,283322.21875,0.07470703125,0.913330078125,-0.46337890625,-2.746581792831421,-9.613036155700684,-9.796141624450684,100.0,344627.0,1.0
85426.4040003,316551.21875,346147.71875,341590.1875,317714.0625,325414.5,314002.0625,320954.78125,284001.625,0.07421875,0.913330078125,-0.45947265625,-3.265380620956421,-9.735106468200684,-9.796141624450684,100.0,344628.0,1.0
85426.4065121,316662.8125,347565.625,342544.53125,318704.96875,328006.78125,314779.09375,322216.5,284672.1875,0.07177734375,0.90966796875,-0.45703125,-3.662109136581421,-9.979247093200684,-9.582518577575684,100.0,344629.0,1.0
85426.4089684,316767.6875,347222.21875,342200.5625,318427.53125,327810.53125,314294.40625,322030.8125,284390.90625,0.072998046875,0.906494140625,-0.46044921875,-4.241942882537842,-10.101317405700684,-9.490965843200684,100.0,344630.0,1.0
85426.4114894,316704.9375,345600.46875,341045.4375,317290.71875,325150.5,313237.28125,320676.5625,283557.1875,0.07421875,0.90478515625,-0.4609375,-4.547118663787842,-10.284422874450684,-9.429930686950684,100.0,344631.0,1.0
85426.4164927,316563.03125,344926.59375,340654.09375,316838.75,323690.1875,313054.53125,320016.90625,283311.59375,0.072265625,0.90283203125,-0.464111328125,-4.882812023162842,-10.375975608825684,-9.368895530700684,100.0,344632.0,1.0
85426.4214945,316544.53125,346138.15625,341575.25,317702.15625,325399.46875,313999.375,320944.78125,283992.4375,0.070068359375,0.90185546875,-0.461181640625,-4.943847179412842,-10.528563499450684,-9.368895530700684,100.0,344633.0,1.0
85426.4267214,316649.3125,347561.875,342537.71875,318697.1875,327995.25,314791.34375,322213.03125,284675.3125,0.0654296875,0.901611328125,-0.458740234375,-5.096435070037842,-10.681151390075684,-9.338377952575684,100.0,344634.0,1.0
85426.4291878,316746.3125,347230.875,342201.125,318425.5625,327818.5625,314312.3125,322032.9375,284398.25,0.06298828125,0.901123046875,-0.46142578125,-5.218505382537842,-10.772704124450684,-9.399413108825684,100.0,344635.0,1.0
85426.4315107,316685.625,345620.40625,341052.9375,317295.625,325174.1875,313259.625,320685.0625,283575.625,0.05908203125,0.90283203125,-0.4619140625,-5.401610851287842,-10.864256858825684,-9.490965843200684,100.0,344636.0,1.0
85426.4365295,316549.1875,344924.71875,340650.78125,316838.9375,323695.21875,313063.90625,320013.34375,283326.625,0.059814453125,0.901123046875,-0.461669921875,-5.554198741912842,-10.711668968200684,-9.552000999450684,100.0,344637.0,1.0
85426.4365429,316532.8125,346093.53125,341543.25,317684.90625,325361.9375,313983.8125,320913.3125,283988.5,0.06103515625,0.899169921875,-0.4638671875,-5.584716320037842,-10.803221702575684,-9.613036155700684,100.0,344638.0,1.0
85426.4392246,316640.71875,347506.25,342500.34375,318678.75,327942.5,314765.59375,322171.8125,284669.0625,0.061767578125,0.89697265625,-0.46240234375,-5.462646007537842,-10.894774436950684,-9.674071311950684,100.0,344639.0,1.0
85426.4392381,316737.28125,347187.96875,342171.25,318411.78125,327776.46875,314282.34375,322002.5625,284392.15625,0.06689453125,0.89794921875,-0.465576171875,-5.340575695037842,-10.986327171325684,-9.613036155700684,100.0,344640.0,1.0
85426.4416942,316669.875,345580.0625,341017.8125,317276.84375,325131.71875,313218.21875,320650.375,283557.46875,0.069091796875,0.897705078125,-0.46533203125,-5.187987804412842,-11.138915061950684,-9.490965843200684,100.0,344641.0,1.0
85426.444185,316541.125,344899.0625,340625.21875,316828.3125,323658.8125,313032.34375,319986.59375,283316.34375,0.07080078125,0.8974609375,-0.46728515625,-5.065917491912842,-11.108397483825684,-9.216307640075684,100.0,344642.0,1.0
85426.4467317,316541.21875,346100.78125,341545.21875,317696.34375,325351.5625,313981.9375,320915.28125,284007.625,0.070556640625,0.896484375,-0.4697265625,-4.974364757537842,-10.894774436950684,-9.002684593200684,100.0,344643.0,1.0
85426.4492196,316647.875,347523.0625,342506.53125,318692.625,327949.09375,314771.9375,322186.28125,284694.90625,0.070068359375,0.894775390625,-0.469970703125,-4.730224132537842,-10.620116233825684,-8.636473655700684,100.0,344644.0,1.0
85426.4492366,316747.84375,347219.25,342183.3125,318429.84375,327803.90625,314298.71875,322023.75,284421.40625,0.06982421875,0.892822265625,-0.468994140625,-4.699706554412842,-10.314940452575684,-8.392333030700684,100.0,344645.0,1.0
85426.4517137,316685.78125,345607.15625,341029.4375,317293.125,325153.34375,313231.625,320670.5625,283587.25,0.068115234375,0.891357421875,-0.469482421875,-4.486083507537842,-9.918211936950684,-8.026122093200684,100.0,344646.0,1.0
85426.4541622,316552.46875,344878.125,340610.125,316821.34375,323628.40625,313020.46875,319978.8125,283325.0,0.068115234375,0.886962890625,-0.46923828125,-4.089354991912842,-9.338377952575684,-7.781981945037842,100.0,344647.0,1.0
85426.4603794,316543.28125,346028.625,341500.59375,317664.78125,325265.1875,313942.875,320871.90625,283989.375,0.068603515625,0.884521484375,-0.468505859375,-3.723144292831421,-8.972167015075684,-7.537841320037842,100.0,344648.0,1.0
85426.4604027,316674.625,347472.90625,342491.15625,318688.9375,327884.71875,314761.65625,322161.59375,284698.125,0.06640625,0.881591796875,-0.468505859375,-3.326415777206421,-8.789061546325684,-7.263183116912842,100.0,344649.0,1.0
85426.4704365,316777.96875,347202.09375,342194.125,318443.4375,327773.78125,314309.1875,322018.375,284432.9375,0.065673828125,0.881591796875,-0.46875,-2.899169683456421,-8.453368186950684,-7.049560070037842,100.0,344650.0,1.0
85426.4728612,316714.125,345628.4375,341058.65625,317319.9375,325164.625,313257.03125,320688.1875,283608.6875,0.06396484375,0.87939453125,-0.46728515625,-2.441406011581421,-8.239745140075684,-6.805419445037842,100.0,344651.0,1.0
85426.4780204,316567.59375,344915.40625,340639.875,316844.84375,323659.4375,313046.84375,320003.6875,283352.625,0.05908203125,0.874267578125,-0.468017578125,-2.136230230331421,-8.178709983825684,-6.500243663787842,100.0,344652.0,1.0
85426.478046,316538.8125,346051.15625,341514.46875,317672.9375,325284.5,313958.4375,320886.21875,284007.96875,0.0546875,0.87109375,-0.469970703125,-1.4648436307907104,-8.026122093200684,-6.408690929412842,100.0,344653.0,1.0
85426.4804359,316640.28125,347471.65625,342483.8125,318678.125,327888.65625,314758.875,322154.8125,284694.28125,0.05126953125,0.869873046875,-0.470703125,-0.8239745497703552,-7.934569835662842,-6.225585460662842,100.0,344654.0,1.0
85426.4854961,316749.625,347217.75,342204.25,318450.0625,327809.71875,314318.65625,322025.875,284441.15625,0.052001953125,0.867919921875,-0.472900390625,-0.2441406100988388,-7.873534679412842,-6.134032726287842,100.0,344655.0,1.0
85426.4879144,316702.40625,345668.40625,341083.53125,317340.15625,325226.9375,313278.9375,320706.25,283621.84375,0.051025390625,0.86328125,-0.47412109375,0.5187987685203552,-7.843017101287842,-6.164550304412842,100.0,344656.0,1.0
85426.4904756,316569.125,344954.5,340662.875,316867.1875,323722.65625,313070.625,320026.75,283363.8125,0.051513671875,0.863525390625,-0.474609375,1.1901854276657104,-7.751464366912842,-6.164550304412842,100.0,344657.0,1.0
85426.4929078,316547.21875,346079.0625,341532.25,317693.3125,325340.21875,313977.75,320913.03125,284018.96875,0.05126953125,0.864990234375,-0.47705078125,1.8615721464157104,-7.751464366912842,-6.134032726287842,100.0,344658.0,1.0
85426.4955963,316650.28125,347503.84375,342503.9375,318697.90625,327947.65625,314776.25,322182.625,284705.28125,0.0537109375,0.866455078125,-0.48095703125,2.502441167831421,-7.751464366912842,-5.981444835662842,100.0,344659.0,1.0
85426.4956363,316764.03125,347271.90625,342238.5625,318482.78125,327900.03125,314349.84375,322072.375,284462.25,0.058837890625,0.866455078125,-0.4814453125,3.173827886581421,-7.720946788787842,-5.981444835662842,100.0,344660.0,1.0
85426.4978947,316704.75,345717.65625,341114.90625,317370.65625,325319.90625,313304.78125,320765.78125,283645.71875,0.064697265625,0.8681640625,-0.48388671875,3.662109136581421,-7.659911632537842,-6.011962413787842,100.0,344661.0,1.0
85426.5003585,316552.65625,344974.15625,340673.59375,316877.75,323781.75,313071.34375,320074.40625,283377.03125,0.0712890625,0.86767578125,-0.482421875,4.241942882537842,-7.324218273162842,-5.889892101287842,100.0,344662.0,1.0
85426.5026321,316531.03125,346084.0625,341536.71875,317698.21875,325373.09375,313968.53125,320954.4375,284028.5625,0.075439453125,0.870849609375,-0.48291015625,4.821776866912842,-6.866454601287842,-5.828856945037842,100.0,344663.0,1.0
85426.5026723,316648.59375,347520.8125,342525.03125,318718.90625,327995.40625,314779.90625,322241.90625,284726.90625,0.082763671875,0.869384765625,-0.48779296875,5.218505382537842,-6.286620616912842,-5.706786632537842,100.0,344664.0,1.0
85426.5093115,316772.25,347309.75,342269.40625,318510.5,327972.875,314365.3125,322145.78125,284490.875,0.089111328125,0.870361328125,-0.486572265625,5.645751476287842,-5.676269054412842,-5.676269054412842,100.0,344665.0,1.0
85426.5342774,316725.40625,345763.96875,341145.84375,317396.125,325406.0,313325.4375,320835.71875,283672.71875,0.094482421875,0.870361328125,-0.4853515625,5.981444835662842,-4.943847179412842,-5.615233898162842,100.0,344666.0,1.0
85426.5343158,316583.6875,345015.46875,340699.25,316900.1875,323858.90625,313094.3125,320130.375,283398.125,0.09716796875,0.870849609375,-0.485107421875,6.225585460662842,-4.119872570037842,-5.493163585662842,100.0,344667.0,1.0
85426.5492822,316554.625,346113.1875,341553.71875,317712.0,325435.34375,313986.25,320989.21875,284039.1875,0.102783203125,0.870361328125,-0.486083984375,6.469726085662842,-3.265380620956421,-5.310058116912842,100.0,344668.0,1.0
85426.5493221,316656.65625,347549.875,342541.46875,318732.84375,328063.46875,314798.40625,322275.59375,284738.0,0.106201171875,0.87060546875,-0.487548828125,6.713866710662842,-2.532958745956421,-5.249022960662842,100.0,344669.0,1.0
85426.5493309,316761.875,347339.6875,342283.1875,318526.3125,328054.4375,314381.6875,322188.0625,284505.28125,0.109130859375,0.87060546875,-0.48779296875,7.049560070037842,-1.5869139432907104,-5.249022960662842,100.0,344670.0,1.0
85426.54934,316711.625,345784.0,341154.78125,317408.09375,325479.0625,313334.28125,320876.75,283686.375,0.11083984375,0.871337890625,-0.48876953125,7.354735851287842,-0.7019042372703552,-5.157470226287842,100.0,344671.0,1.0
85426.5568714,316571.875,345025.9375,340701.21875,316901.78125,323913.28125,313095.125,320163.4375,283403.6875,0.112060546875,0.8720703125,-0.49169921875,7.415771007537842,0.3051757514476776,-5.218505382537842,100.0,344672.0,1.0
85426.5569076,316552.65625,346119.5625,341556.65625,317708.6875,325477.90625,313983.1875,321017.375,284040.25,0.110107421875,0.87109375,-0.4912109375,7.537841320037842,1.2817381620407104,-5.340575695037842,100.0,344673.0,1.0
85426.5569174,316665.5,347562.9375,342548.90625,318732.59375,328110.03125,314797.78125,322303.9375,284739.4375,0.107666015625,0.868896484375,-0.4921875,7.598876476287842,2.319335699081421,-5.432128429412842,100.0,344674.0,1.0
85426.5642896,316774.5625,347354.0,342293.46875,318531.6875,328110.03125,314383.8125,322214.8125,284508.75,0.102783203125,0.871337890625,-0.4931640625,7.629394054412842,3.326415777206421,-5.706786632537842,100.0,344675.0,1.0
85426.5730659,316723.15625,345800.625,341164.71875,317417.75,325546.1875,313344.125,320911.0625,283697.125,0.09814453125,0.873291015625,-0.4931640625,7.659911632537842,4.211425304412842,-5.920409679412842,100.0,344676.0,1.0
85426.5779817,316574.75,345018.875,340694.96875,316897.78125,323956.28125,313094.65625,320186.6875,283403.875,0.0908203125,0.87744140625,-0.4921875,7.537841320037842,4.974364757537842,-6.347655773162842,100.0,344677.0,1.0
85426.5804643,316557.03125,346123.75,341557.125,317710.84375,325517.15625,313988.28125,321054.84375,284048.84375,0.086181640625,0.880615234375,-0.491455078125,7.385253429412842,5.645751476287842,-6.683349132537842,100.0,344678.0,1.0
85426.5828235,316671.5625,347588.34375,342564.8125,318750.03125,328177.625,314811.0,322365.1875,284760.34375,0.07958984375,0.883544921875,-0.490478515625,7.171630382537842,6.011962413787842,-7.202147960662842,100.0,344679.0,1.0
85426.5853307,316776.90625,347374.1875,342309.03125,318546.78125,328184.875,314395.625,322270.6875,284526.46875,0.074951171875,0.8857421875,-0.490478515625,6.927489757537842,6.286620616912842,-7.629394054412842,100.0,344680.0,1.0
85426.5879517,316717.875,345780.25,341154.15625,317409.4375,325568.46875,313327.75,320912.5,283687.375,0.07080078125,0.890869140625,-0.4921875,6.622313976287842,6.439208507537842,-8.209227561950684,100.0,344681.0,1.0
85426.5904768,316583.59375,345005.375,340690.75,316894.09375,323960.3125,313079.375,320177.21875,283403.59375,0.065185546875,0.8974609375,-0.487548828125,6.011962413787842,6.530761241912842,-8.666991233825684,100.0,344682.0,1.0
85426.5928437,316567.9375,346112.3125,341550.75,317700.8125,325503.46875,313972.65625,321031.5,284046.53125,0.062255859375,0.902587890625,-0.48583984375,5.523681163787842,6.469726085662842,-9.124754905700684,100.0,344683.0,1.0
85426.5954366,316677.125,347591.625,342564.28125,318742.6875,328166.625,314804.03125,322341.40625,284762.03125,0.05908203125,0.906005859375,-0.486572265625,4.821776866912842,6.500243663787842,-9.521483421325684,100.0,344684.0,1.0
85426.5980173,316782.34375,347409.25,342325.84375,318560.46875,328224.125,314406.71875,322288.125,284550.9375,0.05615234375,0.90869140625,-0.484375,4.211425304412842,6.469726085662842,-9.979247093200684,100.0,344685.0,1.0
85426.6005024,316718.25,345824.34375,341171.9375,317425.53125,325648.46875,313340.4375,320973.375,283719.5625,0.051025390625,0.91015625,-0.481689453125,3.417968511581421,6.408690929412842,-10.406493186950684,100.0,344686.0,1.0
85426.6005536,316577.0625,345027.8125,340694.78125,316895.4375,324025.75,313077.6875,320238.90625,283423.53125,0.04296875,0.9140625,-0.48193359375,2.655029058456421,6.378173351287842,-10.864256858825684,100.0,344687.0,1.0
85426.6055248,316561.59375,346120.53125,341553.09375,317696.4375,325544.9375,313963.53125,321084.4375,284062.6875,0.040283203125,0.916259765625,-0.481201171875,1.7700194120407104,6.103515148162842,-11.291502952575684,100.0,344688.0,1.0
85426.6143101,316670.84375,347584.65625,342565.4375,318733.125,328181.5625,314792.96875,322361.0625,284765.25,0.039306640625,0.919677734375,-0.480224609375,0.8544921278953552,5.706786632537842,-11.657713890075684,100.0,344689.0,1.0
85426.6143464,316779.5,347411.65625,342338.53125,318566.28125,328255.3125,314415.5625,322308.5,284563.375,0.03759765625,0.920654296875,-0.481689453125,-0.1525878757238388,5.340575695037842,-11.993407249450684,100.0,344690.0,1.0
85426.6167132,316716.625,345833.0,341186.0625,317439.84375,325698.1875,313354.03125,321010.59375,283736.375,0.0380859375,0.91943359375,-0.4833984375,-1.1291502714157104,5.065917491912842,-12.268065452575684,100.0,344691.0,1.0
85426.6193014,316572.25,345012.25,340687.09375,316889.625,324035.40625,313066.6875,320244.28125,283420.5,0.038330078125,0.917236328125,-0.48486328125,-2.075195074081421,4.760741710662842,-12.573241233825684,100.0,344692.0,1.0
85426.6215778,316552.125,346102.5625,341536.5625,317674.8125,325529.03125,313951.625,321068.34375,284051.78125,0.038330078125,0.91650390625,-0.487060546875,-2.899169683456421,4.425048351287842,-12.969969749450684,100.0,344693.0,1.0
85426.6241183,316661.375,347599.0625,342564.0,318726.6875,328193.90625,314795.46875,322374.5625,284775.09375,0.0380859375,0.914306640625,-0.486572265625,-3.540038824081421,4.333495616912842,-13.366698265075684,100.0,344694.0,1.0
85426.6279645,316766.53125,347427.75,342336.46875,318562.96875,328283.75,314414.0625,322330.21875,284577.15625,0.0380859375,0.91015625,-0.485107421875,-4.241942882537842,4.272460460662842,-13.824461936950684,100.0,344695.0,1.0
85426.6280055,316711.4375,345837.65625,341185.0,317437.6875,325717.78125,313351.71875,321019.875,283755.21875,0.040283203125,0.904296875,-0.486083984375,-4.760741710662842,4.333495616912842,-14.221190452575684,100.0,344696.0,1.0
85426.6630197,316573.21875,345003.9375,340680.3125,316881.84375,324033.34375,313061.125,320243.21875,283439.1875,0.044189453125,0.900146484375,-0.488037109375,-5.157470226287842,4.516601085662842,-14.526366233825684,100.0,344697.0,1.0
85426.6630567,316557.65625,346092.71875,341527.34375,317665.6875,325503.03125,313943.125,321055.65625,284067.34375,0.044921875,0.89404296875,-0.488525390625,-5.584716320037842,4.943847179412842,-14.770506858825684,100.0,344698.0,1.0
85426.6655091,316672.65625,347615.15625,342572.5,318733.9375,328195.25,314812.4375,322382.71875,284803.625,0.0400390625,0.88623046875,-0.492919921875,-5.859374523162842,5.493163585662842,-15.014647483825684,100.0,344699.0,1.0
85426.6655403,316770.46875,347443.40625,342345.15625,318574.875,328300.46875,314422.71875,322341.21875,284602.90625,0.02734375,0.881103515625,-0.493896484375,-5.767821788787842,5.981444835662842,-15.472411155700684,100.0,344700.0,1.0
85426.6680189,316707.78125,345827.1875,341179.0,317441.46875,325715.8125,313339.09375,321010.6875,283767.5625,0.012939453125,0.8759765625,-0.4912109375,-5.828856945037842,6.469726085662842,-15.960692405700684,100.0,344701.0,1.0
85426.6704853,316561.59375,344982.75,340667.25,316874.875,324013.0625,313043.96875,320229.625,283445.71875,-0.00341796875,0.869873046875,-0.488525390625,-5.828856945037842,6.805419445037842,-16.387937545776367,100.0,344702.0,1.0
85426.6730431,316543.8125,346080.84375,341511.4375,317651.125,325483.625,313929.625,321051.8125,284068.25,-0.015380859375,0.86376953125,-0.487060546875,-5.798339366912842,7.202147960662842,-16.967771530151367,100.0,344703.0,1.0
85426.6753567,316649.03125,347608.09375,342553.1875,318713.71875,328186.46875,314794.21875,322386.90625,284798.15625,-0.023681640625,0.85693359375,-0.488037109375,-5.676269054412842,7.263183116912842,-17.456052780151367,100.0,344704.0,1.0
85426.6805106,316752.5,347441.625,342338.53125,318568.0625,328314.40625,314414.3125,322364.75,284603.53125,-0.02880859375,0.85302734375,-0.4892578125,-5.462646007537842,7.202147960662842,-18.157957077026367,100.0,344705.0,1.0
85426.6828227,316689.90625,345810.1875,341164.96875,317432.25,325724.75,313329.71875,321033.5625,283760.3125,-0.030517578125,0.85107421875,-0.495361328125,-5.249022960662842,6.896972179412842,-18.676755905151367,100.0,344706.0,1.0
85426.6856607,316545.96875,344946.625,340638.8125,316853.875,323991.78125,313028.59375,320237.3125,283422.90625,-0.03076171875,0.846435546875,-0.50048828125,-4.974364757537842,6.713866710662842,-19.134519577026367,100.0,344707.0,1.0
85426.6857018,316527.375,346045.78125,341481.75,317624.375,325440.25,313919.0,321048.125,284042.40625,-0.03076171875,0.847412109375,-0.505126953125,-4.852294445037842,6.408690929412842,-19.409177780151367,100.0,344708.0,1.0
85426.6904047,316638.40625,347601.90625,342541.9375,318699.78125,328160.46875,314805.90625,322389.78125,284781.625,-0.03076171875,0.84765625,-0.50927734375,-4.608153820037842,6.164550304412842,-19.592283248901367,100.0,344709.0,1.0
85426.6929878,316749.96875,347463.0625,342344.34375,318572.375,328329.34375,314446.15625,322382.71875,284598.6875,-0.029052734375,0.852294921875,-0.514892578125,-4.302978038787842,6.103515148162842,-19.714353561401367,100.0,344710.0,1.0
85426.698346,316690.15625,345820.65625,341168.90625,317441.8125,325741.28125,313346.96875,321046.78125,283758.28125,-0.031005859375,0.85693359375,-0.514404296875,-3.997802495956421,6.317138195037842,-19.744871139526367,100.0,344711.0,1.0
85426.7020707,316542.65625,344940.0,340630.15625,316852.0,323980.15625,313027.25,320232.125,283414.9375,-0.03076171875,0.863525390625,-0.510009765625,-3.601073980331421,6.622313976287842,-19.958494186401367,100.0,344712.0,1.0
85426.745178,316525.65625,346049.375,341473.96875,317612.3125,325414.78125,313917.40625,321040.1875,284025.78125,-0.03076171875,0.8740234375,-0.511962890625,-3.234863042831421,7.049560070037842,-20.202634811401367,100.0,344713.0,1.0
85426.7452197,316641.1875,347635.625,342552.21875,318699.15625,328158.5,314818.78125,322399.96875,284776.96875,-0.02880859375,0.885009765625,-0.50634765625,-3.021239995956421,7.507323741912842,-20.111082077026367,100.0,344714.0,1.0
85426.751764,316740.15625,347485.96875,342349.09375,318571.28125,328339.53125,314451.5,322393.625,284591.625,-0.02978515625,0.893798828125,-0.501220703125,-2.990722417831421,8.087157249450684,-20.050046920776367,100.0,344715.0,1.0
85426.7593636,316679.0,345817.8125,341161.9375,317436.71875,325746.125,313344.125,321048.03125,283742.34375,-0.033447265625,0.899658203125,-0.498291015625,-3.173827886581421,8.636473655700684,-19.744871139526367,100.0,344716.0,1.0
85426.7617977,316538.0,344919.09375,340615.46875,316838.125,323961.09375,313019.5625,320220.40625,283390.8125,-0.037109375,0.899658203125,-0.494873046875,-3.387450933456421,8.972167015075684,-19.409177780151367,100.0,344717.0,1.0
85426.7679813,316528.78125,346037.75,341465.375,317597.21875,325386.875,313914.53125,321028.71875,284006.8125,-0.043212890625,0.8974609375,-0.49169921875,-3.631591558456421,9.307860374450684,-18.981931686401367,100.0,344718.0,1.0
85426.7705205,316647.96875,347647.0625,342556.5,318687.625,328144.71875,314827.03125,322401.40625,284761.96875,-0.04833984375,0.896484375,-0.492431640625,-3.845214605331421,9.490965843200684,-18.615720748901367,100.0,344719.0,1.0
85426.7780204,316748.375,347496.59375,342359.28125,318569.25,328343.75,314461.53125,322407.84375,284580.53125,-0.05615234375,0.89013671875,-0.488037109375,-4.028319835662842,9.704588890075684,-18.310544967651367,100.0,344720.0,1.0
85426.7804878,316683.46875,345801.875,341164.25,317433.84375,325743.0,313345.09375,321060.28125,283732.15625,-0.0625,0.88623046875,-0.484619140625,-4.058837413787842,9.613036155700684,-18.096921920776367,100.0,344721.0,1.0
85426.7854489,316543.90625,344888.59375,340611.0,316831.4375,323936.0625,313015.09375,320224.15625,283382.5,-0.067138671875,0.884521484375,-0.480712890625,-3.997802495956421,9.552000999450684,-17.791746139526367,100.0,344722.0,1.0
85426.7878627,316526.46875,346006.625,341451.78125,317576.28125,325338.25,313905.15625,321018.1875,283992.34375,-0.0693359375,0.880126953125,-0.477294921875,-3.997802495956421,9.399413108825684,-17.486570358276367,100.0,344723.0,1.0
85426.7904096,316639.75,347629.46875,342546.21875,318670.09375,328101.625,314818.15625,322389.875,284747.8125,-0.072998046875,0.876708984375,-0.47412109375,-3.936767339706421,9.246825218200684,-17.303464889526367,100.0,344724.0,1.0
85426.7954163,316742.75,347491.5,342358.375,318568.78125,328328.1875,314463.3125,322407.75,284579.5625,-0.073486328125,0.870849609375,-0.473388671875,-3.906249761581421,9.094237327575684,-17.028806686401367,100.0,344725.0,1.0
85426.7978661,316685.15625,345786.96875,341161.5,317441.71875,325728.78125,313346.625,321058.15625,283736.28125,-0.071533203125,0.86572265625,-0.469970703125,-3.906249761581421,8.819579124450684,-16.662595748901367,100.0,344726.0,1.0
85426.8028778,316536.75,344848.71875,340588.375,316821.59375,323888.0625,312996.78125,320199.75,283367.46875,-0.069091796875,0.86181640625,-0.46923828125,-3.906249761581421,8.697508811950684,-16.357419967651367,100.0,344727.0,1.0
85426.8054726,316520.84375,345972.03125,341429.0,317558.59375,325273.6875,313886.71875,320987.875,283972.65625,-0.066650390625,0.857177734375,-0.468505859375,-3.906249761581421,8.544920921325684,-15.808104515075684,100.0,344728.0,1.0
85426.8079611,316639.75,347618.90625,342540.5,318660.0,328055.0625,314816.125,322371.34375,284736.03125,-0.064453125,0.854248046875,-0.4697265625,-3.814697027206421,8.392333030700684,-15.289305686950684,100.0,344729.0,1.0
85426.8079987,316748.09375,347494.90625,342366.5,318574.4375,328313.0625,314470.65625,322407.375,284578.03125,-0.062744140625,0.848876953125,-0.470947265625,-3.570556402206421,8.361815452575684,-14.862059593200684,100.0,344730.0,1.0
85426.8104295,316688.125,345773.46875,341164.15625,317449.0625,325715.53125,313344.75,321056.09375,283737.625,-0.0595703125,0.845458984375,-0.4716796875,-3.143310308456421,8.483885765075684,-14.343260765075684,100.0,344731.0,1.0
85426.8191314,316537.90625,344819.65625,340576.84375,316816.6875,323852.28125,312985.5,320185.34375,283365.25,-0.060546875,0.84423828125,-0.47314453125,-2.929687261581421,8.544920921325684,-13.885497093200684,100.0,344732.0,1.0
85426.8217544,316520.46875,345952.0,341416.125,317545.09375,325222.625,313880.03125,320966.9375,283965.875,-0.05712890625,0.841552734375,-0.4755859375,-2.532958745956421,8.666991233825684,-13.458250999450684,100.0,344733.0,1.0
85426.8243195,316637.25,347626.5,342538.1875,318652.125,328021.0,314822.375,322359.09375,284732.71875,-0.054931640625,0.84130859375,-0.47607421875,-2.075195074081421,8.789061546325684,-13.000487327575684,100.0,344734.0,1.0
85426.8243574,316739.875,347510.90625,342370.0,318578.1875,328308.96875,314478.34375,322409.28125,284582.96875,-0.057861328125,0.840087890625,-0.476806640625,-1.7089842557907104,9.033202171325684,-12.634276390075684,100.0,344735.0,1.0
85426.8266145,316679.8125,345785.34375,341166.5,317459.15625,325728.9375,313347.40625,321069.9375,283743.59375,-0.057373046875,0.84326171875,-0.47705078125,-1.2207030057907104,9.094237327575684,-12.298583030700684,100.0,344736.0,1.0
85426.8292598,316533.34375,344819.03125,340575.78125,316824.46875,323854.09375,312981.84375,320195.28125,283367.21875,-0.057861328125,0.8427734375,-0.477294921875,-0.8239745497703552,9.307860374450684,-11.962889671325684,100.0,344737.0,1.0
85426.8319415,316520.9375,345955.9375,341417.90625,317549.1875,325218.25,313880.8125,320981.15625,283971.875,-0.0546875,0.846435546875,-0.478271484375,-0.5493163466453552,9.460448265075684,-11.627196311950684,100.0,344738.0,1.0
85426.8319807,316626.96875,347602.09375,342520.03125,318629.21875,327968.78125,314802.25,322318.53125,284711.53125,-0.05078125,0.84814453125,-0.483154296875,-0.03051757626235485,9.735106468200684,-11.291502952575684,100.0,344739.0,1.0
85426.8392529,316724.5,347471.125,342344.4375,318551.96875,328233.59375,314445.15625,322324.0625,284540.65625,-0.048828125,0.849365234375,-0.4853515625,0.4882812201976776,10.101317405700684,-11.047362327575684,100.0,344740.0,1.0
85426.8392932,316669.34375,345749.40625,341144.6875,317445.75,325667.96875,313318.28125,320990.375,283708.84375,-0.049072265625,0.851806640625,-0.4873046875,0.9460448622703552,10.192870140075684,-10.894774436950684,100.0,344741.0,1.0
85426.846793,316523.78125,344777.8125,340550.65625,316806.5,323784.0625,312951.4375,320113.46875,283341.28125,-0.0478515625,0.85400390625,-0.48291015625,1.4648436307907104,10.620116233825684,-10.742186546325684,100.0,344742.0,1.0
85426.8491482,316507.78125,345916.34375,341385.375,317518.71875,325129.90625,313842.5625,320887.125,283935.46875,-0.049072265625,0.858642578125,-0.484619140625,1.7089842557907104,11.016844749450684,-10.528563499450684,100.0,344743.0,1.0
85426.8643068,316628.46875,347631.59375,342527.0,318633.15625,327962.34375,314799.5625,322303.9375,284708.40625,-0.045166015625,0.8642578125,-0.48583984375,1.8920897245407104,11.535643577575684,-10.284422874450684,100.0,344744.0,1.0
85426.8643486,316734.4375,347522.4375,342371.15625,318575.5,328287.96875,314466.53125,322361.0625,284565.09375,-0.04541015625,0.864990234375,-0.486572265625,1.9836424589157104,11.993407249450684,-10.070799827575684,100.0,344745.0,1.0
85426.8718197,316669.53125,345764.78125,341154.0625,317457.09375,325705.4375,313326.15625,321006.84375,283719.125,-0.04296875,0.86767578125,-0.488037109375,2.136230230331421,12.573241233825684,-10.070799827575684,100.0,344746.0,1.0
85426.8805179,316521.8125,344767.4375,340542.0625,316801.9375,323787.84375,312939.90625,320107.03125,283326.25,-0.039306640625,0.8720703125,-0.492431640625,2.380370855331421,13.000487327575684,-10.009764671325684,100.0,344747.0,1.0
85426.8880475,316511.34375,345904.53125,341380.34375,317507.875,325113.8125,313829.5,320868.34375,283915.0,-0.037109375,0.873779296875,-0.49462890625,2.685546636581421,13.458250999450684,-9.887694358825684,100.0,344748.0,1.0
85426.8880873,316637.0625,347642.59375,342538.96875,318632.71875,327957.6875,314808.59375,322293.40625,284709.46875,-0.03515625,0.8740234375,-0.495849609375,2.838134527206421,13.977049827575684,-9.765624046325684,100.0,344749.0,1.0
85426.8906315,316738.0,347543.96875,342385.75,318585.78125,328308.59375,314483.4375,322369.46875,284576.34375,-0.03369140625,0.872802734375,-0.49658203125,3.021239995956421,14.648436546325684,-9.765624046325684,100.0,344750.0,1.0
85426.8929131,316668.25,345749.59375,341148.0625,317458.4375,325699.1875,313318.0,320980.53125,283710.78125,-0.0322265625,0.869873046875,-0.494873046875,3.295898199081421,15.472411155700684,-9.918211936950684,100.0,344751.0,1.0
85426.895349,316532.375,344750.65625,340540.28125,316811.3125,323776.5625,312937.125,320078.15625,283326.96875,-0.030517578125,0.870849609375,-0.49560546875,3.540038824081421,16.357419967651367,-10.162352561950684,100.0,344752.0,1.0
85426.8980049,316514.84375,345897.09375,341374.0,317501.09375,325086.125,313827.8125,320839.8125,283911.96875,-0.030517578125,0.874755859375,-0.493896484375,3.845214605331421,17.089841842651367,-10.437010765075684,100.0,344753.0,1.0
85426.9003608,316636.96875,347655.84375,342537.625,318622.53125,327939.53125,314813.0625,322271.21875,284698.5625,-0.03271484375,0.877685546875,-0.49462890625,4.119872570037842,17.791746139526367,-10.833739280700684,100.0,344754.0,1.0
85426.9030476,316739.78125,347567.3125,342395.125,318586.40625,328319.0625,314498.96875,322362.5,284575.4375,-0.037841796875,0.88232421875,-0.491455078125,4.241942882537842,18.554685592651367,-11.260985374450684,100.0,344755.0,1.0
85426.9053573,316672.375,345770.40625,341162.03125,317474.1875,325740.21875,313342.875,321005.84375,283731.90625,-0.042724609375,0.884521484375,-0.489990234375,4.425048351287842,19.165037155151367,-11.657713890075684,100.0,344756.0,1.0
85426.9078678,316528.15625,344739.09375,340532.875,316808.625,323786.40625,312942.9375,320086.65625,283337.0625,-0.04248046875,0.888916015625,-0.48974609375,4.455565929412842,19.653318405151367,-12.145995140075684,100.0,344757.0,1.0
85426.914485,316521.09375,345894.5,341372.5,317496.34375,325078.875,313837.5625,320840.25,283923.40625,-0.04638671875,0.89013671875,-0.48779296875,4.455565929412842,20.050046920776367,-12.664793968200684,100.0,344758.0,1.0
85426.9215659,316640.09375,347668.78125,342543.0,318618.15625,327935.15625,314827.8125,322276.84375,284717.15625,-0.0478515625,0.891357421875,-0.483642578125,4.516601085662842,20.416257858276367,-13.092040061950684,100.0,344759.0,1.0
85426.9242618,316734.78125,347566.96875,342391.09375,318581.125,328313.78125,314494.25,322352.03125,284579.46875,-0.045654296875,0.891357421875,-0.477294921875,4.364013195037842,20.782468795776367,-13.580321311950684,100.0,344760.0,1.0
85426.9291201,316668.71875,345753.53125,341148.0625,317473.5625,325731.625,313323.90625,320987.96875,283725.28125,-0.045654296875,0.889892578125,-0.4794921875,4.302978038787842,21.087644577026367,-14.068602561950684,100.0,344761.0,1.0
85426.9317006,316531.65625,344712.71875,340514.4375,316801.84375,323759.65625,312918.71875,320060.71875,283319.8125,-0.041748046875,0.88818359375,-0.479248046875,4.089354991912842,21.331785202026367,-14.434813499450684,100.0,344762.0,1.0
85426.9344778,316523.34375,345870.5625,341352.1875,317472.3125,325030.59375,313812.34375,320802.8125,283897.75,-0.0419921875,0.8857421875,-0.47607421875,3.967284917831421,21.789548873901367,-14.739989280700684,100.0,344763.0,1.0
85426.9365819,316650.75,347678.625,342543.375,318600.15625,327902.25,314825.125,322252.09375,284703.03125,-0.042236328125,0.883544921875,-0.47705078125,3.967284917831421,22.155759811401367,-15.350340843200684,100.0,344764.0,1.0
85426.9479924,316751.40625,347599.25,342413.0,318593.1875,328323.71875,314522.40625,322363.3125,284595.75,-0.04345703125,0.880126953125,-0.478759765625,4.180907726287842,22.644041061401367,-16.021726608276367,100.0,344765.0,1.0
85426.9480319,316684.0,345761.3125,341166.125,317500.1875,325748.15625,313351.53125,321007.625,283760.59375,-0.04296875,0.87939453125,-0.476318359375,4.302978038787842,23.071287155151367,-16.632078170776367,100.0,344766.0,1.0
85426.9480425,316539.53125,344691.71875,340516.875,316818.1875,323746.625,312924.71875,320061.0,283353.34375,-0.0400390625,0.87646484375,-0.472412109375,4.486083507537842,23.529050827026367,-17.028806686401367,100.0,344767.0,1.0
85426.950591,316528.625,345855.8125,341347.46875,317470.59375,324992.3125,313810.1875,320789.46875,283911.96875,-0.041748046875,0.879150390625,-0.471435546875,4.577636241912842,23.864744186401367,-17.456052780151367,100.0,344768.0,1.0
85426.9506238,316647.6875,347677.03125,342534.0625,318583.90625,327859.15625,314812.53125,322229.75,284684.625,-0.03564453125,0.879150390625,-0.46533203125,4.852294445037842,24.078367233276367,-17.822263717651367,100.0,344769.0,1.0
85426.9530763,316745.78125,347600.3125,342405.59375,318584.625,328303.40625,314509.90625,322348.1875,284578.125,-0.036376953125,0.876708984375,-0.460205078125,4.943847179412842,24.353025436401367,-17.791746139526367,100.0,344770.0,1.0
85426.9553523,316678.09375,345738.0625,341152.09375,317499.65625,325733.6875,313329.625,320987.15625,283745.125,-0.033935546875,0.872802734375,-0.458740234375,4.943847179412842,24.658201217651367,-17.852781295776367,100.0,344771.0,1.0
85426.9604834,316534.59375,344654.625,340493.0,316808.53125,323713.28125,312898.6875,320028.28125,283332.34375,-0.03662109375,0.86767578125,-0.458251953125,4.974364757537842,24.993894577026367,-18.005369186401367,100.0,344772.0,1.0
85426.9605232,316537.46875,345847.03125,341341.03125,317463.4375,324955.75,313805.375,320771.78125,283914.46875,-0.04052734375,0.86083984375,-0.461669921875,5.157470226287842,25.207517623901367,-18.280027389526367,100.0,344773.0,1.0
85426.9629658,316668.09375,347709.5625,342554.4375,318591.78125,327846.28125,314841.84375,322240.5625,284728.96875,-0.042724609375,0.855712890625,-0.457275390625,5.584716320037842,25.451658248901367,-18.280027389526367,100.0,344774.0,1.0
85426.970629,316759.8125,347637.875,342425.0625,318598.21875,328315.125,314533.84375,322367.5,284595.3125,-0.04345703125,0.855712890625,-0.452392578125,5.859374523162842,25.573728561401367,-18.127439498901367,100.0,344775.0,1.0
85426.9707162,316678.90625,345738.21875,341150.75,317507.0,325743.4375,313335.1875,320997.34375,283726.34375,-0.047607421875,0.85693359375,-0.453369140625,6.042479991912842,25.543210983276367,-17.883298873901367,100.0,344776.0,1.0
85426.9730326,316533.0,344619.03125,340475.5625,316805.5,323693.0625,312883.03125,320019.59375,283296.65625,-0.056884765625,0.8525390625,-0.447509765625,6.500243663787842,25.390623092651367,-17.791746139526367,100.0,344777.0,1.0
85426.9753563,316535.59375,345813.96875,341320.375,317440.375,324905.5,313779.625,320738.4375,283861.1875,-0.06103515625,0.8505859375,-0.441162109375,6.896972179412842,25.329587936401367,-17.791746139526367,100.0,344778.0,1.0
85426.9779813,316670.15625,347719.5,342555.78125,318572.375,327819.0,314834.0,322218.21875,284677.28125,-0.066162109375,0.8466796875,-0.44091796875,7.263183116912842,24.963376998901367,-17.700193405151367,100.0,344779.0,1.0
85426.9805606,316761.6875,347657.1875,342443.5,318605.28125,328324.78125,314547.25,322376.625,284589.9375,-0.072021484375,0.842041015625,-0.442138671875,7.781981945037842,24.566648483276367,-17.608640670776367,100.0,344780.0,1.0
85426.9829226,316675.6875,345731.78125,341154.96875,317525.59375,325765.5,313337.21875,321019.53125,283728.84375,-0.076416015625,0.8349609375,-0.444580078125,8.544920921325684,23.986814498901367,-17.700193405151367,100.0,344781.0,1.0
85426.982957,316529.25,344600.78125,340465.375,316815.59375,323704.5,312881.78125,320041.15625,283286.8125,-0.0751953125,0.82861328125,-0.44921875,9.765624046325684,23.193357467651367,-17.761228561401367,100.0,344782.0,1.0
85426.985461,316535.6875,345816.0,341315.96875,317437.0,324905.96875,313786.6875,320760.4375,283842.03125,-0.079345703125,0.820068359375,-0.455078125,11.199950218200684,22.521970748901367,-17.578123092651367,100.0,344783.0,1.0
85426.9879075,316670.5,347753.03125,342562.3125,318562.96875,327826.71875,314849.09375,322241.625,284646.53125,-0.087158203125,0.813232421875,-0.45849609375,12.969969749450684,21.911619186401367,-17.730710983276367,100.0,344784.0,1.0
85426.9879486,316756.0625,347678.4375,342442.5,318598.03125,328345.875,314556.46875,322394.78125,284558.09375,-0.0888671875,0.8046875,-0.4619140625,15.563963890075684,21.240232467651367,-18.157957077026367,100.0,344785.0,1.0
85426.9905009,316670.15625,345714.96875,341144.59375,317531.59375,325786.78125,313340.53125,321033.125,283722.875,-0.093505859375,0.800048828125,-0.468505859375,18.310544967651367,20.660398483276367,-18.890378952026367,100.0,344786.0,1.0
85426.9941575,316521.1875,344564.125,340447.75,316816.9375,323703.0625,312876.96875,320046.6875,283290.65625,-0.09521484375,0.806640625,-0.47021484375,21.148679733276367,19.927976608276367,-19.500730514526367,100.0,344787.0,1.0
85426.9941958,316529.6875,345796.15625,341307.9375,317428.84375,324879.3125,313778.625,320761.125,283839.90625,-0.092529296875,0.81005859375,-0.47119140625,23.712156295776367,19.226072311401367,-19.744871139526367,100.0,344788.0,1.0
85427.0092726,316668.625,347768.65625,342580.03125,318560.375,327804.53125,314849.28125,322252.1875,284651.625,-0.089111328125,0.818359375,-0.468017578125,26.275632858276367,18.402097702026367,-19.653318405151367,100.0,344789.0,1.0
85427.0143549,316746.9375,347699.5625,342463.15625,318607.40625,328342.84375,314564.78125,322421.34375,284577.3125,-0.081787109375,0.8251953125,-0.466796875,28.228757858276367,17.517087936401367,-19.378660202026367,100.0,344790.0,1.0
85427.0143946,316651.0,345697.625,341137.625,317535.875,325773.5625,313340.34375,321056.625,283741.5625,-0.0810546875,0.833251953125,-0.46533203125,29.968259811401367,16.845701217651367,-18.951414108276367,100.0,344791.0,1.0
85427.0144048,316506.78125,344519.78125,340423.96875,316809.53125,323661.84375,312865.53125,320048.84375,283298.625,-0.07763671875,0.840087890625,-0.466796875,31.494138717651367,16.174314498901367,-18.463132858276367,100.0,344792.0,1.0
85427.016642,316521.8125,345771.03125,341288.53125,317409.1875,324826.65625,313763.875,320740.9375,283831.125,-0.07763671875,0.846923828125,-0.465087890625,32.958980560302734,15.594481468200684,-17.974851608276367,100.0,344793.0,1.0
85427.0204744,316666.65625,347776.34375,342575.1875,318541.0625,327760.90625,314837.3125,322215.0625,284633.9375,-0.07568359375,0.85205078125,-0.469970703125,34.271236419677734,15.045165061950684,-17.425535202026367,100.0,344794.0,1.0
85427.0353431,316739.4375,347702.21875,342458.15625,318594.28125,328315.3125,314557.46875,322380.3125,284562.75,-0.07666015625,0.85498046875,-0.474853515625,35.705562591552734,14.495848655700684,-16.845701217651367,100.0,344795.0,1.0
85427.0431494,316626.6875,345656.34375,341103.375,317516.8125,325740.40625,313319.625,321005.75,283725.5625,-0.074462890625,0.859375,-0.472900390625,36.804195404052734,14.007567405700684,-16.204832077026367,100.0,344796.0,1.0
85427.043189,316479.71875,344458.8125,340380.0625,316785.75,323611.34375,312834.9375,320000.03125,283280.9375,-0.072509765625,0.858642578125,-0.474609375,37.841793060302734,13.519286155700684,-15.289305686950684,100.0,344797.0,1.0
85427.0431978,316512.4375,345738.0625,341270.5625,317394.59375,324767.65625,313738.84375,320705.0,283825.40625,-0.07080078125,0.86279296875,-0.478271484375,38.635250091552734,13.183592796325684,-14.312743186950684,100.0,344798.0,1.0
85427.0432069,316664.15625,347786.625,342585.65625,318537.40625,327721.65625,314824.4375,322191.5625,284634.8125,-0.071044921875,0.861572265625,-0.48486328125,39.306636810302734,12.847899436950684,-13.580321311950684,100.0,344799.0,1.0
85427.0480409,316729.25,347708.5,342459.0625,318589.09375,328293.84375,314543.5,322358.5625,284559.4375,-0.0693359375,0.86181640625,-0.487060546875,40.130611419677734,12.420653343200684,-12.817381858825684,100.0,344800.0,1.0
85427.0480776,316612.375,345626.21875,341081.46875,317509.3125,325718.84375,313303.78125,320990.46875,283725.28125,-0.065673828125,0.861083984375,-0.48974609375,40.893550872802734,12.023924827575684,-11.993407249450684,100.0,344801.0,1.0
85427.0503127,316471.75,344408.125,340347.96875,316777.875,323575.125,312818.5,319981.25,283281.90625,-0.06494140625,0.864013671875,-0.49462890625,41.503902435302734,11.535643577575684,-11.016844749450684,100.0,344802.0,1.0
85427.0542636,316510.8125,345702.1875,341251.6875,317383.25,324718.8125,313720.6875,320672.53125,283818.625,-0.06005859375,0.8662109375,-0.493408203125,42.022701263427734,11.138915061950684,-10.040282249450684,100.0,344803.0,1.0
85427.1115894,316660.21875,347771.6875,342584.21875,318525.78125,327670.34375,314805.65625,322152.40625,284624.96875,-0.05615234375,0.869873046875,-0.49560546875,42.327877044677734,10.925292015075684,-9.002684593200684,100.0,344804.0,1.0
85427.1159183,316717.875,347697.5,342459.125,318583.8125,328258.375,314530.90625,322332.5625,284559.96875,-0.05712890625,0.868408203125,-0.500732421875,42.419429779052734,10.894774436950684,-7.781981945037842,100.0,344805.0,1.0
85427.1159569,316599.15625,345594.28125,341066.09375,317504.5625,325688.90625,313296.1875,320977.6875,283733.0625,-0.061279296875,0.868408203125,-0.513427734375,42.633052825927734,10.803221702575684,-6.835937023162842,100.0,344806.0,1.0
85427.1159661,316458.15625,344360.65625,340321.34375,316761.0625,323530.6875,312807.21875,319961.21875,283283.6875,-0.063720703125,0.865966796875,-0.5185546875,43.029781341552734,10.742186546325684,-6.164550304412842,100.0,344807.0,1.0
85427.1159752,316509.3125,345674.65625,341240.0625,317367.78125,324671.1875,313706.84375,320643.21875,283812.71875,-0.059326171875,0.862060546875,-0.52099609375,43.121334075927734,10.681151390075684,-5.401610851287842,100.0,344808.0,1.0
85427.1179125,316677.84375,347796.1875,342607.90625,318535.875,327663.96875,314811.8125,322140.40625,284629.625,-0.058349609375,0.8603515625,-0.52392578125,43.151851654052734,10.467528343200684,-4.150390148162842,100.0,344809.0,1.0
85427.117943,316734.34375,347726.90625,342482.375,318601.25,328283.21875,314549.3125,322331.75,284573.40625,-0.061279296875,0.853759765625,-0.53369140625,43.243404388427734,10.345458030700684,-3.356933355331421,100.0,344810.0,1.0
85427.1204992,316592.1875,345572.125,341047.9375,317494.84375,325686.125,313291.28125,320952.8125,283729.125,-0.0625,0.851318359375,-0.535888671875,43.640132904052734,10.223387718200684,-3.051757574081421,100.0,344811.0,1.0
85427.1254414,316443.21875,344314.15625,340283.875,316735.0625,323493.15625,312785.78125,319919.46875,283265.625,-0.058349609375,0.85009765625,-0.536376953125,43.853755950927734,10.223387718200684,-2.563476324081421,100.0,344812.0,1.0
85427.1279876,316507.875,345656.15625,341225.6875,317357.0625,324629.96875,313695.3125,320604.3125,283799.9375,-0.0576171875,0.8515625,-0.53759765625,43.548580169677734,10.131834983825684,-1.5563963651657104,100.0,344813.0,1.0
85427.1304721,316688.90625,347810.9375,342622.125,318544.28125,327637.59375,314811.46875,322110.375,284626.78125,-0.060791015625,0.848876953125,-0.541259765625,43.182369232177734,10.040282249450684,-0.5187987685203552,100.0,344814.0,1.0
85427.1319087,316735.3125,347735.84375,342491.5,318607.0625,328264.0,314548.4375,322302.25,284572.59375,-0.064453125,0.842529296875,-0.552001953125,42.816158294677734,9.918211936950684,0.1525878757238388,100.0,344815.0,1.0
85427.13919,316582.875,345549.3125,341034.34375,317492.40625,325660.28125,313289.21875,320926.28125,283730.09375,-0.06689453125,0.83740234375,-0.5615234375,42.999263763427734,9.826659202575684,0.4577636420726776,100.0,344816.0,1.0
85427.1417696,316439.84375,344281.96875,340265.4375,316733.1875,323461.40625,312784.34375,319898.0,283266.71875,-0.06787109375,0.831787109375,-0.563232421875,43.121334075927734,9.796141624450684,0.7324218153953552,100.0,344817.0,1.0
85427.144238,316510.1875,345632.625,341217.8125,317355.4375,324592.3125,313688.34375,320575.96875,283794.21875,-0.068603515625,0.830810546875,-0.56640625,43.090816497802734,9.521483421325684,1.3732908964157104,100.0,344818.0,1.0
85427.1465992,316687.21875,347802.8125,342623.03125,318541.96875,327601.5625,314798.3125,322068.34375,284608.53125,-0.066162109375,0.830810546875,-0.568359375,42.968746185302734,9.185790061950684,2.075195074081421,100.0,344819.0,1.0
85427.1493389,316719.9375,347723.25,342483.46875,318599.1875,328237.875,314537.53125,322265.40625,284552.84375,-0.065673828125,0.824951171875,-0.57568359375,42.816158294677734,9.185790061950684,2.410888433456421,100.0,344820.0,1.0
85427.1517046,316557.75,345512.21875,341004.75,317470.4375,325635.6875,313279.46875,320894.1875,283713.3125,-0.065185546875,0.822021484375,-0.57568359375,42.968746185302734,9.033202171325684,2.593993902206421,100.0,344821.0,1.0
85427.1517435,316414.25,344224.21875,340221.90625,316702.78125,323415.375,312767.96875,319853.46875,283248.28125,-0.060546875,0.8193359375,-0.57666015625,42.694087982177734,8.972167015075684,2.746581792831421,100.0,344822.0,1.0
85427.1540594,316495.71875,345590.8125,341187.0625,317334.09375,324531.6875,313669.46875,320518.84375,283775.875,-0.060791015625,0.81884765625,-0.581298828125,42.510982513427734,8.941649436950684,3.204345464706421,100.0,344823.0,1.0
85427.1617167,316685.4375,347799.0625,342626.15625,318545.09375,327564.03125,314792.78125,322027.6875,284605.40625,-0.0615234375,0.8173828125,-0.587646484375,42.236324310302734,9.033202171325684,3.540038824081421,100.0,344824.0,1.0
85427.1642248,316714.9375,347723.96875,342488.375,318603.3125,328224.125,314540.1875,322234.5625,284552.46875,-0.060546875,0.81396484375,-0.588134765625,42.114253997802734,9.033202171325684,3.631591558456421,100.0,344825.0,1.0
85427.1666155,316541.9375,345486.625,340988.03125,317458.96875,325613.0,313280.8125,320865.125,283706.9375,-0.059814453125,0.808837890625,-0.592041015625,41.961666107177734,9.002684593200684,3.631591558456421,100.0,344826.0,1.0
85427.169113,316403.1875,344185.40625,340199.75,316685.34375,323373.625,312764.5625,319829.59375,283240.25,-0.05712890625,0.809326171875,-0.59228515625,42.053218841552734,9.124754905700684,3.601073980331421,100.0,344827.0,1.0
85427.1691446,316499.1875,345561.125,341182.21875,317325.5,324485.125,313664.46875,320495.96875,283766.6875,-0.053466796875,0.80810546875,-0.591552734375,41.809078216552734,9.124754905700684,3.631591558456421,100.0,344828.0,1.0
85427.1765509,316697.21875,347797.90625,342644.3125,318551.71875,327535.5,314794.125,322010.40625,284602.0,-0.05126953125,0.80908203125,-0.594482421875,41.625972747802734,9.185790061950684,3.814697027206421,100.0,344829.0,1.0
85427.1765633,316719.40625,347727.28125,342502.59375,318610.09375,328211.25,314544.84375,322224.65625,284551.3125,-0.04736328125,0.810791015625,-0.602783203125,41.137691497802734,9.155272483825684,3.997802495956421,100.0,344830.0,1.0
85427.1867224,316536.03125,345464.09375,340974.625,317451.90625,325593.21875,313279.125,320851.0,283701.5,-0.043212890625,0.809326171875,-0.60400390625,40.740962982177734,9.338377952575684,4.150390148162842,100.0,344831.0,1.0
85427.1891716,316395.03125,344143.65625,340171.21875,316666.125,323335.875,312754.03125,319806.90625,283228.0,-0.042724609375,0.8115234375,-0.60546875,40.069576263427734,9.307860374450684,4.364013195037842,100.0,344832.0,1.0
85427.191527,316494.1875,345538.75,341168.28125,317311.8125,324445.6875,313654.8125,320473.6875,283755.0625,-0.039306640625,0.8125,-0.60791015625,39.428707122802734,9.490965843200684,4.547118663787842,100.0,344833.0,1.0
85427.1915421,316690.25,347800.59375,342645.90625,318548.5,327506.8125,314790.4375,321985.03125,284593.40625,-0.038330078125,0.814453125,-0.6123046875,38.635250091552734,9.704588890075684,4.730224132537842,100.0,344834.0,1.0
85427.1967146,316706.09375,347730.65625,342505.1875,318609.75,328194.53125,314544.9375,322197.8125,284545.40625,-0.03369140625,0.812255859375,-0.613037109375,37.750240325927734,10.101317405700684,4.943847179412842,100.0,344835.0,1.0
85427.1989736,316522.8125,345459.71875,340964.0625,317444.21875,325586.34375,313283.3125,320834.375,283702.46875,-0.029052734375,0.80810546875,-0.62060546875,36.895748138427734,10.253905296325684,5.187987804412842,100.0,344836.0,1.0
85427.2017283,316382.625,344130.34375,340152.09375,316652.53125,323324.53125,312759.84375,319791.34375,283225.5,-0.027587890625,0.805908203125,-0.625732421875,36.468502044677734,10.742186546325684,5.462646007537842,100.0,344837.0,1.0
85427.2041813,316492.84375,345530.625,341159.875,317304.84375,324418.96875,313652.46875,320450.1875,283751.28125,-0.024169921875,0.803955078125,-0.630859375,35.797115325927734,11.138915061950684,5.554198741912842,100.0,344838.0,1.0
85427.2065937,316698.84375,347808.1875,342659.84375,318554.9375,327487.40625,314787.6875,321958.375,284590.375,-0.022216796875,0.797607421875,-0.634521484375,35.491939544677734,11.444090843200684,5.554198741912842,100.0,344839.0,1.0
85427.2066091,316711.0,347749.34375,342521.8125,318621.375,328197.75,314548.59375,322182.09375,284548.09375,-0.015625,0.791748046875,-0.64208984375,35.156246185302734,11.962889671325684,5.676269054412842,100.0,344840.0,1.0
85427.2091709,316517.96875,345463.75,340963.71875,317449.0625,325592.5,313288.40625,320825.5,283703.46875,-0.01025390625,0.79541015625,-0.664306640625,35.827632904052734,12.695311546325684,5.706786632537842,100.0,344841.0,1.0
85427.2129109,316379.65625,344115.3125,340139.375,316647.875,323307.09375,312753.125,319774.1875,283222.8125,-0.00634765625,0.80126953125,-0.6591796875,36.499019622802734,13.580321311950684,5.706786632537842,100.0,344842.0,1.0
85427.2456191,316493.46875,345520.15625,341153.09375,317301.90625,324393.375,313644.625,320430.0625,283740.65625,-0.00634765625,0.79736328125,-0.65185546875,35.736080169677734,14.282225608825684,6.256103038787842,100.0,344843.0,1.0
85427.2456598,316701.96875,347819.4375,342672.03125,318566.28125,327473.28125,314783.75,321954.09375,284584.75,-0.0087890625,0.787353515625,-0.643798828125,34.912105560302734,15.197752952575684,6.866454601287842,100.0,344844.0,1.0
85427.2479173,316711.53125,347769.375,342539.875,318642.5625,328208.90625,314555.5,322191.5625,284554.34375,-0.009765625,0.780517578125,-0.6416015625,34.057613372802734,16.204832077026367,6.896972179412842,100.0,344845.0,1.0
85427.2479556,316508.5,345456.96875,340959.15625,317456.75,325600.65625,313290.75,320824.96875,283706.15625,-0.0126953125,0.77685546875,-0.64208984375,33.264156341552734,17.059324264526367,6.591796398162842,100.0,344846.0,1.0
85427.25035,316369.375,344088.21875,340119.0,316644.3125,323297.15625,312748.65625,319764.34375,283219.6875,-0.013427734375,0.775390625,-0.64453125,32.745357513427734,17.578123092651367,6.347655773162842,100.0,344847.0,1.0
85427.2530223,316494.71875,345503.09375,341141.09375,317301.28125,324372.03125,313637.375,320408.96875,283733.6875,-0.0126953125,0.77685546875,-0.644287109375,32.562252044677734,17.852781295776367,6.256103038787842,100.0,344848.0,1.0
85427.2553844,316709.3125,347823.03125,342674.34375,318570.84375,327456.28125,314782.3125,321918.4375,284571.96875,-0.0166015625,0.777099609375,-0.65234375,32.409664154052734,17.822263717651367,6.195067882537842,100.0,344849.0,1.0
85427.2578028,316710.28125,347777.78125,342539.78125,318640.03125,328200.34375,314554.59375,322156.34375,284537.09375,-0.015625,0.77978515625,-0.661376953125,32.165523529052734,17.761228561401367,6.103515148162842,100.0,344850.0,1.0
85427.2665996,316501.0625,345450.96875,340945.84375,317446.09375,325586.875,313288.59375,320802.4375,283689.6875,-0.01318359375,0.782470703125,-0.670654296875,31.860349655151367,17.913816452026367,6.042479991912842,100.0,344851.0,1.0
85427.2715642,316360.53125,344061.9375,340094.875,316624.8125,323262.03125,312737.5625,319739.03125,283198.84375,-0.011962890625,0.781494140625,-0.671875,31.219480514526367,18.218992233276367,6.042479991912842,100.0,344852.0,1.0
85427.2760369,316490.53125,345476.34375,341120.375,317280.0,324315.78125,313618.78125,320376.59375,283709.46875,-0.01220703125,0.775390625,-0.669677734375,30.487058639526367,18.524168014526367,6.103515148162842,100.0,344853.0,1.0
85427.3017156,316715.375,347823.1875,342671.40625,318564.21875,327409.4375,314773.71875,321896.6875,284558.5625,-0.011474609375,0.77001953125,-0.6708984375,29.785154342651367,19.134519577026367,6.072997570037842,100.0,344854.0,1.0
85427.3042715,316715.125,347790.125,342544.34375,318645.3125,328181.125,314561.84375,322155.4375,284539.6875,-0.01318359375,0.7666015625,-0.672119140625,29.144285202026367,19.714353561401367,6.225585460662842,100.0,344855.0,1.0
85427.3043131,316490.96875,345448.0,340933.6875,317440.65625,325575.34375,313293.40625,320806.1875,283693.90625,-0.0146484375,0.7646484375,-0.673828125,28.594968795776367,20.111082077026367,6.195067882537842,100.0,344856.0,1.0
85427.306827,316349.15625,344045.3125,340072.5,316613.0,323236.5625,312731.59375,319737.0625,283195.09375,-0.014892578125,0.76171875,-0.67578125,28.350828170776367,20.355222702026367,6.286620616912842,100.0,344857.0,1.0
85427.3091253,316487.03125,345462.15625,341108.125,317271.125,324284.40625,313610.71875,320375.875,283702.9375,-0.014892578125,0.76171875,-0.673583984375,28.137205123901367,20.507810592651367,6.256103038787842,100.0,344858.0,1.0
85427.3116426,316711.28125,347822.03125,342673.1875,318564.21875,327389.15625,314766.5,321892.9375,284548.53125,-0.01416015625,0.760498046875,-0.6728515625,27.648923873901367,20.538328170776367,6.225585460662842,100.0,344859.0,1.0
85427.3116779,316710.71875,347794.0625,342550.25,318651.75,328176.03125,314554.875,322150.875,284524.5625,-0.01416015625,0.76123046875,-0.67919921875,27.221677780151367,20.568845748901367,6.347655773162842,100.0,344860.0,1.0
85427.316737,316494.5625,345443.71875,340936.0,317449.9375,325572.9375,313291.53125,320806.28125,283678.15625,-0.0107421875,0.759521484375,-0.6884765625,26.916501998901367,20.660398483276367,6.286620616912842,100.0,344861.0,1.0
85427.3215424,316360.96875,344053.1875,340078.5,316625.96875,323236.28125,312739.8125,319745.21875,283184.8125,-0.01025390625,0.75830078125,-0.690185546875,26.458738327026367,20.874021530151367,6.225585460662842,100.0,344862.0,1.0
85427.3240319,316500.625,345487.34375,341124.90625,317287.0625,324287.78125,313624.59375,320387.40625,283698.53125,-0.00927734375,0.75732421875,-0.694580078125,25.695798873901367,20.965574264526367,6.469726085662842,100.0,344863.0,1.0
85427.3265615,316727.625,347852.71875,342697.59375,318582.1875,327393.875,314781.34375,321910.09375,284551.03125,-0.007568359375,0.75634765625,-0.693603515625,25.268552780151367,20.965574264526367,6.530761241912842,100.0,344864.0,1.0
85427.3315616,316716.90625,347825.15625,342571.0,318667.0625,328195.0625,314571.65625,322177.96875,284531.09375,-0.00634765625,0.753662109375,-0.6904296875,24.688718795776367,20.965574264526367,6.591796398162842,100.0,344865.0,1.0
85427.3341143,316482.65625,345451.21875,340936.0,317452.09375,325595.03125,313300.46875,320836.59375,283681.90625,-0.00634765625,0.750732421875,-0.694091796875,24.230955123901367,21.118162155151367,6.469726085662842,100.0,344866.0,1.0
85427.3365554,316342.46875,344038.15625,340064.09375,316618.46875,323244.5,312743.03125,319773.28125,283186.34375,-0.005126953125,0.74755859375,-0.6953125,23.925779342651367,21.179197311401367,6.256103038787842,100.0,344867.0,1.0
85427.3439372,316486.0625,345458.375,341104.28125,317274.90625,324268.75,313622.0,320405.84375,283692.1875,-0.004638671875,0.74609375,-0.697021484375,23.803709030151367,21.148679733276367,5.950927257537842,100.0,344868.0,1.0
85427.3439763,316715.65625,347832.5,342687.40625,318575.59375,327374.40625,314782.21875,321926.90625,284542.28125,-0.00341796875,0.744140625,-0.699462890625,23.315427780151367,21.026609420776367,5.981444835662842,100.0,344869.0,1.0
85427.3504714,316708.21875,347815.875,342566.34375,318667.59375,328191.46875,314582.3125,322201.40625,284527.25,0.000732421875,0.744140625,-0.69970703125,23.101804733276367,21.026609420776367,5.828856945037842,100.0,344870.0,1.0
85427.3553602,316472.5625,345429.40625,340918.03125,317448.25,325592.15625,313305.59375,320852.875,283671.46875,-0.00048828125,0.741943359375,-0.705322265625,22.766111373901367,20.965574264526367,5.798339366912842,100.0,344871.0,1.0
85427.3579939,316324.9375,343972.25,340011.4375,316585.46875,323190.6875,312716.65625,319754.59375,283152.0,-0.000244140625,0.742431640625,-0.7041015625,22.491453170776367,20.996091842651367,5.676269054412842,100.0,344872.0,1.0
85427.3580341,316476.84375,345387.3125,341052.3125,317236.34375,324174.53125,313584.34375,320362.5625,283651.96875,0.00439453125,0.740478515625,-0.704833984375,22.216794967651367,20.996091842651367,5.523681163787842,100.0,344873.0,1.0
85427.3604628,316716.90625,347800.125,342666.5625,318556.09375,327292.59375,314762.1875,321890.53125,284515.8125,0.005859375,0.73974609375,-0.704833984375,22.094724655151367,21.087644577026367,5.340575695037842,100.0,344874.0,1.0
85427.3666007,316712.4375,347813.8125,342565.96875,318668.84375,328150.4375,314577.65625,322180.375,284516.4375,0.005615234375,0.737060546875,-0.70703125,21.881101608276367,21.148679733276367,5.035399913787842,100.0,344875.0,1.0
85427.3691438,316477.28125,345434.25,340919.71875,317456.84375,325574.28125,313306.03125,320846.875,283669.59375,0.00634765625,0.736328125,-0.70947265625,21.911619186401367,21.301267623901367,4.882812023162842,100.0,344876.0,1.0
85427.3914582,316336.21875,343977.0,340017.96875,316600.9375,323181.5625,312726.125,319762.71875,283158.96875,0.005126953125,0.7373046875,-0.711669921875,21.697996139526367,21.209714889526367,4.699706554412842,100.0,344877.0,1.0
85427.394056,316483.625,345385.59375,341055.53125,317243.5,324155.375,313588.1875,320363.09375,283653.65625,0.006591796875,0.73681640625,-0.7138671875,21.392820358276367,21.026609420776367,4.608153820037842,100.0,344878.0,1.0
85427.3966906,316721.90625,347816.6875,342678.28125,318564.21875,327281.6875,314763.1875,321883.03125,284513.9375,0.007568359375,0.736328125,-0.71435546875,21.270750045776367,21.026609420776367,4.425048351287842,100.0,344879.0,1.0
85427.3992659,316712.25,347843.6875,342584.65625,318682.5,328165.5625,314581.875,322180.21875,284514.84375,0.0078125,0.732177734375,-0.716796875,21.057126998901367,20.874021530151367,4.150390148162842,100.0,344880.0,1.0
85427.3992796,316469.5,345449.0,340928.03125,317464.15625,325598.6875,313310.125,320848.65625,283672.53125,0.005615234375,0.73193359375,-0.7197265625,20.782468795776367,20.660398483276367,4.058837413787842,100.0,344881.0,1.0
85427.4015081,316334.15625,343989.96875,340027.90625,316605.3125,323199.8125,312728.46875,319759.6875,283164.34375,0.006103515625,0.729736328125,-0.72021484375,20.446775436401367,20.446775436401367,3.845214605331421,100.0,344882.0,1.0
85427.4042244,316490.6875,345430.9375,341086.28125,317259.875,324189.53125,313599.28125,320367.46875,283664.03125,0.00732421875,0.72802734375,-0.720703125,20.599363327026367,20.599363327026367,3.540038824081421,100.0,344883.0,1.0
85427.4042367,316719.5,347800.40625,342668.875,318551.96875,327264.96875,314748.6875,321862.0,284505.09375,0.003662109375,0.726806640625,-0.718994140625,20.568845748901367,20.599363327026367,3.326415777206421,100.0,344884.0,1.0
85427.4067263,316711.8125,347801.125,342567.15625,318672.40625,328129.78125,314569.625,322155.09375,284513.84375,0.001953125,0.724609375,-0.7216796875,20.050046920776367,20.263669967651367,3.326415777206421,100.0,344885.0,1.0
85427.4091558,316472.1875,345428.15625,340920.96875,317468.46875,325587.0625,313307.46875,320836.34375,283677.96875,0.0029296875,0.720947265625,-0.725830078125,19.683835983276367,20.050046920776367,3.326415777206421,100.0,344886.0,1.0
85427.4116563,316329.5,343945.875,339998.65625,316595.9375,323168.6875,312711.46875,319730.0,283153.15625,0.00537109375,0.71826171875,-0.723876953125,19.561765670776367,19.866941452026367,3.051757574081421,100.0,344887.0,1.0
85427.4141446,316491.25,345359.875,341045.4375,317237.25,324115.59375,313574.25,320319.65625,283644.375,0.005126953125,0.718505859375,-0.72509765625,19.561765670776367,19.775388717651367,2.655029058456421,100.0,344888.0,1.0
85427.432993,316736.40625,347824.4375,342691.34375,318572.53125,327257.625,314761.3125,321849.84375,284510.8125,0.00341796875,0.719970703125,-0.72900390625,19.317625045776367,19.653318405151367,2.380370855331421,100.0,344889.0,1.0
85427.4330114,316722.71875,347876.5625,342614.96875,318704.875,328190.0625,314597.96875,322165.46875,284525.5625,0.00634765625,0.717529296875,-0.731201171875,18.981931686401367,19.287107467651367,2.319335699081421,100.0,344890.0,1.0
85427.433015,316474.875,345476.90625,340949.15625,317489.125,325650.4375,313328.46875,320851.34375,283689.34375,0.00634765625,0.716796875,-0.731689453125,18.768308639526367,18.951414108276367,2.166747808456421,100.0,344891.0,1.0
85427.4355285,316341.84375,344008.84375,340036.75,316625.34375,323244.59375,312738.5625,319764.53125,283174.625,0.010986328125,0.716064453125,-0.734130859375,18.432615280151367,18.615720748901367,1.9836424589157104,100.0,344892.0,1.0
85427.4368721,316509.375,345445.25,341092.8125,317269.25,324209.21875,313602.0625,320361.125,283666.375,0.014892578125,0.715576171875,-0.73486328125,18.096921920776367,18.280027389526367,1.7700194120407104,100.0,344893.0,1.0
85427.4943503,316755.15625,347908.0625,342738.625,318599.28125,327351.875,314792.59375,321889.71875,284536.75,0.014404296875,0.71484375,-0.73681640625,17.913816452026367,18.127439498901367,1.5258787870407104,100.0,344894.0,1.0
85427.4943916,316740.6875,347958.84375,342662.1875,318738.40625,328296.09375,314636.65625,322216.0625,284559.96875,0.013916015625,0.71630859375,-0.735107421875,17.822263717651367,18.005369186401367,1.1901854276657104,100.0,344895.0,1.0
85427.4944026,316483.1875,345538.75,340983.84375,317517.53125,325756.75,313356.53125,320899.1875,283718.9375,0.01416015625,0.712646484375,-0.737060546875,17.395017623901367,17.608640670776367,1.0375975370407104,100.0,344896.0,1.0
85427.4991055,316333.15625,344011.5,340031.46875,316622.5,323302.25,312739.1875,319787.0625,283188.75,0.01513671875,0.7099609375,-0.73486328125,17.089841842651367,17.395017623901367,0.9460448622703552,100.0,344897.0,1.0
85427.5015692,316495.875,345410.28125,341064.40625,317245.84375,324205.4375,313587.9375,320354.0625,283665.90625,0.01708984375,0.70849609375,-0.736328125,16.784666061401367,17.303464889526367,0.6408690810203552,100.0,344898.0,1.0
85427.5041055,316749.53125,347909.65625,342739.25,318596.40625,327363.5,314793.40625,321894.8125,284541.125,0.018310546875,0.70947265625,-0.7392578125,16.540525436401367,17.028806686401367,0.4272460639476776,100.0,344899.0,1.0
85427.5091694,316738.90625,347997.09375,342687.125,318752.6875,328352.9375,314653.46875,322244.75,284578.21875,0.01953125,0.710205078125,-0.7412109375,16.296384811401367,16.723630905151367,0.1831054538488388,100.0,344900.0,1.0
85427.5117544,316481.6875,345578.28125,341002.78125,317534.8125,325828.46875,313378.09375,320931.625,283739.21875,0.02001953125,0.71240234375,-0.741943359375,16.052244186401367,16.510007858276367,0.0915527269244194,100.0,344901.0,1.0
85427.5117968,316328.78125,344028.78125,340032.0,316629.28125,323347.59375,312748.21875,319799.3125,283194.28125,0.02001953125,0.713623046875,-0.74462890625,15.716551780700684,16.265867233276367,-0.0610351525247097,100.0,344902.0,1.0
85427.514226,316491.34375,345428.4375,341064.5625,317246.8125,324235.21875,313590.4375,320360.15625,283663.15625,0.018310546875,0.712158203125,-0.7470703125,15.411375999450684,15.899657249450684,-0.3356933295726776,100.0,344903.0,1.0
85427.5165537,316754.28125,347958.46875,342759.1875,318610.4375,327411.9375,314807.4375,321909.3125,284546.03125,0.01611328125,0.7119140625,-0.74951171875,15.136717796325684,15.563963890075684,-0.7324218153953552,100.0,344904.0,1.0
85427.5191044,316745.6875,348064.40625,342721.375,318780.15625,328431.375,314678.5,322271.84375,284587.0625,0.01318359375,0.711181640625,-0.74853515625,14.739989280700684,15.289305686950684,-0.9765624403953552,100.0,344905.0,1.0
85427.5216178,316488.90625,345641.03125,341035.875,317561.4375,325922.5,313402.75,320969.1875,283753.09375,0.010498046875,0.709716796875,-0.74951171875,14.343260765075684,15.045165061950684,-1.3427733182907104,100.0,344906.0,1.0
85427.5265567,316337.09375,344072.65625,340055.4375,316650.28125,323429.3125,312766.46875,319835.5,283208.875,0.009033203125,0.709228515625,-0.75,14.038084983825684,14.739989280700684,-1.6174315214157104,100.0,344907.0,1.0
85427.5317326,316500.53125,345460.34375,341084.15625,317263.8125,324291.46875,313603.75,320387.5,283674.125,0.0068359375,0.710205078125,-0.749267578125,13.946532249450684,14.343260765075684,-1.8615721464157104,100.0,344908.0,1.0
85427.5392058,316759.90625,348000.75,342784.40625,318623.78125,327468.8125,314823.96875,321938.625,284557.375,0.005615234375,0.712158203125,-0.75048828125,13.458250999450684,13.946532249450684,-2.197265386581421,100.0,344909.0,1.0
85427.5467434,316747.375,348119.6875,342742.46875,318800.1875,328496.1875,314699.625,322312.53125,284603.53125,0.00732421875,0.713623046875,-0.750732421875,13.244627952575684,13.397215843200684,-2.532958745956421,100.0,344910.0,1.0
85427.5533387,316483.625,345680.5625,341039.0,317577.71875,325976.96875,313421.09375,321011.3125,283766.59375,0.00830078125,0.713134765625,-0.748291015625,13.061522483825684,13.061522483825684,-3.021239995956421,100.0,344911.0,1.0
85427.560524,316327.625,344088.21875,340040.59375,316649.59375,323458.8125,312776.75,319874.3125,283217.09375,0.008544921875,0.71435546875,-0.752197265625,12.695311546325684,12.603758811950684,-3.387450933456421,100.0,344912.0,1.0
85427.5628191,316500.8125,345484.03125,341073.15625,317262.5625,324306.75,313621.28125,320431.6875,283686.9375,0.0068359375,0.717041015625,-0.75341796875,12.298583030700684,12.176512718200684,-3.662109136581421,100.0,344913.0,1.0
85427.5654639,316760.1875,348038.9375,342785.84375,318630.75,327478.5625,314845.25,321984.40625,284570.4375,0.0087890625,0.716796875,-0.7548828125,11.566161155700684,11.749266624450684,-3.479003667831421,100.0,344914.0,1.0
85427.5703638,316743.8125,348167.25,342765.09375,318815.46875,328537.40625,314725.375,322363.5,284625.59375,0.009033203125,0.714599609375,-0.752685546875,11.047362327575684,11.413573265075684,-3.540038824081421,100.0,344915.0,1.0
85427.5729381,316472.03125,345714.71875,341061.8125,317592.5625,326033.1875,313433.78125,321054.75,283785.1875,0.011474609375,0.71240234375,-0.752197265625,10.528563499450684,10.986327171325684,-3.906249761581421,100.0,344916.0,1.0
85427.5778223,316317.0625,344113.4375,340059.375,316665.5,323505.40625,312780.75,319909.625,283227.625,0.013916015625,0.712158203125,-0.7548828125,10.162352561950684,10.742186546325684,-4.425048351287842,100.0,344917.0,1.0
85427.594115,316490.0625,345500.3125,341084.875,317269.25,324338.5,313614.3125,320454.90625,283688.96875,0.0146484375,0.7109375,-0.752685546875,9.826659202575684,10.253905296325684,-4.852294445037842,100.0,344918.0,1.0
85427.5941549,316744.0,348008.4375,342763.125,318608.03125,327466.21875,314818.6875,321983.0625,284562.125,0.01416015625,0.70849609375,-0.75244140625,9.338377952575684,9.826659202575684,-5.310058116912842,100.0,344919.0,1.0
85427.5993735,316736.75,348166.4375,342760.8125,318812.34375,328539.8125,314715.96875,322381.8125,284629.09375,0.0126953125,0.704833984375,-0.75341796875,8.911131858825684,9.429930686950684,-5.737304210662842,100.0,344920.0,1.0
85427.5994111,316481.6875,345767.65625,341088.1875,317619.71875,326087.03125,313452.75,321106.59375,283804.6875,0.0107421875,0.701904296875,-0.75439453125,8.575438499450684,9.063719749450684,-5.981444835662842,100.0,344921.0,1.0
85427.6016928,316329.3125,344163.25,340078.59375,316690.09375,323559.9375,312793.53125,319960.40625,283244.09375,0.009521484375,0.69677734375,-0.7578125,8.056639671325684,8.483885765075684,-6.225585460662842,100.0,344922.0,1.0
85427.6017289,316491.15625,345522.59375,341086.75,317270.6875,324359.6875,313607.40625,320489.6875,283691.75,0.009765625,0.69189453125,-0.756591796875,7.751464366912842,8.117674827575684,-6.439208507537842,100.0,344923.0,1.0
85427.6067856,316751.9375,348044.21875,342780.125,318615.09375,327489.5625,314818.25,322022.125,284568.46875,0.00927734375,0.690185546875,-0.758544921875,7.598876476287842,7.751464366912842,-6.774901866912842,100.0,344924.0,1.0
85427.6068226,316749.90625,348234.90625,342795.40625,318835.21875,328602.21875,314734.21875,322439.21875,284652.875,0.006591796875,0.68896484375,-0.7568359375,7.598876476287842,7.293700695037842,-7.385253429412842,100.0,344925.0,1.0
85427.6093482,316495.25,345864.90625,341141.46875,317661.21875,326192.34375,313485.46875,321192.09375,283849.8125,0.00244140625,0.68701171875,-0.7568359375,7.476806163787842,6.927489757537842,-7.812499523162842,100.0,344926.0,1.0
85427.6141052,316331.375,344240.84375,340114.1875,316714.5,323658.375,312818.75,320041.6875,283283.0625,-0.00048828125,0.685546875,-0.7568359375,7.293700695037842,6.347655773162842,-7.995604991912842,100.0,344927.0,1.0
85427.6166282,316486.3125,345545.65625,341082.4375,317263.53125,324408.40625,313615.375,320536.8125,283713.3125,-0.000732421875,0.682373046875,-0.7578125,7.263183116912842,5.981444835662842,-8.270262718200684,100.0,344928.0,1.0
85427.6242619,316749.4375,348089.28125,342792.90625,318619.03125,327551.25,314838.90625,322069.78125,284592.09375,-0.0009765625,0.680908203125,-0.756103515625,7.293700695037842,5.737304210662842,-8.758543968200684,100.0,344929.0,1.0
85427.6292299,316739.34375,348280.15625,342809.25,318838.25,328675.34375,314752.71875,322486.875,284668.0625,-0.003173828125,0.679931640625,-0.75390625,7.415771007537842,5.187987804412842,-9.246825218200684,100.0,344930.0,1.0
85427.6379885,316476.5,345848.46875,341113.65625,317640.375,326210.6875,313478.03125,321208.53125,283844.90625,-0.0078125,0.681640625,-0.75244140625,7.476806163787842,4.791259288787842,-9.704588890075684,100.0,344931.0,1.0
85427.6404036,316328.25,344231.28125,340095.03125,316707.4375,323663.03125,312814.375,320054.09375,283286.5625,-0.00830078125,0.681640625,-0.75244140625,7.476806163787842,4.241942882537842,-10.040282249450684,100.0,344932.0,1.0
85427.6480259,316498.3125,345597.875,341103.09375,317286.15625,324458.21875,313634.875,320581.78125,283734.3125,-0.01220703125,0.681640625,-0.7529296875,7.293700695037842,3.814697027206421,-10.040282249450684,100.0,344933.0,1.0
85427.6480687,316754.28125,348139.78125,342803.625,318629.21875,327603.1875,314859.28125,322116.90625,284609.78125,-0.015625,0.68359375,-0.753173828125,6.988524913787842,3.173827886581421,-10.101317405700684,100.0,344934.0,1.0
85427.6531031,316745.96875,348346.40625,342833.9375,318857.84375,328753.40625,314786.15625,322547.21875,284691.84375,-0.013916015625,0.68408203125,-0.755126953125,6.622313976287842,2.380370855331421,-10.101317405700684,100.0,344935.0,1.0
85427.6555154,316488.65625,345951.28125,341169.1875,317686.78125,326350.25,313525.96875,321293.1875,283881.125,-0.013671875,0.685546875,-0.754638671875,6.439208507537842,1.8310545682907104,-10.345458030700684,100.0,344936.0,1.0
85427.6579242,316328.6875,344294.9375,340126.4375,316733.0,323794.34375,312838.96875,320123.40625,283308.71875,-0.015625,0.68505859375,-0.75244140625,6.134032726287842,1.4343260526657104,-10.406493186950684,100.0,344937.0,1.0
85427.6604585,316482.375,345558.6875,341074.03125,317259.0625,324485.21875,313611.625,320592.78125,283723.21875,-0.0166015625,0.68212890625,-0.75,6.011962413787842,1.0070799589157104,-10.406493186950684,100.0,344938.0,1.0
85427.6742363,316752.40625,348119.6875,342802.90625,318618.9375,327621.0625,314844.8125,322139.875,284609.5,-0.020263671875,0.683837890625,-0.7529296875,5.889892101287842,0.7019042372703552,-10.314940452575684,100.0,344939.0,1.0
85427.6792664,316756.78125,348371.4375,342864.78125,318871.0,328811.0,314791.53125,322596.21875,284707.5,-0.024169921875,0.683349609375,-0.754150390625,5.676269054412842,0.1220703050494194,-10.131834983825684,100.0,344940.0,1.0
85427.681605,316498.3125,345980.25,341197.0625,317696.34375,326424.09375,313530.34375,321345.0625,283891.40625,-0.02294921875,0.681884765625,-0.751220703125,5.401610851287842,-0.3356933295726776,-9.948729515075684,100.0,344941.0,1.0
85427.6992481,316325.375,344272.59375,340116.78125,316714.40625,323828.78125,312823.59375,320149.6875,283292.09375,-0.02197265625,0.683349609375,-0.75146484375,5.340575695037842,-0.7324218153953552,-10.070799827575684,100.0,344942.0,1.0
85427.7017529,316486.0625,345537.6875,341060.1875,317238.6875,324499.25,313598.65625,320610.84375,283701.9375,-0.025146484375,0.68359375,-0.7490234375,5.157470226287842,-1.3122557401657104,-10.192870140075684,100.0,344943.0,1.0
85427.701795,316761.4375,348120.65625,342796.125,318606.4375,327641.1875,314838.28125,322154.71875,284589.125,-0.0263671875,0.685546875,-0.75048828125,4.974364757537842,-2.044677495956421,-10.009764671325684,100.0,344944.0,1.0
85427.7066535,316760.09375,348370.71875,342859.78125,318861.59375,328842.09375,314785.4375,322609.53125,284689.8125,-0.026123046875,0.68359375,-0.751708984375,4.638671398162842,-2.502441167831421,-9.674071311950684,100.0,344945.0,1.0
85427.7066908,316490.0,345923.9375,341158.96875,317672.21875,326410.40625,313507.71875,321339.25,283869.75,-0.027099609375,0.683837890625,-0.751220703125,4.486083507537842,-3.234863042831421,-9.429930686950684,100.0,344946.0,1.0
85427.7091353,316330.75,344221.875,340089.125,316708.5,323797.03125,312807.125,320149.6875,283290.3125,-0.02734375,0.683837890625,-0.754150390625,4.180907726287842,-3.906249761581421,-9.155272483825684,100.0,344947.0,1.0
85427.715427,316497.59375,345527.9375,341065.5625,317253.0625,324496.46875,313599.90625,320629.4375,283715.90625,-0.0244140625,0.68408203125,-0.75048828125,3.845214605331421,-4.364013195037842,-8.758543968200684,100.0,344948.0,1.0
85427.7178316,316775.46875,348170.0,342838.75,318639.25,327695.28125,314866.4375,322199.96875,284613.34375,-0.024658203125,0.6865234375,-0.7509765625,3.540038824081421,-4.699706554412842,-8.392333030700684,100.0,344949.0,1.0
85427.7254598,316767.78125,348396.75,342881.6875,318879.3125,328883.9375,314807.78125,322652.09375,284706.34375,-0.026123046875,0.68701171875,-0.75146484375,3.356933355331421,-4.974364757537842,-8.209227561950684,100.0,344950.0,1.0
85427.7279872,316492.75,345933.84375,341172.46875,317685.1875,326439.8125,313525.53125,321381.71875,283878.875,-0.0263671875,0.68896484375,-0.752197265625,3.295898199081421,-5.340575695037842,-7.873534679412842,100.0,344951.0,1.0
85427.7304799,316330.3125,344222.59375,340097.28125,316712.875,323820.09375,312816.0,320186.53125,283284.78125,-0.026123046875,0.690185546875,-0.7509765625,3.051757574081421,-5.615233898162842,-7.324218273162842,100.0,344952.0,1.0
85427.7327982,316493.65625,345506.03125,341061.96875,317244.59375,324495.59375,313596.78125,320648.5,283697.375,-0.029296875,0.69482421875,-0.7509765625,2.410888433456421,-5.889892101287842,-6.591796398162842,100.0,344953.0,1.0
85427.7404941,316769.46875,348114.75,342820.25,318617.78125,327665.5,314849.90625,322199.96875,284590.5625,-0.0302734375,0.69677734375,-0.755615234375,1.8310545682907104,-6.347655773162842,-6.011962413787842,100.0,344954.0,1.0
85427.7467425,316763.46875,348353.46875,342875.15625,318865.8125,328869.09375,314792.6875,322653.0,284685.5,-0.038818359375,0.696044921875,-0.75439453125,1.2512205839157104,-6.744384288787842,-5.371093273162842,100.0,344955.0,1.0
85427.7491375,316492.125,345909.8125,341174.4375,317677.21875,326451.1875,313513.53125,321381.09375,283858.75,-0.039306640625,0.699951171875,-0.750732421875,0.8850097060203552,-7.385253429412842,-5.218505382537842,100.0,344956.0,1.0
85427.74918,316328.96875,344196.40625,340092.8125,316705.46875,323830.3125,312806.59375,320178.28125,283266.1875,-0.037841796875,0.701904296875,-0.7490234375,0.4577636420726776,-7.873534679412842,-4.669188976287842,100.0,344957.0,1.0
85427.7518473,316487.40625,345455.71875,341036.9375,317224.28125,324472.40625,313575.40625,320632.03125,283674.3125,-0.04345703125,0.70263671875,-0.75048828125,-0.1831054538488388,-8.453368186950684,-4.119872570037842,100.0,344958.0,1.0
85427.7542941,316758.5625,348050.75,342785.03125,318588.28125,327615.6875,314818.78125,322176.8125,284558.71875,-0.0458984375,0.7021484375,-0.74755859375,-0.6408690810203552,-9.155272483825684,-3.753661870956421,100.0,344959.0,1.0
85427.7565876,316760.09375,348332.5625,342870.9375,318860.875,328859.25,314781.5,322646.5625,284667.8125,-0.041259765625,0.705078125,-0.74609375,-1.3122557401657104,-9.857176780700684,-3.112792730331421,100.0,344960.0,1.0
85427.7617411,316492.03125,345914.28125,341184.5625,317687.5,326481.3125,313515.3125,321397.34375,283857.15625,-0.034423828125,0.70654296875,-0.744873046875,-2.166747808456421,-10.375975608825684,-2.471923589706421,100.0,344961.0,1.0
85427.7632001,316314.40625,344137.03125,340054.4375,316678.375,323804.8125,312777.8125,320160.15625,283245.625,-0.0302734375,0.705322265625,-0.7421875,-2.960204839706421,-10.711668968200684,-1.6479490995407104,100.0,344962.0,1.0
85427.7704824,316472.71875,345376.84375,340986.0625,317189.875,324413.78125,313540.4375,320585.1875,283648.9375,-0.0234375,0.705078125,-0.742919921875,-3.692626714706421,-11.260985374450684,-1.0986326932907104,100.0,344963.0,1.0
85427.7754988,316748.1875,348008.4375,342758.75,318574.15625,327586.46875,314801.0,322134.15625,284546.46875,-0.02001953125,0.70654296875,-0.74169921875,-4.364013195037842,-11.352538108825684,-0.5798339247703552,100.0,344964.0,1.0
85427.7804625,316746.3125,348306.09375,342854.59375,318851.75,328848.71875,314772.125,322610.25,284662.96875,-0.020263671875,0.704345703125,-0.74169921875,-5.065917491912842,-11.383055686950684,-0.0915527269244194,100.0,344965.0,1.0
85427.783,316477.1875,345878.40625,341162.125,317671.84375,326456.4375,313500.65625,321351.125,283848.03125,-0.0185546875,0.702880859375,-0.7421875,-5.554198741912842,-11.230467796325684,0.3356933295726776,100.0,344966.0,1.0
85427.7879889,316303.125,344101.8125,340038.4375,316669.34375,323779.25,312763.59375,320119.8125,283240.0625,-0.0185546875,0.701416015625,-0.7392578125,-6.103515148162842,-10.894774436950684,0.8239745497703552,100.0,344967.0,1.0
85427.7880289,316465.21875,345344.3125,340973.28125,317184.15625,324393.5625,313526.5,320557.5625,283643.21875,-0.016845703125,0.700927734375,-0.7392578125,-6.500243663787842,-10.742186546325684,1.2512205839157104,100.0,344968.0,1.0
85427.7903929,316748.71875,347987.25,342755.78125,318575.9375,327579.84375,314797.34375,322117.34375,284543.875,-0.01904296875,0.700927734375,-0.739013671875,-6.805419445037842,-10.711668968200684,1.4953612089157104,100.0,344969.0,1.0
85427.7929497,316753.90625,348311.8125,342868.4375,318865.1875,328870.71875,314778.375,322614.1875,284668.625,-0.02001953125,0.70263671875,-0.73876953125,-7.202147960662842,-10.772704124450684,1.8310545682907104,100.0,344970.0,1.0
85427.8028457,316491.0625,345914.8125,341192.78125,317694.21875,326506.96875,313517.03125,321374.375,283859.46875,-0.022705078125,0.703125,-0.735595703125,-7.690429210662842,-10.742186546325684,2.136230230331421,100.0,344971.0,1.0
85427.8045947,316321.53125,344144.09375,340069.28125,316693.3125,323837.46875,312781.21875,320146.09375,283247.5,-0.026123046875,0.70458984375,-0.732421875,-8.209227561950684,-10.894774436950684,2.380370855331421,100.0,344972.0,1.0
85427.8493184,316472.28125,345347.15625,340975.34375,317188.0625,324418.25,313527.40625,320561.59375,283638.28125,-0.02685546875,0.706298828125,-0.73046875,-8.850096702575684,-10.986327171325684,2.685546636581421,100.0,344973.0,1.0
85427.8493591,316740.25,347952.5625,342733.53125,318558.96875,327568.9375,314785.34375,322103.21875,284529.0625,-0.025146484375,0.708984375,-0.730712890625,-9.368895530700684,-11.047362327575684,2.990722417831421,100.0,344974.0,1.0
85427.84937,316749.09375,348288.375,342853.78125,318852.84375,328865.96875,314771.40625,322595.0625,284651.34375,-0.025634765625,0.708740234375,-0.7294921875,-9.857176780700684,-10.925292015075684,3.265380620956421,100.0,344975.0,1.0
85427.8516261,316496.96875,345911.5,341193.21875,317691.4375,326525.65625,313521.0625,321361.59375,283849.71875,-0.02392578125,0.710693359375,-0.72802734375,-10.406493186950684,-10.894774436950684,3.387450933456421,100.0,344976.0,1.0
85427.8541981,316326.8125,344150.1875,340069.5625,316689.625,323863.65625,312785.21875,320137.53125,283242.40625,-0.0234375,0.711669921875,-0.72802734375,-10.864256858825684,-10.742186546325684,3.509521245956421,100.0,344977.0,1.0
85427.8567356,316475.25,345337.875,340965.40625,317177.0,324433.09375,313526.0625,320549.4375,283629.96875,-0.023193359375,0.712646484375,-0.7275390625,-11.322020530700684,-10.589598655700684,3.540038824081421,100.0,344978.0,1.0
85427.8606683,316743.28125,347945.875,342726.375,318551.8125,327591.28125,314783.5625,322096.96875,284520.28125,-0.024169921875,0.7158203125,-0.728759765625,-11.749266624450684,-10.406493186950684,3.601073980331421,100.0,344979.0,1.0
85427.8607097,316751.25,348308.40625,342864.96875,318856.21875,328928.09375,314785.34375,322614.1875,284651.34375,-0.021240234375,0.7158203125,-0.7294921875,-12.145995140075684,-10.253905296325684,3.692626714706421,100.0,344980.0,1.0
85427.8607201,316499.28125,345954.5,341216.375,317700.8125,326615.78125,313536.875,321394.0625,283849.1875,-0.017333984375,0.71728515625,-0.728759765625,-12.481688499450684,-10.009764671325684,3.845214605331421,100.0,344981.0,1.0
85427.862976,316329.3125,344170.75,340076.96875,316687.65625,323940.90625,312789.25,320162.46875,283235.0625,-0.016357421875,0.716552734375,-0.72607421875,-12.603758811950684,-9.735106468200684,3.784179449081421,100.0,344982.0,1.0
85427.8630107,316473.34375,345303.8125,340943.0625,317154.625,324469.375,313510.59375,320552.0,283609.3125,-0.014404296875,0.71435546875,-0.727783203125,-12.664793968200684,-9.552000999450684,3.570556402206421,100.0,344983.0,1.0
85427.8707627,316745.875,347889.1875,342700.4375,318532.3125,327610.78125,314772.5625,322092.59375,284501.875,-0.01513671875,0.717529296875,-0.72607421875,-12.847899436950684,-9.368895530700684,3.417968511581421,100.0,344984.0,1.0
85427.8707996,316760.34375,348286.96875,342863.625,318858.03125,328971.1875,314795.375,322625.0,284647.0625,-0.014892578125,0.716796875,-0.72705078125,-12.908934593200684,-9.033202171325684,3.326415777206421,100.0,344985.0,1.0
85427.8746107,316507.78125,345956.46875,341228.8125,317712.0,326680.6875,313558.15625,321415.25,283849.65625,-0.01611328125,0.716064453125,-0.727294921875,-12.817381858825684,-8.758543968200684,3.173827886581421,100.0,344986.0,1.0
85427.8817733,316326.46875,344145.53125,340077.15625,316687.21875,323980.78125,312790.59375,320171.6875,283223.09375,-0.015869140625,0.716552734375,-0.72705078125,-13.000487327575684,-8.575438499450684,3.082275152206421,100.0,344987.0,1.0
85427.8842022,316464.0625,345255.875,340929.9375,317147.65625,324478.15625,313500.75,320558.375,283595.375,-0.013916015625,0.713623046875,-0.726318359375,-13.031004905700684,-8.239745140075684,2.777099370956421,100.0,344988.0,1.0
85427.8880647,316736.21875,347836.15625,342681.84375,318520.34375,327601.84375,314756.5625,322095.1875,284489.8125,-0.016357421875,0.712646484375,-0.72412109375,-12.939452171325684,-7.904052257537842,2.502441167831421,100.0,344989.0,1.0
85427.8881072,316759.1875,348254.59375,342862.09375,318854.8125,328975.9375,314787.3125,322634.03125,284642.15625,-0.017333984375,0.712890625,-0.720703125,-12.969969749450684,-7.629394054412842,2.288818120956421,100.0,344990.0,1.0
85427.8881174,316508.40625,345952.1875,341241.9375,317713.15625,326697.40625,313558.6875,321431.34375,283842.21875,-0.017578125,0.71435546875,-0.71728515625,-13.183592796325684,-7.354735851287842,2.227782964706421,100.0,344991.0,1.0
85427.8956491,316329.78125,344144.09375,340084.59375,316681.84375,323990.59375,312790.15625,320179.625,283206.375,-0.02001953125,0.71630859375,-0.71630859375,-13.641356468200684,-7.080077648162842,2.166747808456421,100.0,344992.0,1.0
85427.895686,316463.96875,345232.375,340920.8125,317129.53125,324468.21875,313491.1875,320542.71875,283566.40625,-0.017822265625,0.71533203125,-0.714599609375,-13.977049827575684,-6.896972179412842,2.227782964706421,100.0,344993.0,1.0
85427.9043383,316732.8125,347805.6875,342668.53125,318504.6875,327589.96875,314750.21875,322073.53125,284455.90625,-0.017822265625,0.717041015625,-0.711181640625,-14.404295921325684,-6.530761241912842,1.9226073026657104,100.0,344994.0,1.0
85427.9043741,316760.8125,348250.375,342865.40625,318855.34375,328994.90625,314798.75,322625.90625,284616.65625,-0.017822265625,0.716064453125,-0.70849609375,-14.801024436950684,-6.195067882537842,1.6479490995407104,100.0,344995.0,1.0
85427.9080715,316517.53125,345963.90625,341257.40625,317725.9375,326745.59375,313571.5625,321429.375,283825.9375,-0.017822265625,0.714599609375,-0.706787109375,-15.136717796325684,-5.859374523162842,1.4343260526657104,100.0,344996.0,1.0
85427.9081075,316335.9375,344149.8125,340094.9375,316693.5625,324044.875,312796.9375,320173.1875,283183.5625,-0.016845703125,0.718017578125,-0.70751953125,-15.563963890075684,-5.523681163787842,1.2817381620407104,100.0,344997.0,1.0
85427.9081172,316472.375,345225.5625,340923.21875,317137.5625,324510.34375,313492.96875,320533.6875,283543.875,-0.0166015625,0.718017578125,-0.708984375,-15.991209983825684,-5.249022960662842,1.2207030057907104,100.0,344998.0,1.0
85427.9131034,316753.125,347808.625,342682.75,318519.25,327635.5625,314763.625,322070.25,284449.46875,-0.017333984375,0.71728515625,-0.70751953125,-16.265867233276367,-4.791259288787842,0.9155272841453552,100.0,344999.0,1.0
85427.9146794,316773.5,348260.21875,342882.3125,318865.625,329044.34375,314809.21875,322622.15625,284605.5,-0.016845703125,0.71923828125,-0.705810546875,-16.479490280151367,-4.394530773162842,0.7629393935203552,100.0,345000.0,1.0
85427.9404851,316529.78125,345992.78125,341283.78125,317741.25,326805.9375,313585.25,321434.90625,283816.84375,-0.017822265625,0.720458984375,-0.705078125,-16.693113327026367,-4.119872570037842,0.4272460639476776,100.0,345001.0,1.0
85427.9429997,316347.46875,344168.59375,340111.59375,316704.46875,324099.78125,312803.75,320175.0,283178.90625,-0.01708984375,0.719482421875,-0.703125,-16.754148483276367,-3.845214605331421,0.3662109076976776,100.0,345002.0,1.0
85427.9453905,316476.40625,345212.53125,340915.4375,317130.40625,324539.65625,313490.65625,320520.625,283530.28125,-0.01513671875,0.722900390625,-0.70703125,-16.784666061401367,-3.540038824081421,0.1525878757238388,100.0,345003.0,1.0
85427.9479393,316745.34375,347777.25,342659.9375,318501.5625,327639.40625,314753.53125,322046.53125,284423.28125,-0.01611328125,0.723876953125,-0.70703125,-16.784666061401367,-3.021239995956421,0.0915527269244194,100.0,345004.0,1.0
85427.9479728,316772.15625,348256.8125,342879.71875,318865.625,329074.8125,314813.15625,322611.15625,284589.5,-0.0185546875,0.72705078125,-0.702392578125,-16.906736373901367,-2.746581792831421,-0.1220703050494194,100.0,345005.0,1.0
85427.950466,316534.96875,346018.53125,341298.90625,317759.65625,326880.0625,313602.84375,321439.5625,283810.65625,-0.01953125,0.72705078125,-0.701416015625,-16.723630905151367,-2.532958745956421,-0.3051757514476776,100.0,345006.0,1.0
85427.9528418,316349.0,344189.0625,340120.53125,316719.3125,324164.875,312818.3125,320177.75,283170.96875,-0.02099609375,0.72998046875,-0.70263671875,-16.815183639526367,-2.136230230331421,-0.4577636420726776,100.0,345007.0,1.0
85427.9554599,316465.59375,345202.59375,340899.0625,317125.125,324548.15625,313488.5,320499.96875,283510.96875,-0.021484375,0.732666015625,-0.70068359375,-17.059324264526367,-1.9531248807907104,-0.5187987685203552,100.0,345008.0,1.0
85427.958005,316730.3125,347759.8125,342635.625,318490.03125,327617.5,314753.53125,322019.28125,284408.625,-0.01953125,0.734619140625,-0.703369140625,-17.242429733276367,-1.5869139432907104,-0.6713866591453552,100.0,345009.0,1.0
85427.9605104,316763.5625,348258.6875,342873.28125,318865.0,329055.4375,314826.9375,322598.8125,284587.53125,-0.0224609375,0.734619140625,-0.6982421875,-17.303464889526367,-1.2512205839157104,-0.7324218153953552,100.0,345010.0,1.0
85427.9605491,316530.9375,346022.28125,341303.03125,317763.3125,326846.53125,313610.0,321428.21875,283809.78125,-0.02490234375,0.73291015625,-0.701416015625,-17.395017623901367,-0.8850097060203552,-0.7934569716453552,100.0,345011.0,1.0
85427.962932,316345.0625,344174.5,340121.9375,316715.21875,324101.84375,312802.125,320152.46875,283164.34375,-0.026611328125,0.73681640625,-0.699462890625,-17.456052780151367,-0.5187987685203552,-0.7324218153953552,100.0,345012.0,1.0
85427.9629626,316460.84375,345170.0625,340890.0625,317112.96875,324463.125,313466.96875,320466.375,283497.125,-0.023681640625,0.739501953125,-0.696533203125,-17.486570358276367,-0.3662109076976776,-0.9460448622703552,100.0,345013.0,1.0
85427.9654212,316716.09375,347701.4375,342606.84375,318458.0,327510.5625,314722.9375,321976.96875,284383.03125,-0.024169921875,0.7392578125,-0.69580078125,-17.456052780151367,-0.0915527269244194,-1.0070799589157104,100.0,345014.0,1.0
85427.9678833,316748.1875,348217.65625,342852.09375,318837.90625,328961.09375,314799.5625,322559.1875,284564.4375,-0.029052734375,0.73779296875,-0.69580078125,-17.395017623901367,-0.0610351525247097,-1.1596678495407104,100.0,345015.0,1.0
85427.9704288,316523.34375,346033.53125,341311.25,317764.75,326804.96875,313605.8125,321400.125,283804.40625,-0.028564453125,0.73779296875,-0.695556640625,-17.486570358276367,-0.03051757626235485,-1.2512205839157104,100.0,345016.0,1.0
85427.9729224,316334.5,344181.03125,340114.4375,316715.84375,324064.375,312801.40625,320123.65625,283160.5,-0.029052734375,0.73828125,-0.6923828125,-17.456052780151367,-0.03051757626235485,-1.2817381620407104,100.0,345017.0,1.0
85427.9754229,316440.625,345130.71875,340844.375,317083.125,324382.46875,313443.28125,320414.25,283483.6875,-0.03369140625,0.734375,-0.694580078125,-17.364500045776367,0.03051757626235485,-1.1596678495407104,100.0,345018.0,1.0
85427.977865,316701.34375,347658.96875,342563.21875,318425.5625,327416.25,314699.875,321913.875,284375.28125,-0.030517578125,0.732666015625,-0.69091796875,-16.998289108276367,0.03051757626235485,-1.3427733182907104,100.0,345019.0,1.0
85427.9795772,316749.34375,348225.25,342847.875,318834.96875,328910.5,314803.40625,322523.09375,284579.65625,-0.033447265625,0.729248046875,-0.69189453125,-16.693113327026367,0.3051757514476776,-1.3122557401657104,100.0,345020.0,1.0
85427.9866739,316523.15625,346057.15625,341319.75,317769.3125,326774.375,313608.59375,321388.96875,283816.125,-0.0390625,0.72314453125,-0.694580078125,-16.021726608276367,0.5493163466453552,-1.3427733182907104,100.0,345021.0,1.0
85427.989216,316331.28125,344195.4375,340118.1875,316715.125,324034.0625,312795.0625,320111.40625,283162.90625,-0.038330078125,0.722900390625,-0.692626953125,-15.197752952575684,0.6713866591453552,-1.5869139432907104,100.0,345022.0,1.0
85427.9965717,316428.21875,345123.65625,340833.8125,317072.125,324335.53125,313426.0,320391.09375,283483.0,-0.038330078125,0.72509765625,-0.697265625,-14.556883811950684,0.5798339247703552,-1.5869139432907104,100.0,345023.0,1.0
85428.0067393,316685.6875,347644.75,342549.34375,318411.625,327359.03125,314684.5,321890.71875,284378.65625,-0.03369140625,0.731689453125,-0.69091796875,-13.793944358825684,0.6713866591453552,-1.4038084745407104,100.0,345024.0,1.0
85428.0092467,316733.71875,348226.78125,342845.5625,318828.0625,328876.6875,314799.21875,322509.3125,284588.9375,-0.0302734375,0.740234375,-0.689208984375,-13.854979515075684,0.6713866591453552,-0.9460448622703552,100.0,345025.0,1.0
85428.0115796,316514.65625,346075.28125,341328.21875,317774.0625,326770.0,313608.03125,321379.3125,283827.125,-0.030517578125,0.740234375,-0.688720703125,-14.038084983825684,0.6713866591453552,-0.3967284858226776,100.0,345026.0,1.0
85428.0143048,316333.53125,344212.6875,340129.71875,316724.3125,324026.8125,312792.46875,320095.59375,283173.90625,-0.037109375,0.72900390625,-0.69482421875,-13.793944358825684,0.8239745497703552,-0.2746581733226776,100.0,345027.0,1.0
85428.0143447,316439.5625,345148.5,340853.75,317084.375,324329.71875,313431.65625,320377.40625,283493.34375,-0.0341796875,0.726318359375,-0.691162109375,-13.092040061950684,0.7019042372703552,-0.6103515028953552,100.0,345028.0,1.0
85428.0180007,316691.6875,347684.875,342572.34375,318422.78125,327369.21875,314692.71875,321882.21875,284386.71875,-0.02587890625,0.725341796875,-0.688232421875,-12.145995140075684,0.7019042372703552,-0.8850097060203552,100.0,345029.0,1.0
85428.0180379,316731.5625,348261.28125,342858.25,318833.625,328891.1875,314798.21875,322500.375,284596.375,-0.015869140625,0.734130859375,-0.682373046875,-11.444090843200684,0.7019042372703552,-0.5187987685203552,100.0,345030.0,1.0
85428.018048,316512.4375,346088.53125,341328.6875,317776.90625,326772.6875,313601.53125,321361.875,283840.78125,-0.006591796875,0.7412109375,-0.678466796875,-11.627196311950684,0.9155272841453552,0.5187987685203552,100.0,345031.0,1.0
85428.021875,316333.09375,344218.65625,340129.46875,316729.6875,324021.0,312781.84375,320068.875,283187.5,-0.00048828125,0.745849609375,-0.681396484375,-12.115477561950684,1.4038084745407104,1.5869139432907104,100.0,345032.0,1.0
85428.0219104,316438.84375,345144.375,340844.1875,317084.46875,324309.78125,313419.65625,320341.28125,283503.0,0.000244140625,0.741943359375,-0.67919921875,-12.542723655700684,1.9836424589157104,2.136230230331421,100.0,345033.0,1.0
85428.0219203,316695.28125,347675.9375,342559.09375,318421.71875,327347.65625,314694.78125,321854.21875,284396.8125,0.00244140625,0.73681640625,-0.683837890625,-12.542723655700684,2.685546636581421,2.166747808456421,100.0,345034.0,1.0
85428.0257427,316744.0,348268.4375,342860.21875,318840.84375,328888.84375,314812.625,322484.625,284606.84375,0.010498046875,0.739013671875,-0.68359375,-12.573241233825684,3.356933355331421,2.624511480331421,100.0,345035.0,1.0
85428.0257795,316527.90625,346114.0,341346.375,317789.875,326790.9375,313614.5625,321352.03125,283844.5625,0.0029296875,0.736572265625,-0.68212890625,-12.695311546325684,4.302978038787842,3.448486089706421,100.0,345036.0,1.0
85428.0257893,316345.40625,344232.34375,340140.625,316737.65625,324030.5625,312788.4375,320055.53125,283183.75,0.002197265625,0.731201171875,-0.683349609375,-12.390135765075684,4.852294445037842,3.570556402206421,100.0,345037.0,1.0
85428.0279678,316441.625,345144.9375,340844.1875,317082.84375,324302.28125,313417.78125,320322.6875,283494.53125,0.00048828125,0.72998046875,-0.6806640625,-11.901854515075684,5.401610851287842,3.540038824081421,100.0,345038.0,1.0
85428.0305124,316695.0,347689.28125,342559.71875,318417.25,327346.3125,314690.75,321838.5,284390.90625,-0.001220703125,0.732177734375,-0.67724609375,-11.444090843200684,6.103515148162842,3.631591558456421,100.0,345039.0,1.0
85428.0355623,316745.15625,348292.125,342868.09375,318843.28125,328910.125,314816.125,322481.25,284611.125,-0.001220703125,0.73828125,-0.67724609375,-11.291502952575684,6.500243663787842,3.906249761581421,100.0,345040.0,1.0
85428.0356026,316538.96875,346141.53125,341362.65625,317805.0,326822.75,313621.8125,321356.5,283861.71875,-0.005615234375,0.740478515625,-0.67431640625,-11.413573265075684,6.866454601287842,4.394530773162842,100.0,345041.0,1.0
85428.0381001,316354.53125,344246.21875,340147.625,316748.8125,324049.4375,312783.8125,320054.90625,283200.90625,-0.011962890625,0.74169921875,-0.67333984375,-11.505125999450684,7.263183116912842,4.608153820037842,100.0,345042.0,1.0
85428.0405619,316448.5,345135.71875,340833.28125,317078.375,324290.75,313404.03125,320309.09375,283500.34375,-0.015625,0.741943359375,-0.671630859375,-11.566161155700684,7.385253429412842,4.608153820037842,100.0,345043.0,1.0
85428.0406013,316700.90625,347678.375,342552.84375,318415.0,327332.90625,314684.6875,321833.03125,284398.6875,-0.020751953125,0.739990234375,-0.673583984375,-11.444090843200684,7.507323741912842,4.425048351287842,100.0,345044.0,1.0
85428.0478855,316755.96875,348304.03125,342876.59375,318855.0625,328917.90625,314817.71875,322496.71875,284627.3125,-0.022705078125,0.739013671875,-0.677490234375,-11.169432640075684,7.598876476287842,4.302978038787842,100.0,345045.0,1.0
85428.0530036,316552.03125,346170.4375,341383.46875,317828.78125,326852.71875,313627.53125,321384.21875,283881.28125,-0.024658203125,0.73974609375,-0.672119140625,-10.864256858825684,7.598876476287842,4.211425304412842,100.0,345046.0,1.0
85428.0578084,316367.78125,344290.5625,340177.28125,316777.625,324097.1875,312795.59375,320088.0,283219.78125,-0.0283203125,0.739990234375,-0.671630859375,-10.406493186950684,7.537841320037842,4.180907726287842,100.0,345047.0,1.0
85428.0604782,316444.84375,345115.6875,340816.375,317068.71875,324286.625,313388.09375,320306.9375,283497.8125,-0.032470703125,0.742919921875,-0.671875,-9.979247093200684,7.446288585662842,4.211425304412842,100.0,345048.0,1.0
85428.0628394,316684.71875,347595.3125,342494.71875,318370.125,327257.4375,314644.8125,321791.71875,284376.6875,-0.035400390625,0.751220703125,-0.67236328125,-9.704588890075684,7.263183116912842,3.906249761581421,100.0,345049.0,1.0
85428.0653553,316747.375,348267.65625,342854.21875,318836.28125,328874.71875,314807.625,322465.40625,284617.125,-0.038330078125,0.758544921875,-0.66796875,-9.643553733825684,7.171630382537842,3.723144292831421,100.0,345050.0,1.0
85428.067996,316561.34375,346210.46875,341414.0625,317850.3125,326882.9375,313652.75,321388.40625,283894.71875,-0.03955078125,0.762451171875,-0.666748046875,-9.826659202575684,6.927489757537842,3.570556402206421,100.0,345051.0,1.0
85428.0705936,316369.65625,344289.375,340179.625,316778.6875,324097.53125,312794.625,320073.5,283215.125,-0.03955078125,0.764892578125,-0.66552734375,-10.101317405700684,6.652831554412842,3.479003667831421,100.0,345052.0,1.0
85428.0706329,316441.625,345076.625,340795.8125,317050.21875,324242.5625,313370.21875,320276.09375,283481.65625,-0.041015625,0.766357421875,-0.662841796875,-10.253905296325684,6.378173351287842,3.173827886581421,100.0,345053.0,1.0
85428.0754344,316683.90625,347559.1875,342474.25,318353.0625,327206.5,314638.0,321760.4375,284360.4375,-0.039794921875,0.765869140625,-0.662353515625,-10.345458030700684,5.889892101287842,2.716064214706421,100.0,345054.0,1.0
85428.0778475,316742.65625,348253.875,342848.78125,318831.375,328840.21875,314807.25,322450.40625,284609.78125,-0.03759765625,0.76416015625,-0.660888671875,-10.375975608825684,5.554198741912842,2.441406011581421,100.0,345055.0,1.0
85428.0904645,316555.625,346213.78125,341424.0625,317859.625,326868.4375,313652.125,321394.21875,283892.03125,-0.0361328125,0.765625,-0.6640625,-10.314940452575684,5.218505382537842,2.258300542831421,100.0,345056.0,1.0
85428.0992419,316364.90625,344286.09375,340187.5625,316786.5625,324079.375,312786.125,320084.9375,283212.8125,-0.032958984375,0.764892578125,-0.66796875,-10.375975608825684,4.943847179412842,2.075195074081421,100.0,345057.0,1.0
85428.1105778,316430.625,345056.9375,340788.46875,317046.375,324205.625,313353.21875,320282.90625,283476.5625,-0.0322265625,0.76513671875,-0.662841796875,-10.284422874450684,4.608153820037842,1.9531248807907104,100.0,345058.0,1.0
85428.1106193,316667.5625,347537.8125,342458.78125,318339.71875,327163.75,314622.375,321767.15625,284355.96875,-0.0302734375,0.7646484375,-0.664794921875,-10.375975608825684,4.394530773162842,1.7089842557907104,100.0,345059.0,1.0
85428.1130264,316734.34375,348244.125,342837.875,318823.15625,328817.96875,314805.84375,322462.09375,284609.0625,-0.029296875,0.766357421875,-0.66650390625,-10.467528343200684,4.180907726287842,1.6479490995407104,100.0,345060.0,1.0
85428.1154375,316548.46875,346211.90625,341414.96875,317854.6875,326863.78125,313652.75,321397.4375,283890.78125,-0.027587890625,0.763916015625,-0.66357421875,-10.559081077575684,3.936767339706421,1.5869139432907104,100.0,345061.0,1.0
85428.1179297,316362.40625,344293.6875,340182.5625,316786.90625,324083.21875,312788.1875,320079.3125,283213.5,-0.023193359375,0.762451171875,-0.662841796875,-10.498045921325684,3.784179449081421,1.5258787870407104,100.0,345062.0,1.0
85428.1179654,316429.375,345047.28125,340774.1875,317036.8125,324189.53125,313344.75,320260.09375,283469.03125,-0.018310546875,0.75927734375,-0.659912109375,-10.437010765075684,3.753661870956421,1.4953612089157104,100.0,345063.0,1.0
85428.1206224,316665.5,347517.34375,342443.40625,318326.5,327133.53125,314608.96875,321739.53125,284347.1875,-0.01318359375,0.758544921875,-0.662109375,-10.314940452575684,3.723144292831421,1.4953612089157104,100.0,345064.0,1.0
85428.1206592,316735.5,348248.59375,342843.0625,318823.40625,328806.5,314802.4375,322447.875,284611.5625,-0.013427734375,0.759033203125,-0.66455078125,-10.223387718200684,3.753661870956421,1.7089842557907104,100.0,345065.0,1.0
85428.1292905,316554.8125,346242.21875,341438.8125,317868.375,326876.40625,313655.0625,321399.15625,283903.03125,-0.009765625,0.7587890625,-0.664306640625,-10.162352561950684,3.814697027206421,1.9226073026657104,100.0,345066.0,1.0
85428.1293268,316366.96875,344309.5,340198.75,316795.65625,324087.15625,312783.8125,320076.8125,283226.84375,-0.009033203125,0.757080078125,-0.660888671875,-10.009764671325684,4.028319835662842,2.044677495956421,100.0,345067.0,1.0
85428.137955,316435.09375,345044.96875,340777.21875,317035.90625,324173.71875,313341.0625,320251.6875,283479.9375,-0.009033203125,0.75537109375,-0.6611328125,-9.887694358825684,4.028319835662842,2.288818120956421,100.0,345068.0,1.0
85428.1403424,316671.125,347513.84375,342441.0,318319.78125,327107.34375,314607.34375,321733.96875,284354.25,-0.009521484375,0.755615234375,-0.661865234375,-9.796141624450684,4.180907726287842,2.319335699081421,100.0,345069.0,1.0
85428.1427132,316745.4375,348270.9375,342857.71875,318831.65625,328810.34375,314819.96875,322462.03125,284625.875,-0.009521484375,0.7548828125,-0.66064453125,-9.735106468200684,4.272460460662842,2.441406011581421,100.0,345070.0,1.0
85428.1454975,316566.4375,346276.1875,341461.71875,317887.34375,326909.75,313680.28125,321423.03125,283920.8125,-0.011474609375,0.7568359375,-0.657470703125,-9.460448265075684,4.333495616912842,2.624511480331421,100.0,345071.0,1.0
85428.145511,316373.03125,344328.0,340209.84375,316802.71875,324109.25,312794.71875,320085.75,283225.75,-0.009033203125,0.760009765625,-0.658203125,-9.521483421325684,4.333495616912842,2.777099370956421,100.0,345072.0,1.0
85428.1541413,316428.375,345036.28125,340769.71875,317028.3125,324166.125,313336.96875,320246.59375,283468.3125,-0.009765625,0.760986328125,-0.659423828125,-9.399413108825684,4.364013195037842,2.838134527206421,100.0,345073.0,1.0
85428.1567057,316659.25,347497.5,342429.53125,318311.03125,327089.28125,314604.3125,321730.84375,284348.8125,-0.008056640625,0.759033203125,-0.659912109375,-9.307860374450684,4.272460460662842,3.021239995956421,100.0,345074.0,1.0
85428.1591932,316733.4375,348262.09375,342850.84375,318824.9375,328799.0,314814.78125,322467.125,284623.8125,-0.006103515625,0.760498046875,-0.660888671875,-9.277342796325684,4.211425304412842,3.051757574081421,100.0,345075.0,1.0
85428.1616831,316555.53125,346278.59375,341462.53125,317883.21875,326910.28125,313671.96875,321429.1875,283916.4375,-0.007568359375,0.762451171875,-0.6591796875,-9.124754905700684,4.302978038787842,3.234863042831421,100.0,345076.0,1.0
85428.1616967,316367.84375,344325.6875,340209.3125,316803.90625,324109.0625,312782.0,320093.0,283225.9375,-0.006103515625,0.7646484375,-0.656982421875,-9.124754905700684,4.455565929412842,3.417968511581421,100.0,345077.0,1.0
85428.1655578,316428.125,345021.375,340760.3125,317024.65625,324151.53125,313317.03125,320243.21875,283465.46875,-0.0107421875,0.76513671875,-0.6591796875,-9.033202171325684,4.547118663787842,3.662109136581421,100.0,345078.0,1.0
85428.1655741,316654.3125,347478.28125,342413.90625,318300.3125,327067.8125,314583.375,321713.84375,284340.125,-0.011474609375,0.76708984375,-0.658203125,-9.063719749450684,4.608153820037842,3.845214605331421,100.0,345079.0,1.0
85428.1655764,316727.28125,348256.03125,342848.40625,318822.0,328793.28125,314804.5625,322461.375,284623.46875,-0.01123046875,0.767822265625,-0.6591796875,-9.033202171325684,4.669188976287842,3.936767339706421,100.0,345080.0,1.0
85428.17043,316554.28125,346281.09375,341473.0625,317893.15625,326916.4375,313670.8125,321442.875,283926.53125,-0.014404296875,0.7666015625,-0.659912109375,-9.094237327575684,4.577636241912842,3.906249761581421,100.0,345081.0,1.0
85428.1718834,316368.5625,344323.53125,340217.71875,316810.6875,324107.28125,312779.78125,320108.1875,283229.53125,-0.015380859375,0.766845703125,-0.66064453125,-9.002684593200684,4.486083507537842,3.936767339706421,100.0,345082.0,1.0
85428.221581,316427.21875,344999.09375,340753.0625,317017.59375,324121.78125,313310.75,320245.25,283460.1875,-0.016845703125,0.768798828125,-0.656982421875,-9.124754905700684,4.119872570037842,4.119872570037842,100.0,345083.0,1.0
