Time,FZ,C3,CZ,C4,PZ,PO7,OZ,PO8,AccX,AccY,AccZ,Gyro1,Gyro2,Gyro3,Battery,Counter,Validation
85088.0571061,316757.125,344616.34375,339098.40625,316623.75,321775.0,310846.09375,316361.875,282162.71875,0.056884765625,0.8642578125,-0.57568359375,2.716064214706421,-40.161128997802734,-25.573728561401367,100.0,259984.0,1.0
85088.0595168,316659.78125,344241.90625,338958.6875,316421.875,320795.65625,310914.46875,316033.84375,282108.875,0.0537109375,0.860107421875,-0.57568359375,2.319335699081421,-38.665767669677734,-24.383543014526367,100.0,259985.0,1.0
85088.0671254,316814.34375,345984.09375,340402.6875,317794.0625,323224.46875,312120.5,317277.46875,283036.9375,0.048828125,0.85595703125,-0.579833984375,2.105712652206421,-37.048336029052734,-23.223875045776367,100.0,259986.0,1.0
85088.0671385,317001.03125,347429.1875,341430.6875,318837.71875,325740.21875,312796.84375,318392.375,283664.46875,0.03662109375,0.853271484375,-0.57958984375,1.9836424589157104,-35.400386810302734,-22.033689498901367,100.0,259987.0,1.0
85088.069613,316966.4375,346566.84375,340597.78125,318077.59375,324767.03125,311979.59375,317796.59375,283091.375,0.02587890625,0.849853515625,-0.573974609375,1.8615721464157104,-33.905025482177734,-20.904539108276367,100.0,259988.0,1.0
85088.0720898,316752.65625,344626.71875,339094.9375,316617.21875,321750.59375,310842.25,316376.625,282154.21875,0.01416015625,0.844482421875,-0.5703125,1.5869139432907104,-32.379146575927734,-19.561765670776367,100.0,259989.0,1.0
85088.0745707,316655.3125,344249.15625,338954.375,316418.28125,320771.6875,310916.71875,316055.375,282105.125,0.003173828125,0.841064453125,-0.5654296875,1.3427733182907104,-30.975339889526367,-18.218992233276367,100.0,259990.0,1.0
85088.0770274,316811.0625,345973.5625,340395.09375,317793.375,323186.9375,312118.96875,317295.53125,283031.40625,-0.00830078125,0.83349609375,-0.56005859375,1.0986326932907104,-29.602048873901367,-16.967771530151367,100.0,259991.0,1.0
85088.0804929,316992.375,347389.75,341412.09375,318832.4375,325672.0,312784.25,318397.5625,283650.28125,-0.020751953125,0.831298828125,-0.555908203125,0.9460448622703552,-28.320310592651367,-15.686034202575684,100.0,259992.0,1.0
85088.080506,316971.34375,346561.3125,340603.3125,318091.34375,324719.46875,311987.8125,317826.8125,283090.65625,-0.033935546875,0.82666015625,-0.552978515625,0.7324218153953552,-27.252195358276367,-14.465331077575684,100.0,259993.0,1.0
85088.1056761,316763.84375,344656.5,339120.9375,316639.21875,321728.15625,310865.75,316419.71875,282154.21875,-0.05029296875,0.82275390625,-0.55029296875,0.2746581733226776,-25.817869186401367,-12.786864280700684,100.0,259994.0,1.0
85088.1145524,316663.09375,344279.28125,338978.0,316436.53125,320751.46875,310938.8125,316097.84375,282104.78125,-0.05810546875,0.81982421875,-0.55224609375,0.1220703050494194,-25.024412155151367,-11.810301780700684,100.0,259995.0,1.0
85088.1145755,316808.625,345953.625,340391.0625,317793.8125,323127.84375,312117.1875,317315.65625,283024.34375,-0.06591796875,0.817626953125,-0.555908203125,0.03051757626235485,-24.200437545776367,-10.833739280700684,100.0,259996.0,1.0
85088.1145807,316990.9375,347368.03125,341413.15625,318834.6875,325615.65625,312791.75,318417.4375,283650.28125,-0.070556640625,0.814208984375,-0.55859375,-0.03051757626235485,-23.437498092651367,-9.857176780700684,100.0,259997.0,1.0
85088.1221974,316968.84375,346580.25,340627.5625,318102.25,324705.25,312012.84375,317861.5,283095.21875,-0.071533203125,0.809814453125,-0.559814453125,-0.03051757626235485,-22.735593795776367,-8.972167015075684,100.0,259998.0,1.0
85088.1222283,316757.40625,344691.53125,339142.78125,316643.0625,321732.90625,310890.78125,316457.0,282155.46875,-0.07421875,0.80615234375,-0.5576171875,-0.0610351525247097,-21.850584030151367,-8.087157249450684,100.0,259999.0,1.0
85088.1222346,316651.28125,344282.25,338972.34375,316421.3125,320731.625,310941.125,316112.34375,282094.0625,-0.073486328125,0.8046875,-0.55859375,-0.0915527269244194,-20.874021530151367,-7.202147960662842,100.0,260000.0,1.0
85088.1271478,316804.875,345945.375,340383.03125,317782.71875,323109.0625,312114.78125,317321.375,283010.8125,-0.076171875,0.802490234375,-0.561279296875,-0.1525878757238388,-19.866941452026367,-6.408690929412842,100.0,260001.0,1.0
85088.1296009,316993.34375,347366.34375,341419.25,318838.53125,325619.15625,312793.28125,318426.28125,283643.90625,-0.080810546875,0.801513671875,-0.561279296875,-0.0610351525247097,-18.737791061401367,-5.706786632537842,100.0,260002.0,1.0
85088.1371507,316968.21875,346581.6875,340637.65625,318105.9375,324724.46875,312027.15625,317873.84375,283093.71875,-0.0830078125,0.8017578125,-0.5595703125,0.0915527269244194,-17.761228561401367,-5.065917491912842,100.0,260003.0,1.0
85088.1396572,316756.25,344684.84375,339144.03125,316636.15625,321744.96875,310898.84375,316464.875,282148.59375,-0.083740234375,0.80078125,-0.55810546875,0.1220703050494194,-16.693113327026367,-4.425048351287842,100.0,260004.0,1.0
85088.147131,316652.8125,344260.59375,338964.65625,316412.90625,320727.6875,310938.09375,316116.8125,282084.21875,-0.087646484375,0.800537109375,-0.557373046875,0.1220703050494194,-15.533446311950684,-3.845214605331421,100.0,260005.0,1.0
85088.1495834,316808.09375,345930.625,340384.71875,317786.75,323104.6875,312112.71875,317329.875,283005.65625,-0.09326171875,0.8017578125,-0.559326171875,-0.03051757626235485,-14.465331077575684,-3.143310308456421,100.0,260006.0,1.0
85088.1520309,316997.71875,347370.625,341433.28125,318851.5,325629.875,312795.4375,318443.625,283642.5,-0.096435546875,0.800537109375,-0.560791015625,0.0,-13.519286155700684,-2.624511480331421,100.0,260007.0,1.0
85088.1520669,316973.21875,346591.4375,340647.125,318110.3125,324741.4375,312023.125,317886.875,283088.78125,-0.1015625,0.80078125,-0.56396484375,-0.0610351525247097,-12.542723655700684,-2.014159917831421,100.0,260008.0,1.0
85088.1535773,316761.96875,344690.1875,339148.21875,316636.78125,321761.5,310898.75,316475.3125,282145.0,-0.10400390625,0.80126953125,-0.564208984375,-0.0610351525247097,-11.444090843200684,-1.7089842557907104,100.0,260009.0,1.0
85088.1607604,316653.96875,344258.90625,338963.15625,316407.1875,320740.3125,310943.09375,316121.625,282078.21875,-0.106689453125,0.80322265625,-0.57080078125,0.0915527269244194,-10.620116233825684,-1.4038084745407104,100.0,260010.0,1.0
85088.163418,316816.40625,345950.40625,340403.3125,317796.9375,323142.75,312125.125,317339.4375,283006.4375,-0.106689453125,0.809814453125,-0.568603515625,0.3051757514476776,-9.765624046325684,-1.0070799589157104,100.0,260011.0,1.0
85088.1634596,317013.5625,347423.375,341472.4375,318881.96875,325714.375,312823.9375,318473.21875,283656.78125,-0.10693359375,0.81689453125,-0.570068359375,0.3967284858226776,-8.819579124450684,-0.7019042372703552,100.0,260012.0,1.0
85088.1658972,316990.3125,346640.25,340678.15625,318136.3125,324841.125,312046.28125,317926.59375,283102.125,-0.106689453125,0.8212890625,-0.569091796875,0.4577636420726776,-7.751464366912842,-0.6713866591453552,100.0,260013.0,1.0
85088.1885247,316763.84375,344665.25,339125.96875,316616.5,321795.9375,310878.34375,316473.8125,282129.0,-0.107666015625,0.824951171875,-0.567138671875,0.3051757514476776,-6.622313976287842,-0.3662109076976776,100.0,260014.0,1.0
85088.1885615,316659.25,344212.5,338932.65625,316382.0625,320733.59375,310915.5625,316099.1875,282054.25,-0.110595703125,0.82421875,-0.56640625,0.0610351525247097,-5.432128429412842,-0.1831054538488388,100.0,260015.0,1.0
85088.1909656,316831.0,345942.96875,340402.25,317798.375,323163.6875,312125.21875,317340.53125,282999.5625,-0.1123046875,0.8271484375,-0.5654296875,-0.2441406100988388,-4.394530773162842,0.0,100.0,260016.0,1.0
85088.1910034,317022.125,347447.4375,341493.625,318897.28125,325771.40625,312838.4375,318492.0,283649.375,-0.11572265625,0.832275390625,-0.562744140625,-0.6713866591453552,-3.173827886581421,0.2136230319738388,100.0,260017.0,1.0
85088.1933751,316989.875,346658.6875,340692.28125,318144.09375,324892.1875,312055.65625,317938.125,283085.65625,-0.120361328125,0.83203125,-0.56201171875,-1.0681151151657104,-2.136230230331421,0.4272460639476776,100.0,260018.0,1.0
85088.1958384,316762.3125,344673.03125,339132.5625,316615.15625,321826.96875,310888.90625,316483.5625,282107.09375,-0.123779296875,0.834228515625,-0.55859375,-1.4648436307907104,-1.2512205839157104,0.3356933295726776,100.0,260019.0,1.0
85088.1983402,316662.1875,344212.59375,338935.0625,316375.53125,320743.15625,310920.65625,316109.375,282031.1875,-0.1259765625,0.835205078125,-0.55908203125,-1.8310545682907104,-0.4882812201976776,0.2746581733226776,100.0,260020.0,1.0
85088.2009084,316835.71875,345936.90625,340401.53125,317794.34375,323151.6875,312116.375,317345.4375,282973.90625,-0.126953125,0.833740234375,-0.554443359375,-2.136230230331421,0.2441406100988388,0.3051757514476776,100.0,260021.0,1.0
85088.2034152,317034.5625,347466.1875,341511.875,318912.75,325778.46875,312846.5625,318514.875,283647.3125,-0.126220703125,0.833251953125,-0.555419921875,-2.349853277206421,0.9765624403953552,0.3051757514476776,100.0,260022.0,1.0
85088.2034557,316995.5,346685.5,340716.40625,318157.34375,324913.03125,312073.5625,317971.8125,283095.84375,-0.12158203125,0.835693359375,-0.554443359375,-2.899169683456421,1.6784666776657104,0.3356933295726776,100.0,260023.0,1.0
85088.2070066,316759.09375,344694.40625,339143.125,316614.8125,321833.9375,310895.53125,316505.09375,282104.59375,-0.115966796875,0.837158203125,-0.559814453125,-3.356933355331421,2.349853277206421,0.4577636420726776,100.0,260024.0,1.0
85088.2384103,316656.46875,344221.0,338934.625,316370.1875,320731.09375,310918.6875,316117.6875,282020.28125,-0.11181640625,0.843994140625,-0.56103515625,-3.662109136581421,3.082275152206421,0.5187987685203552,100.0,260025.0,1.0
85088.2384524,316826.875,345940.1875,340398.40625,317788.28125,323128.90625,312119.59375,317346.96875,282961.75,-0.107421875,0.848876953125,-0.56689453125,-4.089354991912842,3.845214605331421,0.6408690810203552,100.0,260026.0,1.0
85088.2405575,317027.59375,347472.53125,341508.21875,318910.3125,325759.53125,312850.125,318511.5625,283635.0625,-0.107666015625,0.853515625,-0.570556640625,-4.516601085662842,4.669188976287842,0.7629393935203552,100.0,260027.0,1.0
85088.2405948,316993.0,346695.875,340715.34375,318162.25,324901.03125,312075.25,317962.15625,283081.90625,-0.10546875,0.858642578125,-0.5673828125,-4.882812023162842,5.645751476287842,0.7934569716453552,100.0,260028.0,1.0
85088.2852531,316759.71875,344704.40625,339146.25,316622.125,321828.5625,310896.5,316498.40625,282099.59375,-0.104248046875,0.858642578125,-0.564208984375,-5.462646007537842,6.774901866912842,0.9155272841453552,100.0,260029.0,1.0
85088.2896943,316655.75,344222.78125,338932.21875,316367.84375,320716.625,310919.9375,316107.875,282019.65625,-0.10205078125,0.85498046875,-0.559326171875,-6.103515148162842,7.965087413787842,0.9765624403953552,100.0,260030.0,1.0
85088.2919796,316822.75,345938.21875,340393.5625,317780.9375,323114.875,312126.5625,317340.59375,282965.78125,-0.1015625,0.854248046875,-0.55615234375,-6.713866710662842,9.246825218200684,1.0986326932907104,100.0,260031.0,1.0
85088.2946498,317017.59375,347474.78125,341514.1875,318910.5,325764.96875,312863.5625,318517.1875,283645.78125,-0.103271484375,0.85205078125,-0.55419921875,-7.385253429412842,10.345458030700684,1.2512205839157104,100.0,260032.0,1.0
85088.2971321,316979.40625,346702.5625,340723.84375,318167.53125,324931.0,312088.46875,317981.84375,283092.1875,-0.105712890625,0.849853515625,-0.556396484375,-7.965087413787842,11.230467796325684,1.1596678495407104,100.0,260033.0,1.0
85088.2995133,316746.6875,344693.0625,339145.71875,316621.5,321846.90625,310896.15625,316508.0625,282101.375,-0.108154296875,0.846923828125,-0.5546875,-8.331297874450684,11.962889671325684,1.1901854276657104,100.0,260034.0,1.0
85088.3020072,316646.53125,344197.21875,338924.0,316359.53125,320714.75,310905.1875,316109.90625,282011.4375,-0.109130859375,0.843994140625,-0.5537109375,-8.575438499450684,12.603758811950684,1.0070799589157104,100.0,260035.0,1.0
85088.3046667,316825.8125,345927.3125,340393.9375,317778.25,323112.09375,312118.53125,317351.96875,282963.25,-0.107666015625,0.8388671875,-0.5556640625,-8.911131858825684,13.275145530700684,0.7934569716453552,100.0,260036.0,1.0
85088.3071301,317023.65625,347485.5,341518.3125,318911.65625,325773.90625,312861.0625,318541.0625,283643.5625,-0.105224609375,0.83349609375,-0.556396484375,-9.063719749450684,13.854979515075684,0.7629393935203552,100.0,260037.0,1.0
85088.3096285,316990.75,346723.84375,340740.03125,318181.21875,324955.65625,312096.78125,318017.78125,283099.875,-0.1005859375,0.828125,-0.5576171875,-9.063719749450684,14.373778343200684,0.7324218153953552,100.0,260038.0,1.0
85088.3145015,316761.34375,344712.1875,339164.125,316639.65625,321867.71875,310909.75,316538.4375,282108.25,-0.09716796875,0.824462890625,-0.555908203125,-9.124754905700684,15.014647483825684,0.4272460639476776,100.0,260039.0,1.0
85088.3171548,316655.46875,344208.125,338930.5,316365.1875,320712.59375,310911.78125,316121.8125,282006.4375,-0.093994140625,0.8193359375,-0.559814453125,-9.185790061950684,15.655516624450684,0.3967284858226776,100.0,260040.0,1.0
85088.3194522,316822.65625,345939.125,340390.09375,317774.84375,323104.5,312118.78125,317362.15625,282952.90625,-0.09423828125,0.815673828125,-0.561279296875,-8.972167015075684,16.296384811401367,0.2746581733226776,100.0,260041.0,1.0
85088.3221296,317021.34375,347494.625,341516.625,318911.03125,325769.625,312858.375,318548.40625,283631.40625,-0.09130859375,0.814697265625,-0.563232421875,-8.850096702575684,16.906736373901367,0.0915527269244194,100.0,260042.0,1.0
85088.3245976,316993.875,346732.53125,340746.90625,318188.375,324963.34375,312096.4375,318029.75,283095.75,-0.08935546875,0.81640625,-0.56396484375,-8.728026390075684,17.639158248901367,-0.2441406100988388,100.0,260043.0,1.0
85088.334636,316769.21875,344720.78125,339173.0625,316648.0625,321880.0625,310906.78125,316560.53125,282111.5625,-0.089111328125,0.81640625,-0.561767578125,-8.666991233825684,18.157957077026367,-0.4577636420726776,100.0,260044.0,1.0
85088.3371511,316660.125,344202.3125,338926.75,316360.25,320701.40625,310898.5625,316132.28125,282004.09375,-0.0888671875,0.819091796875,-0.561279296875,-8.544920921325684,18.798826217651367,-0.6103515028953552,100.0,260045.0,1.0
85088.3446182,316830.28125,345934.75,340387.21875,317765.65625,323082.0625,312115.21875,317367.78125,282952.8125,-0.0908203125,0.82080078125,-0.561767578125,-8.605956077575684,19.195554733276367,-0.8544921278953552,100.0,260046.0,1.0
85088.3521476,317038.9375,347514.375,341533.34375,318921.5,325777.84375,312880.71875,318577.28125,283653.65625,-0.089599609375,0.819580078125,-0.5615234375,-8.636473655700684,19.592283248901367,-1.1291502714157104,100.0,260047.0,1.0
85088.3521889,317011.40625,346743.78125,340764.34375,318207.125,324982.5625,312109.9375,318054.25,283113.375,-0.086669921875,0.819091796875,-0.560302734375,-8.514403343200684,20.172117233276367,-1.3732908964157104,100.0,260048.0,1.0
85088.3521992,316784.40625,344708.1875,339181.3125,316662.46875,321882.9375,310904.90625,316565.34375,282117.28125,-0.091796875,0.81787109375,-0.560546875,-8.575438499450684,20.629880905151367,-1.6174315214157104,100.0,260049.0,1.0
85088.3559051,316684.09375,344193.8125,338938.75,316373.84375,320695.59375,310903.75,316134.875,282012.25,-0.093994140625,0.815185546875,-0.557373046875,-8.514403343200684,21.026609420776367,-1.9226073026657104,100.0,260050.0,1.0
85088.3559405,316846.90625,345942.34375,340397.0625,317771.46875,323078.75,312127.28125,317376.28125,282964.4375,-0.09619140625,0.810302734375,-0.55712890625,-8.392333030700684,21.301267623901367,-2.288818120956421,100.0,260051.0,1.0
85088.35595,317044.40625,347530.9375,341541.03125,318924.90625,325786.09375,312894.40625,318593.375,283668.5,-0.102294921875,0.807861328125,-0.555908203125,-8.270262718200684,21.759031295776367,-2.868652105331421,100.0,260052.0,1.0
85088.3575205,317018.75,346757.28125,340776.9375,318216.25,324996.09375,312120.3125,318073.84375,283133.21875,-0.104248046875,0.808349609375,-0.55859375,-7.934569835662842,21.881101608276367,-3.356933355331421,100.0,260053.0,1.0
85088.3645305,316788.96875,344700.40625,339186.3125,316664.25,321880.59375,310898.375,316569.65625,282129.375,-0.10546875,0.808837890625,-0.559814453125,-7.781981945037842,21.942136764526367,-3.784179449081421,100.0,260054.0,1.0
85088.3671595,316684.8125,344172.71875,338933.90625,316365.25,320672.90625,310885.15625,316128.15625,282015.625,-0.105224609375,0.806640625,-0.560546875,-7.568358898162842,21.911619186401367,-4.333495616912842,100.0,260055.0,1.0
85088.3672024,316855.46875,345933.40625,340396.6875,317762.59375,323046.5625,312118.34375,317369.5625,282968.4375,-0.103271484375,0.8046875,-0.560302734375,-7.263183116912842,21.972654342651367,-4.974364757537842,100.0,260056.0,1.0
85088.3722257,317046.90625,347536.28125,341542.53125,318916.59375,325765.6875,312890.46875,318591.84375,283671.46875,-0.104248046875,0.801513671875,-0.5615234375,-6.866454601287842,21.942136764526367,-5.371093273162842,100.0,260057.0,1.0
85088.3745176,317020.09375,346759.25,340779.0,318216.53125,324991.0625,312117.90625,318076.25,283140.125,-0.1025390625,0.800537109375,-0.56201171875,-6.835937023162842,22.003171920776367,-5.554198741912842,100.0,260058.0,1.0
85088.3771315,316795.21875,344687.78125,339188.0,316672.90625,321869.59375,310895.625,316567.25,282140.0,-0.101806640625,0.79833984375,-0.56494140625,-6.500243663787842,22.094724655151367,-6.042479991912842,100.0,260059.0,1.0
85088.3796358,316683.1875,344146.15625,338924.4375,316359.375,320636.9375,310867.71875,316113.9375,282011.875,-0.103759765625,0.7978515625,-0.566650390625,-6.286620616912842,22.277830123901367,-6.500243663787842,100.0,260060.0,1.0
85088.3821795,316850.375,345918.65625,340385.6875,317745.875,323002.03125,312101.96875,317357.40625,282955.03125,-0.103271484375,0.797119140625,-0.570556640625,-5.950927257537842,22.308347702026367,-7.110595226287842,100.0,260061.0,1.0
85088.3844693,317053.15625,347546.03125,341549.25,318916.125,325734.40625,312901.09375,318596.9375,283675.03125,-0.10546875,0.800537109375,-0.57373046875,-5.554198741912842,22.460935592651367,-7.568358898162842,100.0,260062.0,1.0
85088.387131,317022.75,346757.90625,340785.625,318223.84375,324966.5625,312120.65625,318077.78125,283142.625,-0.106201171875,0.8037109375,-0.57666015625,-5.187987804412842,22.552488327026367,-8.270262718200684,100.0,260063.0,1.0
85088.3932303,316793.625,344667.125,339185.0625,316676.9375,321835.90625,310879.4375,316560.25,282131.40625,-0.107421875,0.8037109375,-0.575439453125,-4.638671398162842,22.521970748901367,-8.819579124450684,100.0,260064.0,1.0
85088.3957445,316684.4375,344122.125,338916.84375,316358.375,320584.75,310859.6875,316098.21875,282003.75,-0.109619140625,0.803955078125,-0.57470703125,-4.333495616912842,22.613523483276367,-9.185790061950684,100.0,260065.0,1.0
85088.398241,316848.875,345910.0625,340381.84375,317741.78125,322952.78125,312108.875,317343.03125,282954.0625,-0.110595703125,0.80712890625,-0.570556640625,-4.058837413787842,22.644041061401367,-9.826659202575684,100.0,260066.0,1.0
85088.398272,317045.75,347552.5625,341553.1875,318915.59375,325712.84375,312911.375,318593.65625,283676.65625,-0.1103515625,0.80908203125,-0.570556640625,-3.753661870956421,22.705076217651367,-10.345458030700684,100.0,260067.0,1.0
85088.4007214,317027.59375,346770.78125,340803.9375,318245.59375,324969.96875,312138.90625,318092.78125,283160.6875,-0.112060546875,0.811767578125,-0.577880859375,-3.417968511581421,22.735593795776367,-10.894774436950684,100.0,260068.0,1.0
85088.4058953,316801.21875,344661.15625,339196.84375,316704.03125,321827.84375,310886.9375,316568.5625,282148.84375,-0.114501953125,0.814453125,-0.5751953125,-2.960204839706421,22.796628952026367,-11.230467796325684,100.0,260069.0,1.0
85088.405937,316692.3125,344116.5625,338925.875,316380.46875,320567.5625,310866.65625,316105.4375,282020.5625,-0.115966796875,0.816650390625,-0.57568359375,-2.868652105331421,22.735593795776367,-11.688231468200684,100.0,260070.0,1.0
85088.4084032,316853.34375,345927.3125,340394.46875,317750.09375,322934.0,312124.59375,317355.53125,282964.875,-0.116455078125,0.817626953125,-0.57958984375,-2.563476324081421,22.674558639526367,-12.023924827575684,100.0,260071.0,1.0
85088.413374,317049.125,347593.875,341572.9375,318927.21875,325708.375,312937.3125,318616.8125,283689.34375,-0.11767578125,0.81787109375,-0.580810546875,-2.349853277206421,22.613523483276367,-12.390135765075684,100.0,260072.0,1.0
85088.4157544,317020.96875,346793.15625,340813.96875,318258.90625,324971.59375,312152.75,318110.3125,283165.6875,-0.116943359375,0.816650390625,-0.579833984375,-2.227782964706421,22.613523483276367,-12.725829124450684,100.0,260073.0,1.0
85088.4184313,316796.03125,344656.3125,339197.21875,316714.9375,321821.875,310884.875,316570.71875,282146.1875,-0.1162109375,0.81494140625,-0.580810546875,-2.014159917831421,22.583005905151367,-13.092040061950684,100.0,260074.0,1.0
85088.4184763,316684.53125,344109.0625,338921.65625,316376.96875,320545.75,310861.90625,316102.3125,282011.34375,-0.119140625,0.81494140625,-0.58154296875,-1.8005369901657104,22.552488327026367,-13.305663108825684,100.0,260075.0,1.0
85088.4209399,316850.65625,345941.625,340398.5,317740.875,322910.03125,312132.5625,317357.5,282959.40625,-0.11865234375,0.812255859375,-0.58203125,-1.5258787870407104,22.521970748901367,-13.549803733825684,100.0,260076.0,1.0
85088.4258852,317051.09375,347624.09375,341590.46875,318924.53125,325704.8125,312956.8125,318627.09375,283690.15625,-0.118896484375,0.80712890625,-0.5830078125,-1.1901854276657104,22.491453170776367,-13.702391624450684,100.0,260077.0,1.0
85088.4283358,317020.53125,346808.34375,340826.84375,318262.75,324982.65625,312160.1875,318124.625,283167.65625,-0.12060546875,0.802734375,-0.579345703125,-0.9460448622703552,22.491453170776367,-13.946532249450684,100.0,260078.0,1.0
85088.4308786,316793.4375,344645.21875,339197.65625,316720.9375,321826.78125,310878.53125,316581.09375,282149.125,-0.124755859375,0.799072265625,-0.578857421875,-0.5493163466453552,22.583005905151367,-14.007567405700684,100.0,260079.0,1.0
85088.4358216,316684.28125,344086.875,338916.03125,316374.28125,320531.71875,310846.4375,316099.375,282006.875,-0.129150390625,0.79443359375,-0.578857421875,-0.1831054538488388,22.583005905151367,-14.404295921325684,100.0,260080.0,1.0
85088.4358601,316844.40625,345937.0625,340393.9375,317727.46875,322888.9375,312121.5625,317350.34375,282947.4375,-0.132568359375,0.791748046875,-0.583740234375,0.2136230319738388,22.521970748901367,-14.434813499450684,100.0,260081.0,1.0
85088.4383749,317043.78125,347639.28125,341590.0,318912.5625,325688.0,312950.46875,318623.3125,283678.34375,-0.1357421875,0.791748046875,-0.581787109375,0.7324218153953552,22.338865280151367,-14.678954124450684,100.0,260082.0,1.0
85088.4719149,317013.8125,346811.5625,340824.25,318262.3125,324970.78125,312157.59375,318122.75,283163.1875,-0.13623046875,0.794921875,-0.580810546875,1.1291502714157104,22.216794967651367,-14.801024436950684,100.0,260083.0,1.0
85088.4719276,316780.75,344617.25,339182.90625,316718.78125,321803.96875,310873.34375,316576.09375,282143.03125,-0.139404296875,0.79833984375,-0.5810546875,1.5258787870407104,21.942136764526367,-14.770506858825684,100.0,260084.0,1.0
85088.4758957,316665.9375,344043.34375,338889.125,316357.3125,320489.0625,310829.53125,316080.15625,281989.53125,-0.1376953125,0.80322265625,-0.583251953125,1.7395018339157104,21.575925827026367,-14.801024436950684,100.0,260085.0,1.0
85088.4759105,316840.28125,345928.5625,340385.96875,317713.53125,322853.4375,312122.71875,317338.5625,282934.46875,-0.139404296875,0.80712890625,-0.58447265625,1.9836424589157104,21.240232467651367,-14.770506858825684,100.0,260086.0,1.0
85088.475913,317044.65625,347662.09375,341599.65625,318909.15625,325687.375,312967.96875,318637.71875,283673.6875,-0.13671875,0.8095703125,-0.583740234375,2.044677495956421,20.874021530151367,-14.678954124450684,100.0,260087.0,1.0
85088.4797337,317003.28125,346811.75,340819.0625,318255.59375,324972.84375,312159.375,318130.875,283149.125,-0.133056640625,0.81298828125,-0.58349609375,2.197265386581421,20.721433639526367,-14.495848655700684,100.0,260088.0,1.0
85088.4797485,316770.09375,344592.03125,339165.65625,316711.71875,321794.59375,310863.25,316571.34375,282126.9375,-0.131103515625,0.8125,-0.581298828125,2.288818120956421,20.477293014526367,-14.251708030700684,100.0,260089.0,1.0
85088.4797507,316654.84375,344014.09375,338864.71875,316339.6875,320460.46875,310812.09375,316064.6875,281970.03125,-0.1298828125,0.81201171875,-0.58203125,2.380370855331421,20.477293014526367,-13.885497093200684,100.0,260090.0,1.0
85088.4797529,316817.75,345905.40625,340352.625,317674.90625,322813.65625,312088.84375,317313.5,282900.3125,-0.127685546875,0.811279296875,-0.584716796875,2.471923589706421,20.507810592651367,-13.641356468200684,100.0,260091.0,1.0
85088.4819512,317014.0,347637.3125,341564.0,318862.75,325636.40625,312928.0,318591.59375,283626.03125,-0.125,0.81591796875,-0.58740234375,2.502441167831421,20.507810592651367,-13.336180686950684,100.0,260092.0,1.0
85088.4870784,316982.71875,346776.875,340791.78125,318232.0,324929.90625,312127.65625,318085.0,283112.46875,-0.12451171875,0.817626953125,-0.59228515625,2.593993902206421,20.751951217651367,-13.122557640075684,100.0,260093.0,1.0
85088.4895988,316758.03125,344541.34375,339137.84375,316699.75,321748.8125,310827.125,316525.84375,282091.625,-0.125732421875,0.819580078125,-0.591552734375,2.746581792831421,20.935056686401367,-12.725829124450684,100.0,260094.0,1.0
85088.4919439,316651.625,343973.78125,338843.53125,316330.3125,320405.65625,310786.53125,316024.96875,281937.9375,-0.126220703125,0.818603515625,-0.58984375,2.777099370956421,21.087644577026367,-12.329100608825684,100.0,260095.0,1.0
85088.4945598,316821.34375,345892.90625,340344.21875,317662.1875,322756.34375,312081.25,317277.75,282875.90625,-0.125,0.81494140625,-0.590087890625,2.685546636581421,21.209714889526367,-11.810301780700684,100.0,260096.0,1.0
85088.4983252,317027.6875,347666.46875,341580.53125,318864.46875,325619.875,312946.4375,318587.125,283628.28125,-0.125244140625,0.811767578125,-0.59033203125,2.563476324081421,21.453855514526367,-11.291502952575684,100.0,260097.0,1.0
85088.5133784,316997.625,346809.6875,340812.34375,318244.34375,324944.59375,312147.75,318096.53125,283126.0625,-0.125244140625,0.811767578125,-0.5888671875,2.532958745956421,21.636960983276367,-10.772704124450684,100.0,260098.0,1.0
85088.5134095,316756.40625,344538.65625,339138.03125,316703.40625,321758.28125,310824.625,316521.1875,282093.96875,-0.12255859375,0.808837890625,-0.588134765625,2.441406011581421,21.881101608276367,-10.314940452575684,100.0,260099.0,1.0
85088.5396973,316647.4375,343958.3125,338832.15625,316322.625,320400.90625,310775.90625,316008.0,281929.8125,-0.122314453125,0.8076171875,-0.59130859375,2.471923589706421,22.094724655151367,-9.826659202575684,100.0,260100.0,1.0
85088.5397358,316820.0,345895.59375,340338.125,317651.125,322750.625,312081.59375,317266.125,282865.375,-0.125732421875,0.810546875,-0.593994140625,2.655029058456421,22.186277389526367,-9.521483421325684,100.0,260101.0,1.0
85088.5397447,317022.5,347677.03125,341575.875,318852.125,325618.71875,312948.84375,318580.84375,283613.78125,-0.125,0.815185546875,-0.597900390625,2.868652105331421,22.125242233276367,-9.185790061950684,100.0,260102.0,1.0
85088.5397538,316986.5625,346812.09375,340806.8125,318242.46875,324953.34375,312145.25,318095.65625,283115.875,-0.1220703125,0.8193359375,-0.595703125,3.082275152206421,22.216794967651367,-8.544920921325684,100.0,260103.0,1.0
85088.55212,316754.8125,344532.5625,339134.8125,316716.53125,321769.375,310823.28125,316526.5625,282096.71875,-0.126220703125,0.82080078125,-0.597900390625,2.899169683456421,22.338865280151367,-7.995604991912842,100.0,260104.0,1.0
85088.5521567,316647.875,343942.5,338823.9375,316327.625,320391.34375,310768.3125,316000.75,281929.53125,-0.125,0.821533203125,-0.59423828125,2.777099370956421,22.369382858276367,-7.476806163787842,100.0,260105.0,1.0
85088.5545088,316827.0625,345897.65625,340338.5,317647.1875,322732.28125,312080.78125,317256.28125,282864.28125,-0.12451171875,0.822021484375,-0.59375,2.502441167831421,22.460935592651367,-7.049560070037842,100.0,260106.0,1.0
85088.5571418,317034.46875,347705.625,341590.0,318854.8125,325623.71875,312961.4375,318586.40625,283622.09375,-0.12451171875,0.82177734375,-0.594482421875,2.227782964706421,22.583005905151367,-6.561278820037842,100.0,260107.0,1.0
85088.5595279,316997.1875,346837.21875,340821.84375,318254.96875,324977.5625,312156.53125,318106.5625,283127.15625,-0.124267578125,0.82177734375,-0.592529296875,2.014159917831421,22.521970748901367,-6.134032726287842,100.0,260108.0,1.0
85088.5683935,316760.09375,344532.3125,339138.03125,316727.1875,321788.0625,310822.5625,316528.0625,282101.03125,-0.124267578125,0.822021484375,-0.59423828125,1.8005369901657104,22.460935592651367,-5.584716320037842,100.0,260109.0,1.0
85088.5707487,316654.125,343936.0625,338825.0,316332.53125,320400.03125,310765.15625,316001.28125,281930.875,-0.12109375,0.823486328125,-0.592529296875,1.6784666776657104,22.277830123901367,-5.096435070037842,100.0,260110.0,1.0
85088.5732499,316832.78125,345896.3125,340342.96875,317645.125,322735.78125,312083.03125,317260.0625,282864.28125,-0.1181640625,0.823486328125,-0.59326171875,1.4038084745407104,22.155759811401367,-4.455565929412842,100.0,260111.0,1.0
85088.5757474,317036.53125,347711.1875,341592.4375,318850.59375,325629.0,312964.21875,318584.71875,283617.09375,-0.1162109375,0.8193359375,-0.5986328125,1.2512205839157104,22.033689498901367,-3.753661870956421,100.0,260112.0,1.0
85088.5782192,316996.375,346835.0,340824.25,318260.6875,325000.90625,312161.875,318107.28125,283128.84375,-0.111083984375,0.818115234375,-0.601806640625,1.1291502714157104,22.064207077026367,-3.112792730331421,100.0,260113.0,1.0
85088.5833199,316762.78125,344523.8125,339142.3125,316741.40625,321817.21875,310823.5625,316528.0625,282104.96875,-0.10791015625,0.8154296875,-0.598876953125,1.0986326932907104,22.125242233276367,-2.349853277206421,100.0,260114.0,1.0
85088.5881922,316658.15625,343931.40625,338825.375,316338.71875,320414.0625,310760.6875,315991.0,281925.4375,-0.10888671875,0.815673828125,-0.6015625,1.0681151151657104,22.216794967651367,-1.7089842557907104,100.0,260115.0,1.0
85088.5882087,316827.15625,345894.59375,340330.4375,317629.375,322729.625,312074.34375,317240.46875,282849.53125,-0.107666015625,0.81689453125,-0.597900390625,0.9155272841453552,22.399900436401367,-0.9765624403953552,100.0,260116.0,1.0
85088.5908402,317026.4375,347714.9375,341583.75,318830.3125,325628.1875,312968.34375,318572.46875,283609.75,-0.10791015625,0.820556640625,-0.592041015625,0.8239745497703552,22.399900436401367,-0.2441406100988388,100.0,260117.0,1.0
85088.5931039,316991.28125,346839.1875,340820.5,318255.15625,325007.15625,312170.375,318102.71875,283129.28125,-0.10498046875,0.821044921875,-0.587646484375,0.4577636420726776,22.491453170776367,0.4577636420726776,100.0,260118.0,1.0
85088.5956598,316762.59375,344536.0625,339149.46875,316755.15625,321840.0,310840.375,316538.8125,282115.59375,-0.101806640625,0.821044921875,-0.5849609375,0.0915527269244194,22.491453170776367,1.2207030057907104,100.0,260119.0,1.0
85088.5981437,316647.25,343934.53125,338825.375,316339.15625,320431.125,310761.59375,315994.125,281923.1875,-0.094970703125,0.824462890625,-0.587158203125,-0.2136230319738388,22.247312545776367,2.136230230331421,100.0,260120.0,1.0
85088.6008768,316813.8125,345880.375,340317.03125,317607.75,322720.59375,312057.5625,317224.8125,282828.78125,-0.09326171875,0.826171875,-0.588134765625,-0.3967284858226776,22.155759811401367,2.899169683456421,100.0,260121.0,1.0
85088.600891,317012.21875,347678.375,341555.59375,318800.8125,325591.4375,312944.375,318547.0625,283578.21875,-0.09130859375,0.825439453125,-0.588134765625,-0.6713866591453552,22.125242233276367,3.601073980331421,100.0,260122.0,1.0
85088.6032635,316986.28125,346810.75,340804.3125,318245.75,324984.09375,312156.625,318084.375,283105.78125,-0.09033203125,0.825439453125,-0.589111328125,-0.8850097060203552,22.247312545776367,4.394530773162842,100.0,260123.0,1.0
85088.6061196,316766.78125,344524.96875,339148.3125,316762.3125,321835.53125,310831.96875,316521.8125,282102.1875,-0.09130859375,0.823486328125,-0.59033203125,-1.1901854276657104,22.552488327026367,5.004882335662842,100.0,260124.0,1.0
85088.6141862,316665.5,343944.625,338839.40625,316355.96875,320440.71875,310769.5625,315990.75,281927.40625,-0.087646484375,0.822265625,-0.590576171875,-1.5563963651657104,22.674558639526367,5.523681163787842,100.0,260125.0,1.0
85088.6142029,316836.53125,345892.625,340329.65625,317617.21875,322723.09375,312075.34375,317225.1875,282847.84375,-0.08642578125,0.82177734375,-0.593017578125,-1.7395018339157104,22.918699264526367,6.225585460662842,100.0,260126.0,1.0
85088.6507309,317028.9375,347682.21875,341559.53125,318800.1875,325586.78125,312959.65625,318544.375,283601.4375,-0.0849609375,0.821533203125,-0.59326171875,-1.8005369901657104,22.949216842651367,6.622313976287842,100.0,260127.0,1.0
85088.6532465,316997.71875,346828.5625,340816.65625,318252.75,324992.40625,312175.65625,318094.9375,283124.03125,-0.079345703125,0.819091796875,-0.5927734375,-1.8615721464157104,23.010251998901367,7.110595226287842,100.0,260128.0,1.0
85088.6633463,316778.59375,344547.0625,339164.75,316776.8125,321851.625,310832.40625,316536.75,282104.15625,-0.076416015625,0.8154296875,-0.59228515625,-1.8615721464157104,23.101804733276367,7.629394054412842,100.0,260129.0,1.0
85088.6649708,316676.21875,343956.34375,338848.25,316365.8125,320454.375,310760.15625,315993.59375,281923.8125,-0.06884765625,0.80859375,-0.592041015625,-1.7700194120407104,23.162839889526367,8.117674827575684,100.0,260130.0,1.0
85088.6746489,316835.375,345884.78125,340313.46875,317600.78125,322709.0625,312053.96875,317207.84375,282820.75,-0.067138671875,0.80615234375,-0.5869140625,-1.7089842557907104,23.315427780151367,8.636473655700684,100.0,260131.0,1.0
85088.6771169,317018.75,347664.78125,341534.9375,318775.3125,325557.09375,312937.21875,318523.71875,283570.59375,-0.06494140625,0.8046875,-0.582763671875,-1.8310545682907104,23.498533248901367,9.033202171325684,100.0,260132.0,1.0
85088.6794816,316999.53125,346841.59375,340821.46875,318258.8125,325011.625,312171.4375,318092.0625,283122.6875,-0.058837890625,0.8046875,-0.583984375,-1.9226073026657104,23.773191452026367,9.307860374450684,100.0,260133.0,1.0
85088.6819609,316785.125,344588.375,339193.09375,316803.90625,321922.96875,310851.4375,316547.375,282124.1875,-0.05615234375,0.805908203125,-0.58154296875,-1.9836424589157104,23.925779342651367,9.613036155700684,100.0,260134.0,1.0
85088.6846633,316670.21875,343961.28125,338849.15625,316366.4375,320493.46875,310758.90625,315985.5625,281920.40625,-0.05322265625,0.802978515625,-0.583740234375,-2.136230230331421,24.230955123901367,9.826659202575684,100.0,260135.0,1.0
85088.6871387,316819.4375,345845.34375,340286.28125,317574.0625,322708.15625,312038.25,317188.34375,282807.4375,-0.048828125,0.7978515625,-0.5849609375,-2.197265386581421,24.536130905151367,10.253905296325684,100.0,260136.0,1.0
85088.6896998,317017.5,347642.6875,341525.65625,318764.6875,325582.59375,312944.03125,318523.09375,283568.1875,-0.052734375,0.79443359375,-0.58544921875,-2.166747808456421,24.902341842651367,10.498045921325684,100.0,260137.0,1.0
85088.6897407,317000.6875,346843.125,340831.5625,318268.125,325074.65625,312194.0625,318109.6875,283126.6875,-0.052734375,0.79345703125,-0.586181640625,-1.7395018339157104,25.085447311401367,10.437010765075684,100.0,260138.0,1.0
85088.692136,316789.59375,344597.75,339212.3125,316826.5,322009.0,310871.28125,316574.9375,282136.96875,-0.049072265625,0.80029296875,-0.58544921875,-1.2817381620407104,25.207517623901367,10.406493186950684,100.0,260139.0,1.0
85088.7045446,316677.5625,343970.28125,338864.8125,316383.875,320575.96875,310770.4375,316017.90625,281937.3125,-0.04931640625,0.806884765625,-0.5859375,-1.0681151151657104,25.390623092651367,10.223387718200684,100.0,260140.0,1.0
85088.7045812,316825.25,345840.78125,340285.03125,317573.6875,322744.375,312038.5,317199.0625,282807.53125,-0.051025390625,0.8134765625,-0.582763671875,-0.7629393935203552,25.573728561401367,10.223387718200684,100.0,260141.0,1.0
85088.7069884,317019.1875,347640.625,341522.0625,318763.4375,325593.3125,312940.53125,318519.4375,283557.71875,-0.0498046875,0.824951171875,-0.58544921875,-0.6408690810203552,25.573728561401367,10.192870140075684,100.0,260142.0,1.0
85088.7095302,316998.96875,346848.40625,340830.59375,318273.03125,325093.8125,312185.65625,318106.28125,283124.71875,-0.0458984375,0.8349609375,-0.584228515625,-0.7019042372703552,25.726316452026367,10.131834983825684,100.0,260143.0,1.0
85088.7095605,316785.75,344602.75,339207.84375,316828.65625,322033.125,310863.0625,316571.4375,282138.21875,-0.047607421875,0.8408203125,-0.579833984375,-0.8239745497703552,25.787351608276367,9.918211936950684,100.0,260144.0,1.0
85088.7122742,316669.59375,343962.78125,338850.9375,316374.125,320585.46875,310760.875,316003.15625,281932.125,-0.047119140625,0.843505859375,-0.57861328125,-0.9765624403953552,25.726316452026367,9.979247093200684,100.0,260145.0,1.0
85088.7171998,316817.5,345837.75,340271.71875,317554.03125,322754.03125,312032.5,317185.125,282807.0625,-0.04443359375,0.841552734375,-0.57275390625,-1.3732908964157104,25.878904342651367,10.040282249450684,100.0,260146.0,1.0
85088.7172406,317011.5,347645.5625,341512.21875,318740.28125,325617.0,312937.5,318510.75,283569.0,-0.0458984375,0.839111328125,-0.569091796875,-1.8615721464157104,26.031492233276367,9.948729515075684,100.0,260147.0,1.0
85088.7546372,316996.9375,346855.09375,340829.59375,318266.40625,325130.375,312185.65625,318102.4375,283136.8125,-0.046630859375,0.834716796875,-0.572998046875,-2.136230230331421,26.000974655151367,9.796141624450684,100.0,260148.0,1.0
85088.7571499,316795.75,344615.71875,339223.21875,316843.15625,322072.46875,310871.28125,316577.875,282150.375,-0.04931640625,0.8359375,-0.5771484375,-2.441406011581421,26.000974655151367,9.613036155700684,100.0,260149.0,1.0
85088.7595075,316682.75,343967.78125,338864.53125,316384.03125,320602.625,310763.5625,316001.75,281938.9375,-0.051025390625,0.839111328125,-0.582763671875,-2.471923589706421,25.604246139526367,9.399413108825684,100.0,260150.0,1.0
85088.7621619,316816.9375,345822.4375,340265.1875,317540.59375,322739.625,312021.59375,317168.125,282802.40625,-0.0498046875,0.839599609375,-0.581787109375,-2.471923589706421,25.177000045776367,8.941649436950684,100.0,260151.0,1.0
85088.764555,317005.15625,347631.5,341496.5,318717.90625,325590.09375,312926.9375,318491.0,283557.8125,-0.047119140625,0.8388671875,-0.576416015625,-2.655029058456421,24.810789108276367,8.758543968200684,100.0,260152.0,1.0
85088.764596,317004.15625,346862.0625,340834.53125,318264.34375,325133.0625,312191.65625,318104.5,283143.25,-0.04541015625,0.835205078125,-0.573974609375,-2.746581792831421,24.536130905151367,8.544920921325684,100.0,260153.0,1.0
85088.7670257,316807.65625,344624.84375,339234.84375,316850.5625,322090.09375,310872.0,316585.28125,282169.40625,-0.04345703125,0.831298828125,-0.5703125,-2.929687261581421,24.322507858276367,8.300780296325684,100.0,260154.0,1.0
85088.769542,316692.0625,343972.625,338871.875,316383.3125,320620.40625,310761.78125,316006.65625,281952.25,-0.03857421875,0.828857421875,-0.563232421875,-3.356933355331421,24.108884811401367,8.026122093200684,100.0,260155.0,1.0
85088.77216,316823.75,345819.5,340265.09375,317524.78125,322751.0625,312016.15625,317163.65625,282797.78125,-0.036376953125,0.82861328125,-0.564208984375,-3.479003667831421,23.803709030151367,7.720946788787842,100.0,260156.0,1.0
85088.7736959,317011.0625,347635.53125,341504.09375,318704.6875,325618.25,312928.90625,318495.5625,283559.875,-0.035888671875,0.830322265625,-0.5673828125,-3.601073980331421,23.651121139526367,7.415771007537842,100.0,260157.0,1.0
85088.7808789,317001.5,346870.84375,340839.625,318260.96875,325163.53125,312194.78125,318113.8125,283148.5,-0.032958984375,0.834228515625,-0.568115234375,-3.540038824081421,23.223875045776367,6.958007335662842,100.0,260158.0,1.0
85088.7833542,316797.46875,344630.3125,339233.96875,316854.40625,322116.90625,310872.71875,316594.9375,282172.5625,-0.03076171875,0.838134765625,-0.569580078125,-3.509521245956421,22.796628952026367,6.652831554412842,100.0,260159.0,1.0
85088.7860739,316677.5625,343963.6875,338859.25,316375.09375,320632.5625,310750.0625,316003.25,281949.84375,-0.03076171875,0.839599609375,-0.573974609375,-3.509521245956421,22.583005905151367,6.439208507537842,100.0,260160.0,1.0
85088.7883291,316818.46875,345817.71875,340255.0,317513.875,322755.09375,312016.78125,317165.625,282811.1875,-0.02783203125,0.842041015625,-0.572998046875,-3.570556402206421,22.216794967651367,6.134032726287842,100.0,260161.0,1.0
85088.7908734,317012.46875,347646.1875,341501.59375,318702.1875,325625.875,312947.9375,318508.09375,283590.09375,-0.024658203125,0.850341796875,-0.572265625,-3.662109136581421,21.759031295776367,5.920409679412842,100.0,260162.0,1.0
85088.7959198,316996.5625,346874.875,340838.28125,318261.6875,325179.375,312204.96875,318124.25,283175.53125,-0.0234375,0.853271484375,-0.57177734375,-3.814697027206421,21.484373092651367,5.584716320037842,100.0,260163.0,1.0
85088.7959619,316780.84375,344615.28125,339222.4375,316847.71875,322130.59375,310864.5,316592.09375,282183.90625,-0.022705078125,0.85498046875,-0.5712890625,-3.723144292831421,21.209714889526367,5.340575695037842,100.0,260164.0,1.0
85088.7984597,316666.03125,343944.625,338848.25,316368.65625,320653.59375,310742.71875,316000.5625,281964.9375,-0.02099609375,0.8544921875,-0.569580078125,-3.723144292831421,20.996091842651367,5.004882335662842,100.0,260165.0,1.0
85088.7984963,316798.1875,345792.3125,340231.65625,317492.59375,322756.25,312002.90625,317154.71875,282818.5,-0.0224609375,0.8525390625,-0.56591796875,-3.753661870956421,20.782468795776367,4.730224132537842,100.0,260166.0,1.0
85088.8008938,316986.8125,347622.3125,341473.6875,318675.90625,325607.71875,312929.96875,318492.25,283585.34375,-0.02197265625,0.852294921875,-0.560546875,-3.967284917831421,20.507810592651367,4.608153820037842,100.0,260167.0,1.0
85088.8033634,316988.34375,346876.65625,340834.875,318262.40625,325188.21875,312205.53125,318130.34375,283181.59375,-0.022216796875,0.852294921875,-0.555908203125,-4.333495616912842,20.172117233276367,4.730224132537842,100.0,260168.0,1.0
85088.8034008,316787.96875,344624.40625,339234.3125,316868.71875,322150.4375,310871.5625,316607.65625,282197.03125,-0.029052734375,0.85107421875,-0.556884765625,-4.699706554412842,20.019529342651367,4.455565929412842,100.0,260169.0,1.0
85088.8058836,316664.6875,343933.90625,338845.40625,316375.46875,320632.9375,310734.6875,315998.875,281962.09375,-0.033935546875,0.8466796875,-0.56005859375,-5.004882335662842,19.531248092651367,3.997802495956421,100.0,260170.0,1.0
85088.8084087,316797.90625,345779.96875,340226.8125,317490.53125,322720.21875,311994.5,317149.53125,282810.8125,-0.03515625,0.83984375,-0.5595703125,-5.096435070037842,18.890378952026367,3.601073980331421,100.0,260171.0,1.0
85088.8084487,316994.78125,347626.5,341482.5625,318681.4375,325607.1875,312938.125,318503.53125,283593.5,-0.035400390625,0.83544921875,-0.556884765625,-5.035399913787842,18.035886764526367,3.112792730331421,100.0,260172.0,1.0
85088.8109165,316998.09375,346888.53125,340851.59375,318281.15625,325217.09375,312220.1875,318152.25,283205.03125,-0.0361328125,0.833740234375,-0.556396484375,-4.913329601287842,17.211912155151367,2.685546636581421,100.0,260173.0,1.0
85088.8134562,316803.09375,344632.1875,339254.71875,316896.96875,322174.75,310884.875,316626.5,282228.34375,-0.035400390625,0.83544921875,-0.5546875,-4.577636241912842,16.448972702026367,2.349853277206421,100.0,260174.0,1.0
85088.813493,316671.5625,343930.25,338853.28125,316387.96875,320624.96875,310737.8125,316001.75,281988.375,-0.03515625,0.83349609375,-0.552001953125,-4.241942882537842,15.594481468200684,1.9531248807907104,100.0,260175.0,1.0
85088.8159896,316800.0625,345778.90625,340226.375,317489.1875,322689.8125,311997.65625,317143.46875,282832.625,-0.032470703125,0.829833984375,-0.5498046875,-4.028319835662842,14.831542015075684,1.6174315214157104,100.0,260176.0,1.0
85088.8196331,316986.90625,347630.875,341476.5625,318671.875,325560.15625,312938.375,318495.03125,283610.21875,-0.03076171875,0.8291015625,-0.549560546875,-4.028319835662842,14.221190452575684,1.2512205839157104,100.0,260177.0,1.0
85088.8383235,316990.3125,346899.90625,340849.625,318276.4375,325182.5,312222.875,318152.96875,283226.65625,-0.029052734375,0.829345703125,-0.552734375,-4.058837413787842,13.641356468200684,0.9460448622703552,100.0,260178.0,1.0
85088.8383626,316793.875,344638.6875,339250.3125,316893.03125,322164.1875,310881.5,316633.5625,282250.0625,-0.025146484375,0.830810546875,-0.5498046875,-3.784179449081421,12.908934593200684,0.6103515028953552,100.0,260179.0,1.0
85088.840854,316673.8125,343939.28125,338856.125,316390.65625,320627.46875,310736.46875,316020.4375,282012.875,-0.02587890625,0.828857421875,-0.552001953125,-3.723144292831421,12.268065452575684,0.4272460639476776,100.0,260180.0,1.0
85088.8408918,316803.90625,345783.5625,340224.9375,317481.875,322682.0625,311993.34375,317158.125,282848.8125,-0.026123046875,0.83154296875,-0.55078125,-3.509521245956421,11.535643577575684,0.1220703050494194,100.0,260181.0,1.0
85088.8434469,316992.625,347643.5,341478.6875,318663.75,325558.34375,312938.46875,318513.53125,283624.53125,-0.025146484375,0.828125,-0.547607421875,-3.356933355331421,11.016844749450684,-0.1525878757238388,100.0,260182.0,1.0
85088.8458967,316997.71875,346920.8125,340859.5625,318280.0,325190.90625,312228.59375,318179.5,283244.09375,-0.0205078125,0.8271484375,-0.543212890625,-3.479003667831421,10.467528343200684,-0.3356933295726776,100.0,260183.0,1.0
85088.8483537,316801.21875,344654.96875,339258.90625,316898.5,322161.0625,310886.3125,316661.1875,282267.15625,-0.01904296875,0.82763671875,-0.53955078125,-3.448486089706421,10.131834983825684,-0.4577636420726776,100.0,260184.0,1.0
85088.8508924,316673.375,343935.15625,338848.09375,316381.4375,320595.8125,310729.9375,316029.1875,282016.34375,-0.01806640625,0.826416015625,-0.541748046875,-3.326415777206421,9.765624046325684,-0.5493163466453552,100.0,260185.0,1.0
85088.8544998,316797.625,345768.4375,340211.71875,317464.4375,322637.0625,311985.21875,317158.65625,282847.3125,-0.0166015625,0.822509765625,-0.544189453125,-3.295898199081421,9.307860374450684,-0.5798339247703552,100.0,260186.0,1.0
85088.8884246,316984.3125,347640.625,341472.0,318652.21875,325528.6875,312944.1875,318522.65625,283628.09375,-0.01513671875,0.820556640625,-0.544189453125,-3.082275152206421,8.880614280700684,-0.4577636420726776,100.0,260187.0,1.0
85088.8884661,316986.1875,346920.8125,340855.09375,318270.875,325170.4375,312236.8125,318190.15625,283247.40625,-0.01416015625,0.8193359375,-0.546875,-2.746581792831421,8.453368186950684,-0.3051757514476776,100.0,260188.0,1.0
85088.8909789,316790.84375,344647.09375,339250.40625,316890.1875,322132.09375,310876.84375,316662.46875,282263.75,-0.017578125,0.81884765625,-0.55078125,-2.410888433456421,7.934569835662842,-0.1525878757238388,100.0,260189.0,1.0
85088.8910145,316673.375,343928.09375,338840.75,316375.46875,320560.78125,310719.9375,316031.59375,282009.46875,-0.018310546875,0.821533203125,-0.551025390625,-2.227782964706421,7.507323741912842,-0.1525878757238388,100.0,260190.0,1.0
85088.8932447,316801.40625,345771.3125,340206.34375,317454.96875,322611.78125,311985.65625,317166.1875,282841.5,-0.020263671875,0.820068359375,-0.552001953125,-1.9836424589157104,7.202147960662842,-0.2441406100988388,100.0,260191.0,1.0
85088.8960045,316985.9375,347650.375,341471.28125,318645.6875,325511.875,312943.40625,318532.3125,283623.90625,-0.0224609375,0.820556640625,-0.55126953125,-1.7089842557907104,6.896972179412842,-0.1525878757238388,100.0,260192.0,1.0
85088.8982894,316995.40625,346950.3125,340876.375,318287.4375,325173.65625,312248.875,318215.28125,283255.625,-0.02490234375,0.823486328125,-0.5498046875,-1.3732908964157104,6.500243663787842,0.0,100.0,260193.0,1.0
85088.9008492,316791.5625,344672.6875,339270.53125,316905.09375,322139.0,310891.59375,316687.40625,282276.96875,-0.028564453125,0.825439453125,-0.55029296875,-1.1596678495407104,6.042479991912842,0.1220703050494194,100.0,260194.0,1.0
85088.9032514,316669.59375,343940.875,338849.0625,316382.34375,320565.6875,310725.28125,316044.21875,282020.90625,-0.029052734375,0.825439453125,-0.55029296875,-0.8850097060203552,5.615233898162842,0.1220703050494194,100.0,260195.0,1.0
85088.9058183,316805.5,345779.8125,340213.9375,317467.03125,322598.1875,311988.4375,317171.96875,282849.09375,-0.027587890625,0.826171875,-0.550048828125,-0.6103515028953552,5.126952648162842,0.2746581733226776,100.0,260196.0,1.0
85088.9082558,316981.1875,347652.25,341470.65625,318646.75,325483.15625,312947.0625,318532.3125,283635.6875,-0.0263671875,0.8291015625,-0.553466796875,-0.3662109076976776,4.486083507537842,0.4577636420726776,100.0,260197.0,1.0
85088.9132319,316978.5,346932.875,340857.0625,318270.34375,325139.03125,312236.1875,318194.09375,283266.1875,-0.022216796875,0.83447265625,-0.552734375,-0.2441406100988388,3.906249761581421,0.5798339247703552,100.0,260198.0,1.0
85088.9208042,316787.625,344660.875,339261.5,316900.28125,322117.1875,310881.84375,316667.09375,282291.46875,-0.0185546875,0.839599609375,-0.5556640625,-0.0610351525247097,3.601073980331421,0.7324218153953552,100.0,260199.0,1.0
85088.9208445,316650.375,343912.71875,338824.65625,316355.0625,320510.34375,310700.625,316008.8125,282015.375,-0.015625,0.843017578125,-0.55712890625,-0.1220703050494194,3.204345464706421,0.8239745497703552,100.0,260200.0,1.0
85088.9234542,316762.5,345723.65625,340158.875,317404.0,322502.6875,311938.53125,317107.875,282820.9375,-0.01220703125,0.845458984375,-0.554931640625,-0.0915527269244194,2.990722417831421,1.0986326932907104,100.0,260201.0,1.0
85088.9259353,316960.8125,347616.65625,341439.8125,318606.96875,325411.03125,312915.40625,318487.4375,283618.96875,-0.013427734375,0.846923828125,-0.552490234375,-0.2441406100988388,3.051757574081421,1.1291502714157104,100.0,260202.0,1.0
85088.9259758,316982.09375,346934.0625,340863.3125,318264.90625,325116.40625,312238.78125,318193.90625,283269.5625,-0.01708984375,0.84375,-0.55126953125,-0.2746581733226776,3.112792730331421,1.2512205839157104,100.0,260203.0,1.0
85088.9282651,316783.78125,344653.53125,339257.375,316887.21875,322091.59375,310873.8125,316663.71875,282281.96875,-0.0224609375,0.8408203125,-0.547607421875,-0.4577636420726776,3.326415777206421,1.0986326932907104,100.0,260204.0,1.0
85088.9309121,316657.71875,343897.78125,338821.4375,316349.71875,320487.1875,310694.28125,316007.0,282010.375,-0.024169921875,0.83447265625,-0.544677734375,-0.6408690810203552,3.540038824081421,1.0070799589157104,100.0,260205.0,1.0
85088.9634378,316795.9375,345725.09375,340181.40625,317426.78125,322500.8125,311956.96875,317131.46875,282830.84375,-0.02490234375,0.8310546875,-0.546142578125,-0.8239745497703552,3.479003667831421,0.6713866591453552,100.0,260206.0,1.0
85088.9634786,316983.96875,347616.59375,341456.34375,318624.84375,325400.8125,312927.375,318502.90625,283625.59375,-0.025390625,0.82666015625,-0.5498046875,-0.7324218153953552,3.295898199081421,0.5493163466453552,100.0,260207.0,1.0
85088.9657333,316986.09375,346932.09375,340867.0625,318269.0,325101.3125,312237.6875,318193.46875,283280.9375,-0.022216796875,0.82470703125,-0.551025390625,-0.4882812201976776,2.929687261581421,0.5493163466453552,100.0,260208.0,1.0
85088.9683894,316795.65625,344662.84375,339270.875,316900.71875,322098.21875,310883.375,316673.625,282311.5625,-0.020263671875,0.8232421875,-0.55712890625,-0.2441406100988388,2.410888433456421,0.6408690810203552,100.0,260209.0,1.0
85088.9684281,316658.0625,343887.9375,338818.75,316349.34375,320469.84375,310687.21875,315995.21875,282030.125,-0.015625,0.82373046875,-0.558837890625,0.1220703050494194,2.105712652206421,0.7629393935203552,100.0,260210.0,1.0
85088.9708985,316789.40625,345712.5625,340169.96875,317416.4375,322466.9375,311937.28125,317111.625,282857.9375,-0.012939453125,0.824462890625,-0.56298828125,0.4272460639476776,1.9836424589157104,0.9460448622703552,100.0,260211.0,1.0
85088.9733671,316983.5,347617.46875,341456.25,318624.9375,325385.625,312921.5,318498.59375,283660.5625,-0.01416015625,0.823486328125,-0.564697265625,0.8850097060203552,2.105712652206421,1.0986326932907104,100.0,260212.0,1.0
85088.9747753,316988.25,346936.28125,340875.375,318280.0,325100.875,312239.3125,318198.8125,283303.8125,-0.01904296875,0.82666015625,-0.562744140625,1.3732908964157104,2.227782964706421,1.2817381620407104,100.0,260213.0,1.0
85089.0270913,316799.25,344666.0625,339280.09375,316914.03125,322092.5,310887.125,316681.125,282325.25,-0.02490234375,0.8310546875,-0.562744140625,1.7700194120407104,2.441406011581421,1.2512205839157104,100.0,260214.0,1.0
85089.0369122,316669.15625,343892.59375,338829.9375,316363.375,320458.0625,310696.6875,316009.0625,282045.21875,-0.02783203125,0.8330078125,-0.562255859375,2.044677495956421,2.655029058456421,0.9765624403953552,100.0,260215.0,1.0
85089.039594,316788.0625,345694.875,340163.4375,317413.65625,322422.59375,311937.65625,317111.90625,282856.78125,-0.03271484375,0.834228515625,-0.558349609375,2.136230230331421,2.716064214706421,1.1291502714157104,100.0,260216.0,1.0
85089.0421259,316977.96875,347591.8125,341446.53125,318620.5625,325324.1875,312918.0,318493.6875,283650.0,-0.036865234375,0.835693359375,-0.557373046875,2.166747808456421,2.624511480331421,1.3122557401657104,100.0,260217.0,1.0
85089.0421516,316992.0,346932.15625,340877.53125,318284.65625,325059.5625,312241.71875,318202.21875,283300.78125,-0.03662109375,0.83544921875,-0.555419921875,1.9226073026657104,2.166747808456421,1.4953612089157104,100.0,260218.0,1.0
85089.0445524,316801.03125,344664.8125,339280.1875,316912.25,322074.0,310880.9375,316679.4375,282322.46875,-0.03369140625,0.831787109375,-0.55615234375,1.8920897245407104,1.4953612089157104,1.5563963651657104,100.0,260219.0,1.0
85089.0495789,316674.53125,343886.875,338830.1875,316361.59375,320452.15625,310686.5,316003.34375,282040.0625,-0.03173828125,0.83251953125,-0.56005859375,2.136230230331421,0.8544921278953552,1.4953612089157104,100.0,260220.0,1.0
85089.0519937,316794.5,345693.34375,340167.46875,317415.8125,322427.875,311932.75,317108.78125,282860.0,-0.02734375,0.835205078125,-0.56103515625,2.502441167831421,0.4882812201976776,1.5258787870407104,100.0,260221.0,1.0
85089.05453,316977.15625,347600.40625,341448.3125,318618.21875,325338.875,312917.09375,318492.4375,283662.5,-0.024169921875,0.8388671875,-0.558837890625,2.838134527206421,0.1525878757238388,1.7395018339157104,100.0,260222.0,1.0
85089.0570646,316976.28125,346940.40625,340873.3125,318276.6875,325067.96875,312238.875,318197.9375,283308.03125,-0.0224609375,0.840576171875,-0.5576171875,2.990722417831421,0.0610351525247097,1.9836424589157104,100.0,260223.0,1.0
85089.0596198,316786.71875,344677.15625,339280.09375,316906.96875,322076.59375,310885.0625,316681.21875,282332.21875,-0.021484375,0.84130859375,-0.554931640625,2.960204839706421,0.2746581733226776,2.197265386581421,100.0,260224.0,1.0
85089.0621308,316661.125,343898.5,338826.4375,316354.0,320445.8125,310689.8125,316011.84375,282052.90625,-0.0244140625,0.838623046875,-0.555419921875,2.868652105331421,0.6103515028953552,2.471923589706421,100.0,260225.0,1.0
85089.0670878,316776.8125,345687.09375,340152.0,317400.6875,322407.03125,311923.875,317102.96875,282858.75,-0.026611328125,0.83740234375,-0.5537109375,2.655029058456421,0.7324218153953552,2.685546636581421,100.0,260226.0,1.0
85089.0696072,316970.625,347597.1875,341445.96875,318617.96875,325335.75,312914.96875,318488.9375,283657.15625,-0.029052734375,0.836669921875,-0.55322265625,2.746581792831421,0.8239745497703552,2.777099370956421,100.0,260227.0,1.0
85089.0721301,316989.875,346957.46875,340893.625,318296.1875,325103.1875,312257.28125,318213.21875,283308.8125,-0.031982421875,0.835693359375,-0.55322265625,2.563476324081421,0.6103515028953552,2.777099370956421,100.0,260228.0,1.0
85089.0746353,316793.15625,344684.375,339288.6875,316919.15625,322102.78125,310893.375,316689.0,282315.34375,-0.033447265625,0.837890625,-0.555419921875,2.593993902206421,0.3356933295726776,2.929687261581421,100.0,260229.0,1.0
85089.0771751,316653.25,343880.09375,338816.53125,316348.1875,320440.71875,310677.625,315998.59375,282018.6875,-0.0322265625,0.838134765625,-0.558349609375,2.807616949081421,-0.1220703050494194,3.082275152206421,100.0,260230.0,1.0
85089.0772152,316785.03125,345680.375,340158.34375,317405.5,322413.125,311928.09375,317104.46875,282846.59375,-0.02783203125,0.83984375,-0.5595703125,2.807616949081421,-0.4882812201976776,3.265380620956421,100.0,260231.0,1.0
85089.0794738,316974.5625,347595.84375,341451.15625,318622.0,325345.125,312922.03125,318493.40625,283647.21875,-0.021484375,0.838623046875,-0.560302734375,2.777099370956421,-0.7019042372703552,3.417968511581421,100.0,260232.0,1.0
85089.0819894,316980.03125,346956.03125,340891.46875,318294.3125,325110.25,312258.4375,318216.53125,283305.0625,-0.01953125,0.83837890625,-0.562255859375,2.716064214706421,-0.7324218153953552,3.601073980331421,100.0,260233.0,1.0
85089.0836972,316787.1875,344695.5625,339291.375,316914.75,322121.8125,310900.4375,316701.53125,282330.53125,-0.019287109375,0.8359375,-0.5595703125,2.716064214706421,-0.4882812201976776,3.753661870956421,100.0,260234.0,1.0
85089.0909205,316660.40625,343888.40625,338816.78125,316344.78125,320451.96875,310680.59375,316002.90625,282038.15625,-0.0185546875,0.834228515625,-0.5634765625,2.807616949081421,-0.1525878757238388,3.906249761581421,100.0,260235.0,1.0
85089.0909607,316778.9375,345669.46875,340138.59375,317392.28125,322395.125,311911.46875,317087.125,282849.1875,-0.019775390625,0.83154296875,-0.56201171875,2.960204839706421,0.0610351525247097,4.028319835662842,100.0,260236.0,1.0
85089.0958969,316960.96875,347584.3125,341432.3125,318606.25,325329.9375,312906.09375,318476.875,283652.40625,-0.016845703125,0.82763671875,-0.558349609375,2.899169683456421,0.1831054538488388,4.180907726287842,100.0,260237.0,1.0
85089.0997394,316979.21875,346959.875,340886.125,318283.40625,325112.75,312253.78125,318210.90625,283315.71875,-0.01513671875,0.822509765625,-0.55810546875,2.868652105331421,0.3051757514476776,4.272460460662842,100.0,260238.0,1.0
85089.0997803,316788.0625,344697.53125,339286.1875,316905.1875,322122.625,310894.8125,316692.84375,282330.25,-0.015625,0.818359375,-0.557861328125,2.838134527206421,0.4577636420726776,4.302978038787842,100.0,260239.0,1.0
85089.099791,316664.34375,343893.59375,338815.1875,316343.53125,320456.0,310682.03125,316002.71875,282028.15625,-0.0166015625,0.816650390625,-0.555908203125,2.868652105331421,0.5187987685203552,4.364013195037842,100.0,260240.0,1.0
85089.102021,316777.625,345667.96875,340133.9375,317385.5,322396.3125,311911.71875,317089.0,282831.3125,-0.014404296875,0.814697265625,-0.55810546875,2.929687261581421,0.7019042372703552,4.455565929412842,100.0,260241.0,1.0
85089.1020617,316966.15625,347585.375,341434.0,318600.8125,325335.28125,312909.96875,318480.0,283650.625,-0.01416015625,0.81640625,-0.55859375,2.807616949081421,0.7324218153953552,4.364013195037842,100.0,260242.0,1.0
85089.1046695,316991.65625,346967.3125,340898.375,318291.1875,325122.0625,312267.90625,318217.875,283322.5,-0.0126953125,0.817626953125,-0.563720703125,2.624511480331421,0.9765624403953552,4.364013195037842,100.0,260243.0,1.0
85089.1071458,316813.46875,344715.40625,339309.34375,316927.71875,322135.875,310919.125,316715.375,282346.53125,-0.009521484375,0.81689453125,-0.564208984375,2.716064214706421,1.1901854276657104,4.272460460662842,100.0,260244.0,1.0
85089.1071865,316667.28125,343877.5,338811.34375,316336.46875,320429.96875,310676.65625,315998.0625,282032.53125,-0.00830078125,0.8203125,-0.569091796875,2.960204839706421,1.5563963651657104,3.936767339706421,100.0,260245.0,1.0
85089.109537,316788.15625,345646.78125,340133.3125,317381.46875,322356.96875,311903.15625,317076.40625,282846.0625,-0.0078125,0.8271484375,-0.570068359375,3.479003667831421,2.105712652206421,3.662109136581421,100.0,260246.0,1.0
85089.112143,316983.96875,347579.9375,341445.875,318617.53125,325299.09375,312909.15625,318476.53125,283662.25,-0.006591796875,0.835693359375,-0.572265625,3.845214605331421,2.380370855331421,3.479003667831421,100.0,260247.0,1.0
85089.112185,316992.625,346964.71875,340903.46875,318301.65625,325076.28125,312261.40625,318213.125,283320.8125,-0.005859375,0.842529296875,-0.572998046875,3.967284917831421,2.716064214706421,3.570556402206421,100.0,260248.0,1.0
85089.1147228,316794.25,344693.6875,339297.34375,316920.46875,322063.625,310899.90625,316691.875,282323.46875,-0.009521484375,0.848388671875,-0.572998046875,3.814697027206421,2.990722417831421,3.601073980331421,100.0,260249.0,1.0
85089.1170906,316650.75,343858.90625,338799.25,316332.8125,320351.9375,310663.4375,315974.65625,282004.09375,-0.01123046875,0.852783203125,-0.57080078125,3.356933355331421,3.204345464706421,3.875732183456421,100.0,260250.0,1.0
85089.1221927,316784.125,345643.90625,340132.40625,317389.5,322290.96875,311905.5625,317068.0,282819.6875,-0.00927734375,0.856201171875,-0.570068359375,2.807616949081421,3.417968511581421,4.089354991912842,100.0,260251.0,1.0
85089.122233,316978.875,347582.96875,341450.1875,318626.0,325251.96875,312922.28125,318476.25,283639.4375,-0.00244140625,0.85595703125,-0.57177734375,2.166747808456421,3.631591558456421,4.150390148162842,100.0,260252.0,1.0
85089.1247702,316984.3125,346963.71875,340904.4375,318301.90625,325055.71875,312272.5625,318211.6875,283304.625,-0.001708984375,0.84912109375,-0.569580078125,1.6479490995407104,3.875732183456421,4.180907726287842,100.0,260253.0,1.0
85089.1269921,316790.40625,344694.21875,339295.125,316914.03125,322069.78125,310905.4375,316689.28125,282314.78125,-0.00048828125,0.84326171875,-0.56591796875,1.1596678495407104,4.028319835662842,4.241942882537842,100.0,260254.0,1.0
85089.1333932,316664.875,343868.09375,338809.0,316335.40625,320380.71875,310678.625,315982.6875,282014.03125,-0.001708984375,0.837646484375,-0.568359375,0.8544921278953552,4.272460460662842,4.150390148162842,100.0,260255.0,1.0
85089.1370466,316775.03125,345632.8125,340122.40625,317376.5625,322301.1875,311897.5,317055.03125,282822.0,-0.0009765625,0.835693359375,-0.57470703125,0.6713866591453552,4.608153820037842,3.997802495956421,100.0,260256.0,1.0
85089.137086,316961.4375,347570.625,341435.0625,318609.65625,325259.75,312904.78125,318457.125,283645.34375,0.00048828125,0.834716796875,-0.575439453125,0.6103515028953552,4.882812023162842,3.814697027206421,100.0,260257.0,1.0
85089.1409999,316977.53125,346977.6875,340905.25,318305.3125,325095.3125,312276.25,318218.3125,283329.46875,-0.00048828125,0.83447265625,-0.578857421875,0.6408690810203552,5.187987804412842,3.692626714706421,100.0,260258.0,1.0
85089.1633701,316782.09375,344707.0,339296.53125,316920.46875,322112.15625,310910.0,316701.875,282342.15625,0.000244140625,0.831298828125,-0.58154296875,0.7629393935203552,5.523681163787842,3.295898199081421,100.0,260259.0,1.0
85089.165942,316653.6875,343869.53125,338804.8125,316334.5,320408.34375,310678.53125,315994.0625,282037.625,0.005126953125,0.82666015625,-0.583984375,1.0070799589157104,5.737304210662842,2.929687261581421,100.0,260260.0,1.0
85089.1659785,316774.65625,345631.375,340121.0625,317373.5,322317.0,311904.125,317059.875,282842.375,0.0107421875,0.82568359375,-0.580322265625,1.3732908964157104,6.164550304412842,2.746581792831421,100.0,260261.0,1.0
85089.1682942,316968.3125,347587.6875,341445.96875,318617.25,325300.96875,312928.625,318478.03125,283673.4375,0.01416015625,0.825927734375,-0.579345703125,1.4038084745407104,6.652831554412842,2.624511480331421,100.0,260262.0,1.0
85089.1683303,316977.34375,346982.5,340909.34375,318304.59375,325126.15625,312284.1875,318229.65625,283347.34375,0.014404296875,0.8193359375,-0.578125,1.4953612089157104,6.927489757537842,2.593993902206421,100.0,260263.0,1.0
85089.1709419,316777.4375,344690.8125,339284.84375,316904.75,322105.8125,310895.4375,316689.375,282343.5,0.01611328125,0.8125,-0.57666015625,1.5563963651657104,7.263183116912842,2.655029058456421,100.0,260264.0,1.0
85089.1709779,316644.9375,343837.96875,338781.65625,316306.625,320380.8125,310648.5,315961.5,282027.1875,0.013427734375,0.806640625,-0.578369140625,1.7395018339157104,7.812499523162842,2.655029058456421,100.0,260265.0,1.0
85089.1732734,316769.84375,345610.375,340103.71875,317350.4375,322309.84375,311880.875,317039.40625,282834.78125,0.01025390625,0.80078125,-0.57861328125,2.075195074081421,8.300780296325684,2.563476324081421,100.0,260266.0,1.0
85089.1872978,316967.25,347575.28125,341435.96875,318600.53125,325305.34375,312913.0,318465.34375,283667.15625,0.006591796875,0.79296875,-0.577880859375,2.685546636581421,8.666991233825684,2.319335699081421,100.0,260267.0,1.0
85089.1960017,316971.8125,346959.71875,340898.53125,318286.34375,325136.28125,312270.96875,318216.09375,283337.625,0.0029296875,0.78369140625,-0.580078125,3.295898199081421,8.911131858825684,2.105712652206421,100.0,260268.0,1.0
85089.196041,316789.5,344679.75,339293.875,316906.8125,322155.625,310905.8125,316700.4375,282349.84375,0.000244140625,0.777587890625,-0.579833984375,3.662109136581421,9.002684593200684,1.8310545682907104,100.0,260269.0,1.0
85089.1960509,316668.1875,343839.6875,338798.46875,316320.46875,320445.1875,310668.25,315985.03125,282038.4375,-0.00244140625,0.765869140625,-0.583740234375,4.516601085662842,9.185790061950684,1.4953612089157104,100.0,260270.0,1.0
85089.1998627,316797.0,345620.3125,340125.0,317365.1875,322360.71875,311901.25,317063.34375,282844.1875,-0.0068359375,0.755126953125,-0.5859375,5.615233898162842,9.338377952575684,1.2207030057907104,100.0,260271.0,1.0
85089.1998984,316986.90625,347588.78125,341456.96875,318614.75,325348.53125,312933.90625,318487.4375,283672.0,-0.011962890625,0.747314453125,-0.589111328125,6.713866710662842,9.460448265075684,0.7324218153953552,100.0,260272.0,1.0
85089.1999084,316990.3125,346981.875,340922.59375,318310.59375,325199.84375,312297.875,318250.9375,283350.3125,-0.014892578125,0.742919921875,-0.59033203125,7.873534679412842,9.368895530700684,0.3051757514476776,100.0,260273.0,1.0
85089.2020111,316797.375,344681.15625,339301.375,316919.3125,322212.65625,310921.09375,316727.1875,282357.53125,-0.0166015625,0.745361328125,-0.591796875,9.277342796325684,9.277342796325684,0.0,100.0,260274.0,1.0
85089.2383456,316660.125,343805.6875,338784.34375,316311.09375,320465.28125,310662.71875,315983.75,282028.15625,-0.017333984375,0.75048828125,-0.5908203125,10.437010765075684,9.002684593200684,-0.2746581733226776,100.0,260275.0,1.0
85089.2421508,316784.0625,345589.0,340108.0,317351.0625,322363.40625,311889.0,317050.9375,282826.75,-0.02001953125,0.755126953125,-0.59619140625,11.779784202575684,8.880614280700684,-0.5493163466453552,100.0,260276.0,1.0
85089.2421851,316983.15625,347586.0,341457.34375,318612.875,325361.03125,312930.59375,318485.8125,283665.03125,-0.019775390625,0.7607421875,-0.5966796875,12.847899436950684,8.483885765075684,-0.8544921278953552,100.0,260277.0,1.0
85089.2421951,316984.59375,346989.9375,340924.8125,318310.84375,325219.96875,312294.75,318247.625,283340.65625,-0.01708984375,0.764892578125,-0.59521484375,13.732909202575684,8.239745140075684,-1.1291502714157104,100.0,260278.0,1.0
85089.2447834,316786.8125,344686.4375,339294.84375,316917.8125,322232.6875,310914.125,316717.0,282344.03125,-0.016845703125,0.767333984375,-0.591796875,14.373778343200684,8.148192405700684,-1.1596678495407104,100.0,260279.0,1.0
85089.2448211,316666.375,343825.8125,338790.15625,316322.09375,320488.4375,310667.1875,315989.125,282029.40625,-0.015625,0.771484375,-0.58984375,14.862059593200684,8.026122093200684,-1.1901854276657104,100.0,260280.0,1.0
85089.2472045,316794.78125,345609.5625,340118.71875,317357.78125,322368.40625,311892.0625,317052.4375,282825.03125,-0.010986328125,0.781494140625,-0.59326171875,15.716551780700684,7.873534679412842,-1.4343260526657104,100.0,260281.0,1.0
85089.2494408,316989.15625,347608.09375,341469.84375,318616.8125,325374.71875,312933.75,318483.21875,283656.25,-0.005859375,0.7919921875,-0.59765625,16.052244186401367,7.537841320037842,-1.4953612089157104,100.0,260282.0,1.0
85089.2520156,316982.8125,347003.15625,340932.59375,318318.1875,325253.03125,312302.4375,318253.8125,283337.15625,0.0,0.801025390625,-0.60205078125,16.265867233276367,7.232665538787842,-1.4038084745407104,100.0,260283.0,1.0
85089.2545192,316787.625,344681.71875,339295.65625,316928.4375,322260.75,310924.75,316729.59375,282348.5,0.006103515625,0.806640625,-0.603271484375,16.326902389526367,6.927489757537842,-1.3732908964157104,100.0,260284.0,1.0
85089.2571494,316675.59375,343819.5625,338786.84375,316330.75,320495.0625,310675.9375,315997.53125,282034.25,0.01025390625,0.8125,-0.601318359375,16.113279342651367,6.774901866912842,-1.1901854276657104,100.0,260285.0,1.0
85089.2594325,316813.65625,345623.34375,340125.25,317370.8125,322374.5625,311905.65625,317062.90625,282834.4375,0.01123046875,0.8125,-0.59814453125,15.747069358825684,6.744384288787842,-0.9460448622703552,100.0,260286.0,1.0
85089.262068,317014.0,347641.71875,341488.09375,318634.6875,325381.15625,312946.25,318491.71875,283667.15625,0.010009765625,0.809814453125,-0.5966796875,15.380858421325684,6.866454601287842,-0.4577636420726776,100.0,260287.0,1.0
85089.2621095,317016.6875,347044.1875,340957.09375,318344.8125,325264.46875,312322.09375,318265.0,283350.9375,0.0078125,0.805908203125,-0.597900390625,14.770506858825684,6.866454601287842,0.0610351525247097,100.0,260288.0,1.0
85089.297121,316818.8125,344711.3125,339312.5625,316949.8125,322284.28125,310941.375,316740.15625,282354.5,0.005859375,0.80517578125,-0.5986328125,14.312743186950684,6.591796398162842,0.3356933295726776,100.0,260289.0,1.0
85089.3021825,316684.28125,343813.9375,338782.09375,316325.125,320508.03125,310669.875,315983.6875,282014.3125,0.003173828125,0.8056640625,-0.599365234375,13.854979515075684,6.469726085662842,0.6103515028953552,100.0,260290.0,1.0
85089.302222,316814.8125,345603.75,340116.125,317353.5625,322379.125,311886.4375,317032.0625,282796.96875,0.000244140625,0.806396484375,-0.598388671875,13.336180686950684,5.981444835662842,0.9155272841453552,100.0,260291.0,1.0
85089.3044488,317015.78125,347623.46875,341485.21875,318621.53125,325405.5625,312934.09375,318461.78125,283628.4375,-0.001953125,0.807861328125,-0.603271484375,12.756346702575684,5.554198741912842,1.0070799589157104,100.0,260292.0,1.0
85089.3071145,317018.28125,347030.96875,340960.59375,318340.34375,325323.5,312318.4375,318250.9375,283322.15625,-0.007568359375,0.807861328125,-0.604736328125,12.084959983825684,4.943847179412842,0.8239745497703552,100.0,260293.0,1.0
85089.3096317,316813.5625,344683.9375,339304.0625,316943.8125,322336.65625,310933.6875,316727.8125,282326.0625,-0.012939453125,0.8046875,-0.606689453125,11.505125999450684,4.486083507537842,0.3662109076976776,100.0,260294.0,1.0
85089.312147,316689.28125,343787.0,338773.15625,316326.46875,320551.75,310667.625,315972.78125,281992.125,-0.017822265625,0.80712890625,-0.6123046875,11.138915061950684,3.967284917831421,-0.0915527269244194,100.0,260295.0,1.0
85089.3144722,316827.15625,345587.3125,340115.25,317360.625,322422.0625,311886.78125,317017.84375,282781.3125,-0.021484375,0.80712890625,-0.61474609375,10.925292015075684,3.387450933456421,-0.6103515028953552,100.0,260296.0,1.0
85089.3171519,317038.15625,347629.1875,341506.0625,318641.21875,325459.65625,312947.5,318459.28125,283627.5625,-0.0224609375,0.80908203125,-0.61474609375,10.650633811950684,2.777099370956421,-0.8850097060203552,100.0,260297.0,1.0
85089.3219989,317033.5,347035.71875,340979.46875,318359.75,325372.65625,312335.875,318251.65625,283324.8125,-0.0234375,0.814697265625,-0.6103515625,10.528563499450684,2.258300542831421,-1.2817381620407104,100.0,260298.0,1.0
85089.3246339,316814.0,344675.8125,339310.0625,316954.46875,322371.71875,310944.34375,316725.40625,282326.96875,-0.023193359375,0.81884765625,-0.60595703125,10.223387718200684,1.7395018339157104,-1.4648436307907104,100.0,260299.0,1.0
85089.3271399,316682.65625,343773.875,338772.96875,316331.1875,320579.90625,310673.25,315972.84375,281991.21875,-0.020751953125,0.822509765625,-0.607421875,9.704588890075684,1.1901854276657104,-1.7089842557907104,100.0,260300.0,1.0
85089.3271803,316820.71875,345566.5625,340116.0625,317358.03125,322443.6875,311891.875,317015.15625,282774.71875,-0.02392578125,0.830078125,-0.60400390625,9.063719749450684,0.4272460639476776,-1.8920897245407104,100.0,260301.0,1.0
85089.3346857,317014.0,347598.25,341498.5625,318623.875,325465.5625,312943.21875,318439.875,283606.28125,-0.021728515625,0.835205078125,-0.60302734375,8.209227561950684,-0.5187987685203552,-1.9836424589157104,100.0,260302.0,1.0
85089.3372449,317010.5,347018.71875,340973.90625,318349.03125,325383.21875,312338.46875,318236.03125,283307.75,-0.01611328125,0.837158203125,-0.603759765625,7.354735851287842,-1.2817381620407104,-1.9836424589157104,100.0,260303.0,1.0
85089.3372793,316792.375,344668.75,339299.125,316946.15625,322387.8125,310948.8125,316713.6875,282315.25,-0.01318359375,0.840576171875,-0.6025390625,6.500243663787842,-2.075195074081421,-2.136230230331421,100.0,260304.0,1.0
85089.3397121,316669.34375,343772.0,338762.4375,316318.875,320587.15625,310673.25,315959.71875,281982.8125,-0.00927734375,0.843505859375,-0.60498046875,5.615233898162842,-2.838134527206421,-2.197265386581421,100.0,260305.0,1.0
85089.3418127,316815.34375,345582.65625,340108.375,317345.53125,322434.84375,311886.6875,316996.5625,282766.375,0.000244140625,0.84375,-0.60791015625,4.821776866912842,-3.417968511581421,-2.288818120956421,100.0,260306.0,1.0
85089.3418531,317019.28125,347641.09375,341499.1875,318619.03125,325460.46875,312942.40625,318426.0,283607.625,0.007080078125,0.846435546875,-0.608642578125,4.058837413787842,-3.753661870956421,-2.532958745956421,100.0,260307.0,1.0
85089.3449707,317011.9375,347065.21875,340972.9375,318344.28125,325383.21875,312337.40625,318222.96875,283313.125,0.0126953125,0.845947265625,-0.609375,3.326415777206421,-3.784179449081421,-2.593993902206421,100.0,260308.0,1.0
85089.4108724,316801.5625,344709.5,339299.125,316942.3125,322385.21875,310945.40625,316698.3125,282325.4375,0.021728515625,0.843017578125,-0.60791015625,2.624511480331421,-3.906249761581421,-2.502441167831421,100.0,260309.0,1.0
85089.4184167,316677.5625,343806.875,338756.25,316315.71875,320583.5,310662.71875,315943.875,281996.40625,0.030029296875,0.83984375,-0.607177734375,1.8615721464157104,-3.723144292831421,-2.532958745956421,100.0,260310.0,1.0
85089.4184578,316812.84375,345599.03125,340090.65625,317327.09375,322421.25,311865.3125,316974.03125,282775.96875,0.039306640625,0.832275390625,-0.60400390625,1.2207030057907104,-3.326415777206421,-2.563476324081421,100.0,260311.0,1.0
85089.420926,317013.1875,347645.8125,341485.3125,318600.34375,325449.5625,312917.28125,318405.1875,283616.5625,0.046630859375,0.82373046875,-0.6025390625,0.6103515028953552,-2.777099370956421,-2.655029058456421,100.0,260312.0,1.0
85089.4232438,317009.8125,347070.40625,340968.625,318331.5,325390.09375,312317.46875,318211.4375,283326.0625,0.050537109375,0.812744140625,-0.605224609375,-0.0610351525247097,-2.105712652206421,-2.532958745956421,100.0,260313.0,1.0
85089.4283321,316801.65625,344709.25,339295.75,316932.90625,322403.375,310930.5625,316700.8125,282339.90625,0.05615234375,0.799072265625,-0.60595703125,-0.7019042372703552,-1.3732908964157104,-2.471923589706421,100.0,260314.0,1.0
85089.430929,316671.3125,343771.71875,338737.03125,316294.90625,320575.71875,310638.84375,315932.8125,281993.1875,0.0595703125,0.785888671875,-0.611572265625,-0.9765624403953552,-0.4882812201976776,-2.563476324081421,100.0,260315.0,1.0
85089.4357363,316810.5,345547.15625,340072.34375,317309.3125,322390.125,311839.46875,316950.0625,282763.25,0.056396484375,0.77587890625,-0.617919921875,-1.0375975370407104,0.3967284858226776,-2.685546636581421,100.0,260316.0,1.0
85089.438237,317005.0625,347592.8125,341467.09375,318582.46875,325402.0625,312896.90625,318370.3125,283598.40625,0.0478515625,0.77001953125,-0.62109375,-0.7629393935203552,1.1596678495407104,-3.082275152206421,100.0,260317.0,1.0
85089.4408655,316987.8125,347011.03125,340942.875,318309.25,325324.65625,312293.3125,318164.5,283301.5,0.041015625,0.761962890625,-0.623779296875,-0.1831054538488388,2.044677495956421,-3.417968511581421,100.0,260318.0,1.0
85089.4434356,316771.53125,344644.96875,339262.3125,316911.4375,322325.84375,310899.1875,316648.3125,282313.90625,0.029296875,0.7607421875,-0.624267578125,0.3051757514476776,2.593993902206421,-3.753661870956421,100.0,260319.0,1.0
85089.4434763,316656.1875,343720.125,338715.21875,316283.5625,320495.59375,310616.21875,315895.6875,281978.8125,0.021240234375,0.76416015625,-0.6259765625,0.8544921278953552,3.143310308456421,-4.272460460662842,100.0,260320.0,1.0
85089.4459191,316804.34375,345504.4375,340054.0,317299.9375,322295.90625,311820.15625,316925.9375,282753.5,0.009765625,0.773193359375,-0.6240234375,1.4953612089157104,3.662109136581421,-4.882812023162842,100.0,260321.0,1.0
85089.448279,317001.5,347560.0625,341452.40625,318573.09375,325303.1875,312878.65625,318355.03125,283586.25,0.000244140625,0.78369140625,-0.622314453125,1.8310545682907104,4.028319835662842,-5.523681163787842,100.0,260322.0,1.0
85089.4507114,317001.5,347008.78125,340952.0,318322.46875,325248.21875,312301.625,318180.125,283311.3125,-0.003662109375,0.794189453125,-0.6181640625,2.014159917831421,4.272460460662842,-6.042479991912842,100.0,260323.0,1.0
85089.4532856,316777.34375,344632.71875,339264.4375,316915.65625,322229.65625,310907.25,316660.21875,282318.90625,-0.010498046875,0.80126953125,-0.6181640625,2.105712652206421,4.394530773162842,-6.439208507537842,100.0,260324.0,1.0
85089.4582714,316634.90625,343671.0625,338682.40625,316255.375,320355.3125,310597.625,315869.40625,281959.40625,-0.014404296875,0.802978515625,-0.6181640625,2.044677495956421,4.333495616912842,-6.866454601287842,100.0,260325.0,1.0
85089.4607495,316784.6875,345453.90625,340021.28125,317265.59375,322140.34375,311801.5625,316883.46875,282733.75,-0.01806640625,0.802490234375,-0.61767578125,1.8310545682907104,4.150390148162842,-7.080077648162842,100.0,260326.0,1.0
85089.4633719,317007.375,347551.03125,341452.3125,318568.625,325177.3125,312886.875,318339.8125,283590.46875,-0.024658203125,0.80322265625,-0.614501953125,1.5869139432907104,4.028319835662842,-7.171630382537842,100.0,260327.0,1.0
85089.4658165,316992.0,346992.15625,340941.375,318313.25,325131.4375,312291.78125,318153.3125,283299.96875,-0.03466796875,0.80126953125,-0.615234375,1.3732908964157104,3.997802495956421,-7.446288585662842,100.0,260328.0,1.0
85089.4658584,316771.1875,344611.6875,339255.25,316914.75,322138.375,310896.78125,316629.375,282314.09375,-0.044189453125,0.799072265625,-0.61669921875,1.1596678495407104,3.814697027206421,-7.843017101287842,100.0,260329.0,1.0
85089.4683839,316634.1875,343642.71875,338674.90625,316256.09375,320254.65625,310587.96875,315832.5,281959.3125,-0.05126953125,0.804443359375,-0.61572265625,1.1291502714157104,3.509521245956421,-8.544920921325684,100.0,260330.0,1.0
85089.4708687,316776.4375,345416.46875,340001.625,317255.5,322014.8125,311785.3125,316837.4375,282723.5625,-0.053466796875,0.8095703125,-0.60986328125,1.1291502714157104,3.051757574081421,-8.728026390075684,100.0,260331.0,1.0
85089.4733382,316980.65625,347504.03125,341420.0625,318543.21875,325034.96875,312860.34375,318279.5625,283571.0625,-0.052001953125,0.8134765625,-0.606201171875,0.8544921278953552,2.471923589706421,-8.666991233825684,100.0,260332.0,1.0
85089.4783831,316981.09375,346972.40625,340932.875,318308.78125,325019.25,312287.78125,318121.65625,283304.4375,-0.047607421875,0.8154296875,-0.601318359375,0.3662109076976776,1.9531248807907104,-8.728026390075684,100.0,260333.0,1.0
85089.4784224,316765.1875,344594.0,339243.875,316914.59375,322022.40625,310885.78125,316606.21875,282313.53125,-0.044677734375,0.822021484375,-0.604248046875,-0.1525878757238388,1.5563963651657104,-8.880614280700684,100.0,260334.0,1.0
85089.4821536,316639.375,343626.09375,338661.03125,316255.65625,320133.21875,310574.90625,315820.15625,281957.0,-0.043212890625,0.826171875,-0.609619140625,-0.9155272841453552,1.1291502714157104,-8.850096702575684,100.0,260335.0,1.0
85089.4822002,316766.0625,345377.65625,339968.8125,317232.0625,321862.8125,311752.21875,316802.8125,282701.125,-0.042236328125,0.82568359375,-0.615966796875,-1.6479490995407104,1.0070799589157104,-8.605956077575684,100.0,260336.0,1.0
85089.4822112,316975.75,347474.5,341399.125,318525.59375,324902.46875,312842.1875,318250.6875,283559.25,-0.0439453125,0.823974609375,-0.619384765625,-2.258300542831421,0.9765624403953552,-8.544920921325684,100.0,260337.0,1.0
85089.4846749,316975.8125,346956.65625,340923.75,318298.78125,324915.625,312281.875,318093.0625,283298.4375,-0.0419921875,0.8203125,-0.625,-2.716064214706421,0.8544921278953552,-8.209227561950684,100.0,260338.0,1.0
85089.4872075,316759.09375,344583.375,339239.5,316909.21875,321926.5625,310883.1875,316574.84375,282311.3125,-0.041259765625,0.819091796875,-0.630859375,-2.777099370956421,0.9155272841453552,-7.904052257537842,100.0,260339.0,1.0
85089.4872435,316626.4375,343603.0,338645.40625,316243.9375,320023.71875,310565.625,315776.0625,281951.09375,-0.041015625,0.819091796875,-0.629150390625,-2.716064214706421,1.0070799589157104,-7.720946788787842,100.0,260340.0,1.0
85089.4895569,316758.375,345359.3125,339954.03125,317219.8125,321762.40625,311756.34375,316769.125,282706.5,-0.040283203125,0.821533203125,-0.626708984375,-2.868652105331421,1.0070799589157104,-7.446288585662842,100.0,260341.0,1.0
85089.4895929,316976.0,347475.5,341399.5625,318520.25,324815.03125,312860.34375,318230.65625,283571.5,-0.041259765625,0.8271484375,-0.622314453125,-2.868652105331421,0.8544921278953552,-7.141112804412842,100.0,260342.0,1.0
85089.4922218,316974.03125,346965.15625,340929.75,318298.875,324832.28125,312295.375,318080.71875,283310.53125,-0.04248046875,0.832763671875,-0.616943359375,-3.112792730331421,0.7934569716453552,-6.927489757537842,100.0,260343.0,1.0
85089.4945161,316749.28125,344586.21875,339237.1875,316903.40625,321848.0625,310884.25,316560.71875,282313.625,-0.041259765625,0.840087890625,-0.614990234375,-3.295898199081421,0.6408690810203552,-6.774901866912842,100.0,260344.0,1.0
85089.4996767,316621.5,343602.9375,338642.1875,316236.875,319946.71875,310568.21875,315768.75,281951.71875,-0.03857421875,0.84521484375,-0.614501953125,-3.906249761581421,0.3662109076976776,-6.622313976287842,100.0,260345.0,1.0
85089.4997382,316759.1875,345354.3125,339952.875,317214.375,321671.65625,311759.09375,316764.46875,282708.8125,-0.037841796875,0.8466796875,-0.614013671875,-4.241942882537842,0.2441406100988388,-6.561278820037842,100.0,260346.0,1.0
85089.5022148,316959.71875,347460.375,341381.53125,318501.28125,324711.3125,312847.28125,318211.34375,283559.0625,-0.033447265625,0.848388671875,-0.616943359375,-4.699706554412842,-0.03051757626235485,-6.408690929412842,100.0,260347.0,1.0
85089.5067805,316960.09375,346966.0625,340916.78125,318287.78125,324751.90625,312287.78125,318071.59375,283300.6875,-0.0322265625,0.8515625,-0.613037109375,-5.310058116912842,-0.2441406100988388,-6.256103038787842,100.0,260348.0,1.0
85089.5068223,316755.25,344605.34375,339243.96875,316917.0,321792.96875,310885.78125,316574.75,282321.6875,-0.027099609375,0.850830078125,-0.61328125,-6.072997570037842,-0.3051757514476776,-6.072997570037842,100.0,260349.0,1.0
85089.515922,316614.34375,343600.34375,338628.40625,316231.0625,319875.90625,310543.96875,315764.71875,281947.40625,-0.021728515625,0.850830078125,-0.60888671875,-6.805419445037842,-0.3356933295726776,-6.164550304412842,100.0,260350.0,1.0
85089.5185701,316745.59375,345338.5,339922.125,317188.875,321588.25,311726.65625,316748.28125,282695.59375,-0.019775390625,0.851318359375,-0.60791015625,-7.415771007537842,-0.2746581733226776,-5.981444835662842,100.0,260351.0,1.0
85089.5186061,316953.75,347461.71875,341365.25,318487.34375,324644.34375,312835.3125,318212.6875,283563.0,-0.01416015625,0.8486328125,-0.60498046875,-8.178709983825684,-0.3051757514476776,-5.981444835662842,100.0,260352.0,1.0
85089.5258968,316962.78125,346994.125,340932.875,318297.875,324721.5,312297.78125,318091.09375,283327.25,-0.0068359375,0.8447265625,-0.606201171875,-9.002684593200684,-0.1831054538488388,-5.950927257537842,100.0,260353.0,1.0
85089.5282407,316749.625,344635.3125,339261.3125,316921.1875,321771.15625,310889.96875,316583.78125,282339.125,-0.002197265625,0.841064453125,-0.607421875,-9.765624046325684,0.1220703050494194,-5.828856945037842,100.0,260354.0,1.0
85089.5333471,316610.78125,343613.90625,338637.71875,316232.125,319844.625,310536.375,315759.25,281954.03125,-0.00048828125,0.83447265625,-0.603515625,-10.650633811950684,0.3662109076976776,-5.615233898162842,100.0,260355.0,1.0
85089.5358903,316746.5,345337.0625,339924.28125,317185.21875,321552.3125,311720.21875,316733.53125,282704.53125,0.00048828125,0.82861328125,-0.6044921875,-11.383055686950684,0.5493163466453552,-5.554198741912842,100.0,260356.0,1.0
85089.5383239,316965.28125,347461.8125,341369.28125,318486.96875,324618.5,312836.375,318197.3125,283577.5,-0.00048828125,0.8212890625,-0.600341796875,-12.023924827575684,0.8239745497703552,-5.676269054412842,100.0,260357.0,1.0
85089.5383563,316975.125,347005.3125,340940.03125,318300.5625,324710.59375,312296.71875,318076.0625,283339.03125,-0.001953125,0.814697265625,-0.5966796875,-12.634276390075684,1.2817381620407104,-5.767821788787842,100.0,260358.0,1.0
85089.5632797,316773.0625,344663.375,339286.625,316937.375,321791.28125,310900.4375,316582.0625,282359.84375,-0.005859375,0.806884765625,-0.595947265625,-13.031004905700684,1.6479490995407104,-5.950927257537842,100.0,260359.0,1.0
85089.5657921,316638.75,343643.15625,338662.84375,316248.40625,319873.25,310557.21875,315761.40625,281976.65625,-0.0126953125,0.7978515625,-0.600830078125,-13.366698265075684,1.8920897245407104,-6.256103038787842,100.0,260360.0,1.0
85089.5658276,316765.09375,345349.5,339931.59375,317190.65625,321571.78125,311735.25,316731.46875,282712.5625,-0.020263671875,0.78857421875,-0.60205078125,-13.641356468200684,2.197265386581421,-6.500243663787842,100.0,260361.0,1.0
85089.5685607,316979.59375,347474.25,341372.75,318490.28125,324646.9375,312853.1875,318202.5,283577.59375,-0.027099609375,0.781982421875,-0.603759765625,-13.580321311950684,2.471923589706421,-6.866454601287842,100.0,260362.0,1.0
85089.5685991,317000.40625,347036.96875,340962.46875,318320.78125,324763.34375,312322.71875,318094.65625,283340.21875,-0.03369140625,0.78076171875,-0.605712890625,-13.336180686950684,2.380370855331421,-7.476806163787842,100.0,260363.0,1.0
85089.5710712,316807.21875,344699.5,339319.6875,316971.53125,321856.09375,310921.4375,316602.1875,282363.4375,-0.03515625,0.78466796875,-0.6064453125,-12.847899436950684,2.227782964706421,-8.026122093200684,100.0,260364.0,1.0
85089.5711111,316670.6875,343669.53125,338692.25,316275.3125,319936.71875,310569.71875,315783.59375,281979.59375,-0.037353515625,0.7890625,-0.601318359375,-12.298583030700684,1.9836424589157104,-8.514403343200684,100.0,260365.0,1.0
85089.5745937,316786.46875,345363.0,339948.5,317200.25,321610.3125,311740.0625,316747.84375,282711.84375,-0.038818359375,0.794677734375,-0.599365234375,-11.901854515075684,1.8310545682907104,-9.124754905700684,100.0,260366.0,1.0
85089.5883437,316987.53125,347489.1875,341388.3125,318493.0625,324677.15625,312860.78125,318219.375,283576.78125,-0.0380859375,0.796875,-0.595947265625,-11.657713890075684,1.7089842557907104,-9.582518577575684,100.0,260367.0,1.0
85089.5883885,317005.78125,347069.9375,340991.0,318333.75,324818.96875,312334.0,318118.34375,283347.34375,-0.03759765625,0.80078125,-0.587158203125,-11.749266624450684,1.7700194120407104,-9.948729515075684,100.0,260368.0,1.0
85089.5935946,316819.0,344756.625,339367.71875,317002.375,321944.8125,310946.03125,316640.28125,282384.8125,-0.033447265625,0.80078125,-0.585205078125,-11.779784202575684,1.8615721464157104,-10.314940452575684,100.0,260369.0,1.0
85089.593632,316677.21875,343716.5625,338727.65625,316299.1875,320015.125,310587.96875,315808.78125,281995.25,-0.02490234375,0.8017578125,-0.5869140625,-11.901854515075684,1.9226073026657104,-10.437010765075684,100.0,260370.0,1.0
85089.5936418,316787.625,345393.125,339964.25,317211.40625,321686.78125,311757.9375,316765.0,282716.0625,-0.01904296875,0.79931640625,-0.588134765625,-11.932372093200684,2.014159917831421,-10.589598655700684,100.0,260371.0,1.0
85089.5972079,316991.46875,347521.625,341401.09375,318502.1875,324777.21875,312880.1875,318235.03125,283575.6875,-0.01513671875,0.80029296875,-0.587158203125,-11.688231468200684,2.349853277206421,-10.650633811950684,100.0,260372.0,1.0
85089.6155819,317011.59375,347121.28125,341017.53125,318355.375,324948.6875,312363.5,318149.03125,283348.0625,-0.013916015625,0.799560546875,-0.590087890625,-11.505125999450684,2.655029058456421,-10.528563499450684,100.0,260373.0,1.0
85089.6156186,316806.9375,344791.40625,339381.5625,317016.40625,322065.3125,310959.28125,316661.46875,282364.5,-0.01318359375,0.79638671875,-0.593994140625,-11.413573265075684,3.173827886581421,-10.559081077575684,100.0,260374.0,1.0
85089.6235104,316661.8125,343742.5,338737.40625,316309.21875,320140.03125,310597.875,315830.78125,281969.78125,-0.013916015625,0.79443359375,-0.5888671875,-10.955809593200684,3.814697027206421,-10.528563499450684,100.0,260375.0,1.0
85089.6235447,316766.15625,345403.9375,339958.78125,317204.25,321794.40625,311759.28125,316780.03125,282687.53125,-0.015625,0.79345703125,-0.584716796875,-10.620116233825684,4.333495616912842,-10.528563499450684,100.0,260376.0,1.0
85089.6235548,316969.9375,347531.71875,341397.6875,318492.09375,324872.25,312884.65625,318257.375,283547.8125,-0.018310546875,0.79296875,-0.5830078125,-10.375975608825684,5.096435070037842,-10.375975608825684,100.0,260377.0,1.0
85089.6258545,316998.34375,347141.90625,341027.09375,318355.65625,325059.75,312371.375,318176.125,283322.5,-0.02294921875,0.791259765625,-0.576904296875,-10.131834983825684,5.920409679412842,-10.131834983825684,100.0,260378.0,1.0
85089.6283873,316804.0625,344819.5625,339402.59375,317033.84375,322198.4375,310966.0625,316694.375,282344.46875,-0.026611328125,0.7880859375,-0.582763671875,-9.887694358825684,6.591796398162842,-10.040282249450684,100.0,260379.0,1.0
85089.6333585,316653.25,343746.0625,338742.5,316315.375,320246.96875,310593.25,315850.8125,281946.15625,-0.031005859375,0.7861328125,-0.586181640625,-9.643553733825684,6.835937023162842,-9.887694358825684,100.0,260380.0,1.0
85089.6358752,316753.46875,345400.71875,339952.0,317196.65625,321871.75,311753.125,316793.78125,282656.25,-0.032470703125,0.78369140625,-0.59228515625,-9.155272483825684,7.080077648162842,-9.674071311950684,100.0,260381.0,1.0
85089.639646,316954.375,347536.90625,341392.15625,318481.875,324943.5,312890.71875,318274.90625,283528.125,-0.03662109375,0.77978515625,-0.593017578125,-8.514403343200684,7.171630382537842,-9.521483421325684,100.0,260382.0,1.0
85089.639694,316986.65625,347167.59375,341036.3125,318361.375,325152.28125,312389.96875,318209.5625,283319.0,-0.03759765625,0.77734375,-0.594482421875,-7.751464366912842,7.080077648162842,-9.216307640075684,100.0,260383.0,1.0
85089.6659022,316803.4375,344860.0,339422.6875,317052.90625,322298.21875,310985.90625,316733.0,282350.65625,-0.04052734375,0.777099609375,-0.597900390625,-6.866454601287842,7.080077648162842,-8.972167015075684,100.0,260384.0,1.0
85089.6684054,316650.75,343778.15625,338752.875,316326.71875,320321.96875,310598.15625,315876.5625,281944.90625,-0.046142578125,0.7783203125,-0.599609375,-6.072997570037842,7.049560070037842,-8.666991233825684,100.0,260385.0,1.0
85089.6684463,316748.65625,345411.71875,339948.21875,317190.125,321918.59375,311746.84375,316804.96875,282649.96875,-0.0517578125,0.7802734375,-0.604248046875,-5.249022960662842,6.988524913787842,-8.300780296325684,100.0,260386.0,1.0
85089.6708744,316960.71875,347551.125,341392.0625,318477.0625,324986.875,312889.9375,318291.28125,283521.0625,-0.055419921875,0.783935546875,-0.60107421875,-4.547118663787842,6.927489757537842,-8.209227561950684,100.0,260387.0,1.0
85089.6734949,316984.9375,347186.90625,341038.8125,318365.375,325199.84375,312387.90625,318228.875,283308.90625,-0.05859375,0.7880859375,-0.60498046875,-3.906249761581421,6.774901866912842,-8.087157249450684,100.0,260388.0,1.0
85089.6757767,316800.6875,344888.25,339436.8125,317072.28125,322358.9375,310989.75,316765.1875,282355.65625,-0.057373046875,0.7939453125,-0.601318359375,-3.448486089706421,6.469726085662842,-7.812499523162842,100.0,260389.0,1.0
85089.680863,316642.96875,343788.09375,338753.125,316336.75,320367.03125,310595.5625,315904.0,281945.8125,-0.05615234375,0.798828125,-0.598876953125,-2.990722417831421,6.195067882537842,-7.476806163787842,100.0,260390.0,1.0
85089.6833492,316736.40625,345406.4375,339937.875,317185.75,321944.8125,311743.28125,316827.21875,282644.34375,-0.056396484375,0.804931640625,-0.598388671875,-2.868652105331421,5.889892101287842,-7.171630382537842,100.0,260391.0,1.0
85089.6883185,316940.96875,347541.5625,341377.5,318466.5,325005.65625,312879.65625,318306.1875,283511.25,-0.05908203125,0.816650390625,-0.604736328125,-2.685546636581421,5.554198741912842,-6.835937023162842,100.0,260392.0,1.0
85089.6883631,316983.78125,347199.3125,341049.5625,318378.53125,325241.78125,312390.40625,318257.65625,283313.1875,-0.06103515625,0.828369140625,-0.606689453125,-2.838134527206421,5.065917491912842,-6.561278820037842,100.0,260393.0,1.0
85089.6909597,316800.6875,344892.53125,339446.03125,317087.9375,322402.375,310987.96875,316784.21875,282351.0,-0.062744140625,0.837646484375,-0.601318359375,-3.051757574081421,4.760741710662842,-6.164550304412842,100.0,260394.0,1.0
85089.6933362,316641.25,343784.0625,338758.0625,316345.5,320416.21875,310592.0625,315917.6875,281936.25,-0.063232421875,0.842041015625,-0.59716796875,-3.417968511581421,4.272460460662842,-5.767821788787842,100.0,260395.0,1.0
85089.6957045,316725.5,345385.0625,339924.90625,317172.0625,321980.1875,311729.875,316831.78125,282623.15625,-0.061767578125,0.847412109375,-0.594482421875,-3.753661870956421,3.936767339706421,-5.371093273162842,100.0,260396.0,1.0
85089.6995659,316925.3125,347523.34375,341364.875,318446.84375,325034.0,312873.03125,318313.875,283490.9375,-0.06103515625,0.852783203125,-0.590576171875,-4.211425304412842,3.753661870956421,-5.126952648162842,100.0,260397.0,1.0
85089.7529898,316972.78125,347197.53125,341052.59375,318373.0625,325289.96875,312399.0,318280.90625,283310.6875,-0.0595703125,0.856201171875,-0.587646484375,-4.730224132537842,3.479003667831421,-4.730224132537842,100.0,260398.0,1.0
85089.7530036,316800.78125,344903.09375,339462.03125,317098.3125,322480.53125,310999.875,316822.21875,282363.625,-0.06005859375,0.859375,-0.580810546875,-5.310058116912842,3.234863042831421,-4.455565929412842,100.0,260399.0,1.0
85089.7582228,316639.125,343768.875,338755.09375,316343.0,320467.34375,310579.28125,315938.09375,281934.28125,-0.059814453125,0.86083984375,-0.58154296875,-6.317138195037842,2.838134527206421,-4.150390148162842,100.0,260400.0,1.0
85089.7582359,316720.03125,345352.25,339909.15625,317159.46875,322008.0,311707.53125,316834.03125,282609.65625,-0.055908203125,0.861083984375,-0.583251953125,-7.324218273162842,2.319335699081421,-3.692626714706421,100.0,260401.0,1.0
85089.7607467,316915.5625,347485.0625,341349.40625,318431.625,325073.78125,312854.96875,318310.59375,283479.21875,-0.05126953125,0.858154296875,-0.584228515625,-8.300780296325684,1.8615721464157104,-3.326415777206421,100.0,260402.0,1.0
85089.7632003,316968.21875,347177.40625,341052.6875,318372.28125,325361.84375,312394.625,318286.09375,283309.0,-0.047119140625,0.854736328125,-0.582763671875,-9.033202171325684,1.5258787870407104,-3.021239995956421,100.0,260403.0,1.0
85089.7658295,316790.75,344890.84375,339465.71875,317100.90625,322569.75,310998.96875,316829.09375,282359.9375,-0.04443359375,0.851806640625,-0.58544921875,-9.643553733825684,1.1596678495407104,-2.746581792831421,100.0,260404.0,1.0
85089.7682458,316631.4375,343752.84375,338759.75,316348.0,320567.21875,310584.125,315947.03125,281938.75,-0.03857421875,0.84619140625,-0.587158203125,-10.253905296325684,1.0986326932907104,-2.319335699081421,100.0,260405.0,1.0
85089.7707906,316717.875,345332.0625,339913.46875,317160.53125,322092.40625,311717.4375,316844.5,282624.21875,-0.036376953125,0.843505859375,-0.591552734375,-10.620116233825684,1.1901854276657104,-1.9226073026657104,100.0,260406.0,1.0
85089.7733072,316920.46875,347475.125,341353.25,318432.625,325145.3125,312866.40625,318325.15625,283492.71875,-0.03662109375,0.83935546875,-0.5927734375,-10.925292015075684,1.4953612089157104,-1.6479490995407104,100.0,260407.0,1.0
85089.7757027,316975.375,347180.375,341060.28125,318375.59375,325439.28125,312401.40625,318301.5625,283315.53125,-0.036376953125,0.83642578125,-0.5966796875,-11.138915061950684,1.7395018339157104,-1.4038084745407104,100.0,260408.0,1.0
85089.7781346,316802.65625,344900.9375,339479.375,317111.1875,322646.46875,311003.4375,316843.6875,282370.125,-0.038818359375,0.834228515625,-0.595947265625,-11.077879905700684,2.105712652206421,-1.1596678495407104,100.0,260409.0,1.0
85089.7806205,316633.9375,343747.3125,338758.125,316343.625,320613.625,310576.96875,315949.15625,281936.6875,-0.03955078125,0.83203125,-0.595703125,-11.199950218200684,2.410888433456421,-0.8850097060203552,100.0,260410.0,1.0
85089.7831094,316712.25,345300.59375,339892.34375,317144.34375,322123.78125,311701.15625,316835.1875,282610.65625,-0.0400390625,0.830810546875,-0.5947265625,-11.322020530700684,2.593993902206421,-0.4882812201976776,100.0,260411.0,1.0
85089.7858262,316918.0625,347443.59375,341338.78125,318422.875,325195.625,312863.8125,318325.0625,283489.96875,-0.046630859375,0.827880859375,-0.591552734375,-11.383055686950684,2.593993902206421,-0.3051757514476776,100.0,260412.0,1.0
85089.7881553,316970.8125,347154.09375,341051.78125,318374.96875,325506.9375,312408.1875,318309.5,283319.28125,-0.050537109375,0.82568359375,-0.589111328125,-11.444090843200684,2.593993902206421,-0.1525878757238388,100.0,260413.0,1.0
85089.7906541,316809.15625,344887.625,339487.875,317129.15625,322727.8125,311020.34375,316864.5,282382.84375,-0.053955078125,0.822265625,-0.582275390625,-11.596678733825684,2.624511480331421,-0.03051757626235485,100.0,260414.0,1.0
85089.79335,316643.5,343735.5,338767.78125,316359.625,320689.6875,310589.21875,315963.75,281944.28125,-0.055908203125,0.81884765625,-0.58056640625,-11.810301780700684,2.593993902206421,-0.1220703050494194,100.0,260415.0,1.0
85089.7933628,316722.09375,345301.84375,339898.15625,317150.71875,322187.625,311708.9375,316843.9375,282612.34375,-0.05810546875,0.818603515625,-0.578369140625,-11.779784202575684,2.532958745956421,-0.2746581733226776,100.0,260416.0,1.0
85089.8033219,316927.71875,347449.03125,341337.4375,318422.59375,325236.75,312868.8125,318330.53125,283491.3125,-0.058837890625,0.817626953125,-0.582275390625,-11.932372093200684,2.380370855331421,-0.3967284858226776,100.0,260417.0,1.0
85089.8033348,316986.09375,347165.15625,341057.3125,318380.78125,325536.71875,312415.25,318320.40625,283326.78125,-0.057861328125,0.81884765625,-0.5869140625,-11.688231468200684,2.166747808456421,-0.3967284858226776,100.0,260418.0,1.0
85089.8057633,316825.4375,344904.25,339496.28125,317135.15625,322753.46875,311019.53125,316869.96875,282388.28125,-0.056640625,0.820556640625,-0.588623046875,-11.505125999450684,2.014159917831421,-0.3356933295726776,100.0,260419.0,1.0
85089.8057774,316659.59375,343749.8125,338773.6875,316369.125,320698.71875,310583.75,315964.90625,281952.34375,-0.052734375,0.822021484375,-0.58935546875,-11.230467796325684,1.8310545682907104,-0.2746581733226776,100.0,260420.0,1.0
85089.8083304,316726.375,345291.90625,339890.3125,317150.09375,322169.21875,311696.34375,316833.65625,282614.125,-0.04638671875,0.825439453125,-0.586669921875,-11.016844749450684,1.6479490995407104,-0.0915527269244194,100.0,260421.0,1.0
85089.8107382,316917.4375,347427.75,341319.5625,318411.625,325213.78125,312851.40625,318309.875,283481.90625,-0.041015625,0.82861328125,-0.5859375,-10.864256858825684,1.5869139432907104,0.2746581733226776,100.0,260422.0,1.0
85089.8107532,316982.53125,347169.09375,341058.21875,318381.5625,325538.34375,312409.375,318310.40625,283326.34375,-0.0380859375,0.833251953125,-0.585693359375,-10.833739280700684,1.6784666776657104,0.4577636420726776,100.0,260423.0,1.0
85089.8133239,316819.1875,344920.875,339501.375,317138.46875,322763.5,311015.875,316862.46875,282387.5625,-0.034912109375,0.835693359375,-0.578857421875,-10.833739280700684,1.8310545682907104,0.6103515028953552,100.0,260424.0,1.0
85089.8157972,316651.46875,343755.4375,338771.625,316362.40625,320708.46875,310575.90625,315954.8125,281941.4375,-0.029541015625,0.83642578125,-0.5791015625,-10.864256858825684,2.105712652206421,0.8239745497703552,100.0,260425.0,1.0
85089.8182971,316721.46875,345282.0625,339879.5625,317132.28125,322172.34375,311687.59375,316820.78125,282603.5,-0.0283203125,0.83642578125,-0.580078125,-10.864256858825684,2.502441167831421,1.2207030057907104,100.0,260426.0,1.0
85089.8207938,316913.875,347411.75,341307.5,318392.46875,325216.8125,312848.96875,318297.25,283475.65625,-0.02490234375,0.833251953125,-0.582275390625,-10.833739280700684,2.868652105331421,1.4953612089157104,100.0,260427.0,1.0
85089.8267413,316977.875,347168.46875,341057.78125,318376.125,325566.9375,312417.59375,318305.03125,283328.125,-0.024169921875,0.829833984375,-0.58154296875,-10.803221702575684,3.387450933456421,1.7089842557907104,100.0,260428.0,1.0
85089.8267573,316822.21875,344937.59375,339518.46875,317152.9375,322819.375,311032.5,316871.21875,282401.4375,-0.02685546875,0.8271484375,-0.578857421875,-10.589598655700684,3.906249761581421,1.8310545682907104,100.0,260429.0,1.0
85089.833346,316653.4375,343768.875,338784.4375,316379.9375,320763.09375,310587.6875,315965.34375,281963.4375,-0.02783203125,0.823974609375,-0.57666015625,-10.284422874450684,4.302978038787842,1.9226073026657104,100.0,260430.0,1.0
85089.8333643,316711.53125,345272.875,339869.8125,317131.5625,322197.1875,311682.84375,316812.9375,282609.3125,-0.0244140625,0.82275390625,-0.577880859375,-9.826659202575684,4.699706554412842,2.044677495956421,100.0,260431.0,1.0
85089.835801,316907.53125,347402.375,341299.1875,318390.6875,325231.40625,312844.6875,318287.4375,283482.0,-0.023193359375,0.8193359375,-0.576904296875,-9.552000999450684,5.035399913787842,2.197265386581421,100.0,260432.0,1.0
85089.8658408,316978.5,347167.40625,341060.375,318380.5,325581.875,312420.375,318301.375,283336.09375,-0.023681640625,0.81640625,-0.5751953125,-8.972167015075684,5.401610851287842,2.441406011581421,100.0,260433.0,1.0
85089.8683236,316827.0625,344938.65625,339522.84375,317157.0625,322832.34375,311033.21875,316868.1875,282403.84375,-0.02197265625,0.814697265625,-0.569580078125,-8.422850608825684,5.584716320037842,2.593993902206421,100.0,260434.0,1.0
85089.8683622,316656.28125,343757.875,338782.0,316375.0,320761.6875,310579.65625,315950.0625,281959.125,-0.023681640625,0.811767578125,-0.5693359375,-7.629394054412842,5.920409679412842,2.624511480331421,100.0,260435.0,1.0
85089.8708607,316724.3125,345272.15625,339876.96875,317137.03125,322191.84375,311683.65625,316807.75,282618.25,-0.023193359375,0.817138671875,-0.561767578125,-7.293700695037842,6.317138195037842,2.502441167831421,100.0,260436.0,1.0
85089.8733326,316907.4375,347394.9375,341296.59375,318385.78125,325207.15625,312837.53125,318279.90625,283480.84375,-0.022216796875,0.817138671875,-0.55859375,-7.141112804412842,6.500243663787842,2.532958745956421,100.0,260437.0,1.0
85089.8758358,316972.25,347166.6875,341058.125,318379.4375,325567.03125,312413.5625,318300.5625,283336.0,-0.024169921875,0.821044921875,-0.554443359375,-7.019042491912842,6.927489757537842,2.685546636581421,100.0,260438.0,1.0
85089.880726,316821.5,344940.28125,339524.0,317164.28125,322826.625,311029.53125,316869.875,282405.8125,-0.02734375,0.823974609375,-0.549560546875,-7.141112804412842,7.202147960662842,2.624511480331421,100.0,260439.0,1.0
85089.8832171,316656.1875,343763.21875,338787.03125,316385.125,320759.96875,310581.96875,315956.6875,281959.40625,-0.031982421875,0.826416015625,-0.549072265625,-7.324218273162842,7.354735851287842,2.746581792831421,100.0,260440.0,1.0
85089.8856921,316721.65625,345269.65625,339875.09375,317135.15625,322186.71875,311685.78125,316808.1875,282612.4375,-0.036376953125,0.826416015625,-0.547119140625,-7.385253429412842,7.507323741912842,2.716064214706421,100.0,260441.0,1.0
85089.8884037,316916.8125,347398.78125,341300.78125,318388.625,325223.1875,312852.09375,318287.15625,283485.5,-0.0400390625,0.82568359375,-0.549072265625,-7.446288585662842,7.415771007537842,2.716064214706421,100.0,260442.0,1.0
85089.8884347,316989.3125,347178.5625,341069.3125,318387.90625,325598.6875,312434.75,318310.9375,283345.75,-0.043212890625,0.822998046875,-0.54736328125,-7.415771007537842,7.141112804412842,2.471923589706421,100.0,260443.0,1.0
85089.8907405,316841.1875,344960.21875,339538.125,317176.09375,322865.25,311048.3125,316882.5625,282417.0625,-0.04443359375,0.822509765625,-0.5478515625,-7.476806163787842,6.896972179412842,2.227782964706421,100.0,260444.0,1.0
85089.8932456,316673.1875,343782.1875,338796.5,316394.21875,320791.90625,310590.28125,315965.71875,281966.1875,-0.049072265625,0.82421875,-0.548583984375,-7.263183116912842,6.622313976287842,1.9531248807907104,100.0,260445.0,1.0
85089.893275,316729.0625,345272.34375,339873.59375,317131.40625,322198.8125,311684.4375,316807.65625,282612.59375,-0.048828125,0.826171875,-0.548828125,-7.080077648162842,6.164550304412842,1.8005369901657104,100.0,260446.0,1.0
85089.8957932,316913.59375,347398.0625,341296.40625,318374.6875,325225.6875,312846.03125,318280.28125,283479.59375,-0.04736328125,0.828369140625,-0.5498046875,-6.958007335662842,5.676269054412842,1.6784666776657104,100.0,260447.0,1.0
85089.9158836,316984.9375,347196.0,341076.0,318384.25,325621.84375,312437.15625,318316.65625,283343.25,-0.048583984375,0.829833984375,-0.550537109375,-6.866454601287842,5.249022960662842,1.6174315214157104,100.0,260448.0,1.0
85089.9159243,316837.875,344989.1875,339555.8125,317182.625,322907.4375,311060.40625,316900.46875,282420.90625,-0.050537109375,0.830810546875,-0.5498046875,-6.835937023162842,4.974364757537842,1.4038084745407104,100.0,260449.0,1.0
85089.9309667,316663.09375,343795.78125,338803.5625,316390.46875,320819.25,310594.21875,315970.90625,281964.59375,-0.051025390625,0.834716796875,-0.551025390625,-6.866454601287842,4.608153820037842,1.2207030057907104,100.0,260450.0,1.0
85089.931002,316716.8125,345262.40625,339862.21875,317112.53125,322205.40625,311673.90625,316793.34375,282597.5,-0.050537109375,0.839599609375,-0.552734375,-6.713866710662842,4.241942882537842,1.0986326932907104,100.0,260451.0,1.0
85089.9310117,316905.09375,347384.03125,341282.90625,318357.15625,325228.625,312839.59375,318265.25,283465.09375,-0.051025390625,0.84228515625,-0.550048828125,-6.622313976287842,3.936767339706421,0.7629393935203552,100.0,260452.0,1.0
85089.9332644,316984.5,347195.28125,341073.34375,318376.125,325635.25,312436.90625,318306.1875,283336.625,-0.0498046875,0.847412109375,-0.54638671875,-6.622313976287842,3.540038824081421,0.6408690810203552,100.0,260453.0,1.0
85089.9349435,316840.71875,344999.0,339559.125,317188.0625,322930.78125,311060.3125,316894.375,282419.03125,-0.05126953125,0.849853515625,-0.546630859375,-6.469726085662842,3.204345464706421,0.5187987685203552,100.0,260454.0,1.0
85089.9469657,316663.4375,343789.78125,338798.28125,316391.625,320832.21875,310585.46875,315961.6875,281958.25,-0.051513671875,0.8544921875,-0.543212890625,-6.500243663787842,2.746581792831421,0.2441406100988388,100.0,260455.0,1.0
85089.9520612,316711.28125,345241.5,339846.84375,317101.53125,322197.0,311658.25,316776.90625,282589.375,-0.05029296875,0.85595703125,-0.5390625,-6.439208507537842,2.258300542831421,0.2441406100988388,100.0,260456.0,1.0
85089.954616,316898.21875,347367.40625,341272.1875,318347.6875,325214.9375,312826.0,318251.21875,283461.09375,-0.049560546875,0.8564453125,-0.539306640625,-6.561278820037842,1.9226073026657104,0.2136230319738388,100.0,260457.0,1.0
85089.9595741,316969.125,347188.3125,341068.78125,318371.28125,325630.34375,312425.71875,318296.0,283328.59375,-0.048095703125,0.85791015625,-0.537109375,-6.805419445037842,1.4648436307907104,0.3967284858226776,100.0,260458.0,1.0
85089.961981,316827.3125,345007.59375,339565.65625,317189.875,322950.8125,311055.28125,316893.46875,282414.03125,-0.045166015625,0.85693359375,-0.53466796875,-7.202147960662842,1.0681151151657104,0.6103515028953552,100.0,260459.0,1.0
85089.9646395,316659.15625,343805.0625,338803.28125,316395.125,320863.78125,310585.8125,315965.625,281960.65625,-0.046875,0.854736328125,-0.5283203125,-7.537841320037842,0.6408690810203552,0.7629393935203552,100.0,260460.0,1.0
85089.9671407,316706.0,345235.5,339837.375,317095.625,322214.4375,311651.8125,316772.4375,282585.34375,-0.049072265625,0.851318359375,-0.529541015625,-7.904052257537842,0.1220703050494194,0.9155272841453552,100.0,260461.0,1.0
85089.9671829,316893.9375,347350.15625,341257.25,318338.46875,325234.09375,312822.78125,318243.15625,283456.15625,-0.052001953125,0.85205078125,-0.5283203125,-8.117674827575684,-0.3356933295726776,0.9460448622703552,100.0,260462.0,1.0
85089.9723423,316981.8125,347202.4375,341078.78125,318385.59375,325684.5,312447.53125,318311.3125,283348.0625,-0.0537109375,0.849853515625,-0.531494140625,-8.300780296325684,-0.8239745497703552,0.8850097060203552,100.0,260463.0,1.0
85089.972379,316837.4375,345034.6875,339581.40625,317205.59375,323014.5625,311076.9375,316910.46875,282432.28125,-0.054443359375,0.847412109375,-0.533935546875,-8.453368186950684,-1.3732908964157104,0.7934569716453552,100.0,260464.0,1.0
85089.9745454,316663.15625,343817.9375,338813.84375,316404.4375,320924.21875,310599.40625,315976.6875,281971.375,-0.055908203125,0.845458984375,-0.5322265625,-8.392333030700684,-1.8310545682907104,0.6408690810203552,100.0,260465.0,1.0
85089.9770382,316704.375,345227.0,339830.125,317095.28125,322259.6875,311660.9375,316775.46875,282601.0625,-0.055908203125,0.84375,-0.53125,-8.239745140075684,-2.319335699081421,0.5187987685203552,100.0,260466.0,1.0
85089.9794324,316888.84375,347334.40625,341241.6875,318337.5,325264.46875,312834.9375,318240.125,283483.78125,-0.056640625,0.843994140625,-0.533203125,-7.873534679412842,-2.624511480331421,0.4272460639476776,100.0,260467.0,1.0
85089.982076,316970.28125,347191.625,341067.625,318383.0,325708.375,312451.5625,318297.625,283365.5,-0.054931640625,0.842529296875,-0.5341796875,-7.659911632537842,-2.990722417831421,0.3051757514476776,100.0,260468.0,1.0
85090.0243705,316833.75,345047.125,339586.03125,317215.875,323053.625,311084.4375,316906.0,282448.8125,-0.0546875,0.84326171875,-0.53466796875,-7.385253429412842,-3.417968511581421,0.1831054538488388,100.0,260469.0,1.0
85090.0243819,316655.5625,343826.1875,338811.15625,316407.5625,320947.65625,310596.625,315970.25,281976.21875,-0.055419921875,0.84521484375,-0.532470703125,-7.110595226287842,-3.784179449081421,0.0,100.0,260470.0,1.0
85090.0282282,316694.90625,345215.375,339817.4375,317082.5625,322250.5625,311645.28125,316760.53125,282585.59375,-0.0556640625,0.846435546875,-0.532470703125,-6.835937023162842,-4.211425304412842,-0.0610351525247097,100.0,260471.0,1.0
85090.0282348,316881.78125,347318.9375,341232.375,318320.875,325243.1875,312812.9375,318225.1875,283455.71875,-0.0546875,0.847412109375,-0.53173828125,-6.713866710662842,-4.608153820037842,0.0610351525247097,100.0,260472.0,1.0
85090.0282369,316976.625,347205.75,341078.34375,318384.0,325714.90625,312451.375,318306.75,283353.875,-0.053955078125,0.84765625,-0.530029296875,-6.530761241912842,-5.065917491912842,0.1525878757238388,100.0,260473.0,1.0
85090.0321475,316844.125,345081.8125,339608.5625,317225.8125,323080.71875,311097.6875,316926.125,282448.5625,-0.0537109375,0.85009765625,-0.528564453125,-6.591796398162842,-5.401610851287842,0.2441406100988388,100.0,260474.0,1.0
85090.0321593,316659.78125,343847.28125,338822.875,316410.6875,320968.375,310602.0,315981.09375,281968.96875,-0.0537109375,0.8515625,-0.527099609375,-6.591796398162842,-5.767821788787842,0.3051757514476776,100.0,260475.0,1.0
85090.0321613,316689.53125,345208.21875,339810.28125,317078.09375,322256.125,311639.9375,316757.125,282574.4375,-0.052734375,0.851318359375,-0.525146484375,-6.500243663787842,-6.134032726287842,0.2746581733226776,100.0,260476.0,1.0
85090.0359821,316875.5,347300.53125,341221.65625,318319.34375,325245.4375,312807.40625,318217.40625,283448.65625,-0.050048828125,0.851806640625,-0.528076171875,-6.408690929412842,-6.317138195037842,0.4577636420726776,100.0,260477.0,1.0
85090.043258,316967.6875,347196.46875,341074.59375,318388.1875,325729.3125,312447.375,318300.75,283348.4375,-0.04833984375,0.85107421875,-0.525146484375,-6.439208507537842,-6.500243663787842,0.6103515028953552,100.0,260478.0,1.0
85090.0456636,316836.53125,345084.5,339609.1875,317230.09375,323107.34375,311090.875,316921.375,282437.28125,-0.047119140625,0.849365234375,-0.524658203125,-6.347655773162842,-6.805419445037842,0.5798339247703552,100.0,260479.0,1.0
85090.0505661,316656.375,343848.625,338819.125,316412.84375,320988.40625,310592.78125,315976.15625,281959.59375,-0.04541015625,0.8505859375,-0.5205078125,-6.225585460662842,-6.896972179412842,0.7934569716453552,100.0,260480.0,1.0
85090.0531681,316690.78125,345192.65625,339799.625,317074.1875,322255.21875,311623.65625,316746.9375,282565.125,-0.045654296875,0.85205078125,-0.522705078125,-6.164550304412842,-6.988524913787842,1.0070799589157104,100.0,260481.0,1.0
85090.0606065,316873.8125,347279.53125,341207.71875,318310.40625,325236.125,312789.6875,318203.21875,283434.15625,-0.0439453125,0.8515625,-0.523193359375,-6.072997570037842,-7.141112804412842,1.3122557401657104,100.0,260482.0,1.0
85090.0633742,316974.03125,347195.375,341076.0,318388.375,325735.65625,312439.9375,318294.84375,283343.25,-0.044677734375,0.84814453125,-0.521728515625,-6.011962413787842,-7.141112804412842,1.3122557401657104,100.0,260483.0,1.0
85090.0658051,316849.6875,345108.09375,339627.71875,317242.53125,323128.0,311101.78125,316929.96875,282451.84375,-0.046630859375,0.84814453125,-0.52392578125,-5.981444835662842,-7.141112804412842,1.3427733182907104,100.0,260484.0,1.0
85090.068162,316666.65625,343866.21875,338834.40625,316425.71875,321006.75,310600.5625,315981.4375,281973.71875,-0.045654296875,0.846923828125,-0.521240234375,-6.072997570037842,-7.049560070037842,1.2512205839157104,100.0,260485.0,1.0
85090.0706471,316687.5625,345183.625,339794.8125,317071.9375,322256.28125,311611.84375,316731.03125,282562.71875,-0.046630859375,0.8466796875,-0.519775390625,-5.859374523162842,-7.049560070037842,1.4038084745407104,100.0,260486.0,1.0
85090.0817297,316868.28125,347264.5,341201.0,318307.71875,325238.28125,312777.53125,318187.65625,283438.28125,-0.05029296875,0.84521484375,-0.52001953125,-5.706786632537842,-6.988524913787842,1.3732908964157104,100.0,260487.0,1.0
85090.081745,316966.4375,347194.03125,341075.84375,318388.90625,325751.84375,312435.90625,318288.6875,283354.96875,-0.048828125,0.844970703125,-0.520751953125,-5.615233898162842,-7.141112804412842,1.3732908964157104,100.0,260488.0,1.0
85090.1219,316839.65625,345111.84375,339623.96875,317238.25,323145.53125,311085.875,316919.40625,282445.5,-0.04541015625,0.84375,-0.519775390625,-5.371093273162842,-7.110595226287842,1.3427733182907104,100.0,260489.0,1.0
85090.12442,316661.28125,343865.875,338825.0,316413.625,321019.0625,310578.3125,315968.5625,281959.5,-0.044189453125,0.841064453125,-0.518310546875,-5.279540538787842,-7.202147960662842,1.5869139432907104,100.0,260490.0,1.0
85090.127037,316682.84375,345170.21875,339778.375,317058.53125,322260.84375,311591.65625,316718.4375,282551.1875,-0.04248046875,0.837646484375,-0.513916015625,-5.249022960662842,-7.019042491912842,1.8005369901657104,100.0,260491.0,1.0
85090.1270636,316856.90625,347242.78125,341181.78125,318293.6875,325241.6875,312757.78125,318167.34375,283424.875,-0.041748046875,0.833251953125,-0.510009765625,-5.218505382537842,-7.019042491912842,2.136230230331421,100.0,260492.0,1.0
85090.1294358,316961.0625,347192.875,341072.78125,318384.4375,325774.8125,312429.84375,318281.875,283343.875,-0.0419921875,0.827880859375,-0.51220703125,-5.157470226287842,-6.835937023162842,2.258300542831421,100.0,260493.0,1.0
85090.1345305,316837.96875,345127.84375,339633.34375,317239.75,323198.375,311093.28125,316925.75,282442.5625,-0.04443359375,0.827392578125,-0.51513671875,-5.065917491912842,-6.500243663787842,2.166747808456421,100.0,260494.0,1.0
85090.1369127,316651.90625,343874.375,338827.6875,316411.5,321081.125,310584.21875,315970.34375,281956.375,-0.046875,0.82763671875,-0.51708984375,-4.760741710662842,-6.469726085662842,1.8005369901657104,100.0,260495.0,1.0
85090.1384932,316668.34375,345157.25,339768.71875,317048.96875,322302.15625,311583.15625,316708.21875,282539.21875,-0.04638671875,0.83056640625,-0.519287109375,-4.486083507537842,-6.164550304412842,1.4648436307907104,100.0,260496.0,1.0
85090.1456048,316851.0,347232.03125,341178.90625,318291.625,325277.53125,312750.1875,318163.875,283415.46875,-0.05029296875,0.834716796875,-0.521484375,-4.241942882537842,-6.072997570037842,1.2512205839157104,100.0,260497.0,1.0
85090.1482331,316953.75,347195.75,341073.6875,318383.53125,325819.34375,312423.84375,318279.1875,283334.5625,-0.05078125,0.83837890625,-0.51904296875,-3.997802495956421,-6.072997570037842,1.1596678495407104,100.0,260498.0,1.0
85090.1506806,316836.25,345145.71875,339642.71875,317247.34375,323250.21875,311096.78125,316935.9375,282439.34375,-0.052001953125,0.843017578125,-0.5185546875,-3.784179449081421,-5.889892101287842,1.0986326932907104,100.0,260499.0,1.0
85090.1557134,316656.46875,343887.6875,338837.0,316420.0625,321116.09375,310590.75,315987.875,281953.78125,-0.0537109375,0.843994140625,-0.52099609375,-3.662109136581421,-5.798339366912842,1.0986326932907104,100.0,260500.0,1.0
85090.1583501,316673.53125,345154.65625,339771.3125,317053.6875,322305.28125,311588.6875,316722.625,282538.3125,-0.0537109375,0.8447265625,-0.521728515625,-3.601073980331421,-5.645751476287842,1.1291502714157104,100.0,260501.0,1.0
85090.1608449,316850.125,347215.40625,341170.96875,318291.375,325247.75,312745.71875,318169.125,283408.0625,-0.052490234375,0.84814453125,-0.518798828125,-3.570556402206421,-5.615233898162842,1.0375975370407104,100.0,260502.0,1.0
85090.1632265,316960.8125,347193.875,341077.96875,318394.1875,325779.375,312427.5,318292.0625,283330.46875,-0.0498046875,0.849853515625,-0.52001953125,-3.662109136581421,-5.584716320037842,0.8850097060203552,100.0,260503.0,1.0
85090.1682692,316843.3125,345158.96875,339653.0,317262.65625,323193.8125,311104.8125,316949.8125,282437.1875,-0.052978515625,0.8525390625,-0.517578125,-3.631591558456421,-5.371093273162842,0.7629393935203552,100.0,260504.0,1.0
85090.1707295,316649.9375,343887.875,338830.75,316424.09375,321025.6875,310583.6875,315987.875,281942.78125,-0.054931640625,0.857177734375,-0.514892578125,-3.692626714706421,-5.157470226287842,0.5493163466453552,100.0,260505.0,1.0
