Time,FZ,C3,CZ,C4,PZ,PO7,OZ,PO8,AccX,AccY,AccZ,Gyro1,Gyro2,Gyro3,Battery,Counter,Validation
1162619.8273865,301082.75,320668.4375,390680.53125,370613.65625,310046.0625,300026.84375,310577.15625,313105.21875,-0.1396484375,1.002685546875,0.262939453125,0.4577636420726776,3.570556402206421,3.143310308456421,100.0,8135.0,1.0
1162619.8417787,302280.1875,320803.34375,391170.21875,371019.9375,309996.28125,299874.5,310255.90625,312582.53125,-0.138427734375,1.0,0.262939453125,0.1831054538488388,3.448486089706421,3.112792730331421,100.0,8136.0,1.0
1162619.8418116,302690.75,320791.1875,391265.59375,371027.1875,309865.09375,299709.5625,309942.8125,312126.3125,-0.13916015625,0.998291015625,0.265380859375,0.0610351525247097,3.265380620956421,3.021239995956421,100.0,8137.0,1.0
1162619.8436848,301773.0625,320657.5,390868.375,370654.53125,309846.96875,299771.59375,310092.90625,312404.1875,-0.1396484375,0.9931640625,0.267333984375,-0.0610351525247097,2.990722417831421,2.960204839706421,100.0,8138.0,1.0
1162619.8462587,300783.5,320586.875,390535.0625,370411.53125,309973.375,299988.78125,310516.53125,313059.71875,-0.13818359375,0.98974609375,0.26904296875,-0.1831054538488388,2.838134527206421,2.960204839706421,100.0,8139.0,1.0
1162619.8498728,301060.9375,320674.0625,390708.78125,370614.28125,310072.0,300065.75,310642.6875,313208.40625,-0.13671875,0.985107421875,0.267578125,-0.1525878757238388,2.716064214706421,2.990722417831421,100.0,8140.0,1.0
1162619.859304,302221.78125,320798.59375,391160.8125,370980.5,310008.6875,299903.84375,310314.65625,312677.0625,-0.1396484375,0.982177734375,0.266845703125,-0.0610351525247097,2.593993902206421,2.990722417831421,100.0,8141.0,1.0
1162619.8593372,302638.53125,320781.78125,391243.0625,370971.65625,309869.40625,299728.25,309990.09375,312207.21875,-0.13720703125,0.9794921875,0.267333984375,0.0610351525247097,2.471923589706421,2.929687261581421,100.0,8142.0,1.0
1162619.8612598,301759.03125,320660.46875,390880.8125,370630.28125,309875.125,299810.03125,310163.46875,312508.6875,-0.138427734375,0.9765625,0.26904296875,0.1525878757238388,2.380370855331421,2.777099370956421,100.0,8143.0,1.0
1162619.8674053,300780.65625,320598.25,390580.46875,370415.375,310026.84375,300051.875,310620.6875,313202.5,-0.14013671875,0.9755859375,0.268798828125,0.2441406100988388,2.349853277206421,2.563476324081421,100.0,8144.0,1.0
1162619.8767222,301026.875,320681.125,390749.5625,370609.8125,310124.125,300131.71875,310752.46875,313365.125,-0.139404296875,0.971923828125,0.269287109375,0.3967284858226776,2.258300542831421,2.502441167831421,100.0,8145.0,1.0
1162619.8767513,302176.03125,320811.28125,391191.5625,370965.46875,310060.5625,299972.40625,310421.65625,312828.6875,-0.139404296875,0.97021484375,0.27294921875,0.5798339247703552,2.258300542831421,2.380370855331421,100.0,8146.0,1.0
1162619.8792137,302621.90625,320810.59375,391270.875,370954.84375,309922.15625,299797.96875,310091.5,312338.90625,-0.1416015625,0.96826171875,0.270263671875,0.7324218153953552,2.166747808456421,2.136230230331421,100.0,8147.0,1.0
1162619.8792441,301767.34375,320695.34375,390904.125,370611.4375,309921.0625,299872.71875,310251.34375,312613.9375,-0.142333984375,0.966796875,0.273193359375,0.9155272841453552,2.166747808456421,1.8615721464157104,100.0,8148.0,1.0
1162619.8874601,300782.78125,320626.3125,390600.59375,370397.3125,310065.375,300104.90625,310703.3125,313305.5,-0.14208984375,0.96337890625,0.26953125,1.0681151151657104,1.9531248807907104,1.5869139432907104,100.0,8149.0,1.0
1162619.8917783,301000.0625,320699.53125,390774.59375,370595.0625,310172.125,300193.0625,310857.15625,313502.90625,-0.140869140625,0.96142578125,0.271484375,1.2817381620407104,1.8920897245407104,1.4648436307907104,100.0,8150.0,1.0
1162619.8918104,302135.53125,320821.40625,391218.65625,370950.28125,310113.03125,300037.03125,310537.8125,312983.8125,-0.1396484375,0.961181640625,0.26953125,1.4343260526657104,1.7700194120407104,1.3732908964157104,100.0,8151.0,1.0
1162619.8999584,302595.15625,320813.1875,391289.46875,370932.125,309959.78125,299842.9375,310178.125,312454.875,-0.1396484375,0.962890625,0.2685546875,1.6479490995407104,1.7089842557907104,1.2207030057907104,100.0,8152.0,1.0
1162619.9068088,301759.03125,320687.46875,390916.21875,370583.96875,309938.5,299896.0625,310302.65625,312691.0,-0.13720703125,0.96435546875,0.26611328125,1.8615721464157104,1.6479490995407104,1.1291502714157104,100.0,8153.0,1.0
1162619.9068408,300766.53125,320611.75,390604.625,370365.84375,310075.125,300123.875,310745.3125,313375.59375,-0.135498046875,0.9658203125,0.267578125,2.075195074081421,1.6479490995407104,1.0986326932907104,100.0,8154.0,1.0
1162619.9093029,300962.40625,320689.0625,390755.53125,370547.15625,310178.84375,300214.59375,310898.28125,313569.40625,-0.1337890625,0.967041015625,0.270263671875,2.319335699081421,1.6174315214157104,1.0681151151657104,100.0,8155.0,1.0
1162619.9093386,302081.0625,320809.875,391159.21875,370874.28125,310101.3125,300039.8125,310552.8125,313014.375,-0.13330078125,0.96923828125,0.27001953125,2.471923589706421,1.6174315214157104,1.0070799589157104,100.0,8156.0,1.0
1162619.92623,302557.53125,320803.78125,391202.03125,370843.09375,309931.28125,299824.875,310157.28125,312430.90625,-0.1318359375,0.971923828125,0.272216796875,2.441406011581421,1.5869139432907104,1.0681151151657104,100.0,8157.0,1.0
1162619.9336174,301745.625,320681.3125,390798.46875,370477.15625,309888.25,299853.59375,310231.15625,312585.21875,-0.13134765625,0.97314453125,0.269775390625,2.502441167831421,1.5869139432907104,1.0986326932907104,100.0,8158.0,1.0
1162619.93365,300755.15625,320603.6875,390447.09375,370228.59375,310001.46875,300057.0625,310623.90625,313194.71875,-0.12841796875,0.97119140625,0.266845703125,2.624511480331421,1.6174315214157104,1.0986326932907104,100.0,8159.0,1.0
1162619.9336581,300914.65625,320662.34375,390537.46875,370368.78125,310072.1875,300114.125,310724.21875,313322.375,-0.127685546875,0.97216796875,0.2646484375,2.624511480331421,1.6174315214157104,1.1291502714157104,100.0,8160.0,1.0
1162619.9367406,302021.96875,320786.09375,390918.625,370690.8125,309991.0,299934.9375,310362.75,312749.125,-0.12451171875,0.9697265625,0.265625,2.593993902206421,1.5869139432907104,1.1291502714157104,100.0,8161.0,1.0
1162619.9367742,302521.84375,320786.8125,390985.21875,370686.625,309831.84375,299732.25,309977.84375,312184.0625,-0.1259765625,0.96826171875,0.2666015625,2.532958745956421,1.6784666776657104,1.1901854276657104,100.0,8162.0,1.0
1162619.9386901,301740.4375,320670.3125,390614.0,370347.6875,309802.96875,299770.0625,310071.375,312365.46875,-0.12451171875,0.96728515625,0.26806640625,2.532958745956421,1.8310545682907104,1.2512205839157104,100.0,8163.0,1.0
1162619.949981,300753.65625,320603.96875,390284.53125,370117.5625,309934.9375,299987.5,310493.09375,313010.09375,-0.124755859375,0.96728515625,0.26611328125,2.502441167831421,1.9226073026657104,1.1596678495407104,100.0,8164.0,1.0
1162619.9543788,300886.59375,320665.21875,390383.15625,370262.3125,310020.84375,300062.15625,310624.8125,313178.34375,-0.125732421875,0.967529296875,0.26611328125,2.563476324081421,2.014159917831421,1.0986326932907104,100.0,8165.0,1.0
1162619.9544339,301972.625,320785.375,390761.96875,370580.75,309946.90625,299893.09375,310285.59375,312634.03125,-0.124755859375,0.96826171875,0.26953125,2.563476324081421,2.014159917831421,1.0070799589157104,100.0,8166.0,1.0
1162619.96807,302496.71875,320800.5625,390849.40625,370592.75,309802.15625,299704.375,309924.75,312092.3125,-0.124267578125,0.972900390625,0.268310546875,2.593993902206421,2.075195074081421,0.9155272841453552,100.0,8167.0,1.0
1162619.9681232,301750.71875,320693.0,390517.28125,370285.625,309788.03125,299756.75,310039.53125,312300.28125,-0.128173828125,0.977294921875,0.267333984375,2.532958745956421,2.105712652206421,0.7629393935203552,100.0,8168.0,1.0
1162619.9705896,300769.46875,320621.40625,390223.125,370079.625,309931.71875,299987.78125,310485.0625,312979.6875,-0.129150390625,0.97900390625,0.26806640625,2.410888433456421,2.105712652206421,0.6408690810203552,100.0,8169.0,1.0
1162619.9706457,300885.4375,320678.625,390337.28125,370234.84375,310028.0,300075.03125,310643.65625,313181.65625,-0.1298828125,0.98193359375,0.26611328125,2.197265386581421,2.014159917831421,0.4882812201976776,100.0,8170.0,1.0
1162619.9725166,301956.25,320794.3125,390715.9375,370554.375,309952.1875,299902.59375,310303.28125,312639.3125,-0.12890625,0.982421875,0.26904296875,2.197265386581421,2.014159917831421,0.3662109076976776,100.0,8171.0,1.0
1162619.9868481,302482.5,320794.125,390795.0625,370560.65625,309791.96875,299694.15625,309914.8125,312070.25,-0.12890625,0.98046875,0.269287109375,2.105712652206421,1.9836424589157104,0.3051757514476776,100.0,8172.0,1.0
1162619.9868993,301758.3125,320684.0625,390468.53125,370256.40625,309771.0625,299739.0625,310015.40625,312260.15625,-0.128173828125,0.977783203125,0.267333984375,1.8920897245407104,2.044677495956421,0.0610351525247097,100.0,8173.0,1.0
1162619.9893631,300790.84375,320619.78125,390191.46875,370065.34375,309922.40625,299977.78125,310465.84375,312951.4375,-0.128662109375,0.9765625,0.265380859375,1.7089842557907104,1.9226073026657104,0.0,100.0,8174.0,1.0
1162619.9894143,300893.75,320680.40625,390311.46875,370229.5,310026.9375,300072.4375,310633.125,313171.28125,-0.12841796875,0.977294921875,0.266845703125,1.8310545682907104,1.9836424589157104,0.0,100.0,8175.0,1.0
1162619.9974993,301957.5,320800.125,390691.34375,370552.96875,309957.28125,299907.59375,310306.34375,312637.875,-0.129638671875,0.980224609375,0.264404296875,1.8005369901657104,1.9836424589157104,0.0,100.0,8176.0,1.0
1162620.0005287,302503.59375,320807.375,390781.8125,370567.34375,309799.125,299697.65625,309917.15625,312058.34375,-0.130615234375,0.985595703125,0.26513671875,1.8310545682907104,1.8310545682907104,-0.03051757626235485,100.0,8177.0,1.0
1162620.000586,301806.5,320697.9375,390470.96875,370271.25,309775.0625,299730.375,310004.6875,312231.90625,-0.12841796875,0.988037109375,0.262939453125,1.8005369901657104,1.8615721464157104,0.0610351525247097,100.0,8178.0,1.0
1162620.0063206,300838.40625,320629.34375,390199.875,370082.21875,309923.75,299964.34375,310452.15625,312922.28125,-0.12890625,0.990966796875,0.264404296875,1.6784666776657104,1.8005369901657104,0.1220703050494194,100.0,8179.0,1.0
1162620.0155554,300916.46875,320686.65625,390321.125,370242.8125,310033.5625,300065.5625,310630.4375,313159.9375,-0.1279296875,0.991943359375,0.26513671875,1.4648436307907104,1.8005369901657104,0.1525878757238388,100.0,8180.0,1.0
1162620.0156089,301951.59375,320792.59375,390689.8125,370556.90625,309960.40625,299894.4375,310298.90625,312631.53125,-0.127685546875,0.991943359375,0.2646484375,1.3122557401657104,1.8310545682907104,0.1220703050494194,100.0,8181.0,1.0
1162620.0181132,302493.15625,320791.34375,390763.3125,370554.84375,309788.40625,299673.0625,309894.4375,312038.25,-0.129150390625,0.99072265625,0.26416015625,1.2512205839157104,1.7089842557907104,0.0915527269244194,100.0,8182.0,1.0
1162620.0181691,301814.71875,320689.78125,390452.375,370254.78125,309762.125,299711.25,309978.5625,312203.375,-0.13330078125,0.991455078125,0.262939453125,1.1596678495407104,1.7395018339157104,0.1525878757238388,100.0,8183.0,1.0
1162620.0331123,300855.75,320632.75,390194.6875,370073.46875,309924.46875,299960.6875,310442.40625,312910.9375,-0.135986328125,0.98974609375,0.2646484375,1.2207030057907104,1.6479490995407104,-0.03051757626235485,100.0,8184.0,1.0
1162620.0331682,300904.125,320682.375,390304.3125,370223.21875,310033.46875,300062.875,310629.1875,313162.96875,-0.139892578125,0.99072265625,0.266357421875,1.2817381620407104,1.4953612089157104,-0.03051757626235485,100.0,8185.0,1.0
1162620.0355492,301926.5625,320788.9375,390662.125,370530.78125,309960.0625,299896.59375,310303.90625,312637.96875,-0.144775390625,0.9921875,0.269287109375,1.3122557401657104,1.2817381620407104,-0.1220703050494194,100.0,8186.0,1.0
1162620.0356015,302504.78125,320804.6875,390756.53125,370552.34375,309800.1875,299684.34375,309905.0625,312044.59375,-0.1484375,0.993896484375,0.267333984375,1.2817381620407104,0.9155272841453552,-0.2441406100988388,100.0,8187.0,1.0
1162620.041315,301856.21875,320708.84375,390463.1875,370264.09375,309775.6875,299717.6875,309984.1875,312197.46875,-0.15185546875,0.995361328125,0.265869140625,1.3732908964157104,0.6103515028953552,-0.4577636420726776,100.0,8188.0,1.0
1162620.0450167,300890.96875,320645.28125,390204.4375,370075.53125,309931.8125,299963.8125,310444.90625,312901.28125,-0.151611328125,0.99658203125,0.267333984375,1.3427733182907104,0.1831054538488388,-0.5798339247703552,100.0,8189.0,1.0
1162620.0513363,300913.15625,320690.875,390306.0,370218.84375,310043.84375,300074.0625,310640.34375,313167.28125,-0.152099609375,1.0009765625,0.26708984375,1.3427733182907104,-0.1525878757238388,-0.7019042372703552,100.0,8190.0,1.0
1162620.0605926,301916.5625,320794.75,390652.28125,370520.78125,309969.53125,299909.03125,310317.0625,312647.0,-0.14794921875,1.002685546875,0.26611328125,1.2817381620407104,-0.5798339247703552,-0.8239745497703552,100.0,8191.0,1.0
1162620.0606425,302495.90625,320800.03125,390731.5,370535.71875,309799.9375,299688.0,309905.6875,312031.625,-0.14892578125,1.00390625,0.27197265625,1.2512205839157104,-0.9460448622703552,-0.9155272841453552,100.0,8192.0,1.0
1162620.0631218,301868.5625,320701.5,390430.8125,370245.3125,309771.3125,299715.375,309971.59375,312162.0625,-0.146484375,1.00537109375,0.2724609375,1.1901854276657104,-1.1596678495407104,-0.9460448622703552,100.0,8193.0,1.0
1162620.063173,300901.53125,320638.375,390161.15625,370042.90625,309927.78125,299961.78125,310428.8125,312858.625,-0.143798828125,1.005126953125,0.2744140625,1.0986326932907104,-1.4648436307907104,-1.0070799589157104,100.0,8194.0,1.0
1162620.0713219,300899.75,320684.53125,390244.40625,370168.25,310039.625,300072.53125,310628.5625,313132.125,-0.1435546875,1.00634765625,0.272216796875,0.9765624403953552,-1.6784666776657104,-0.8850097060203552,100.0,8195.0,1.0
1162620.0737688,301884.46875,320786.71875,390576.625,370461.3125,309963.375,299906.25,310306.6875,312618.9375,-0.142822265625,1.00634765625,0.273193359375,0.9460448622703552,-1.9531248807907104,-0.9765624403953552,100.0,8196.0,1.0
1162620.0774508,302466.21875,320792.34375,390648.6875,370468.28125,309788.5,299678.625,309883.71875,311992.71875,-0.140869140625,1.006103515625,0.272216796875,0.7629393935203552,-2.075195074081421,-1.0375975370407104,100.0,8197.0,1.0
1162620.0868019,301849.0625,320696.6875,390334.0,370159.5625,309746.8125,299694.53125,309927.59375,312098.84375,-0.136474609375,1.00146484375,0.267822265625,0.7019042372703552,-2.349853277206421,-0.9460448622703552,100.0,8198.0,1.0
1162620.0868548,300870.5,320629.8125,390046.09375,369935.0625,309896.21875,299935.125,310378.46875,312786.9375,-0.131103515625,0.996826171875,0.268310546875,0.5187987685203552,-2.532958745956421,-0.8544921278953552,100.0,8199.0,1.0
1162620.0887715,300837.875,320672.0,390111.8125,370040.5625,310007.8125,300051.25,310586.625,313070.78125,-0.12646484375,0.994873046875,0.26708984375,0.4882812201976776,-2.716064214706421,-0.6103515028953552,100.0,8200.0,1.0
1162620.1049778,301796.3125,320769.09375,390420.0,370314.59375,309926.1875,299881.125,310262.875,312555.46875,-0.125244140625,0.9931640625,0.26416015625,0.7019042372703552,-2.563476324081421,-0.5187987685203552,100.0,8201.0,1.0
1162620.1080921,302386.3125,320772.40625,390473.1875,370306.09375,309740.03125,299641.15625,309824.4375,311908.875,-0.124755859375,0.994140625,0.264892578125,0.7324218153953552,-2.593993902206421,-0.3051757514476776,100.0,8202.0,1.0
1162620.1081436,301787.625,320681.65625,390154.0,369992.03125,309697.84375,299658.0625,309863.9375,312000.9375,-0.122314453125,0.994384765625,0.2646484375,0.7324218153953552,-2.502441167831421,-0.0610351525247097,100.0,8203.0,1.0
1162620.1100209,300813.1875,320628.46875,389863.15625,369761.96875,309852.9375,299907.84375,310320.90625,312694.5625,-0.1220703125,0.9912109375,0.263916015625,0.7324218153953552,-2.532958745956421,0.2136230319738388,100.0,8204.0,1.0
1162620.1125182,300760.96875,320668.6875,389925.03125,369866.21875,309969.0,300028.28125,310541.125,312995.6875,-0.119873046875,0.989990234375,0.261474609375,0.6408690810203552,-2.441406011581421,0.4577636420726776,100.0,8205.0,1.0
1162620.114974,301717.28125,320754.78125,390246.28125,370163.78125,309891.84375,299859.125,310229.09375,312497.15625,-0.120849609375,0.990966796875,0.260498046875,0.8544921278953552,-2.471923589706421,0.6713866591453552,100.0,8206.0,1.0
1162620.1175196,302343.9375,320763.1875,390343.28125,370207.5,309718.40625,299624.625,309803.5,311863.8125,-0.119873046875,0.99072265625,0.26220703125,0.8544921278953552,-2.349853277206421,0.8544921278953552,100.0,8207.0,1.0
1162620.1290128,301785.75,320677.4375,390069.15625,369934.625,309685.9375,299643.5625,309848.21875,311959.65625,-0.118896484375,0.99072265625,0.262939453125,0.8544921278953552,-2.288818120956421,1.0986326932907104,100.0,8208.0,1.0
1162620.1343962,300820.96875,320616.03125,389808.90625,369727.46875,309844.46875,299892.84375,310310.09375,312663.1875,-0.118408203125,0.988525390625,0.26220703125,0.8544921278953552,-2.166747808456421,1.4038084745407104,100.0,8209.0,1.0
1162620.134452,300761.6875,320659.125,389890.71875,369848.4375,309970.4375,300024.1875,310544.6875,312990.96875,-0.11962890625,0.987548828125,0.25830078125,0.9155272841453552,-2.136230230331421,1.6174315214157104,100.0,8210.0,1.0
1162620.1587501,301709.9375,320753.28125,390220.71875,370156.71875,309900.6875,299865.03125,310241.59375,312511.1875,-0.11865234375,0.986328125,0.258056640625,0.7019042372703552,-2.014159917831421,1.7395018339157104,100.0,8211.0,1.0
1162620.1613194,302351.875,320766.40625,390327.1875,370210.96875,309726.53125,299628.625,309810.3125,311873.09375,-0.11767578125,0.986083984375,0.25732421875,0.7934569716453552,-2.044677495956421,1.8615721464157104,100.0,8212.0,1.0
1162620.1637769,301807.75,320679.40625,390050.3125,369931.3125,309682.375,299636.59375,309837.125,311949.71875,-0.114990234375,0.986083984375,0.2568359375,0.8544921278953552,-1.9531248807907104,2.075195074081421,100.0,8213.0,1.0
1162620.1663222,300832.84375,320619.4375,389774.9375,369701.4375,309833.09375,299881.21875,310291.59375,312644.875,-0.115234375,0.989013671875,0.25341796875,0.8850097060203552,-1.8310545682907104,2.075195074081421,100.0,8214.0,1.0
1162620.1687769,300739.59375,320656.0,389836.25,369800.0625,309953.53125,300010.75,310529.9375,312978.625,-0.115478515625,0.988525390625,0.255126953125,0.7934569716453552,-1.8920897245407104,2.258300542831421,100.0,8215.0,1.0
1162620.1713175,301678.1875,320750.15625,390163.03125,370110.84375,309890.0625,299856.90625,310238.125,312510.125,-0.1171875,0.99072265625,0.25439453125,0.6103515028953552,-1.7700194120407104,2.288818120956421,100.0,8216.0,1.0
1162620.173785,302328.46875,320761.5,390262.1875,370160.65625,309710.625,299613.0,309795.5625,311857.28125,-0.11767578125,0.991455078125,0.2529296875,0.4882812201976776,-1.7089842557907104,2.532958745956421,100.0,8217.0,1.0
1162620.1763155,301795.78125,320676.8125,389975.71875,369862.375,309657.78125,299611.1875,309807.8125,311908.5,-0.116455078125,0.990478515625,0.2509765625,0.2136230319738388,-1.7089842557907104,2.593993902206421,100.0,8218.0,1.0
1162620.1787766,300808.53125,320618.1875,389684.0,369604.34375,309804.65625,299853.5,310257.0625,312592.8125,-0.114501953125,0.99072265625,0.251708984375,0.0,-1.6174315214157104,2.563476324081421,100.0,8219.0,1.0
1162620.1812746,300688.03125,320659.21875,389723.875,369678.1875,309928.6875,299991.1875,310503.21875,312936.5,-0.11328125,0.99169921875,0.251708984375,-0.1220703050494194,-1.5869139432907104,2.624511480331421,100.0,8220.0,1.0
1162620.1837824,301610.6875,320751.5625,390038.75,369980.65625,309864.5625,299840.53125,310213.15625,312471.15625,-0.11083984375,0.994873046875,0.251708984375,-0.3356933295726776,-1.4648436307907104,2.777099370956421,100.0,8221.0,1.0
1162620.1868639,302290.28125,320768.46875,390156.875,370061.59375,309691.84375,299601.28125,309775.96875,311820.25,-0.107421875,0.99658203125,0.2470703125,-0.4882812201976776,-1.4038084745407104,2.807616949081421,100.0,8222.0,1.0
1162620.1869222,301798.46875,320690.0625,389899.5625,369803.0,309645.71875,299603.96875,309789.1875,311873.28125,-0.106201171875,0.997314453125,0.24609375,-0.7629393935203552,-1.3732908964157104,2.960204839706421,100.0,8223.0,1.0
1162620.1887589,300834.75,320636.78125,389641.71875,369582.0,309805.28125,299859.5625,310255.09375,312582.1875,-0.102783203125,0.993408203125,0.246826171875,-0.9460448622703552,-1.1901854276657104,3.173827886581421,100.0,8224.0,1.0
1162620.1913167,300715.375,320672.8125,389719.75,369696.1875,309943.6875,300006.375,310521.71875,312957.34375,-0.101806640625,0.99267578125,0.247314453125,-0.9765624403953552,-0.9765624403953552,3.265380620956421,100.0,8225.0,1.0
1162620.1937851,301654.0625,320763.09375,390082.03125,370056.65625,309895.25,299860.8125,310251.34375,312521.75,-0.098876953125,0.990234375,0.246826171875,-1.1901854276657104,-0.7324218153953552,3.448486089706421,100.0,8226.0,1.0
1162620.203119,302376.125,320785.71875,390259.78125,370196.125,309737.34375,299631.5,309825.15625,311884.71875,-0.10107421875,0.9912109375,0.24365234375,-1.3427733182907104,-0.6408690810203552,3.509521245956421,100.0,8227.0,1.0
1162620.2031748,301911.65625,320708.9375,390034.84375,369957.0625,309693.53125,299632.84375,309834.8125,311931.9375,-0.10009765625,0.993896484375,0.246337890625,-1.5563963651657104,-0.5187987685203552,3.601073980331421,100.0,8228.0,1.0
1162620.2049793,300932.625,320647.21875,389770.0,369714.21875,309841.9375,299876.21875,310287.375,312629.65625,-0.099609375,0.9931640625,0.243408203125,-1.6174315214157104,-0.4577636420726776,3.570556402206421,100.0,8229.0,1.0
1162620.2193008,300785.75,320678.09375,389842.4375,369814.375,309978.3125,300024.8125,310558.1875,313019.125,-0.097412109375,0.991455078125,0.2412109375,-1.7700194120407104,-0.3356933295726776,3.631591558456421,100.0,8230.0,1.0
1162620.2193529,301725.21875,320780.90625,390227.21875,370192.125,309946.46875,299899.0,310312.59375,312612.21875,-0.098388671875,0.98828125,0.24462890625,-1.8920897245407104,-0.1831054538488388,3.631591558456421,100.0,8231.0,1.0
1162620.2212741,302466.5,320810.9375,390423.3125,370351.0,309795.5625,299674.59375,309893.0,311978.0625,-0.098876953125,0.98486328125,0.240966796875,-1.9836424589157104,-0.2136230319738388,3.662109136581421,100.0,8232.0,1.0
1162620.2237697,302021.96875,320739.59375,390204.34375,370113.6875,309749.40625,299669.125,309891.5625,312006.5,-0.101318359375,0.9814453125,0.240478515625,-1.9836424589157104,-0.0915527269244194,3.601073980331421,100.0,8233.0,1.0
1162620.2263136,301031.34375,320673.53125,389930.40625,369853.625,309891.125,299907.5,310336.03125,312690.0,-0.10009765625,0.977783203125,0.239501953125,-1.9836424589157104,-0.03051757626235485,3.601073980331421,100.0,8234.0,1.0
1162620.230028,300853.34375,320698.28125,389982.15625,369929.71875,310022.5625,300058.40625,310610.9375,313084.03125,-0.098876953125,0.976318359375,0.240478515625,-1.8615721464157104,-0.0610351525247097,3.601073980331421,100.0,8235.0,1.0
1162620.2430545,301765.65625,320784.46875,390339.34375,370288.5,309976.875,299920.8125,310353.09375,312671.0625,-0.09716796875,0.976806640625,0.240478515625,-1.6784666776657104,0.0610351525247097,3.692626714706421,100.0,8236.0,1.0
1162620.2431065,302506.1875,320798.78125,390517.4375,370433.15625,309811.03125,299674.40625,309907.03125,312014.625,-0.096923828125,0.981689453125,0.240234375,-1.4343260526657104,0.1220703050494194,3.662109136581421,100.0,8237.0,1.0
1162620.2456132,302063.0,320717.875,390281.6875,370171.09375,309752.90625,299656.8125,309884.875,312017.5,-0.09423828125,0.989013671875,0.237060546875,-1.4038084745407104,0.1831054538488388,3.601073980331421,100.0,8238.0,1.0
1162620.2456693,301056.65625,320654.28125,389986.09375,369882.40625,309894.34375,299899.4375,310329.65625,312700.21875,-0.095458984375,0.994384765625,0.236572265625,-1.3122557401657104,0.3051757514476776,3.509521245956421,100.0,8239.0,1.0
1162620.2475168,300853.40625,320691.59375,390020.625,369941.875,310036.6875,300062.78125,310622.28125,313113.8125,-0.09326171875,0.996337890625,0.23486328125,-1.3732908964157104,0.3662109076976776,3.570556402206421,100.0,8240.0,1.0
1162620.2513388,301761.34375,320787.0625,390376.625,370303.25,310002.09375,299936.65625,310379.375,312715.3125,-0.087890625,0.993896484375,0.235107421875,-1.2817381620407104,0.3967284858226776,3.417968511581421,100.0,8241.0,1.0
1162620.2681116,302529.90625,320808.15625,390566.4375,370466.6875,309838.46875,299691.40625,309932.625,312051.46875,-0.083984375,0.9912109375,0.232421875,-1.4953612089157104,0.6103515028953552,3.356933355331421,100.0,8242.0,1.0
1162620.2681624,302107.625,320731.0,390329.5,370207.75,309771.78125,299665.65625,309895.40625,312031.96875,-0.082763671875,0.986083984375,0.2353515625,-1.5869139432907104,0.8544921278953552,3.417968511581421,100.0,8243.0,1.0
1162620.2699824,301098.84375,320674.3125,390025.53125,369908.34375,309908.5625,299910.0,310338.25,312709.6875,-0.0810546875,0.98291015625,0.236083984375,-1.3732908964157104,0.9765624403953552,3.509521245956421,100.0,8244.0,1.0
1162620.272516,300873.53125,320703.65625,390049.40625,369957.875,310048.3125,300077.90625,310636.25,313130.25,-0.085693359375,0.9853515625,0.2373046875,-1.2512205839157104,1.2512205839157104,3.601073980331421,100.0,8245.0,1.0
1162620.2750088,301772.78125,320792.53125,390409.28125,370328.0,310013.78125,299949.0625,310395.1875,312740.15625,-0.0888671875,0.987060546875,0.239501953125,-1.0681151151657104,1.4953612089157104,3.692626714706421,100.0,8246.0,1.0
1162620.2775188,302564.21875,320815.78125,390619.375,370512.625,309851.6875,299701.3125,309945.5,312074.71875,-0.09228515625,0.991455078125,0.23876953125,-0.9765624403953552,1.4648436307907104,3.723144292831421,100.0,8247.0,1.0
1162620.2868683,302159.03125,320736.5625,390388.625,370255.40625,309780.09375,299671.46875,309899.25,312041.375,-0.09765625,0.99462890625,0.239501953125,-1.0070799589157104,1.4343260526657104,3.570556402206421,100.0,8248.0,1.0
1162620.2869242,301139.78125,320677.0,390072.8125,369936.21875,309914.5625,299914.125,310337.34375,312711.03125,-0.09912109375,0.9951171875,0.239501953125,-0.9765624403953552,1.4343260526657104,3.540038824081421,100.0,8249.0,1.0
1162620.2893644,300887.65625,320706.96875,390080.53125,369966.375,310057.25,300084.53125,310643.84375,313142.15625,-0.10205078125,0.9970703125,0.241943359375,-1.0986326932907104,1.3427733182907104,3.326415777206421,100.0,8250.0,1.0
1162620.2894219,301788.71875,320802.96875,390445.75,370347.9375,310031.59375,299967.65625,310421.3125,312772.96875,-0.102294921875,0.9951171875,0.243408203125,-1.2512205839157104,1.2512205839157104,3.082275152206421,100.0,8251.0,1.0
1162620.3086547,302605.8125,320830.53125,390670.34375,370552.0625,309873.25,299721.53125,309975.25,312106.1875,-0.100830078125,0.9912109375,0.243896484375,-1.4648436307907104,1.1596678495407104,2.807616949081421,100.0,8252.0,1.0
1162620.3087009,302215.71875,320749.0625,390438.78125,370293.84375,309796.28125,299679.40625,309914.46875,312049.6875,-0.09765625,0.98583984375,0.246337890625,-1.5869139432907104,1.0681151151657104,2.563476324081421,100.0,8253.0,1.0
1162620.3087125,301168.59375,320674.0625,390094.5625,369946.59375,309915.0,299904.0,310331.71875,312699.03125,-0.099365234375,0.98486328125,0.246337890625,-1.4953612089157104,0.9155272841453552,2.258300542831421,100.0,8254.0,1.0
1162620.3113202,300880.78125,320695.59375,390083.125,369957.96875,310050.8125,300074.25,310638.46875,313140.4375,-0.099609375,0.9853515625,0.245361328125,-1.4648436307907104,0.7934569716453552,2.166747808456421,100.0,8255.0,1.0
1162620.3137671,301769.65625,320792.0625,390449.5,370345.96875,310031.75,299966.5,310428.46875,312789.34375,-0.09716796875,0.984130859375,0.242919921875,-1.5258787870407104,0.7019042372703552,1.9531248807907104,100.0,8256.0,1.0
1162620.316254,302604.09375,320819.875,390680.15625,370563.25,309872.25,299718.65625,309975.15625,312116.09375,-0.09765625,0.987548828125,0.2431640625,-1.4343260526657104,0.7019042372703552,1.9531248807907104,100.0,8257.0,1.0
1162620.3249841,302236.8125,320740.9375,390453.34375,370310.9375,309791.0,299675.5,309901.5,312044.21875,-0.095947265625,0.98828125,0.244140625,-1.4953612089157104,0.4882812201976776,1.8310545682907104,100.0,8258.0,1.0
1162620.3293644,301191.90625,320674.5,390107.34375,369956.625,309909.90625,299905.53125,310323.5,312691.625,-0.096435546875,0.990234375,0.244873046875,-1.5563963651657104,0.3967284858226776,1.8005369901657104,100.0,8259.0,1.0
1162620.3294157,300894.5625,320704.90625,390096.0,369966.625,310056.09375,300084.875,310644.75,313147.34375,-0.09619140625,0.9912109375,0.247802734375,-1.6479490995407104,0.3662109076976776,1.8310545682907104,100.0,8260.0,1.0
1162620.3312753,301781.65625,320799.75,390464.96875,370361.53125,310040.53125,299973.21875,310438.46875,312802.84375,-0.094970703125,0.989013671875,0.25,-1.5869139432907104,0.3967284858226776,1.7700194120407104,100.0,8261.0,1.0
1162620.3475212,302638.875,320827.21875,390708.78125,370594.09375,309881.46875,299722.5,309983.40625,312126.125,-0.09619140625,0.987548828125,0.2490234375,-1.6784666776657104,0.3356933295726776,1.6784666776657104,100.0,8262.0,1.0
1162620.3506137,302287.15625,320752.5625,390483.84375,370338.46875,309797.78125,299676.46875,309902.3125,312038.5,-0.096435546875,0.986328125,0.246337890625,-1.5869139432907104,0.1831054538488388,1.6174315214157104,100.0,8263.0,1.0
1162620.350664,301222.59375,320684.34375,390118.96875,369959.375,309915.71875,299903.90625,310317.5,312675.96875,-0.094970703125,0.984619140625,0.24658203125,-1.4343260526657104,0.2746581733226776,1.6784666776657104,100.0,8264.0,1.0
1162620.3525217,300880.25,320702.65625,390072.46875,369933.5625,310055.53125,300079.4375,310637.21875,313134.1875,-0.094970703125,0.9853515625,0.242919921875,-1.5258787870407104,0.1220703050494194,1.6479490995407104,100.0,8265.0,1.0
1162620.3550216,301737.75,320783.03125,390414.28125,370305.75,310027.46875,299962.125,310421.84375,312786.125,-0.094970703125,0.98486328125,0.2470703125,-1.4038084745407104,0.0610351525247097,1.6479490995407104,100.0,8266.0,1.0
1162620.3575195,302615.8125,320820.59375,390662.28125,370547.3125,309871.46875,299716.78125,309964.53125,312101.09375,-0.095947265625,0.9853515625,0.2470703125,-1.3427733182907104,0.0,1.5563963651657104,100.0,8267.0,1.0
1162620.3613399,302284.1875,320752.03125,390431.96875,370287.5,309785.1875,299666.0,309873.0625,311993.1875,-0.097900390625,0.983154296875,0.245849609375,-1.2817381620407104,0.03051757626235485,1.6479490995407104,100.0,8268.0,1.0
1162620.3706314,301192.71875,320671.03125,390033.21875,369869.4375,309886.03125,299878.53125,310268.875,312608.28125,-0.099609375,0.984375,0.24609375,-1.0375975370407104,0.0,1.6479490995407104,100.0,8269.0,1.0
1162620.370683,300809.6875,320684.15625,389952.5,369805.53125,310017.1875,300048.75,310582.6875,313067.40625,-0.099853515625,0.98583984375,0.24560546875,-0.9765624403953552,-0.1831054538488388,1.5258787870407104,100.0,8270.0,1.0
1162620.3725162,301667.84375,320780.90625,390296.34375,370184.0625,310005.46875,299951.65625,310396.8125,312751.34375,-0.097900390625,0.988037109375,0.247314453125,-1.0070799589157104,-0.3662109076976776,1.4953612089157104,100.0,8271.0,1.0
1162620.3762752,302572.09375,320822.03125,390564.46875,370452.46875,309857.875,299709.28125,309950.59375,312076.9375,-0.098388671875,0.990478515625,0.246337890625,-0.8850097060203552,-0.3356933295726776,1.4038084745407104,100.0,8272.0,1.0
1162620.3850196,302265.4375,320747.375,390350.96875,370207.75,309762.90625,299645.53125,309841.6875,311951.59375,-0.0986328125,0.9892578125,0.249267578125,-0.9155272841453552,-0.3967284858226776,1.2817381620407104,100.0,8273.0,1.0
1162620.3881106,301184.84375,320677.71875,389961.96875,369797.90625,309867.53125,299866.375,310243.3125,312574.40625,-0.096923828125,0.991455078125,0.248291015625,-0.8239745497703552,-0.5187987685203552,1.1596678495407104,100.0,8274.0,1.0
1162620.388161,300792.4375,320695.5,389892.40625,369747.65625,310011.375,300055.5625,310582.0625,313064.4375,-0.102783203125,0.9912109375,0.2490234375,-0.8544921278953552,-0.7019042372703552,1.0986326932907104,100.0,8275.0,1.0
1162620.3962771,301665.0625,320796.375,390279.90625,370173.875,310023.28125,299975.28125,310423.46875,312785.6875,-0.100830078125,0.98876953125,0.248779296875,-0.9460448622703552,-0.8239745497703552,1.0986326932907104,100.0,8276.0,1.0
1162620.4005713,302619.03125,320844.8125,390609.1875,370508.15625,309895.40625,299740.3125,309993.0625,312134.71875,-0.099365234375,0.98876953125,0.24609375,-1.0070799589157104,-0.9155272841453552,0.9155272841453552,100.0,8277.0,1.0
1162620.4006225,302352.40625,320769.53125,390443.0625,370311.5625,309806.0,299670.5625,309885.21875,312012.84375,-0.096435546875,0.98583984375,0.24755859375,-0.9460448622703552,-0.9460448622703552,0.8544921278953552,100.0,8278.0,1.0
1162620.4087775,301289.5625,320694.25,390101.78125,369944.46875,309918.21875,299886.3125,310293.28125,312652.375,-0.093994140625,0.988525390625,0.24951171875,-0.8544921278953552,-0.9155272841453552,0.8544921278953552,100.0,8279.0,1.0
1162620.4155433,300901.78125,320714.28125,390088.125,369943.125,310080.40625,300090.6875,310662.71875,313184.53125,-0.0947265625,0.989013671875,0.251708984375,-0.7629393935203552,-0.8239745497703552,0.8239745497703552,100.0,8280.0,1.0
1162620.4155953,301762.4375,320808.4375,390493.5,370379.875,310092.5625,300016.9375,310513.5,312923.0,-0.09423828125,0.98876953125,0.252685546875,-0.7629393935203552,-0.8850097060203552,0.7629393935203552,100.0,8281.0,1.0
1162620.4181145,302708.4375,320847.3125,390805.78125,370686.53125,309947.53125,299774.0,310063.6875,312246.71875,-0.094482421875,0.98876953125,0.251953125,-0.8239745497703552,-0.7629393935203552,0.7324218153953552,100.0,8282.0,1.0
1162620.4181707,302429.65625,320772.125,390592.90625,370429.75,309839.8125,299691.84375,309928.9375,312078.75,-0.09326171875,0.989013671875,0.2509765625,-0.7629393935203552,-0.6713866591453552,0.7629393935203552,100.0,8283.0,1.0
1162620.4287711,301307.53125,320687.5625,390157.9375,369961.4375,309921.78125,299891.03125,310303.28125,312665.25,-0.09130859375,0.987548828125,0.2509765625,-0.7324218153953552,-0.6103515028953552,0.8544921278953552,100.0,8284.0,1.0
1162620.431819,300846.34375,320699.0,390044.75,369860.15625,310061.28125,300082.28125,310648.03125,313161.1875,-0.090576171875,0.987548828125,0.250244140625,-0.6408690810203552,-0.4577636420726776,0.8544921278953552,100.0,8285.0,1.0
1162620.4318668,301675.34375,320791.0,390393.53125,370252.5625,310064.5625,300002.4375,310493.375,312886.34375,-0.09228515625,0.985107421875,0.2509765625,-0.6408690810203552,-0.4272460639476776,0.9460448622703552,100.0,8286.0,1.0
1162620.4337726,302655.0625,320839.5625,390710.65625,370581.125,309923.75,299759.25,310043.46875,312208.09375,-0.0947265625,0.984619140625,0.25244140625,-0.5493163466453552,-0.2136230319738388,0.9460448622703552,100.0,8287.0,1.0
1162620.4425015,302411.15625,320768.90625,390516.65625,370355.90625,309818.25,299675.125,309897.46875,312030.1875,-0.095458984375,0.9853515625,0.253173828125,-0.5187987685203552,-0.1525878757238388,1.0986326932907104,100.0,8288.0,1.0
1162620.4477963,301295.375,320690.15625,390088.84375,369894.375,309904.1875,299877.8125,310269.59375,312614.09375,-0.094482421875,0.986572265625,0.249267578125,-0.4577636420726776,-0.0610351525247097,1.0375975370407104,100.0,8289.0,1.0
1162620.4478498,300803.1875,320692.46875,389960.625,369777.625,310039.09375,300064.125,310614.875,313118.0,-0.097412109375,0.98486328125,0.249755859375,-0.3662109076976776,0.03051757626235485,1.0375975370407104,100.0,8290.0,1.0
1162620.4525427,301634.84375,320787.6875,390320.125,370184.78125,310048.03125,299987.6875,310470.9375,312863.46875,-0.100341796875,0.98583984375,0.251708984375,-0.3051757514476776,0.0610351525247097,1.0070799589157104,100.0,8291.0,1.0
1162620.4549827,302653.8125,320847.0625,390676.40625,370558.0625,309921.71875,299756.40625,310033.1875,312199.625,-0.101318359375,0.9853515625,0.249755859375,-0.2441406100988388,0.1831054538488388,0.9155272841453552,100.0,8292.0,1.0
1162620.4613193,302444.34375,320775.1875,390506.0,370357.875,309816.125,299670.125,309885.75,312012.84375,-0.1015625,0.984130859375,0.249267578125,-0.1220703050494194,0.1525878757238388,0.7629393935203552,100.0,8293.0,1.0
1162620.4681221,301329.96875,320693.375,390083.75,369897.59375,309899.53125,299865.5625,310255.28125,312590.40625,-0.10205078125,0.986328125,0.247802734375,-0.1220703050494194,0.2441406100988388,0.8544921278953552,100.0,8294.0,1.0
1162620.4681737,300824.8125,320701.3125,389963.21875,369784.3125,310045.625,300063.34375,310615.59375,313114.96875,-0.101318359375,0.9873046875,0.245361328125,0.0,0.3662109076976776,0.7324218153953552,100.0,8295.0,1.0
1162620.4762756,301656.375,320805.46875,390345.15625,370213.46875,310073.0625,300003.4375,310491.75,312891.28125,-0.103515625,0.987548828125,0.248779296875,-0.0610351525247097,0.3662109076976776,0.6408690810203552,100.0,8296.0,1.0
1162620.4805741,302681.15625,320857.53125,390702.25,370582.46875,309939.84375,299764.34375,310045.4375,312214.625,-0.103759765625,0.9873046875,0.246826171875,0.0915527269244194,0.3662109076976776,0.6103515028953552,100.0,8297.0,1.0
1162620.4806282,302465.53125,320777.59375,390502.0625,370345.09375,309812.8125,299657.15625,309866.1875,311986.375,-0.10498046875,0.985595703125,0.245849609375,0.0915527269244194,0.4272460639476776,0.6103515028953552,100.0,8298.0,1.0
1162620.4887258,301301.875,320678.625,390010.0625,369808.8125,309866.53125,299830.6875,310202.25,312518.8125,-0.1044921875,0.98193359375,0.247802734375,0.0610351525247097,0.3662109076976776,0.4272460639476776,100.0,8299.0,1.0
1162620.491867,300741.21875,320677.71875,389821.15625,369625.8125,309992.0625,300018.4375,310548.625,313024.84375,-0.108642578125,0.984375,0.25146484375,0.2136230319738388,0.3051757514476776,0.4882812201976776,100.0,8300.0,1.0
1162620.491917,301543.90625,320777.15625,390162.78125,370025.09375,310012.53125,299957.375,310419.6875,312795.96875,-0.10986328125,0.985107421875,0.251708984375,0.1831054538488388,0.3662109076976776,0.4272460639476776,100.0,8301.0,1.0
1162620.493755,302601.59375,320835.875,390526.5625,370423.21875,309884.25,299717.9375,309974.1875,312116.90625,-0.109619140625,0.984619140625,0.250732421875,0.2746581733226776,0.2746581733226776,0.4577636420726776,100.0,8302.0,1.0
1162620.505024,302435.5625,320766.875,390353.03125,370223.9375,309764.4375,299613.625,309796.625,311882.65625,-0.11083984375,0.98388671875,0.249755859375,0.2746581733226776,0.2746581733226776,0.3662109076976776,100.0,8303.0,1.0
1162620.5144281,301279.34375,320669.3125,389866.84375,369697.96875,309819.6875,299786.25,310129.21875,312410.625,-0.109130859375,0.9853515625,0.250244140625,0.2441406100988388,0.0915527269244194,0.3967284858226776,100.0,8304.0,1.0
1162620.5144846,300694.375,320669.40625,389672.09375,369512.625,309948.875,299977.6875,310484.15625,312930.78125,-0.11181640625,0.985107421875,0.25146484375,0.2136230319738388,0.0610351525247097,0.3356933295726776,100.0,8305.0,1.0
1162620.5163177,301496.25,320779.5625,390024.0,369925.3125,309979.09375,299929.84375,310378.125,312723.8125,-0.113037109375,0.98486328125,0.252197265625,0.1220703050494194,-0.0915527269244194,0.2441406100988388,100.0,8306.0,1.0
1162620.5200262,302587.03125,320848.9375,390423.46875,370358.40625,309863.5,299701.9375,309942.28125,312055.65625,-0.114013671875,0.986328125,0.251708984375,0.2136230319738388,-0.1525878757238388,0.2746581733226776,100.0,8307.0,1.0
1162620.5287707,302442.0,320774.0,390266.75,370171.625,309739.59375,299587.6875,309748.0,311804.34375,-0.112548828125,0.9853515625,0.249267578125,0.1220703050494194,-0.2746581733226776,0.3051757514476776,100.0,8308.0,1.0
1162620.5318173,301273.09375,320674.875,389761.15625,369620.90625,309783.84375,299753.34375,310068.25,312314.78125,-0.11279296875,0.984130859375,0.247314453125,0.0,-0.2441406100988388,0.3356933295726776,100.0,8309.0,1.0
1162620.5318647,300653.15625,320672.0,389540.3125,369407.125,309913.84375,299951.84375,310430.53125,312837.34375,-0.11328125,0.985595703125,0.248046875,0.1220703050494194,-0.3662109076976776,0.3662109076976776,100.0,8310.0,1.0
1162620.5343241,301440.65625,320774.09375,389886.9375,369820.4375,309947.0,299904.375,310329.9375,312642.8125,-0.11083984375,0.984375,0.24853515625,0.0610351525247097,-0.6103515028953552,0.5187987685203552,100.0,8311.0,1.0
1162620.5343744,302563.78125,320841.5,390311.71875,370286.875,309836.0625,299673.4375,309898.71875,311981.71875,-0.112060546875,0.985595703125,0.248291015625,0.0915527269244194,-0.6408690810203552,0.4577636420726776,100.0,8312.0,1.0
1162620.5424984,302446.21875,320766.59375,390161.59375,370109.84375,309705.0625,299546.84375,309690.75,311707.6875,-0.11328125,0.987060546875,0.2490234375,0.0610351525247097,-0.7934569716453552,0.5493163466453552,100.0,8313.0,1.0
1162620.5543281,301258.4375,320658.9375,389624.8125,369523.0,309729.46875,299694.71875,309981.4375,312181.375,-0.11328125,0.98583984375,0.25,-0.1220703050494194,-0.8239745497703552,0.7324218153953552,100.0,8314.0,1.0
1162620.5543828,300596.90625,320650.71875,389358.09375,369259.6875,309840.34375,299881.9375,310325.71875,312684.75,-0.1123046875,0.987548828125,0.248046875,-0.03051757626235485,-0.7934569716453552,0.8544921278953552,100.0,8315.0,1.0
1162620.5568635,301374.84375,320758.625,389695.09375,369672.46875,309875.75,299841.25,310233.65625,312502.625,-0.11669921875,0.986572265625,0.2490234375,-0.1525878757238388,-0.9155272841453552,0.8850097060203552,100.0,8316.0,1.0
1162620.5569206,302529.1875,320831.6875,390148.28125,370176.28125,309773.375,299618.34375,309807.25,311850.40625,-0.11572265625,0.98583984375,0.246826171875,-0.2746581733226776,-0.9460448622703552,0.9460448622703552,100.0,8317.0,1.0
1162620.5587202,302440.40625,320751.46875,390016.21875,370019.8125,309636.3125,299484.6875,309585.90625,311561.59375,-0.114990234375,0.984375,0.252685546875,-0.2746581733226776,-1.0070799589157104,1.0986326932907104,100.0,8318.0,1.0
1162620.5624712,301240.46875,320639.1875,389462.4375,369415.6875,309652.0625,299623.8125,309864.75,312020.0,-0.112548828125,0.985595703125,0.254150390625,-0.5187987685203552,-1.1596678495407104,1.1901854276657104,100.0,8319.0,1.0
1162620.568677,300549.71875,320636.5,389177.875,369135.5,309769.90625,299819.0625,310224.0,312540.0625,-0.111572265625,0.982421875,0.25341796875,-0.6103515028953552,-1.1901854276657104,1.3732908964157104,100.0,8320.0,1.0
1162620.5754672,301329.34375,320751.03125,389530.3125,369564.375,309823.1875,299797.15625,310154.78125,312389.34375,-0.113525390625,0.982421875,0.251953125,-0.7019042372703552,-1.4038084745407104,1.3732908964157104,100.0,8321.0,1.0
1162620.5754988,302525.34375,320832.40625,390023.75,370109.5,309734.84375,299580.71875,309740.9375,311749.90625,-0.11083984375,0.984375,0.2509765625,-0.6713866591453552,-1.3122557401657104,1.2817381620407104,100.0,8322.0,1.0
1162620.5862769,302468.03125,320760.4375,389916.71875,369972.8125,309603.0625,299449.375,309518.3125,311453.78125,-0.11279296875,0.98388671875,0.2509765625,-0.7934569716453552,-1.3732908964157104,1.4953612089157104,100.0,8323.0,1.0
1162620.5937073,301246.0,320642.40625,389341.46875,369338.375,309608.78125,299583.21875,309783.9375,311895.53125,-0.114013671875,0.984130859375,0.25048828125,-1.0681151151657104,-1.4343260526657104,1.4648436307907104,100.0,8324.0,1.0
1162620.5937566,300507.59375,320630.0625,389020.15625,369016.40625,309717.6875,299774.46875,310138.0625,312415.96875,-0.11328125,0.9833984375,0.25439453125,-0.9765624403953552,-1.5869139432907104,1.5563963651657104,100.0,8325.0,1.0
1162620.5937701,301276.0625,320748.96875,389376.96875,369449.21875,309782.125,299760.875,310088.96875,312291.71875,-0.11181640625,0.984619140625,0.252685546875,-1.0986326932907104,-1.6479490995407104,1.4953612089157104,100.0,8326.0,1.0
1162620.5980723,302509.25,320838.84375,389910.65625,370038.34375,309705.6875,299553.96875,309691.9375,311676.84375,-0.109619140625,0.986083984375,0.25439453125,-1.1291502714157104,-1.7089842557907104,1.5258787870407104,100.0,8327.0,1.0
1162620.5981215,302487.78125,320769.28125,389831.78125,369930.25,309576.875,299421.375,309469.125,311376.625,-0.111328125,0.98388671875,0.2529296875,-1.2207030057907104,-1.7395018339157104,1.4343260526657104,100.0,8328.0,1.0
1162620.6012471,301257.375,320650.90625,389251.71875,369282.5,309579.375,299554.4375,309733.78125,311809.0,-0.111328125,0.985595703125,0.2529296875,-1.2512205839157104,-1.7395018339157104,1.3122557401657104,100.0,8329.0,1.0
1162620.6074682,300481.9375,320633.03125,388910.90625,368932.90625,309684.96875,299747.90625,310093.90625,312337.03125,-0.111328125,0.986328125,0.256103515625,-1.4038084745407104,-1.8310545682907104,1.1596678495407104,100.0,8330.0,1.0
1162620.6218742,301239.3125,320744.6875,389275.21875,369373.875,309752.53125,299739.59375,310059.21875,312238.15625,-0.109619140625,0.985107421875,0.2548828125,-1.6174315214157104,-1.8310545682907104,1.0070799589157104,100.0,8331.0,1.0
1162620.6219271,302512.5625,320839.5625,389861.28125,370019.8125,309696.75,299546.84375,309684.34375,311656.125,-0.10888671875,0.984619140625,0.25634765625,-1.8310545682907104,-1.8615721464157104,0.9765624403953552,100.0,8332.0,1.0
1162620.6243605,302531.15625,320776.0625,389821.875,369950.28125,309579.90625,299421.65625,309466.34375,311364.1875,-0.1083984375,0.984619140625,0.260009765625,-1.8310545682907104,-1.8310545682907104,0.8850097060203552,100.0,8333.0,1.0
1162620.6244111,301287.3125,320652.96875,389224.90625,369279.09375,309574.1875,299544.59375,309715.53125,311776.8125,-0.10693359375,0.983154296875,0.258544921875,-1.9226073026657104,-1.8005369901657104,0.7019042372703552,100.0,8334.0,1.0
1162620.6299849,300483.09375,320642.6875,388861.71875,368903.125,309682.53125,299744.875,310081.65625,312311.28125,-0.10693359375,0.98046875,0.26025390625,-2.014159917831421,-1.8005369901657104,0.7629393935203552,100.0,8335.0,1.0
1162620.6418627,301209.34375,320743.4375,389206.46875,369330.5,309742.53125,299731.90625,310048.3125,312222.25,-0.106689453125,0.9775390625,0.25830078125,-2.044677495956421,-1.8005369901657104,0.7019042372703552,100.0,8336.0,1.0
1162620.6419126,302515.59375,320844.28125,389821.25,370010.71875,309694.0625,299545.03125,309683.96875,311652.96875,-0.10595703125,0.9765625,0.2578125,-1.9836424589157104,-1.7089842557907104,0.9460448622703552,100.0,8337.0,1.0
1162620.6443631,302571.75,320788.84375,389810.875,369963.59375,309578.90625,299419.59375,309461.875,311353.1875,-0.107177734375,0.977294921875,0.25634765625,-1.8920897245407104,-1.6784666776657104,1.0986326932907104,100.0,8338.0,1.0
1162620.6444134,301298.5,320648.125,389180.8125,369249.84375,309550.03125,299522.25,309682.625,311735.9375,-0.10693359375,0.98046875,0.255859375,-1.9531248807907104,-1.7089842557907104,1.0986326932907104,100.0,8339.0,1.0
1162620.6631184,300435.71875,320612.625,388765.96875,368821.15625,309637.65625,299703.1875,310030.6875,312255.125,-0.10888671875,0.982421875,0.257568359375,-1.9531248807907104,-1.7089842557907104,1.0375975370407104,100.0,8340.0,1.0
1162620.6631691,301174.65625,320736.90625,389137.09375,369274.71875,309726.625,299718.03125,310034.28125,312207.21875,-0.10986328125,0.982421875,0.259521484375,-1.9226073026657104,-1.6784666776657104,1.2207030057907104,100.0,8341.0,1.0
1162620.6817363,302526.3125,320852.875,389809.0,370014.09375,309701.6875,299550.125,309694.34375,311668.1875,-0.109130859375,0.984130859375,0.261474609375,-1.8920897245407104,-1.6174315214157104,1.3427733182907104,100.0,8342.0,1.0
1162620.6817828,302614.375,320793.25,389827.6875,369993.53125,309585.625,299418.53125,309463.75,311358.28125,-0.11181640625,0.98193359375,0.26318359375,-1.8310545682907104,-1.5869139432907104,1.1901854276657104,100.0,8343.0,1.0
1162620.6817932,301334.875,320653.5,389184.40625,369259.40625,309549.5,299514.1875,309672.96875,311719.59375,-0.11279296875,0.98046875,0.261962890625,-1.8005369901657104,-1.7089842557907104,1.0070799589157104,100.0,8344.0,1.0
1162620.6818044,300428.5625,320622.65625,388735.3125,368786.71875,309634.53125,299704.1875,310024.15625,312240.5625,-0.115966796875,0.979736328125,0.259033203125,-1.6784666776657104,-1.7089842557907104,0.9460448622703552,100.0,8345.0,1.0
1162620.684961,301147.03125,320745.40625,389100.78125,369233.65625,309729.84375,299732.25,310044.71875,312213.03125,-0.1181640625,0.9814453125,0.259765625,-1.5258787870407104,-1.6784666776657104,0.7934569716453552,100.0,8346.0,1.0
1162620.6850104,302535.78125,320867.53125,389813.46875,370017.40625,309723.21875,299578.125,309725.375,311701.4375,-0.119384765625,0.984375,0.2626953125,-1.5258787870407104,-1.8615721464157104,0.8544921278953552,100.0,8347.0,1.0
1162620.6850242,302656.3125,320807.09375,389852.25,370019.90625,309607.09375,299440.53125,309488.15625,311384.9375,-0.12158203125,0.986083984375,0.263427734375,-1.5258787870407104,-1.9226073026657104,0.7629393935203552,100.0,8348.0,1.0
1162620.6875417,301360.34375,320660.28125,389182.5,369255.9375,309556.84375,299522.40625,309680.21875,311725.84375,-0.121337890625,0.98828125,0.266845703125,-1.3732908964157104,-2.136230230331421,0.7629393935203552,100.0,8349.0,1.0
1162620.6900327,300409.34375,320619.34375,388691.59375,368741.03125,309626.5625,299701.6875,310023.28125,312238.0625,-0.123046875,0.988525390625,0.2705078125,-1.4038084745407104,-2.288818120956421,0.6408690810203552,100.0,8350.0,1.0
1162620.6925183,301112.875,320744.6875,389051.875,369189.25,309727.25,299735.375,310058.3125,312233.40625,-0.123291015625,0.990966796875,0.269287109375,-1.3122557401657104,-2.502441167831421,0.5798339247703552,100.0,8351.0,1.0
1162620.6963182,302540.625,320875.65625,389803.28125,370019.8125,309736.375,299591.25,309757.5625,311743.1875,-0.122314453125,0.992431640625,0.26953125,-1.4038084745407104,-2.655029058456421,0.4272460639476776,100.0,8352.0,1.0
1162620.7055899,302695.84375,320815.9375,389867.09375,370048.71875,309619.59375,299449.71875,309515.4375,311414.96875,-0.123291015625,0.994384765625,0.273193359375,-1.3732908964157104,-2.807616949081421,0.3051757514476776,100.0,8353.0,1.0
1162620.7056404,301379.65625,320653.03125,389169.46875,369249.21875,309549.5,299514.375,309683.6875,311719.84375,-0.119873046875,0.994140625,0.272705078125,-1.3427733182907104,-2.838134527206421,0.2441406100988388,100.0,8354.0,1.0
1162620.7081124,300375.375,320601.1875,388627.03125,368674.0625,309605.46875,299683.96875,310014.34375,312218.375,-0.11669921875,0.994873046875,0.2734375,-1.4038084745407104,-2.960204839706421,0.1220703050494194,100.0,8355.0,1.0
1162620.7081631,301061.65625,320733.59375,388978.75,369115.21875,309714.8125,299730.375,310060.8125,312231.625,-0.114013671875,0.994384765625,0.271240234375,-1.4953612089157104,-2.960204839706421,0.1831054538488388,100.0,8356.0,1.0
1162620.7163205,302525.40625,320874.25,389769.375,369990.0625,309738.0625,299597.34375,309774.53125,311762.6875,-0.110107421875,0.994384765625,0.271728515625,-1.3427733182907104,-2.929687261581421,0.3051757514476776,100.0,8357.0,1.0
1162620.7187947,302721.40625,320819.34375,389868.1875,370053.4375,309627.8125,299456.09375,309532.34375,311433.5,-0.1064453125,0.995361328125,0.274169921875,-1.4038084745407104,-2.960204839706421,0.3662109076976776,100.0,8358.0,1.0
1162620.7224785,301391.46875,320653.84375,389150.6875,369230.1875,309549.5,299514.65625,309684.875,311720.125,-0.1044921875,0.99755859375,0.2724609375,-1.4343260526657104,-2.746581792831421,0.5798339247703552,100.0,8359.0,1.0
1162620.7368181,300343.96875,320602.1875,388572.75,368614.71875,309600.71875,299686.125,310014.34375,312215.25,-0.1044921875,0.999755859375,0.274169921875,-1.3122557401657104,-2.655029058456421,0.5798339247703552,100.0,8360.0,1.0
1162620.7368607,301014.625,320732.53125,388920.46875,369058.625,309718.65625,299741.1875,310080.84375,312256.03125,-0.10107421875,0.9990234375,0.274169921875,-1.4343260526657104,-2.471923589706421,0.9155272841453552,100.0,8361.0,1.0
1162620.738725,302520.0625,320878.09375,389758.46875,369993.4375,309762.5625,299622.03125,309820.9375,311823.03125,-0.099853515625,0.997314453125,0.27685546875,-1.3122557401657104,-2.319335699081421,1.0986326932907104,100.0,8362.0,1.0
1162620.7412727,302764.0625,320824.34375,389902.59375,370102.96875,309660.46875,299484.15625,309581.34375,311497.0625,-0.0986328125,0.99462890625,0.279052734375,-1.2512205839157104,-2.166747808456421,1.2817381620407104,100.0,8363.0,1.0
1162620.7437956,301422.5,320646.78125,389166.78125,369249.125,309563.53125,299526.71875,309709.28125,311752.03125,-0.099365234375,0.99365234375,0.274658203125,-1.0986326932907104,-1.8920897245407104,1.4648436307907104,100.0,8364.0,1.0
1162620.7525154,300326.28125,320583.03125,388543.34375,368581.71875,309601.96875,299690.6875,310027.125,312233.59375,-0.098876953125,0.992919921875,0.274658203125,-0.9765624403953552,-1.6784666776657104,1.7089842557907104,100.0,8365.0,1.0
1162620.7556129,300979.5,320719.28125,388884.0625,369016.9375,309727.6875,299754.53125,310105.78125,312294.9375,-0.100830078125,0.993408203125,0.275634765625,-0.8850097060203552,-1.4343260526657104,1.8920897245407104,100.0,8366.0,1.0
1162620.7556708,302521.40625,320879.0625,389763.9375,369997.90625,309787.25,299647.9375,309860.5625,311883.84375,-0.099365234375,0.990478515625,0.275146484375,-0.7629393935203552,-1.2207030057907104,2.136230230331421,100.0,8367.0,1.0
1162620.7700469,302799.46875,320829.71875,389932.71875,370132.21875,309686.75,299506.25,309616.03125,311549.1875,-0.097900390625,0.988525390625,0.2734375,-0.6713866591453552,-1.0375975370407104,2.349853277206421,100.0,8368.0,1.0
1162620.7731386,301443.25,320652.15625,389172.59375,369244.84375,309577.5625,299537.4375,309727.6875,311776.375,-0.10107421875,0.986572265625,0.2744140625,-0.6408690810203552,-0.9460448622703552,2.441406011581421,100.0,8369.0,1.0
1162620.7731893,300294.90625,320588.21875,388496.03125,368512.15625,309602.96875,299697.21875,310040.875,312244.40625,-0.102783203125,0.98583984375,0.274169921875,-0.5187987685203552,-0.8544921278953552,2.471923589706421,100.0,8370.0,1.0
1162620.7750388,300930.84375,320732.25,388820.6875,368935.3125,309734.84375,299772.5,310135.125,312322.375,-0.10302734375,0.98583984375,0.276123046875,-0.4272460639476776,-0.7629393935203552,2.410888433456421,100.0,8371.0,1.0
1162620.8000489,302504.84375,320891.03125,389731.21875,369953.9375,309802.625,299672.8125,309898.28125,311925.40625,-0.104248046875,0.98486328125,0.2744140625,-0.3051757514476776,-0.7629393935203552,2.471923589706421,100.0,8372.0,1.0
1162620.802546,302822.6875,320839.46875,389934.15625,370124.0,309702.46875,299526.875,309647.5,311583.15625,-0.103515625,0.984130859375,0.274169921875,-0.2136230319738388,-0.6713866591453552,2.380370855331421,100.0,8373.0,1.0
1162620.8056424,301457.53125,320651.71875,389160.53125,369215.53125,309578.8125,299543.4375,309737.96875,311784.21875,-0.10546875,0.980712890625,0.2744140625,-0.0610351525247097,-0.5187987685203552,2.227782964706421,100.0,8374.0,1.0
1162620.8056985,300269.15625,320578.375,388446.0625,368441.625,309592.15625,299692.65625,310035.4375,312241.8125,-0.104736328125,0.97998046875,0.271484375,0.0915527269244194,-0.4882812201976776,2.075195074081421,100.0,8375.0,1.0
1162620.8074718,300878.0,320719.21875,388755.3125,368848.0625,309722.25,299766.5,310132.96875,312329.78125,-0.104248046875,0.9775390625,0.274658203125,0.3356933295726776,-0.4882812201976776,2.014159917831421,100.0,8376.0,1.0
1162620.8099837,302478.3125,320884.4375,389697.21875,369909.21875,309801.375,299668.875,309910.0,311952.0625,-0.103759765625,0.976806640625,0.271484375,0.4882812201976776,-0.3662109076976776,1.8005369901657104,100.0,8377.0,1.0
1162620.8125411,302843.53125,320842.5,389937.375,370124.25,309709.0,299524.84375,309657.59375,311610.34375,-0.103759765625,0.97802734375,0.271240234375,0.7019042372703552,-0.3356933295726776,1.7089842557907104,100.0,8378.0,1.0
1162620.8149982,301472.375,320654.46875,389144.875,369196.375,309573.90625,299533.78125,309728.21875,311785.75,-0.102294921875,0.97998046875,0.26904296875,0.8850097060203552,-0.2136230319738388,1.6174315214157104,100.0,8379.0,1.0
1162620.8175418,300219.09375,320570.34375,388363.625,368350.25,309566.40625,299673.0625,310008.78125,312213.84375,-0.101806640625,0.97998046875,0.267822265625,1.0070799589157104,-0.1831054538488388,1.4343260526657104,100.0,8380.0,1.0
1162620.8250422,300789.5,320704.1875,388632.5625,368722.09375,309690.21875,299746.125,310108.65625,312301.8125,-0.1015625,0.981201171875,0.269287109375,1.1596678495407104,-0.0610351525247097,1.3427733182907104,100.0,8381.0,1.0
1162620.8275455,302424.3125,320879.4375,389608.28125,369830.09375,309787.15625,299663.15625,309907.40625,311948.46875,-0.100830078125,0.982666015625,0.271728515625,1.2512205839157104,0.0,1.3427733182907104,100.0,8382.0,1.0
1162620.8300038,302838.96875,320842.9375,389891.78125,370093.75,309704.96875,299523.75,309661.0,311606.9375,-0.098388671875,0.98486328125,0.266845703125,1.4648436307907104,0.1220703050494194,1.2207030057907104,100.0,8383.0,1.0
1162620.8331223,301479.53125,320653.9375,389100.78125,369162.875,309564.6875,299525.28125,309717.21875,311764.03125,-0.096435546875,0.984619140625,0.26513671875,1.5258787870407104,0.2441406100988388,1.4038084745407104,100.0,8384.0,1.0
1162620.8331746,300199.0625,320566.59375,388298.28125,368287.75,309551.90625,299659.40625,309992.6875,312191.125,-0.0986328125,0.98779296875,0.26318359375,1.7089842557907104,0.4577636420726776,1.4038084745407104,100.0,8385.0,1.0
1162620.8350509,300757.3125,320700.96875,388580.28125,368675.3125,309687.0,299744.15625,310114.71875,312309.84375,-0.09765625,0.985107421875,0.261962890625,1.8005369901657104,0.5493163466453552,1.3732908964157104,100.0,8386.0,1.0
1162620.8375467,302441.1875,320888.46875,389620.25,369853.875,309810.3125,299681.28125,309942.53125,311995.5,-0.0986328125,0.9853515625,0.2607421875,1.9226073026657104,0.5493163466453552,1.4648436307907104,100.0,8387.0,1.0
1162620.8418658,302907.625,320857.6875,389957.75,370171.28125,309737.34375,299544.25,309700.78125,311662.71875,-0.09814453125,0.9873046875,0.2578125,2.014159917831421,0.7019042372703552,1.4648436307907104,100.0,8388.0,1.0
1162620.8419165,301548.84375,320665.84375,389168.375,369231.25,309592.34375,299543.4375,309748.78125,311806.5,-0.0986328125,0.98876953125,0.257568359375,2.075195074081421,0.8850097060203552,1.5563963651657104,100.0,8389.0,1.0
1162620.8550444,300223.0,320574.1875,388325.375,368305.28125,309569.96875,299678.4375,310018.09375,312226.71875,-0.10107421875,0.990966796875,0.255859375,2.105712652206421,0.8850097060203552,1.6479490995407104,100.0,8390.0,1.0
1162620.8581132,300744.4375,320706.0625,388579.5625,368663.78125,309700.78125,299764.0,310141.46875,312355.625,-0.1015625,0.99169921875,0.2548828125,2.044677495956421,1.0070799589157104,1.6784666776657104,100.0,8391.0,1.0
1162620.8581695,302438.53125,320892.46875,389635.90625,369864.25,309824.34375,299700.53125,309977.6875,312054.78125,-0.10400390625,0.9912109375,0.2587890625,2.044677495956421,0.9460448622703552,1.7395018339157104,100.0,8392.0,1.0
1162620.8599762,302949.75,320867.25,390014.34375,370221.96875,309758.0,299565.4375,309740.5625,311723.96875,-0.105712890625,0.991455078125,0.258056640625,1.9226073026657104,0.8850097060203552,1.6784666776657104,100.0,8393.0,1.0
1162620.8625439,301594.59375,320673.59375,389221.0625,369270.3125,309604.84375,299557.28125,309777.40625,311846.28125,-0.10693359375,0.989990234375,0.256103515625,1.8615721464157104,0.7934569716453552,1.5563963651657104,100.0,8394.0,1.0
1162620.8787729,300222.3125,320573.03125,388333.59375,368292.5625,309567.125,299682.46875,310033.71875,312248.78125,-0.1064453125,0.986572265625,0.25439453125,1.8310545682907104,0.7629393935203552,1.5563963651657104,100.0,8395.0,1.0
1162620.8823732,300717.0625,320704.375,388572.125,368633.40625,309700.25,299773.84375,310166.6875,312388.71875,-0.10400390625,0.98388671875,0.25439453125,1.7700194120407104,0.7629393935203552,1.4343260526657104,100.0,8396.0,1.0
1162620.8824289,302436.8125,320900.625,389657.1875,369872.21875,309842.65625,299723.5,310018.53125,312107.25,-0.10205078125,0.98193359375,0.250244140625,1.7395018339157104,0.6408690810203552,1.4343260526657104,100.0,8397.0,1.0
1162620.8824458,302976.46875,320878.875,390040.46875,370240.46875,309776.0625,299581.78125,309765.0625,311757.3125,-0.098388671875,0.97998046875,0.249267578125,1.8005369901657104,0.6103515028953552,1.5258787870407104,100.0,8398.0,1.0
1162620.8856392,301601.9375,320673.875,389195.84375,369234.21875,309593.9375,299544.9375,309758.4375,311826.0625,-0.09521484375,0.98388671875,0.248779296875,2.014159917831421,0.6103515028953552,1.6784666776657104,100.0,8399.0,1.0
1162620.8856888,300175.34375,320562.9375,388240.0,368184.5625,309533.3125,299651.78125,309991.25,312194.6875,-0.095458984375,0.98681640625,0.248046875,2.044677495956421,0.6408690810203552,1.8920897245407104,100.0,8400.0,1.0
1162620.8875138,300644.375,320701.0625,388451.0625,368505.1875,309673.15625,299751.75,310135.75,312350.53125,-0.096435546875,0.99267578125,0.24755859375,1.9226073026657104,0.6408690810203552,2.105712652206421,100.0,8401.0,1.0
1162620.9062798,302402.40625,320909.46875,389579.40625,369802.375,309837.40625,299721.4375,310014.78125,312105.125,-0.09765625,0.992431640625,0.2451171875,1.8005369901657104,0.7629393935203552,2.105712652206421,100.0,8402.0,1.0
1162620.9092797,303003.21875,320888.28125,390030.625,370248.53125,309781.875,299585.1875,309774.28125,311770.46875,-0.095947265625,0.990234375,0.244384765625,1.7089842557907104,0.8239745497703552,2.075195074081421,100.0,8403.0,1.0
1162620.9093165,301639.40625,320673.0625,389199.6875,369249.125,309591.625,299538.25,309755.84375,311823.65625,-0.093017578125,0.989990234375,0.247314453125,1.6174315214157104,0.8239745497703552,2.136230230331421,100.0,8404.0,1.0
1162620.9118878,300178.40625,320562.3125,388210.125,368150.15625,309522.84375,299643.46875,309980.1875,312179.78125,-0.091552734375,0.9873046875,0.24560546875,1.6784666776657104,0.9460448622703552,2.288818120956421,100.0,8405.0,1.0
1162620.9119366,300600.03125,320694.875,388376.34375,368420.0625,309650.25,299738.78125,310117.25,312324.875,-0.090576171875,0.98583984375,0.243896484375,1.6174315214157104,0.9765624403953552,2.380370855331421,100.0,8406.0,1.0
1162620.9137921,302372.90625,320906.15625,389520.21875,369740.25,309823.96875,299714.5625,310004.75,312093.65625,-0.09228515625,0.987548828125,0.24462890625,1.7089842557907104,1.0375975370407104,2.563476324081421,100.0,8407.0,1.0
1162620.9275469,303034.3125,320895.34375,390025.8125,370248.71875,309782.6875,299582.40625,309771.15625,311768.5,-0.093017578125,0.989501953125,0.244140625,1.6479490995407104,1.0375975370407104,2.563476324081421,100.0,8408.0,1.0
1162620.9323954,301690.09375,320687.09375,389210.0625,369261.75,309592.6875,299533.15625,309747.1875,311810.15625,-0.094970703125,0.990234375,0.2421875,1.6174315214157104,0.9460448622703552,2.532958745956421,100.0,8409.0,1.0
1162620.9324411,300192.71875,320569.4375,388191.4375,368127.0,309513.21875,299633.71875,309963.09375,312158.5625,-0.0947265625,0.990478515625,0.240966796875,1.4953612089157104,0.9460448622703552,2.563476324081421,100.0,8410.0,1.0
1162620.932453,300593.78125,320704.28125,388360.3125,368397.625,309651.53125,299743.6875,310120.28125,312332.90625,-0.0966796875,0.990234375,0.240966796875,1.5258787870407104,0.9765624403953552,2.502441167831421,100.0,8411.0,1.0
1162620.9349255,302392.90625,320917.78125,389547.21875,369769.21875,309841.15625,299729.65625,310028.375,312131.5,-0.097900390625,0.988525390625,0.241943359375,1.3732908964157104,0.9765624403953552,2.410888433456421,100.0,8412.0,1.0
1162620.9374323,303090.5625,320908.84375,390091.4375,370317.28125,309807.71875,299602.25,309798.6875,311808.46875,-0.09912109375,0.988037109375,0.240478515625,1.3122557401657104,0.8850097060203552,2.136230230331421,100.0,8413.0,1.0
1162620.9513149,301759.28125,320706.5,389282.125,369326.03125,309615.5,299554.59375,309766.9375,311836.71875,-0.099365234375,0.990234375,0.239501953125,1.2512205839157104,0.7629393935203552,1.9531248807907104,100.0,8414.0,1.0
1162620.9562025,300212.5625,320581.96875,388215.5625,368129.3125,309520.34375,299647.78125,309968.71875,312168.15625,-0.09814453125,0.991455078125,0.240966796875,1.2817381620407104,0.7934569716453552,1.7089842557907104,100.0,8415.0,1.0
1162620.9562666,300561.15625,320706.6875,388336.375,368349.6875,309650.1875,299753.8125,310128.3125,312344.0,-0.09912109375,0.99169921875,0.241943359375,1.1901854276657104,0.6713866591453552,1.6174315214157104,100.0,8416.0,1.0
1162620.9562838,302376.28125,320928.34375,389539.34375,369745.875,309855.625,299751.125,310061.625,312166.8125,-0.09619140625,0.995361328125,0.24609375,1.1596678495407104,0.5798339247703552,1.4343260526657104,100.0,8417.0,1.0
1162620.9587914,303127.3125,320925.65625,390131.03125,370349.5625,309838.71875,299631.6875,309845.4375,311859.78125,-0.094482421875,0.998779296875,0.246826171875,0.9460448622703552,0.4577636420726776,1.3427733182907104,100.0,8418.0,1.0
1162620.9624812,301797.5625,320707.03125,389315.46875,369350.34375,309630.15625,299564.53125,309791.4375,311861.75,-0.094482421875,1.00048828125,0.243896484375,0.8239745497703552,0.5493163466453552,1.2207030057907104,100.0,8419.0,1.0
1162620.9806164,300217.28125,320577.125,388218.71875,368120.8125,309523.3125,299649.65625,309981.53125,312180.75,-0.09130859375,0.99755859375,0.24267578125,0.5798339247703552,0.5187987685203552,1.2207030057907104,100.0,8420.0,1.0
1162620.9806695,300536.46875,320697.75,388323.75,368330.46875,309650.0,299756.40625,310144.15625,312368.875,-0.0908203125,1.00048828125,0.244873046875,0.3356933295726776,0.4882812201976776,1.3122557401657104,100.0,8421.0,1.0
1162620.9830615,302379.40625,320927.0625,389571.0,369776.1875,309871.53125,299766.21875,310098.09375,312224.5625,-0.090576171875,0.998779296875,0.24609375,0.1220703050494194,0.4882812201976776,1.3732908964157104,100.0,8422.0,1.0
1162620.9831188,303173.1875,320931.0,390199.96875,370419.21875,309859.46875,299647.15625,309880.21875,311915.84375,-0.08837890625,0.995849609375,0.24853515625,0.0,0.5798339247703552,1.3732908964157104,100.0,8423.0,1.0
1162620.9850005,301849.5,320709.8125,389369.1875,369400.9375,309640.59375,299570.4375,309804.59375,311886.4375,-0.089111328125,0.994873046875,0.24609375,0.0,0.6408690810203552,1.4648436307907104,100.0,8424.0,1.0
1162620.9893888,300201.1875,320558.375,388188.03125,368079.5,309501.75,299629.71875,309958.0,312157.40625,-0.087158203125,0.995361328125,0.248046875,-0.0915527269244194,0.5798339247703552,1.5563963651657104,100.0,8425.0,1.0
1162620.9894399,300466.125,320679.78125,388232.28125,368226.9375,309622.5625,299737.625,310119.65625,312338.90625,-0.088623046875,0.998046875,0.24609375,-0.2136230319738388,0.6713866591453552,1.6784666776657104,100.0,8426.0,1.0
1162620.9975298,302314.34375,320913.21875,389473.875,369678.90625,309850.96875,299756.65625,310083.4375,312206.5,-0.089111328125,0.99658203125,0.248046875,-0.3356933295726776,0.6713866591453552,1.6479490995407104,100.0,8427.0,1.0
1162621.0018556,303157.53125,320924.5,390142.03125,370369.0625,309850.28125,299644.0,309869.3125,311901.8125,-0.089599609375,0.9951171875,0.248046875,-0.3356933295726776,0.6408690810203552,1.6784666776657104,100.0,8428.0,1.0
1162621.0019136,301843.96875,320702.9375,389312.0625,369346.40625,309625.6875,299557.5625,309778.46875,311849.40625,-0.091064453125,0.9951171875,0.2490234375,-0.5493163466453552,0.6408690810203552,1.8005369901657104,100.0,8429.0,1.0
1162621.0075268,300165.875,320551.3125,388095.59375,367978.65625,309476.0,299610.75,309923.75,312104.84375,-0.093505859375,0.9921875,0.25,-0.6103515028953552,0.4272460639476776,1.7089842557907104,100.0,8430.0,1.0
1162621.0143246,300397.90625,320670.03125,388112.21875,368102.125,309594.375,299719.75,310091.03125,312298.3125,-0.096435546875,0.9921875,0.247314453125,-0.7019042372703552,0.4272460639476776,1.7089842557907104,100.0,8431.0,1.0
1162621.0143777,302271.5,320909.90625,389395.03125,369606.0625,309844.625,299754.25,310080.3125,312202.84375,-0.096923828125,0.989990234375,0.249267578125,-0.7324218153953552,0.3662109076976776,1.6479490995407104,100.0,8432.0,1.0
1162621.0162391,303168.875,320926.0,390119.40625,370359.3125,309855.375,299644.46875,309876.03125,311913.34375,-0.096435546875,0.989501953125,0.252685546875,-0.6408690810203552,0.2746581733226776,1.5563963651657104,100.0,8433.0,1.0
1162621.0250442,301881.0625,320706.0625,389309.375,369356.25,309626.84375,299555.3125,309778.75,311851.90625,-0.09716796875,0.98876953125,0.252197265625,-0.6103515028953552,0.1220703050494194,1.4648436307907104,100.0,8434.0,1.0
1162621.0275426,300173.03125,320555.5,388066.09375,367954.875,309472.0,299612.90625,309921.78125,312097.6875,-0.099365234375,0.986572265625,0.249755859375,-0.4882812201976776,-0.03051757626235485,1.3732908964157104,100.0,8435.0,1.0
1162621.0313005,300374.46875,320684.0625,388065.0,368054.84375,309597.875,299735.3125,310101.0625,312302.96875,-0.097412109375,0.986083984375,0.249267578125,-0.5493163466453552,-0.1220703050494194,1.3427733182907104,100.0,8436.0,1.0
1162621.0375479,302264.96875,320930.28125,389371.34375,369585.3125,309855.09375,299774.28125,310099.53125,312225.0,-0.09912109375,0.987548828125,0.25146484375,-0.5187987685203552,-0.1525878757238388,1.1291502714157104,100.0,8437.0,1.0
1162621.0418622,303221.8125,320950.875,390157.6875,370408.46875,309882.625,299671.71875,309908.21875,311950.71875,-0.1005859375,0.985595703125,0.254150390625,-0.6103515028953552,-0.2441406100988388,0.9460448622703552,100.0,8438.0,1.0
1162621.0419187,301947.40625,320720.09375,389355.6875,369410.78125,309645.78125,299567.3125,309791.0,311866.40625,-0.100830078125,0.98486328125,0.2509765625,-0.5493163466453552,-0.3967284858226776,0.7934569716453552,100.0,8439.0,1.0
1162621.0525442,300197.09375,320554.0625,388071.1875,367961.0625,309471.0,299605.84375,309911.34375,312090.375,-0.10107421875,0.98486328125,0.25,-0.4882812201976776,-0.6103515028953552,0.6408690810203552,100.0,8440.0,1.0
1162621.0556161,300356.6875,320672.28125,388035.25,368023.375,309588.75,299724.03125,310092.65625,312300.28125,-0.099365234375,0.986083984375,0.248779296875,-0.4272460639476776,-0.7019042372703552,0.6713866591453552,100.0,8441.0,1.0
1162621.0556657,302270.53125,320927.25,389376.875,369596.125,309865.75,299780.625,310120.46875,312256.5625,-0.100830078125,0.985595703125,0.247802734375,-0.4272460639476776,-0.7934569716453552,0.5493163466453552,100.0,8442.0,1.0
1162621.0618662,303282.625,320957.46875,390223.3125,370482.6875,309907.5,299684.4375,309940.46875,311999.0625,-0.099853515625,0.985107421875,0.251220703125,-0.3356933295726776,-0.9155272841453552,0.4272460639476776,100.0,8443.0,1.0
1162621.0619179,302040.125,320732.71875,389454.3125,369512.25,309674.3125,299581.6875,309821.21875,311907.34375,-0.097412109375,0.98681640625,0.252197265625,-0.4882812201976776,-0.9155272841453552,0.3356933295726776,100.0,8444.0,1.0
1162621.066325,300244.46875,320557.65625,388128.75,368012.8125,309482.1875,299609.9375,309923.9375,312104.21875,-0.098388671875,0.989013671875,0.25244140625,-0.6103515028953552,-1.0375975370407104,0.2441406100988388,100.0,8445.0,1.0
1162621.0700045,300345.9375,320670.75,388042.5625,368021.3125,309592.0625,299727.59375,310102.21875,312308.25,-0.097900390625,0.988037109375,0.25146484375,-0.6103515028953552,-1.0375975370407104,0.1831054538488388,100.0,8446.0,1.0
1162621.0806166,302262.125,320932.09375,389388.96875,369604.25,309879.9375,299794.65625,310143.53125,312284.1875,-0.098876953125,0.989013671875,0.251953125,-0.5187987685203552,-1.1291502714157104,0.2441406100988388,100.0,8447.0,1.0
1162621.0806923,303327.3125,320967.59375,390282.40625,370548.84375,309938.25,299706.15625,309975.09375,312042.25,-0.098388671875,0.989013671875,0.25146484375,-0.5493163466453552,-1.1901854276657104,0.2441406100988388,100.0,8448.0,1.0
1162621.0825443,302093.3125,320729.03125,389507.5,369577.8125,309689.25,299583.75,309829.625,311921.125,-0.09912109375,0.989990234375,0.251708984375,-0.4577636420726776,-1.2207030057907104,0.3051757514476776,100.0,8449.0,1.0
1162621.0850044,300260.21875,320544.875,388136.1875,368025.59375,309478.96875,299596.28125,309907.40625,312089.28125,-0.0986328125,0.98974609375,0.25390625,-0.4577636420726776,-1.2207030057907104,0.3662109076976776,100.0,8450.0,1.0
1162621.0963188,300316.4375,320658.0625,388003.3125,367977.0625,309576.25,299712.0625,310077.53125,312284.28125,-0.0986328125,0.98779296875,0.252197265625,-0.4882812201976776,-1.1901854276657104,0.3051757514476776,100.0,8451.0,1.0
1162621.099368,302236.90625,320924.84375,389348.28125,369564.5625,309868.875,299785.53125,310127.4375,312271.0625,-0.09912109375,0.99072265625,0.25390625,-0.5798339247703552,-1.1596678495407104,0.3356933295726776,100.0,8452.0,1.0
1162621.0994224,303347.0625,320968.84375,390276.3125,370550.625,309933.6875,299698.8125,309963.46875,312030.28125,-0.098388671875,0.989990234375,0.2548828125,-0.6713866591453552,-1.2207030057907104,0.3051757514476776,100.0,8453.0,1.0
1162621.1012731,302150.53125,320739.6875,389535.125,369611.25,309693.53125,299579.46875,309823.71875,311906.4375,-0.10107421875,0.99169921875,0.2529296875,-0.7934569716453552,-1.2207030057907104,0.2441406100988388,100.0,8454.0,1.0
1162621.1074929,300294.09375,320552.375,388147.53125,368037.9375,309478.0625,299591.8125,309898.625,312068.09375,-0.1005859375,0.991943359375,0.255126953125,-0.8850097060203552,-1.2817381620407104,0.2136230319738388,100.0,8455.0,1.0
1162621.1118893,300296.9375,320654.03125,387976.3125,367951.46875,309568.1875,299705.0,310068.78125,312268.09375,-0.098876953125,0.9912109375,0.254150390625,-1.0681151151657104,-1.3122557401657104,0.2136230319738388,100.0,8456.0,1.0
1162621.111939,302206.15625,320920.46875,389315.625,369539.09375,309865.28125,299781.0625,310126.96875,312268.46875,-0.0986328125,0.9873046875,0.2529296875,-1.0070799589157104,-1.1596678495407104,0.1831054538488388,100.0,8457.0,1.0
1162621.123792,303367.09375,320974.375,390290.1875,370576.84375,309943.15625,299702.9375,309972.5625,312042.09375,-0.09912109375,0.985595703125,0.2509765625,-1.0375975370407104,-1.1901854276657104,0.0915527269244194,100.0,8458.0,1.0
1162621.1268328,302208.90625,320753.28125,389585.84375,369674.4375,309711.0625,299590.0,309834.0,311920.65625,-0.09716796875,0.982421875,0.252685546875,-1.0375975370407104,-1.0986326932907104,0.0610351525247097,100.0,8459.0,1.0
1162621.1268859,300332.8125,320562.46875,388184.1875,368081.21875,309490.21875,299599.9375,309901.78125,312075.0625,-0.097412109375,0.98095703125,0.253662109375,-1.0986326932907104,-1.0986326932907104,0.1220703050494194,100.0,8460.0,1.0
1162621.1287963,300293.5625,320661.1875,387974.8125,367950.78125,309571.59375,299708.03125,310065.8125,312269.4375,-0.099365234375,0.981201171875,0.252685546875,-1.0986326932907104,-1.0375975370407104,0.0610351525247097,100.0,8461.0,1.0
1162621.1350475,302193.71875,320924.9375,389304.03125,369529.78125,309865.5625,299781.875,310127.875,312273.5625,-0.0986328125,0.982177734375,0.25537109375,-1.0375975370407104,-0.9765624403953552,0.0610351525247097,100.0,8462.0,1.0
1162621.144367,303386.0625,320980.53125,390298.75,370592.84375,309950.59375,299708.21875,309978.5625,312048.34375,-0.0986328125,0.984375,0.256591796875,-0.9155272841453552,-0.9460448622703552,0.03051757626235485,100.0,8463.0,1.0
1162621.14444,302246.90625,320751.46875,389594.78125,369690.8125,309708.375,299585.53125,309819.6875,311900.5625,-0.099853515625,0.984375,0.25390625,-1.0070799589157104,-0.9155272841453552,0.0915527269244194,100.0,8464.0,1.0
1162621.1468274,300344.0625,320552.5625,388158.09375,368056.625,309469.21875,299579.8125,309865.90625,312028.03125,-0.10009765625,0.98876953125,0.25439453125,-1.1596678495407104,-0.8850097060203552,0.0,100.0,8465.0,1.0
1162621.1468772,300249.75,320639.1875,387890.65625,367864.5,309534.84375,299677.28125,310018.1875,312205.96875,-0.100341796875,0.98828125,0.256591796875,-1.2512205839157104,-0.7934569716453552,0.0610351525247097,100.0,8466.0,1.0
1162621.160011,302147.6875,320914.28125,389203.78125,369427.3125,309832.21875,299756.03125,310078.0625,312204.53125,-0.10107421875,0.98583984375,0.257568359375,-1.2207030057907104,-0.7629393935203552,-0.03051757626235485,100.0,8467.0,1.0
1162621.168755,303384.53125,320981.0,390218.375,370519.0625,309918.65625,299678.0,309915.96875,311960.4375,-0.1025390625,0.98388671875,0.255859375,-1.2817381620407104,-0.7629393935203552,0.0,100.0,8468.0,1.0
1162621.1688117,302289.5625,320763.28125,389535.59375,369649.21875,309676.1875,299546.375,309743.34375,311789.3125,-0.10302734375,0.983154296875,0.2568359375,-1.2207030057907104,-0.8239745497703552,0.0610351525247097,100.0,8469.0,1.0
1162621.1688265,300366.4375,320556.03125,388077.1875,367999.59375,309428.0,299532.625,309774.90625,311896.96875,-0.103759765625,0.9833984375,0.255859375,-1.3122557401657104,-0.7324218153953552,0.03051757626235485,100.0,8470.0,1.0
1162621.171246,300224.90625,320640.34375,387779.53125,367780.34375,309493.96875,299635.4375,309934.59375,312082.65625,-0.102783203125,0.983154296875,0.2587890625,-1.2817381620407104,-0.7934569716453552,-0.03051757626235485,100.0,8471.0,1.0
1162621.1762353,302109.21875,320913.9375,389094.625,369353.03125,309802.25,299724.9375,310016.28125,312111.0,-0.103271484375,0.984375,0.2568359375,-1.2817381620407104,-0.7324218153953552,0.0,100.0,8472.0,1.0
1162621.178677,303386.9375,320986.34375,390160.8125,370499.03125,309908.21875,299660.375,309881.75,311904.46875,-0.1025390625,0.9853515625,0.25634765625,-1.3122557401657104,-0.7019042372703552,0.0915527269244194,100.0,8473.0,1.0
1162621.1863194,302330.96875,320768.46875,389535.5,369683.03125,309682.28125,299541.46875,309731.1875,311766.09375,-0.10302734375,0.98583984375,0.256591796875,-1.3427733182907104,-0.7629393935203552,0.0915527269244194,100.0,8474.0,1.0
1162621.1887622,300407.8125,320567.40625,388109.375,368049.84375,309447.21875,299541.8125,309786.6875,311907.34375,-0.10546875,0.984130859375,0.25732421875,-1.4343260526657104,-0.7629393935203552,0.1525878757238388,100.0,8475.0,1.0
1162621.1925446,300232.125,320656.25,387810.28125,367809.78125,309521.59375,299662.96875,309972.84375,312128.09375,-0.10791015625,0.98486328125,0.259033203125,-1.3427733182907104,-0.8850097060203552,0.2136230319738388,100.0,8476.0,1.0
1162621.2018651,302099.65625,320926.4375,389119.84375,369363.59375,309828.625,299756.5625,310067.25,312177.34375,-0.107421875,0.984130859375,0.259765625,-1.4648436307907104,-0.9460448622703552,0.2441406100988388,100.0,8477.0,1.0
1162621.201922,303420.125,321005.5,390217.3125,370541.34375,309942.34375,299695.6875,309938.34375,311979.3125,-0.107421875,0.986328125,0.260009765625,-1.4953612089157104,-0.8850097060203552,0.3967284858226776,100.0,8478.0,1.0
1162621.2081225,302394.71875,320781.625,389610.15625,369747.9375,309708.65625,299560.96875,309770.53125,311822.125,-0.10791015625,0.989990234375,0.26025390625,-1.6174315214157104,-1.0070799589157104,0.3356933295726776,100.0,8479.0,1.0
1162621.2081737,300446.0,320567.3125,388155.59375,368088.0,309457.6875,299547.0,309803.0625,311933.09375,-0.106201171875,0.98779296875,0.26171875,-1.7089842557907104,-1.0375975370407104,0.4882812201976776,100.0,8480.0,1.0
1162621.2213205,300198.78125,320631.40625,387762.46875,367758.71875,309492.0,299634.625,309935.21875,312085.4375,-0.106201171875,0.987548828125,0.260986328125,-1.6784666776657104,-1.0986326932907104,0.5798339247703552,100.0,8481.0,1.0
1162621.2243421,302026.8125,320895.4375,388973.84375,369229.8125,309761.03125,299696.75,309961.75,312038.15625,-0.107421875,0.989013671875,0.262939453125,-1.7089842557907104,-1.0986326932907104,0.6713866591453552,100.0,8482.0,1.0
1162621.2243956,303352.4375,320965.0625,389982.625,370345.0,309823.28125,299582.15625,309734.5,311701.0,-0.10791015625,0.988525390625,0.2626953125,-1.8310545682907104,-1.1291502714157104,0.7629393935203552,100.0,8483.0,1.0
1162621.2287292,302347.6875,320738.15625,389286.84375,369495.71875,309538.5,299398.15625,309458.9375,311389.78125,-0.106689453125,0.990478515625,0.264404296875,-1.8615721464157104,-1.1596678495407104,0.7934569716453552,100.0,8484.0,1.0
1162621.2287854,300371.78125,320513.65625,387707.46875,367744.59375,309229.96875,299327.6875,309386.5,311349.0,-0.105224609375,0.991455078125,0.26904296875,-1.8615721464157104,-1.3122557401657104,0.8850097060203552,100.0,8485.0,1.0
1162621.2288021,300075.21875,320580.4375,387191.875,367322.40625,309228.4375,299379.375,309451.5,311400.40625,-0.105712890625,0.990966796875,0.2685546875,-1.8310545682907104,-1.2817381620407104,0.8850097060203552,100.0,8486.0,1.0
1162621.2312646,301889.46875,320854.03125,388340.21875,368755.78125,309488.09375,299434.09375,309458.84375,311317.4375,-0.107421875,0.99169921875,0.267578125,-2.014159917831421,-1.4648436307907104,0.9460448622703552,100.0,8487.0,1.0
1162621.2450468,303271.625,320947.28125,389393.6875,369935.59375,309582.03125,299351.03125,309269.46875,311024.375,-0.104736328125,0.990478515625,0.267333984375,-1.9226073026657104,-1.4648436307907104,0.9765624403953552,100.0,8488.0,1.0
1162621.249388,302334.4375,320741.8125,388805.84375,369194.40625,309348.96875,299207.0,309068.65625,310807.71875,-0.1025390625,0.9873046875,0.265625,-1.9836424589157104,-1.5258787870407104,1.0681151151657104,100.0,8489.0,1.0
1162621.2494389,300373.65625,320522.5,387330.1875,367532.53125,309088.25,299177.75,309087.0,310896.0625,-0.102783203125,0.986572265625,0.265625,-1.9836424589157104,-1.4953612089157104,1.1596678495407104,100.0,8490.0,1.0
1162621.26314,300056.8125,320597.4375,386909.25,367170.6875,309136.53125,299286.21875,309259.46875,311103.5625,-0.10205078125,0.987548828125,0.264892578125,-1.9836424589157104,-1.5258787870407104,1.1596678495407104,100.0,8491.0,1.0
1162621.2631971,301866.125,320880.9375,388155.59375,368666.21875,309451.15625,299396.28125,309374.4375,311174.28125,-0.102294921875,0.98681640625,0.2666015625,-1.9226073026657104,-1.5258787870407104,1.3732908964157104,100.0,8492.0,1.0
1162621.2655629,303296.90625,320988.0625,389332.53125,369944.1875,309598.3125,299359.875,309282.4375,311014.34375,-0.1025390625,0.989501953125,0.267822265625,-1.8310545682907104,-1.5258787870407104,1.5258787870407104,100.0,8493.0,1.0
1162621.2656061,302408.65625,320788.40625,388852.34375,369291.78125,309402.96875,299248.5625,309147.625,310890.78125,-0.1005859375,0.988037109375,0.266357421875,-1.6784666776657104,-1.5258787870407104,1.5563963651657104,100.0,8494.0,1.0
1162621.2681459,300453.9375,320570.34375,387441.125,367665.28125,309169.0,299249.0,309213.25,311048.5,-0.10107421875,0.988037109375,0.26953125,-1.7089842557907104,-1.5869139432907104,1.4648436307907104,100.0,8495.0,1.0
1162621.2681948,300084.96875,320624.0,387010.8125,367268.78125,309210.75,299356.40625,309397.5,311284.34375,-0.104248046875,0.988525390625,0.26904296875,-1.5563963651657104,-1.6174315214157104,1.4648436307907104,100.0,8496.0,1.0
1162621.2763282,301855.6875,320899.09375,388227.90625,368716.53125,309515.71875,299462.6875,309512.84375,311360.53125,-0.101318359375,0.989013671875,0.2666015625,-1.7089842557907104,-1.6174315214157104,1.2512205839157104,100.0,8497.0,1.0
1162621.2806706,303298.6875,321000.46875,389398.4375,369982.90625,309654.75,299417.1875,309405.46875,311183.15625,-0.100341796875,0.990234375,0.26806640625,-1.6174315214157104,-1.6784666776657104,1.2207030057907104,100.0,8498.0,1.0
1162621.2807188,302436.46875,320794.21875,388923.40625,369334.34375,309447.75,299292.46875,309248.46875,311033.125,-0.099853515625,0.989501953125,0.27099609375,-1.5869139432907104,-1.7395018339157104,1.1901854276657104,100.0,8499.0,1.0
1162621.2825413,300467.375,320569.4375,387496.03125,367691.75,309200.09375,299278.59375,309294.78125,311169.125,-0.098876953125,0.990966796875,0.273193359375,-1.6784666776657104,-1.5869139432907104,1.0986326932907104,100.0,8500.0,1.0
1162621.2950451,300043.75,320616.84375,387028.4375,367255.8125,309234.4375,299384.8125,309476.46875,311400.75,-0.09814453125,0.990478515625,0.268798828125,-1.6174315214157104,-1.5258787870407104,1.1596678495407104,100.0,8501.0,1.0
1162621.2980897,301791.3125,320889.15625,388227.28125,368689.625,309536.28125,299496.21875,309597.78125,311483.71875,-0.095703125,0.98974609375,0.270263671875,-1.5563963651657104,-1.4343260526657104,1.0070799589157104,100.0,8502.0,1.0
1162621.2981369,303278.21875,321002.28125,389438.5625,370001.3125,309689.5,299458.84375,309503.46875,311323.53125,-0.091796875,0.989013671875,0.2705078125,-1.6174315214157104,-1.3122557401657104,0.9460448622703552,100.0,8503.0,1.0
1162621.3000454,302474.8125,320808.6875,389023.28125,369413.375,309501.40625,299340.9375,309356.5625,311187.875,-0.09228515625,0.98583984375,0.26708984375,-1.5563963651657104,-1.2512205839157104,1.0986326932907104,100.0,8504.0,1.0
1162621.3112603,300509.46875,320581.53125,387615.3125,367785.0,309257.78125,299332.34375,309405.03125,311335.125,-0.092041015625,0.981201171875,0.263916015625,-1.4648436307907104,-1.0986326932907104,1.0986326932907104,100.0,8505.0,1.0
1162621.3143108,300051.96875,320623.71875,387134.28125,367324.65625,309289.40625,299442.21875,309593.9375,311583.25,-0.091796875,0.97802734375,0.263427734375,-1.3122557401657104,-1.0070799589157104,1.0986326932907104,100.0,8506.0,1.0
1162621.3143473,301791.3125,320904.1875,388339.0625,368759.375,309604.21875,299569.90625,309737.15625,311691.78125,-0.090576171875,0.976806640625,0.261474609375,-0.9155272841453552,-0.7934569716453552,1.2512205839157104,100.0,8507.0,1.0
1162621.3199542,303311.125,321015.0625,389580.09375,370101.53125,309762.375,299533.78125,309649.625,311539.15625,-0.0908203125,0.978759765625,0.260498046875,-0.5493163466453552,-0.7324218153953552,1.3122557401657104,100.0,8508.0,1.0
1162621.3267983,302548.84375,320816.46875,389212.71875,369563.59375,309580.0,299418.09375,309507.75,311409.96875,-0.091552734375,0.97998046875,0.26220703125,-0.3051757514476776,-0.5798339247703552,1.3122557401657104,100.0,8509.0,1.0
1162621.3268336,300582.34375,320586.71875,387826.65625,367951.40625,309338.6875,299409.59375,309561.9375,311559.8125,-0.091552734375,0.98095703125,0.262939453125,-0.2441406100988388,-0.4882812201976776,1.3732908964157104,100.0,8510.0,1.0
1162621.328704,300073.4375,320626.75,387305.3125,367441.15625,309362.71875,299515.0,309740.9375,311792.46875,-0.094482421875,0.985107421875,0.261962890625,-0.03051757626235485,-0.3356933295726776,1.4648436307907104,100.0,8511.0,1.0
1162621.3324603,301767.96875,320902.125,388449.28125,368803.09375,309656.96875,299628.375,309854.90625,311865.59375,-0.096435546875,0.986083984375,0.263916015625,-0.03051757626235485,-0.4272460639476776,1.2512205839157104,100.0,8512.0,1.0
1162621.3463232,303315.875,321024.8125,389684.71875,370143.21875,309812.09375,299590.375,309752.09375,311690.875,-0.096435546875,0.98779296875,0.26220703125,0.0915527269244194,-0.3356933295726776,1.1901854276657104,100.0,8513.0,1.0
1162621.3493905,302604.71875,320835.0,389339.15625,369638.78125,309628.53125,299468.6875,309598.40625,311543.09375,-0.1005859375,0.986328125,0.2626953125,0.2136230319738388,-0.3051757514476776,1.0681151151657104,100.0,8514.0,1.0
1162621.3494454,300650.75,320606.1875,387961.40625,368039.46875,309386.25,299456.625,309648.9375,311688.65625,-0.1005859375,0.98779296875,0.264892578125,0.2136230319738388,-0.3051757514476776,0.9765624403953552,100.0,8515.0,1.0
1162621.3513177,300107.84375,320639.625,387425.125,367508.65625,309409.59375,299564.34375,309831.3125,311929.78125,-0.1015625,0.989501953125,0.263671875,0.2746581733226776,-0.3662109076976776,0.8850097060203552,100.0,8516.0,1.0
1162621.3550507,301771.1875,320901.15625,388546.75,368853.96875,309697.84375,299671.09375,309945.9375,312004.8125,-0.104736328125,0.990478515625,0.26220703125,0.2136230319738388,-0.3662109076976776,0.6103515028953552,100.0,8517.0,1.0
1162621.3643478,303351.71875,321032.125,389812.46875,370235.21875,309866.53125,299644.28125,309856.0,311843.3125,-0.109375,0.9931640625,0.26513671875,0.2136230319738388,-0.4882812201976776,0.5187987685203552,100.0,8518.0,1.0
1162621.3644032,302686.71875,320851.09375,389511.625,369774.84375,309696.9375,299530.90625,309707.21875,311701.25,-0.110107421875,0.9912109375,0.265380859375,0.0915527269244194,-0.6103515028953552,0.3356933295726776,100.0,8519.0,1.0
1162621.3668892,300720.03125,320615.75,388127.0625,368161.59375,309449.90625,299511.6875,309745.21875,311832.875,-0.110595703125,0.994140625,0.264892578125,0.0,-0.7934569716453552,0.1220703050494194,100.0,8520.0,1.0
1162621.3669463,300119.84375,320635.6875,387534.75,367570.53125,309453.84375,299603.15625,309909.53125,312051.03125,-0.11181640625,0.9951171875,0.263916015625,-0.1220703050494194,-1.0070799589157104,-0.0610351525247097,100.0,8521.0,1.0
1162621.372529,301749.8125,320905.0,388610.21875,368869.0625,309734.84375,299706.40625,310014.96875,312114.40625,-0.109375,0.993896484375,0.26220703125,-0.1831054538488388,-1.0986326932907104,-0.1831054538488388,100.0,8522.0,1.0
1162621.3812691,303358.96875,321050.625,389880.78125,370261.5,309910.78125,299685.15625,309926.25,311950.25,-0.106689453125,0.993408203125,0.263671875,-0.3967284858226776,-1.1596678495407104,-0.3051757514476776,100.0,8523.0,1.0
1162621.385643,302734.53125,320870.5625,389599.5,369831.625,309741.90625,299567.9375,309771.21875,311793.4375,-0.107666015625,0.993896484375,0.263916015625,-0.5187987685203552,-1.3427733182907104,-0.4272460639476776,100.0,8524.0,1.0
1162621.3856931,300769.375,320628.0,388216.375,368226.21875,309491.125,299545.03125,309803.0625,311917.53125,-0.107666015625,0.9951171875,0.264892578125,-0.5798339247703552,-1.4953612089157104,-0.4577636420726776,100.0,8525.0,1.0
1162621.3953209,300129.9375,320640.09375,387602.59375,367611.125,309489.875,299641.0625,309971.59375,312141.21875,-0.104248046875,0.996337890625,0.268310546875,-0.6103515028953552,-1.5869139432907104,-0.4272460639476776,100.0,8526.0,1.0
1162621.4005995,301728.8125,320896.0625,388651.875,368885.96875,309764.875,299743.0,310079.40625,312208.5625,-0.10107421875,0.996826171875,0.26416015625,-0.7324218153953552,-1.5869139432907104,-0.3356933295726776,100.0,8527.0,1.0
1162621.4006488,303353.96875,321028.28125,389921.375,370286.0,309933.875,299710.4375,309979.71875,312031.09375,-0.098876953125,0.997314453125,0.265380859375,-0.9460448622703552,-1.7089842557907104,-0.1525878757238388,100.0,8528.0,1.0
1162621.4025695,302775.21875,320852.0625,389670.125,369893.5,309767.5625,299591.25,309817.53125,311867.03125,-0.09521484375,0.994140625,0.2626953125,-1.0681151151657104,-1.7089842557907104,-0.0915527269244194,100.0,8529.0,1.0
1162621.4050485,300835.375,320618.96875,388321.625,368323.0625,309529.75,299579.28125,309861.34375,312007.46875,-0.094970703125,0.99169921875,0.26318359375,-1.0681151151657104,-1.6479490995407104,0.2441406100988388,100.0,8530.0,1.0
1162621.4087541,300137.1875,320620.40625,387663.65625,367656.53125,309517.3125,299669.3125,310021.75,312224.1875,-0.093017578125,0.988037109375,0.263916015625,-1.1291502714157104,-1.5869139432907104,0.4272460639476776,100.0,8531.0,1.0
1162621.4350455,301696.34375,320876.90625,388674.3125,368883.90625,309788.40625,299774.71875,310130.375,312289.28125,-0.09130859375,0.98681640625,0.262451171875,-1.0375975370407104,-1.4953612089157104,0.7019042372703552,100.0,8532.0,1.0
1162621.4375447,303331.4375,321016.9375,389940.40625,370276.59375,309954.96875,299737.71875,310025.6875,312102.0625,-0.092041015625,0.985595703125,0.259521484375,-1.0070799589157104,-1.3732908964157104,0.8850097060203552,100.0,8533.0,1.0
1162621.4406372,302765.9375,320842.5,389671.3125,369863.4375,309775.34375,299602.0,309842.40625,311905.28125,-0.09375,0.984130859375,0.263427734375,-1.0375975370407104,-1.1901854276657104,1.1291502714157104,100.0,8534.0,1.0
1162621.4406895,300790.125,320602.0,388267.34375,368234.53125,309516.59375,299574.09375,309861.96875,312009.28125,-0.095458984375,0.98388671875,0.263671875,-0.8850097060203552,-1.1901854276657104,1.2207030057907104,100.0,8535.0,1.0
1162621.4425515,300071.375,320612.625,387598.21875,367558.28125,309514.28125,299677.625,310043.125,312249.40625,-0.095703125,0.982177734375,0.264404296875,-0.7019042372703552,-1.1596678495407104,1.3732908964157104,100.0,8536.0,1.0
1162621.4450432,301605.4375,320871.65625,388579.5625,368761.5,309783.03125,299784.90625,310156.5,312322.375,-0.096923828125,0.983154296875,0.262451171875,-0.5798339247703552,-1.1596678495407104,1.3427733182907104,100.0,8537.0,1.0
1162621.4475159,303299.40625,321029.71875,389898.84375,370216.875,309974.28125,299766.78125,310077.09375,312167.875,-0.098388671875,0.9833984375,0.261962890625,-0.4272460639476776,-1.0986326932907104,1.3732908964157104,100.0,8538.0,1.0
1162621.4500476,302824.40625,320871.28125,389742.90625,369923.53125,309835.96875,299658.78125,309931.0,312020.53125,-0.099853515625,0.983642578125,0.26318359375,-0.3662109076976776,-1.0986326932907104,1.3732908964157104,100.0,8539.0,1.0
1162621.4525402,300868.34375,320628.5625,388395.09375,368344.53125,309590.28125,299635.15625,309964.0,312148.75,-0.099853515625,0.980224609375,0.2646484375,-0.3662109076976776,-1.1901854276657104,1.3122557401657104,100.0,8540.0,1.0
1162621.4550663,300109.1875,320632.40625,387722.59375,367647.0625,309590.0,299744.6875,310151.5625,312403.46875,-0.100830078125,0.980224609375,0.26513671875,-0.2746581733226776,-1.1291502714157104,1.3122557401657104,100.0,8541.0,1.0
1162621.4575701,301610.875,320879.59375,388698.28125,368835.0,309857.6875,299853.6875,310271.5625,312492.0625,-0.101806640625,0.981689453125,0.265380859375,-0.2746581733226776,-1.1901854276657104,1.1901854276657104,100.0,8542.0,1.0
1162621.4600494,303326.25,321034.625,390040.1875,370314.875,310053.5,299837.84375,310198.96875,312349.0,-0.099365234375,0.9814453125,0.26513671875,-0.2136230319738388,-1.1901854276657104,1.0986326932907104,100.0,8543.0,1.0
1162621.4749792,302885.28125,320878.8125,389909.75,370048.4375,309914.28125,299724.3125,310049.46875,312200.34375,-0.098388671875,0.98291015625,0.26611328125,-0.1525878757238388,-1.2207030057907104,1.0070799589157104,100.0,8544.0,1.0
1162621.4750343,300934.4375,320637.3125,388576.4375,368477.5625,309673.96875,299705.875,310090.3125,312345.34375,-0.0986328125,0.982421875,0.265869140625,0.0,-1.2207030057907104,0.8544921278953552,100.0,8545.0,1.0
1162621.4750516,300137.09375,320645.34375,387893.8125,367758.375,309678.6875,299823.09375,310299.625,312636.625,-0.096923828125,0.981201171875,0.262451171875,0.0915527269244194,-1.2817381620407104,0.6713866591453552,100.0,8546.0,1.0
1162621.4775169,301623.21875,320905.34375,388896.21875,368957.84375,309968.90625,299959.25,310469.15625,312791.9375,-0.09423828125,0.983154296875,0.261962890625,0.2441406100988388,-1.3427733182907104,0.6408690810203552,100.0,8547.0,1.0
1162621.4800689,303372.90625,321077.28125,390323.53125,370509.78125,310208.34375,299987.34375,310470.65625,312744.375,-0.095703125,0.9814453125,0.266357421875,0.3356933295726776,-1.2207030057907104,0.4577636420726776,100.0,8548.0,1.0
1162621.4824867,302991.59375,320930.03125,390332.09375,370360.375,310125.5625,299925.46875,310416.46875,312722.65625,-0.094482421875,0.98095703125,0.265625,0.3662109076976776,-1.1901854276657104,0.3662109076976776,100.0,8549.0,1.0
1162621.4863246,301036.34375,320675.84375,389031.9375,368802.09375,309882.46875,299906.875,310463.78125,312873.375,-0.093017578125,0.982421875,0.263916015625,0.4577636420726776,-1.1596678495407104,0.4272460639476776,100.0,8550.0,1.0
1162621.4931453,300172.40625,320650.90625,388265.90625,367994.125,309838.8125,299982.875,310609.15625,313075.28125,-0.093994140625,0.98388671875,0.265625,0.6103515028953552,-1.1596678495407104,0.4272460639476776,100.0,8551.0,1.0
1162621.4931958,301614.28125,320893.5625,389169.90625,369106.1875,310082.28125,300076.375,310702.40625,313126.9375,-0.093505859375,0.985107421875,0.2646484375,0.6713866591453552,-1.0681151151657104,0.4577636420726776,100.0,8552.0,1.0
1162621.5050457,303370.84375,321059.21875,390515.9375,370599.28125,310274.25,300056.4375,310613.90625,312957.4375,-0.09326171875,0.986572265625,0.262939453125,0.7324218153953552,-0.9460448622703552,0.5187987685203552,100.0,8553.0,1.0
1162621.5124335,303014.84375,320911.4375,390443.875,370397.9375,310144.3125,299944.15625,310459.03125,312795.6875,-0.09423828125,0.987548828125,0.261962890625,0.7934569716453552,-0.8239745497703552,0.5493163466453552,100.0,8554.0,1.0
1162621.5124855,301079.1875,320671.65625,389133.25,368845.90625,309905.25,299926.375,310498.1875,312933.1875,-0.09423828125,0.987060546875,0.26171875,0.8239745497703552,-0.8544921278953552,0.6408690810203552,100.0,8555.0,1.0
1162621.5124994,300195.46875,320657.96875,388380.625,368049.125,309887.375,300031.875,310689.25,313198.375,-0.093505859375,0.98779296875,0.26123046875,0.8544921278953552,-0.8544921278953552,0.6713866591453552,100.0,8556.0,1.0
1162621.5156394,301606.3125,320905.25,389284.78125,369152.40625,310150.9375,300144.34375,310820.78125,313302.0,-0.0966796875,0.99072265625,0.262451171875,0.7934569716453552,-0.7934569716453552,0.6713866591453552,100.0,8557.0,1.0
1162621.5156947,303384.8125,321078.4375,390659.78125,370674.46875,310361.0625,300138.0,310756.21875,313161.53125,-0.09619140625,0.99267578125,0.26416015625,0.8544921278953552,-0.8850097060203552,0.7629393935203552,100.0,8558.0,1.0
1162621.5175434,303081.53125,320938.15625,390638.0625,370529.4375,310241.6875,300031.78125,310609.6875,313011.0625,-0.097900390625,0.99365234375,0.261962890625,0.7629393935203552,-0.9765624403953552,0.7934569716453552,100.0,8559.0,1.0
1162621.5312727,301141.40625,320683.53125,389329.3125,368975.375,309988.84375,299995.84375,310629.625,313133.125,-0.0966796875,0.993408203125,0.261962890625,0.7019042372703552,-1.0070799589157104,0.7324218153953552,100.0,8560.0,1.0
1162621.5356391,300210.125,320660.09375,388538.4375,368133.59375,309952.1875,300088.375,310802.8125,313381.5625,-0.096923828125,0.9931640625,0.26123046875,0.7934569716453552,-1.0070799589157104,0.6713866591453552,100.0,8561.0,1.0
1162621.5356898,301582.4375,320900.53125,389389.21875,369184.3125,310195.5625,300192.25,310911.09375,313450.25,-0.099365234375,0.9921875,0.26416015625,0.6408690810203552,-1.0681151151657104,0.7324218153953552,100.0,8562.0,1.0
1162621.5381435,303365.21875,321068.53125,390721.5625,370675.90625,310381.96875,300163.03125,310805.75,313248.34375,-0.1005859375,0.9951171875,0.261962890625,0.5187987685203552,-1.0986326932907104,0.5493163466453552,100.0,8563.0,1.0
1162621.5381995,303087.0625,320922.6875,390672.9375,370521.125,310243.9375,300032.03125,310616.9375,313036.28125,-0.1015625,0.9951171875,0.262939453125,0.5798339247703552,-1.0986326932907104,0.5187987685203552,100.0,8564.0,1.0
1162621.5537955,301156.96875,320675.03125,389343.8125,368959.0,309984.375,299994.65625,310615.15625,313120.59375,-0.1005859375,0.991455078125,0.260986328125,0.4577636420726776,-1.2817381620407104,0.5493163466453552,100.0,8565.0,1.0
1162621.5587359,300182.4375,320647.78125,388492.375,368064.21875,309930.5625,300074.25,310760.78125,313330.4375,-0.099365234375,0.98876953125,0.259765625,0.5187987685203552,-1.3427733182907104,0.3967284858226776,100.0,8566.0,1.0
1162621.5587848,301510.28125,320885.5,389280.40625,369063.625,310158.53125,300164.0,310849.46875,313369.5,-0.096923828125,0.98486328125,0.258056640625,0.3662109076976776,-1.4343260526657104,0.3662109076976776,100.0,8567.0,1.0
1162621.5587995,303313.71875,321062.34375,390604.71875,370562.0,310343.53125,300130.21875,310735.03125,313155.375,-0.0947265625,0.983642578125,0.25634765625,0.4882812201976776,-1.4343260526657104,0.2441406100988388,100.0,8568.0,1.0
1162621.5631026,303087.25,320925.28125,390584.5,370447.625,310207.53125,299996.0,310538.875,312931.9375,-0.09033203125,0.981689453125,0.255615234375,0.6408690810203552,-1.3427733182907104,0.3662109076976776,100.0,8569.0,1.0
1162621.5631539,301171.53125,320681.46875,389270.125,368901.6875,309953.34375,299959.8125,310541.28125,313014.46875,-0.088623046875,0.981201171875,0.25390625,0.8544921278953552,-1.3122557401657104,0.6103515028953552,100.0,8570.0,1.0
1162621.5687939,300157.75,320643.65625,388398.9375,367982.96875,309897.21875,300038.75,310692.46875,313228.5,-0.0908203125,0.986328125,0.253173828125,0.9460448622703552,-1.2207030057907104,0.6408690810203552,100.0,8571.0,1.0
1162621.5725695,301451.375,320873.875,389159.71875,368953.46875,310122.6875,300130.21875,310784.75,313274.90625,-0.092529296875,0.98779296875,0.251953125,1.0375975370407104,-1.1291502714157104,0.6713866591453552,100.0,8572.0,1.0
1162621.5862154,303267.6875,321050.90625,390486.34375,370458.28125,310308.46875,300096.875,310672.0,313061.125,-0.09423828125,0.989013671875,0.25439453125,1.0375975370407104,-1.0986326932907104,0.6408690810203552,100.0,8573.0,1.0
1162621.5912134,303081.34375,320921.53125,390494.1875,370378.96875,310180.0,299966.6875,310479.96875,312837.0,-0.091552734375,0.990966796875,0.251953125,0.9460448622703552,-1.0681151151657104,0.4272460639476776,100.0,8574.0,1.0
1162621.5912605,301176.625,320676.1875,389188.15625,368842.59375,309923.3125,299926.53125,310475.75,312915.6875,-0.091796875,0.98828125,0.253173828125,0.8850097060203552,-1.0375975370407104,0.4882812201976776,100.0,8575.0,1.0
1162621.5912724,300136.375,320639.625,388296.9375,367899.375,309862.59375,300004.59375,310626.21875,313133.1875,-0.09033203125,0.985595703125,0.251708984375,0.9155272841453552,-0.8239745497703552,0.4882812201976776,100.0,8576.0,1.0
1162621.594391,301394.59375,320867.875,389021.5,368835.8125,310075.5625,300091.3125,310711.875,313171.46875,-0.091064453125,0.98291015625,0.251708984375,1.0070799589157104,-0.7629393935203552,0.6103515028953552,100.0,8577.0,1.0
1162621.5944478,303230.75,321054.03125,390354.46875,370353.84375,310269.3125,300063.5,310603.78125,312955.8125,-0.09326171875,0.984375,0.2529296875,1.0681151151657104,-0.6713866591453552,0.6713866591453552,100.0,8578.0,1.0
1162621.6087941,303094.6875,320934.9375,390393.4375,370310.21875,310148.15625,299935.75,310412.8125,312727.21875,-0.0947265625,0.98681640625,0.253173828125,1.1901854276657104,-0.5798339247703552,0.5798339247703552,100.0,8579.0,1.0
1162621.6118778,301191.65625,320683.34375,389088.71875,368777.15625,309881.84375,299882.09375,310397.09375,312792.75,-0.095458984375,0.98974609375,0.252685546875,1.1596678495407104,-0.5493163466453552,0.5798339247703552,100.0,8580.0,1.0
1162621.6119297,300109.75,320639.375,388173.8125,367807.375,309814.78125,299958.46875,310546.75,313007.9375,-0.097900390625,0.991455078125,0.25341796875,0.9460448622703552,-0.6103515028953552,0.3662109076976776,100.0,8581.0,1.0
1162621.6142863,301338.46875,320865.9375,388882.375,368723.0625,310029.09375,300049.46875,310638.375,313057.03125,-0.1005859375,0.991943359375,0.252685546875,0.8544921278953552,-0.6103515028953552,0.2136230319738388,100.0,8582.0,1.0
1162621.6143373,303208.65625,321058.5,390245.5625,370276.875,310233.1875,300029.1875,310539.15625,312857.46875,-0.1005859375,0.991455078125,0.251953125,0.8544921278953552,-0.6408690810203552,0.0610351525247097,100.0,8583.0,1.0
1162621.6225499,303134.71875,320949.34375,390345.4375,370298.96875,310129.9375,299910.71875,310357.21875,312644.6875,-0.102783203125,0.98974609375,0.256591796875,0.7629393935203552,-0.6713866591453552,0.03051757626235485,100.0,8584.0,1.0
1162621.625071,301268.71875,320705.34375,389092.75,368817.9375,309884.96875,299874.5,310361.6875,312734.96875,-0.10205078125,0.990234375,0.254638671875,0.7324218153953552,-0.7324218153953552,-0.1220703050494194,100.0,8585.0,1.0
1162621.6288033,300163.90625,320655.625,388183.3125,367842.75,309821.03125,299954.875,310522.15625,312970.84375,-0.099609375,0.9892578125,0.252197265625,0.7324218153953552,-0.7934569716453552,-0.3051757514476776,100.0,8586.0,1.0
1162621.6375517,301346.40625,320874.78125,388862.71875,368719.59375,310031.6875,300042.5,310616.65625,313024.21875,-0.099609375,0.990234375,0.25146484375,0.6408690810203552,-0.7629393935203552,-0.2746581733226776,100.0,8587.0,1.0
1162621.6406394,303204.125,321058.875,390201.03125,370250.9375,310224.625,300013.4375,310511.34375,312813.21875,-0.09814453125,0.990478515625,0.254150390625,0.5493163466453552,-0.8239745497703552,-0.3356933295726776,100.0,8588.0,1.0
1162621.640697,303154.40625,320947.90625,390305.5625,370281.25,310115.8125,299890.34375,310324.40625,312587.0,-0.09716796875,0.9912109375,0.250244140625,0.5493163466453552,-0.8544921278953552,-0.3356933295726776,100.0,8589.0,1.0
1162621.6513195,301283.75,320706.15625,389040.09375,368784.40625,309862.96875,299850.375,310324.03125,312665.78125,-0.0966796875,0.990966796875,0.252197265625,0.5493163466453552,-0.7934569716453552,-0.2441406100988388,100.0,8590.0,1.0
1162621.6581481,300135.03125,320656.1875,388091.375,367766.3125,309793.75,299934.3125,310489.625,312902.1875,-0.096923828125,0.990966796875,0.2529296875,0.3356933295726776,-0.6408690810203552,-0.2441406100988388,100.0,8591.0,1.0
1162621.6581982,301283.46875,320868.875,388738.96875,368615.15625,309998.5,300022.65625,310586.09375,312961.625,-0.095458984375,0.99072265625,0.254150390625,0.2441406100988388,-0.6408690810203552,-0.1220703050494194,100.0,8592.0,1.0
1162621.6600446,303167.53125,321059.5,390097.6875,370170.9375,310198.15625,299994.9375,310482.5625,312757.96875,-0.094482421875,0.99169921875,0.251220703125,0.2136230319738388,-0.6103515028953552,-0.0610351525247097,100.0,8593.0,1.0
1162621.6625464,303172.90625,320958.1875,390249.125,370250.84375,310100.875,299876.75,310301.9375,312537.75,-0.094482421875,0.989990234375,0.25244140625,0.1525878757238388,-0.5493163466453552,0.1831054538488388,100.0,8594.0,1.0
1162621.6668572,301325.59375,320716.6875,389015.59375,368781.625,309854.90625,299837.40625,310305.25,312622.875,-0.095458984375,0.989990234375,0.250732421875,0.03051757626235485,-0.5493163466453552,0.3967284858226776,100.0,8595.0,1.0
1162621.6669084,300146.75,320657.78125,388060.53125,367749.5,309782.6875,299919.375,310470.5625,312872.03125,-0.09716796875,0.989501953125,0.2529296875,0.0,-0.5187987685203552,0.5493163466453552,100.0,8596.0,1.0
1162621.6688133,301261.84375,320867.09375,388699.34375,368583.0625,309989.46875,300013.25,310579.5625,312951.0,-0.095947265625,0.988037109375,0.25439453125,-0.03051757626235485,-0.4272460639476776,0.7019042372703552,100.0,8597.0,1.0
1162621.6825458,303171.375,321070.65625,390092.5,370174.0625,310209.9375,300005.5,310499.8125,312773.875,-0.0966796875,0.987548828125,0.251953125,-0.03051757626235485,-0.3967284858226776,0.7629393935203552,100.0,8598.0,1.0
1162621.685044,303219.03125,320970.4375,390287.75,370301.71875,310121.875,299887.65625,310318.3125,312556.71875,-0.09765625,0.98681640625,0.25390625,0.0,-0.3356933295726776,0.8850097060203552,100.0,8599.0,1.0
1162621.6875667,301383.53125,320721.875,389069.6875,368845.28125,309872.875,299844.46875,310312.0625,312634.5,-0.0986328125,0.986572265625,0.256591796875,-0.03051757626235485,-0.3356933295726776,0.9460448622703552,100.0,8600.0,1.0
1162621.690072,300167.40625,320658.84375,388089.78125,367778.40625,309794.03125,299924.84375,310475.65625,312880.625,-0.098388671875,0.98779296875,0.259033203125,-0.03051757626235485,-0.3051757514476776,1.0681151151657104,100.0,8601.0,1.0
1162621.6925673,301233.65625,320862.15625,388679.5,368553.71875,309991.8125,300016.40625,310582.875,312954.46875,-0.09765625,0.98681640625,0.25634765625,-0.0610351525247097,-0.3356933295726776,1.1901854276657104,100.0,8602.0,1.0
1162621.709349,303133.21875,321056.53125,390036.625,370111.125,310196.53125,299994.75,310484.875,312755.0,-0.097900390625,0.9873046875,0.255859375,-0.1525878757238388,-0.3051757514476776,1.2207030057907104,100.0,8603.0,1.0
1162621.709405,303215.1875,320958.1875,390229.375,370243.25,310099.1875,299865.75,310285.0625,312512.4375,-0.099609375,0.986328125,0.257080078125,-0.1220703050494194,-0.4272460639476776,1.1901854276657104,100.0,8604.0,1.0
1162621.7118871,301378.5,320708.65625,388993.59375,368770.375,309838.8125,299813.09375,310264.75,312567.0625,-0.098876953125,0.988037109375,0.2578125,-0.03051757626235485,-0.4272460639476776,1.2207030057907104,100.0,8605.0,1.0
1162621.7119367,300113.59375,320637.84375,387967.46875,367655.28125,309749.6875,299888.8125,310419.25,312800.53125,-0.099365234375,0.9892578125,0.2578125,0.0,-0.3967284858226776,1.1596678495407104,100.0,8606.0,1.0
1162621.7138722,301150.96875,320847.3125,388533.15625,368412.1875,309949.78125,299987.6875,310532.53125,312884.375,-0.097900390625,0.988525390625,0.2587890625,-0.0610351525247097,-0.3356933295726776,1.1596678495407104,100.0,8607.0,1.0
1162621.7163398,303083.3125,321055.90625,389923.96875,370012.9375,310172.75,299982.59375,310455.5625,312707.625,-0.0986328125,0.989501953125,0.25830078125,-0.0915527269244194,-0.3662109076976776,1.0681151151657104,100.0,8608.0,1.0
1162621.7250534,303224.3125,320974.8125,390172.6875,370209.28125,310096.40625,299869.3125,310274.9375,312480.8125,-0.100341796875,0.990234375,0.260009765625,-0.0915527269244194,-0.4882812201976776,1.2207030057907104,100.0,8609.0,1.0
1162621.7281008,301398.34375,320721.96875,388951.9375,368749.53125,309837.75,299811.90625,310249.75,312528.625,-0.10009765625,0.989501953125,0.258544921875,-0.1525878757238388,-0.5187987685203552,1.1291502714157104,100.0,8610.0,1.0
1162621.7281506,300091.9375,320645.09375,387894.4375,367595.1875,309738.34375,299881.5625,310396.53125,312755.0,-0.09912109375,0.989990234375,0.2568359375,-0.2136230319738388,-0.5493163466453552,1.0375975370407104,100.0,8611.0,1.0
1162621.7299831,301089.625,320847.59375,388422.28125,368311.96875,309931.1875,299977.40625,310507.6875,312837.25,-0.099853515625,0.9892578125,0.256591796875,-0.3051757514476776,-0.6408690810203552,1.0375975370407104,100.0,8612.0,1.0
1162621.7437422,303038.625,321056.1875,389817.3125,369923.28125,310154.6875,299966.5,310430.6875,312661.3125,-0.0986328125,0.990478515625,0.25634765625,-0.2136230319738388,-0.7019042372703552,0.9460448622703552,100.0,8613.0,1.0
1162621.7468017,303230.3125,320978.84375,390100.09375,370160.71875,310083.625,299852.59375,310246.15625,312431.28125,-0.0947265625,0.98681640625,0.2578125,-0.2746581733226776,-0.5798339247703552,0.7934569716453552,100.0,8614.0,1.0
1162621.746837,301421.4375,320726.90625,388888.46875,368708.84375,309821.21875,299790.09375,310209.40625,312467.65625,-0.09326171875,0.986572265625,0.2607421875,-0.2746581733226776,-0.6103515028953552,0.7934569716453552,100.0,8615.0,1.0
1162621.7487111,300079.6875,320639.625,387809.3125,367528.21875,309710.53125,299851.09375,310351.21875,312694.125,-0.091552734375,0.98828125,0.261474609375,-0.1220703050494194,-0.4882812201976776,0.7629393935203552,100.0,8616.0,1.0
1162621.751232,301046.625,320845.0,388327.0625,368234.1875,309905.15625,299953.4375,310475.125,312794.625,-0.09228515625,0.988037109375,0.25927734375,-0.1831054538488388,-0.5187987685203552,0.7934569716453552,100.0,8617.0,1.0
1162621.7599528,303017.6875,321061.625,389749.25,369877.65625,310140.5625,299957.21875,310412.1875,312638.15625,-0.09375,0.98681640625,0.2587890625,-0.1525878757238388,-0.5187987685203552,0.8239745497703552,100.0,8618.0,1.0
1162621.7630051,303251.59375,320980.625,390072.375,370157.34375,310073.59375,299838.90625,310222.8125,312405.96875,-0.094970703125,0.9873046875,0.25732421875,-0.1831054538488388,-0.4577636420726776,0.7629393935203552,100.0,8619.0,1.0
1162621.7630397,301458.25,320727.875,388880.0625,368721.375,309809.40625,299774.71875,310182.3125,312438.875,-0.093994140625,0.98779296875,0.2578125,-0.1831054538488388,-0.3356933295726776,0.8239745497703552,100.0,8620.0,1.0
1162621.7649478,300084.0,320640.78125,387778.5625,367510.875,309698.90625,299840.25,310329.03125,312666.6875,-0.093994140625,0.98876953125,0.257080078125,-0.3051757514476776,-0.3662109076976776,0.8239745497703552,100.0,8621.0,1.0
1162621.7786725,301004.96875,320834.375,388256.34375,368172.0625,309886.21875,299937.96875,310451.71875,312765.65625,-0.0947265625,0.989990234375,0.26025390625,-0.2441406100988388,-0.3662109076976776,0.8239745497703552,100.0,8622.0,1.0
1162621.7817319,302991.15625,321056.53125,389687.3125,369829.65625,310127.96875,299946.84375,310397.0,312616.25,-0.09423828125,0.989990234375,0.255615234375,-0.3662109076976776,-0.3356933295726776,0.9460448622703552,100.0,8623.0,1.0
1162621.7817521,303275.28125,320986.1875,390043.9375,370148.65625,310068.0625,299831.5,310210.9375,312384.6875,-0.0947265625,0.989990234375,0.2529296875,-0.3662109076976776,-0.3662109076976776,1.0070799589157104,100.0,8624.0,1.0
1162621.7836335,301494.28125,320733.25,388857.25,368719.65625,309799.9375,299761.3125,310162.125,312403.65625,-0.09326171875,0.98828125,0.25439453125,-0.3356933295726776,-0.2441406100988388,0.9765624403953552,100.0,8625.0,1.0
1162621.7874301,300076.46875,320636.0625,387725.4375,367471.0,309678.78125,299821.3125,310300.625,312622.59375,-0.094482421875,0.989990234375,0.2568359375,-0.2441406100988388,-0.1525878757238388,0.8850097060203552,100.0,8626.0,1.0
1162621.8016921,300962.78125,320833.65625,388185.71875,368106.4375,309870.125,299929.40625,310433.90625,312734.8125,-0.092529296875,0.98974609375,0.2578125,-0.3051757514476776,-0.0915527269244194,0.9155272841453552,100.0,8627.0,1.0
1162621.8017063,302961.375,321061.71875,389627.84375,369780.125,310119.46875,299941.1875,310384.75,312596.03125,-0.09228515625,0.9892578125,0.25634765625,-0.3051757514476776,-0.0610351525247097,0.7934569716453552,100.0,8628.0,1.0
1162621.8034814,303298.78125,321004.15625,390029.09375,370146.875,310072.625,299834.0,310205.3125,312366.1875,-0.09375,0.989501953125,0.25927734375,-0.2136230319738388,-0.0915527269244194,0.8850097060203552,100.0,8629.0,1.0
1162621.8111336,301540.59375,320755.6875,388863.875,368734.0625,309810.75,299768.5625,310158.1875,312383.0,-0.09521484375,0.9892578125,0.2578125,-0.2441406100988388,-0.1831054538488388,0.7629393935203552,100.0,8630.0,1.0
1162621.8136169,300093.90625,320657.34375,387708.1875,367457.5,309684.25,299824.96875,310292.84375,312601.59375,-0.095947265625,0.989013671875,0.257568359375,-0.1525878757238388,-0.0915527269244194,0.7019042372703552,100.0,8631.0,1.0
1162621.8161333,300946.5,320851.34375,388137.0625,368061.375,309872.4375,299931.625,310429.1875,312721.125,-0.096435546875,0.989013671875,0.255859375,-0.1220703050494194,-0.0915527269244194,0.6713866591453552,100.0,8632.0,1.0
1162621.8186271,302966.5625,321084.15625,389597.4375,369754.09375,310131.90625,299954.625,310396.28125,312598.375,-0.09814453125,0.988525390625,0.256103515625,-0.1525878757238388,-0.1220703050494194,0.6103515028953552,100.0,8633.0,1.0
1162621.8211221,303344.125,321023.1875,390030.09375,370156.875,310087.375,299842.5,310217.5625,312370.125,-0.096923828125,0.98876953125,0.253662109375,-0.03051757626235485,-0.1831054538488388,0.4882812201976776,100.0,8634.0,1.0
1162621.8249285,301589.25,320760.78125,388864.21875,368746.59375,309811.8125,299760.40625,310152.90625,312367.25,-0.0966796875,0.987548828125,0.258056640625,0.03051757626235485,-0.0915527269244194,0.4577636420726776,100.0,8635.0,1.0
1162621.8342455,300097.9375,320653.40625,387679.5,367433.46875,309675.84375,299815.6875,310283.53125,312576.90625,-0.096435546875,0.98779296875,0.25830078125,0.0610351525247097,-0.1831054538488388,0.3967284858226776,100.0,8636.0,1.0
1162621.8342641,300904.375,320842.84375,388073.78125,368000.75,309857.78125,299925.03125,310420.6875,312699.5,-0.097900390625,0.989501953125,0.255615234375,0.03051757626235485,-0.2136230319738388,0.3356933295726776,100.0,8637.0,1.0
1162621.8405007,302922.03125,321071.5625,389526.90625,369692.3125,310110.0,299940.40625,310381.25,312576.03125,-0.10107421875,0.9892578125,0.258056640625,0.03051757626235485,-0.2441406100988388,0.3356933295726776,100.0,8638.0,1.0
1162621.8405281,303344.3125,321017.5625,389989.9375,370133.5625,310073.34375,299828.0,310201.1875,312345.15625,-0.09912109375,0.98681640625,0.2568359375,-0.0915527269244194,-0.3051757514476776,0.3356933295726776,100.0,8639.0,1.0
1162621.846216,301608.09375,320759.0,388833.125,368730.9375,309799.9375,299744.59375,310131.8125,312336.84375,-0.10009765625,0.98779296875,0.2578125,-0.03051757626235485,-0.3662109076976776,0.1831054538488388,100.0,8640.0,1.0
1162621.8580326,300080.21875,320643.375,387615.21875,367378.75,309651.4375,299791.96875,310252.96875,312541.25,-0.1015625,0.986328125,0.25732421875,0.0,-0.3967284858226776,0.1220703050494194,100.0,8641.0,1.0
1162621.8580559,300849.03125,320829.1875,387978.1875,367908.9375,309826.3125,299900.78125,310390.1875,312668.5625,-0.1015625,0.98681640625,0.2578125,0.03051757626235485,-0.4882812201976776,0.0610351525247097,100.0,8642.0,1.0
1162621.8605354,302887.78125,321069.5,389451.8125,369624.90625,310097.21875,299929.65625,310370.09375,312560.375,-0.10009765625,0.986083984375,0.25439453125,0.03051757626235485,-0.6408690810203552,0.03051757626235485,100.0,8643.0,1.0
1162621.8605592,303356.46875,321018.90625,389950.59375,370107.71875,310063.875,299816.75,310188.21875,312324.4375,-0.10009765625,0.989501953125,0.255126953125,0.1220703050494194,-0.6408690810203552,-0.0915527269244194,100.0,8644.0,1.0
1162621.8624408,301643.59375,320760.875,388819.25,368730.21875,309790.46875,299732.25,310114.03125,312307.875,-0.1015625,0.989013671875,0.2548828125,0.1220703050494194,-0.7629393935203552,0.0610351525247097,100.0,8645.0,1.0
1162621.8712177,300088.28125,320644.375,387585.875,367357.90625,309639.28125,299780.71875,310235.15625,312511.5625,-0.10107421875,0.988525390625,0.25634765625,0.1220703050494194,-0.8239745497703552,0.0610351525247097,100.0,8646.0,1.0
1162621.8742845,300815.5,320825.78125,387926.0,367862.0625,309816.5625,299895.4375,310382.34375,312650.6875,-0.10009765625,0.989013671875,0.257568359375,0.0915527269244194,-0.8850097060203552,-0.03051757626235485,100.0,8647.0,1.0
1162621.8743071,302863.5625,321067.09375,389405.40625,369586.65625,310088.625,299925.65625,310364.625,312551.4375,-0.100341796875,0.987548828125,0.25537109375,-0.03051757626235485,-1.0070799589157104,0.0,100.0,8648.0,1.0
1162621.8762162,303384.71875,321027.3125,389945.5,370113.625,310063.875,299816.84375,310188.21875,312321.46875,-0.10009765625,0.984619140625,0.253662109375,0.0,-1.0375975370407104,0.0,100.0,8649.0,1.0
1162621.8849674,301690.0,320770.875,388829.28125,368748.28125,309788.40625,299728.78125,310106.6875,312296.0,-0.0986328125,0.987548828125,0.253662109375,0.1220703050494194,-1.0375975370407104,0.0915527269244194,100.0,8650.0,1.0
1162621.8887152,300097.75,320649.8125,387570.5,367344.84375,309630.15625,299775.09375,310224.875,312495.71875,-0.098388671875,0.98876953125,0.254638671875,0.0610351525247097,-0.9765624403953552,0.1220703050494194,100.0,8651.0,1.0
1162621.8955309,300777.25,320828.0,387865.46875,367799.84375,309794.84375,299882.90625,310367.84375,312632.6875,-0.09765625,0.98779296875,0.253662109375,0.0,-1.0681151151657104,0.0,100.0,8652.0,1.0
1162621.8955529,302830.3125,321076.65625,389343.28125,369526.9375,310073.6875,299918.65625,310356.75,312536.0625,-0.099365234375,0.98779296875,0.2548828125,0.03051757626235485,-1.0986326932907104,0.1525878757238388,100.0,8653.0,1.0
1162621.9036867,303392.9375,321033.90625,389908.40625,370088.40625,310054.75,299806.28125,310173.90625,312298.84375,-0.09765625,0.9892578125,0.25341796875,0.0915527269244194,-1.1596678495407104,0.1525878757238388,100.0,8654.0,1.0
1162621.9078822,301722.1875,320777.59375,388801.375,368737.71875,309781.4375,299714.1875,310087.90625,312266.84375,-0.098876953125,0.9892578125,0.2548828125,0.0,-1.0681151151657104,0.1525878757238388,100.0,8655.0,1.0
1162621.9079055,300100.78125,320648.75,387516.78125,367305.4375,309617.53125,299758.375,310200.65625,312462.28125,-0.098876953125,0.986328125,0.257080078125,-0.0610351525247097,-1.1901854276657104,0.03051757626235485,100.0,8656.0,1.0
