Time,FZ,C3,CZ,C4,PZ,PO7,OZ,PO8,AccX,AccY,AccZ,Gyro1,Gyro2,Gyro3,Battery,Counter,Validation
483391.1278439,293517.21875,303821.5625,348980.65625,332814.625,340287.90625,268470.3125,298854.625,271397.5625,-0.015869140625,0.86376953125,-0.5166015625,-2.410888433456421,-0.3662109076976776,-0.3662109076976776,60.0,1181975.0,1.0
483391.1305222,291831.0,302832.0,346188.40625,330966.0625,338856.9375,268550.3125,297270.15625,271107.28125,-0.0126953125,0.859130859375,-0.517822265625,-2.685546636581421,-0.2441406100988388,-0.4577636420726776,60.0,1181976.0,1.0
483391.1330675,290504.375,305182.875,350116.21875,333705.5625,341575.71875,269251.90625,300462.625,272239.625,-0.01318359375,0.8564453125,-0.518798828125,-2.777099370956421,-0.1525878757238388,-0.4272460639476776,60.0,1181977.0,1.0
483391.1330814,291266.3125,307699.125,355589.625,337296.34375,344862.65625,269623.21875,304237.75,273272.875,-0.014892578125,0.854248046875,-0.515380859375,-2.899169683456421,-0.1220703050494194,-0.4577636420726776,60.0,1181978.0,1.0
483391.1355487,293217.96875,306826.6875,354967.28125,336612.46875,344111.28125,269141.46875,303299.25,272747.53125,-0.0146484375,0.853759765625,-0.509765625,-2.838134527206421,-0.0915527269244194,-0.4272460639476776,60.0,1181979.0,1.0
483391.1355638,293575.78125,303847.5625,349378.96875,332679.625,340535.0,268479.78125,299155.125,271430.46875,-0.012451171875,0.857421875,-0.506591796875,-2.838134527206421,-0.03051757626235485,-0.3662109076976776,60.0,1181980.0,1.0
483391.2395602,291871.25,302789.1875,346499.71875,330774.625,339035.375,268522.78125,297487.875,271099.5,-0.012939453125,0.864990234375,-0.50732421875,-3.021239995956421,-0.03051757626235485,-0.3662109076976776,60.0,1181981.0,1.0
483391.2396009,290544.09375,305121.53125,350406.15625,333534.625,341729.75,269233.46875,300658.34375,272223.53125,-0.014404296875,0.86962890625,-0.509521484375,-3.204345464706421,0.1220703050494194,-0.2746581733226776,60.0,1181982.0,1.0
483391.2396098,291302.15625,307662.65625,355931.34375,337189.59375,345040.5,269625.53125,304467.25,273270.84375,-0.015869140625,0.874267578125,-0.510009765625,-3.479003667831421,0.1831054538488388,0.0,60.0,1181983.0,1.0
483391.2396229,293206.4375,306763.125,355316.65625,336501.3125,344270.15625,269110.71875,303507.28125,272717.21875,-0.015625,0.876953125,-0.509765625,-3.723144292831421,0.1220703050494194,0.03051757626235485,60.0,1181984.0,1.0
483391.239631,293569.875,303754.21875,349701.71875,332556.0625,340669.3125,268458.9375,299324.28125,271395.6875,-0.015380859375,0.875,-0.50830078125,-3.875732183456421,0.0915527269244194,0.0915527269244194,60.0,1181985.0,1.0
483391.2396388,291915.5,302704.78125,346797.53125,330674.6875,339167.53125,268556.9375,297646.46875,271082.5,-0.015869140625,0.873291015625,-0.50732421875,-3.875732183456421,0.2136230319738388,-0.0610351525247097,60.0,1181986.0,1.0
483391.2396466,290588.15625,305040.96875,350682.0,333471.6875,341856.71875,269268.25,300814.8125,272205.90625,-0.017822265625,0.871337890625,-0.50927734375,-3.936767339706421,0.1831054538488388,-0.1220703050494194,60.0,1181987.0,1.0
483391.2396556,291318.71875,307605.15625,356241.40625,337185.90625,345195.71875,269635.71875,304654.1875,273257.5,-0.017578125,0.8681640625,-0.508544921875,-4.058837413787842,0.1525878757238388,-0.2136230319738388,60.0,1181988.0,1.0
483391.3018889,293212.96875,306738.1875,355671.34375,336546.5625,344460.15625,269116.1875,303720.34375,272709.625,-0.0166015625,0.866455078125,-0.51220703125,-4.150390148162842,0.2136230319738388,-0.1831054538488388,60.0,1181989.0,1.0
483391.3019119,293212.96875,306738.1875,355671.34375,336546.5625,344460.15625,269116.1875,303720.34375,272709.625,-0.0166015625,0.866455078125,-0.51220703125,-4.150390148162842,0.2136230319738388,-0.1831054538488388,60.0,1181990.0,0.0
483391.3019124,293212.96875,306738.1875,355671.34375,336546.5625,344460.15625,269116.1875,303720.34375,272709.625,-0.0166015625,0.866455078125,-0.51220703125,-4.150390148162842,0.2136230319738388,-0.1831054538488388,60.0,1181991.0,0.0
483391.3019128,293212.96875,306738.1875,355671.34375,336546.5625,344460.15625,269116.1875,303720.34375,272709.625,-0.0166015625,0.866455078125,-0.51220703125,-4.150390148162842,0.2136230319738388,-0.1831054538488388,60.0,1181992.0,0.0
483391.3019133,293212.96875,306738.1875,355671.34375,336546.5625,344460.15625,269116.1875,303720.34375,272709.625,-0.0166015625,0.866455078125,-0.51220703125,-4.150390148162842,0.2136230319738388,-0.1831054538488388,60.0,1181993.0,0.0
483391.3019137,293212.96875,306738.1875,355671.34375,336546.5625,344460.15625,269116.1875,303720.34375,272709.625,-0.0166015625,0.866455078125,-0.51220703125,-4.150390148162842,0.2136230319738388,-0.1831054538488388,60.0,1181994.0,0.0
483391.3019141,293212.96875,306738.1875,355671.34375,336546.5625,344460.15625,269116.1875,303720.34375,272709.625,-0.0166015625,0.866455078125,-0.51220703125,-4.150390148162842,0.2136230319738388,-0.1831054538488388,60.0,1181995.0,0.0
483391.3019145,293212.96875,306738.1875,355671.34375,336546.5625,344460.15625,269116.1875,303720.34375,272709.625,-0.0166015625,0.866455078125,-0.51220703125,-4.150390148162842,0.2136230319738388,-0.1831054538488388,60.0,1181996.0,0.0
483391.3019148,293212.96875,306738.1875,355671.34375,336546.5625,344460.15625,269116.1875,303720.34375,272709.625,-0.0166015625,0.866455078125,-0.51220703125,-4.150390148162842,0.2136230319738388,-0.1831054538488388,60.0,1181997.0,0.0
483391.3019152,293212.96875,306738.1875,355671.34375,336546.5625,344460.15625,269116.1875,303720.34375,272709.625,-0.0166015625,0.866455078125,-0.51220703125,-4.150390148162842,0.2136230319738388,-0.1831054538488388,60.0,1181998.0,0.0
483391.3019156,293212.96875,306738.1875,355671.34375,336546.5625,344460.15625,269116.1875,303720.34375,272709.625,-0.0166015625,0.866455078125,-0.51220703125,-4.150390148162842,0.2136230319738388,-0.1831054538488388,60.0,1181999.0,0.0
483391.301916,293212.96875,306738.1875,355671.34375,336546.5625,344460.15625,269116.1875,303720.34375,272709.625,-0.0166015625,0.866455078125,-0.51220703125,-4.150390148162842,0.2136230319738388,-0.1831054538488388,60.0,1182000.0,0.0
483391.3019164,293212.96875,306738.1875,355671.34375,336546.5625,344460.15625,269116.1875,303720.34375,272709.625,-0.0166015625,0.866455078125,-0.51220703125,-4.150390148162842,0.2136230319738388,-0.1831054538488388,60.0,1182001.0,0.0
483391.3019168,293212.96875,306738.1875,355671.34375,336546.5625,344460.15625,269116.1875,303720.34375,272709.625,-0.0166015625,0.866455078125,-0.51220703125,-4.150390148162842,0.2136230319738388,-0.1831054538488388,60.0,1182002.0,0.0
483391.3019172,293212.96875,306738.1875,355671.34375,336546.5625,344460.15625,269116.1875,303720.34375,272709.625,-0.0166015625,0.866455078125,-0.51220703125,-4.150390148162842,0.2136230319738388,-0.1831054538488388,60.0,1182003.0,0.0
483391.3019176,293212.96875,306738.1875,355671.34375,336546.5625,344460.15625,269116.1875,303720.34375,272709.625,-0.0166015625,0.866455078125,-0.51220703125,-4.150390148162842,0.2136230319738388,-0.1831054538488388,60.0,1182004.0,0.0
483391.301918,293212.96875,306738.1875,355671.34375,336546.5625,344460.15625,269116.1875,303720.34375,272709.625,-0.0166015625,0.866455078125,-0.51220703125,-4.150390148162842,0.2136230319738388,-0.1831054538488388,60.0,1182005.0,0.0
483391.3019184,293212.96875,306738.1875,355671.34375,336546.5625,344460.15625,269116.1875,303720.34375,272709.625,-0.0166015625,0.866455078125,-0.51220703125,-4.150390148162842,0.2136230319738388,-0.1831054538488388,60.0,1182006.0,0.0
483391.3019188,293212.96875,306738.1875,355671.34375,336546.5625,344460.15625,269116.1875,303720.34375,272709.625,-0.0166015625,0.866455078125,-0.51220703125,-4.150390148162842,0.2136230319738388,-0.1831054538488388,60.0,1182007.0,0.0
483391.3019191,293212.96875,306738.1875,355671.34375,336546.5625,344460.15625,269116.1875,303720.34375,272709.625,-0.0166015625,0.866455078125,-0.51220703125,-4.150390148162842,0.2136230319738388,-0.1831054538488388,60.0,1182008.0,0.0
483391.3019195,293212.96875,306738.1875,355671.34375,336546.5625,344460.15625,269116.1875,303720.34375,272709.625,-0.0166015625,0.866455078125,-0.51220703125,-4.150390148162842,0.2136230319738388,-0.1831054538488388,60.0,1182009.0,0.0
483391.3019199,293212.96875,306738.1875,355671.34375,336546.5625,344460.15625,269116.1875,303720.34375,272709.625,-0.0166015625,0.866455078125,-0.51220703125,-4.150390148162842,0.2136230319738388,-0.1831054538488388,60.0,1182010.0,0.0
483391.3019203,293212.96875,306738.1875,355671.34375,336546.5625,344460.15625,269116.1875,303720.34375,272709.625,-0.0166015625,0.866455078125,-0.51220703125,-4.150390148162842,0.2136230319738388,-0.1831054538488388,60.0,1182011.0,0.0
483391.3019207,293212.96875,306738.1875,355671.34375,336546.5625,344460.15625,269116.1875,303720.34375,272709.625,-0.0166015625,0.866455078125,-0.51220703125,-4.150390148162842,0.2136230319738388,-0.1831054538488388,60.0,1182012.0,0.0
483391.3019211,293212.96875,306738.1875,355671.34375,336546.5625,344460.15625,269116.1875,303720.34375,272709.625,-0.0166015625,0.866455078125,-0.51220703125,-4.150390148162842,0.2136230319738388,-0.1831054538488388,60.0,1182013.0,0.0
483391.3019215,293212.96875,306738.1875,355671.34375,336546.5625,344460.15625,269116.1875,303720.34375,272709.625,-0.0166015625,0.866455078125,-0.51220703125,-4.150390148162842,0.2136230319738388,-0.1831054538488388,60.0,1182014.0,0.0
483391.3019219,293212.96875,306738.1875,355671.34375,336546.5625,344460.15625,269116.1875,303720.34375,272709.625,-0.0166015625,0.866455078125,-0.51220703125,-4.150390148162842,0.2136230319738388,-0.1831054538488388,60.0,1182015.0,0.0
483391.3019223,293212.96875,306738.1875,355671.34375,336546.5625,344460.15625,269116.1875,303720.34375,272709.625,-0.0166015625,0.866455078125,-0.51220703125,-4.150390148162842,0.2136230319738388,-0.1831054538488388,60.0,1182016.0,0.0
483391.3019226,293212.96875,306738.1875,355671.34375,336546.5625,344460.15625,269116.1875,303720.34375,272709.625,-0.0166015625,0.866455078125,-0.51220703125,-4.150390148162842,0.2136230319738388,-0.1831054538488388,60.0,1182017.0,0.0
483391.3019231,293212.96875,306738.1875,355671.34375,336546.5625,344460.15625,269116.1875,303720.34375,272709.625,-0.0166015625,0.866455078125,-0.51220703125,-4.150390148162842,0.2136230319738388,-0.1831054538488388,60.0,1182018.0,0.0
483391.3019234,293212.96875,306738.1875,355671.34375,336546.5625,344460.15625,269116.1875,303720.34375,272709.625,-0.0166015625,0.866455078125,-0.51220703125,-4.150390148162842,0.2136230319738388,-0.1831054538488388,60.0,1182019.0,0.0
483391.3019238,293212.96875,306738.1875,355671.34375,336546.5625,344460.15625,269116.1875,303720.34375,272709.625,-0.0166015625,0.866455078125,-0.51220703125,-4.150390148162842,0.2136230319738388,-0.1831054538488388,60.0,1182020.0,0.0
483391.3019242,293212.96875,306738.1875,355671.34375,336546.5625,344460.15625,269116.1875,303720.34375,272709.625,-0.0166015625,0.866455078125,-0.51220703125,-4.150390148162842,0.2136230319738388,-0.1831054538488388,60.0,1182021.0,0.0
483391.3019246,293212.96875,306738.1875,355671.34375,336546.5625,344460.15625,269116.1875,303720.34375,272709.625,-0.0166015625,0.866455078125,-0.51220703125,-4.150390148162842,0.2136230319738388,-0.1831054538488388,60.0,1182022.0,0.0
483391.301925,293212.96875,306738.1875,355671.34375,336546.5625,344460.15625,269116.1875,303720.34375,272709.625,-0.0166015625,0.866455078125,-0.51220703125,-4.150390148162842,0.2136230319738388,-0.1831054538488388,60.0,1182023.0,0.0
483391.3019254,293212.96875,306738.1875,355671.34375,336546.5625,344460.15625,269116.1875,303720.34375,272709.625,-0.0166015625,0.866455078125,-0.51220703125,-4.150390148162842,0.2136230319738388,-0.1831054538488388,60.0,1182024.0,0.0
483391.3019258,293212.96875,306738.1875,355671.34375,336546.5625,344460.15625,269116.1875,303720.34375,272709.625,-0.0166015625,0.866455078125,-0.51220703125,-4.150390148162842,0.2136230319738388,-0.1831054538488388,60.0,1182025.0,0.0
483391.3019262,293212.96875,306738.1875,355671.34375,336546.5625,344460.15625,269116.1875,303720.34375,272709.625,-0.0166015625,0.866455078125,-0.51220703125,-4.150390148162842,0.2136230319738388,-0.1831054538488388,60.0,1182026.0,0.0
483391.3019265,293212.96875,306738.1875,355671.34375,336546.5625,344460.15625,269116.1875,303720.34375,272709.625,-0.0166015625,0.866455078125,-0.51220703125,-4.150390148162842,0.2136230319738388,-0.1831054538488388,60.0,1182027.0,0.0
483391.3019269,293212.96875,306738.1875,355671.34375,336546.5625,344460.15625,269116.1875,303720.34375,272709.625,-0.0166015625,0.866455078125,-0.51220703125,-4.150390148162842,0.2136230319738388,-0.1831054538488388,60.0,1182028.0,0.0
483391.3019273,293212.96875,306738.1875,355671.34375,336546.5625,344460.15625,269116.1875,303720.34375,272709.625,-0.0166015625,0.866455078125,-0.51220703125,-4.150390148162842,0.2136230319738388,-0.1831054538488388,60.0,1182029.0,0.0
483391.3019277,293212.96875,306738.1875,355671.34375,336546.5625,344460.15625,269116.1875,303720.34375,272709.625,-0.0166015625,0.866455078125,-0.51220703125,-4.150390148162842,0.2136230319738388,-0.1831054538488388,60.0,1182030.0,0.0
483391.3019281,293212.96875,306738.1875,355671.34375,336546.5625,344460.15625,269116.1875,303720.34375,272709.625,-0.0166015625,0.866455078125,-0.51220703125,-4.150390148162842,0.2136230319738388,-0.1831054538488388,60.0,1182031.0,0.0
483391.3019285,293212.96875,306738.1875,355671.34375,336546.5625,344460.15625,269116.1875,303720.34375,272709.625,-0.0166015625,0.866455078125,-0.51220703125,-4.150390148162842,0.2136230319738388,-0.1831054538488388,60.0,1182032.0,0.0
483391.3019289,293212.96875,306738.1875,355671.34375,336546.5625,344460.15625,269116.1875,303720.34375,272709.625,-0.0166015625,0.866455078125,-0.51220703125,-4.150390148162842,0.2136230319738388,-0.1831054538488388,60.0,1182033.0,0.0
483391.3019293,293212.96875,306738.1875,355671.34375,336546.5625,344460.15625,269116.1875,303720.34375,272709.625,-0.0166015625,0.866455078125,-0.51220703125,-4.150390148162842,0.2136230319738388,-0.1831054538488388,60.0,1182034.0,0.0
483391.3019297,293432.03125,303714.34375,351743.53125,332332.8125,341593.15625,268619.25,299687.65625,271355.03125,-0.0107421875,0.864013671875,-0.519775390625,0.0915527269244194,1.8920897245407104,-0.8850097060203552,60.0,1182035.0,1.0
483391.3019324,291834.59375,302320.6875,348150.34375,330009.5625,339629.5,268605.75,297441.46875,270880.1875,-0.013427734375,0.862548828125,-0.51806640625,0.0610351525247097,2.014159917831421,-0.9460448622703552,60.0,1182036.0,1.0
483391.3019352,290405.5,304558.8125,351673.0625,332594.0625,342122.0,269320.5625,300384.75,271974.875,-0.017822265625,0.8603515625,-0.517578125,0.2136230319738388,2.197265386581421,-0.9155272841453552,60.0,1182037.0,1.0
483391.3042146,290954.5625,307400.875,357632.9375,336591.8125,345744.5,269793.0,304566.6875,273154.34375,-0.01806640625,0.861083984375,-0.513427734375,0.1831054538488388,2.105712652206421,-0.9460448622703552,60.0,1182038.0,1.0
483391.304227,292835.03125,306822.9375,357615.5,336322.78125,345347.15625,269345.875,303997.6875,272730.625,-0.019287109375,0.86279296875,-0.513916015625,0.1831054538488388,2.105712652206421,-1.0681151151657104,60.0,1182039.0,1.0
483391.3066811,293401.0,303713.5625,351848.21875,332301.53125,341603.96875,268645.0,299584.28125,271347.34375,-0.019775390625,0.8642578125,-0.5126953125,0.2136230319738388,2.166747808456421,-1.1596678495407104,60.0,1182040.0,1.0
483391.3066848,291833.15625,302302.96875,348215.4375,329976.6875,339622.625,268649.84375,297318.09375,270880.4375,-0.0205078125,0.866455078125,-0.511962890625,0.1525878757238388,2.197265386581421,-1.1901854276657104,60.0,1182041.0,1.0
483391.3092022,290398.25,304523.75,351695.15625,332542.9375,342091.3125,269368.03125,300236.5,271970.84375,-0.021728515625,0.868896484375,-0.511962890625,0.1220703050494194,2.227782964706421,-1.3122557401657104,60.0,1182042.0,1.0
483391.3116261,290935.78125,307395.59375,357685.6875,336570.71875,345736.34375,269852.53125,304447.59375,273159.96875,-0.021240234375,0.870849609375,-0.515625,0.0,2.136230230331421,-1.2512205839157104,60.0,1182043.0,1.0
483391.3143747,292805.0,306842.53125,357723.6875,336338.6875,345369.875,269403.0,303922.9375,272743.96875,-0.02099609375,0.87060546875,-0.51904296875,-0.1525878757238388,2.105712652206421,-1.2207030057907104,60.0,1182044.0,1.0
483391.3167669,293370.875,303705.9375,351940.125,332297.78125,341600.28125,268666.1875,299487.28125,271335.78125,-0.020751953125,0.867919921875,-0.515625,-0.3662109076976776,2.105712652206421,-1.2207030057907104,60.0,1182045.0,1.0
483391.3193704,291788.90625,302236.5625,348220.625,329900.78125,339546.625,268634.71875,297146.34375,270827.15625,-0.021240234375,0.86376953125,-0.515869140625,-0.3662109076976776,2.105712652206421,-1.1901854276657104,60.0,1182046.0,1.0
483391.3230899,290330.125,304435.15625,351635.15625,332410.59375,341970.8125,269346.40625,300015.0625,271900.5,-0.021728515625,0.861083984375,-0.5126953125,-0.3662109076976776,2.075195074081421,-1.1901854276657104,60.0,1182047.0,1.0
483391.3894212,290853.6875,307339.71875,357663.78125,336461.09375,345647.75,269849.75,304262.34375,273110.96875,-0.019287109375,0.85498046875,-0.512939453125,-0.3356933295726776,2.075195074081421,-1.1901854276657104,60.0,1182048.0,1.0
483391.3894611,292734.65625,306828.9375,357781.625,336304.90625,345341.53125,269417.46875,303805.90625,272726.625,-0.01953125,0.8525390625,-0.513671875,-0.2136230319738388,2.105712652206421,-1.2512205839157104,60.0,1182049.0,1.0
483391.3894707,293305.25,303673.0625,351988.6875,332278.90625,341561.21875,268670.9375,299360.78125,271307.90625,-0.018798828125,0.8515625,-0.51416015625,-0.2136230319738388,2.044677495956421,-1.4038084745407104,60.0,1182050.0,1.0
483391.3894787,291726.65625,302168.15625,348204.0,329843.90625,339464.8125,268637.21875,296973.96875,270785.9375,-0.018310546875,0.849609375,-0.514404296875,-0.2136230319738388,1.9226073026657104,-1.2512205839157104,60.0,1182051.0,1.0
483391.3894866,290261.90625,304353.71875,351575.6875,332322.71875,341866.90625,269353.46875,299821.9375,271861.875,-0.01953125,0.84912109375,-0.51416015625,-0.1220703050494194,1.8920897245407104,-1.3122557401657104,60.0,1182052.0,1.0
483391.3894945,290766.09375,307276.96875,357630.96875,336384.28125,345560.125,269853.78125,304097.375,273086.21875,-0.01806640625,0.851318359375,-0.511962890625,0.1831054538488388,1.8615721464157104,-1.2207030057907104,60.0,1182053.0,1.0
483391.4016306,292634.875,306788.09375,357805.21875,336256.0,345285.90625,269415.0625,303683.6875,272709.4375,-0.016845703125,0.851806640625,-0.5107421875,0.1525878757238388,1.8005369901657104,-1.1596678495407104,60.0,1182054.0,1.0
483391.4016668,293238.28125,303642.5625,352033.65625,332241.09375,341520.0,268677.71875,299258.84375,271306.65625,-0.016357421875,0.848388671875,-0.515380859375,0.3051757514476776,1.8310545682907104,-0.9460448622703552,60.0,1182055.0,1.0
483391.4016756,291690.8125,302122.8125,348204.4375,329765.5,339398.125,268641.0625,296844.875,270785.6875,-0.017578125,0.841552734375,-0.519775390625,0.6103515028953552,1.8615721464157104,-0.9460448622703552,60.0,1182056.0,1.0
483391.4016835,290234.1875,304304.625,351537.71875,332208.09375,341783.5,269370.53125,299675.40625,271870.0,-0.017333984375,0.83740234375,-0.514892578125,1.1901854276657104,1.8005369901657104,-1.1291502714157104,60.0,1182057.0,1.0
483391.4016926,290733.09375,307265.78125,357628.09375,336289.6875,345504.96875,269885.09375,303979.53125,273106.84375,-0.0166015625,0.83154296875,-0.51025390625,1.7700194120407104,1.8005369901657104,-1.0986326932907104,60.0,1182058.0,1.0
483391.4042466,292596.5,306817.75,357872.625,336206.8125,345275.28125,269447.0625,303615.90625,272746.8125,-0.013671875,0.832763671875,-0.5048828125,2.471923589706421,2.075195074081421,-1.3122557401657104,60.0,1182059.0,1.0
483391.4067217,293235.5,303691.125,352134.125,332223.1875,341540.3125,268724.65625,299221.9375,271367.71875,-0.01513671875,0.8408203125,-0.507080078125,3.082275152206421,2.166747808456421,-1.4343260526657104,60.0,1182060.0,1.0
483391.47289,291687.5,302128.1875,348232.40625,329709.15625,339376.375,268678.09375,296759.3125,270827.25,-0.019775390625,0.855224609375,-0.512451171875,3.723144292831421,2.410888433456421,-1.4953612089157104,60.0,1182061.0,1.0
483391.475519,290175.375,304242.9375,351459.65625,332076.84375,341684.0625,269367.59375,299502.46875,271856.5,-0.022705078125,0.872802734375,-0.51318359375,4.089354991912842,2.288818120956421,-1.4038084745407104,60.0,1182062.0,1.0
483391.4779056,290656.8125,307211.59375,357574.8125,336191.96875,345427.53125,269896.0,303827.09375,273104.625,-0.02734375,0.881103515625,-0.5078125,4.119872570037842,2.075195074081421,-1.3732908964157104,60.0,1182063.0,1.0
483391.4843075,292524.96875,306787.375,357893.09375,336186.25,345252.84375,269491.0625,303528.21875,272761.75,-0.029541015625,0.882080078125,-0.50341796875,4.089354991912842,1.9531248807907104,-1.5258787870407104,60.0,1182064.0,1.0
483391.4843223,293152.875,303628.15625,352135.375,332209.4375,341497.84375,268743.34375,299123.3125,271357.25,-0.02978515625,0.88232421875,-0.499755859375,4.180907726287842,1.8005369901657104,-1.9836424589157104,60.0,1182065.0,1.0
483391.4843246,291613.03125,302041.1875,348182.4375,329683.5,339306.46875,268681.84375,296631.4375,270805.4375,-0.029541015625,0.88330078125,-0.5,4.333495616912842,1.7700194120407104,-2.349853277206421,60.0,1182066.0,1.0
483391.4843267,290121.71875,304174.8125,351396.09375,332069.25,341620.9375,269388.78125,299372.84375,271851.59375,-0.030029296875,0.888427734375,-0.500244140625,4.272460460662842,1.6479490995407104,-2.655029058456421,60.0,1182067.0,1.0
483391.484329,290577.53125,307172.34375,357531.375,336223.28125,345383.1875,269912.875,303711.84375,273101.6875,-0.0263671875,0.89306640625,-0.501220703125,3.997802495956421,1.5258787870407104,-2.685546636581421,60.0,1182068.0,1.0
483391.484331,292438.09375,306794.875,357909.46875,336303.1875,345266.0625,269502.875,303475.46875,272779.625,-0.02099609375,0.89794921875,-0.4990234375,3.601073980331421,1.4953612089157104,-2.777099370956421,60.0,1182069.0,1.0
483391.4918264,293080.1875,303631.9375,352158.71875,332381.0,341531.71875,268743.0,299097.375,271368.0625,-0.014404296875,0.900146484375,-0.501708984375,3.173827886581421,1.4038084745407104,-2.899169683456421,60.0,1182070.0,1.0
483391.4918454,291550.53125,302003.71875,348144.1875,329851.9375,339306.46875,268679.5,296572.875,270798.90625,-0.012939453125,0.900390625,-0.507568359375,2.593993902206421,1.3427733182907104,-2.838134527206421,60.0,1182071.0,1.0
483391.4918484,290051.09375,304111.6875,351295.15625,332216.5,341586.71875,269384.40625,299277.90625,271827.53125,-0.013671875,0.906005859375,-0.51025390625,2.044677495956421,1.4648436307907104,-2.655029058456421,60.0,1182072.0,1.0
483391.491851,290507.875,307139.4375,357466.8125,336400.9375,345380.78125,269907.4375,303656.34375,273089.78125,-0.017578125,0.9052734375,-0.51123046875,1.4343260526657104,1.5869139432907104,-2.655029058456421,60.0,1182073.0,1.0
483391.4918536,292350.8125,306773.40625,357900.4375,336527.96875,345282.0,269497.9375,303454.375,272768.71875,-0.017578125,0.901611328125,-0.5107421875,0.8850097060203552,1.7700194120407104,-2.624511480331421,60.0,1182074.0,1.0
483391.4918562,293001.34375,303589.53125,352146.375,332619.09375,341520.53125,268727.34375,299060.71875,271345.53125,-0.01904296875,0.89599609375,-0.509521484375,0.3662109076976776,1.8615721464157104,-2.655029058456421,60.0,1182075.0,1.0
483391.4918588,291483.03125,301923.90625,348073.09375,330044.4375,339245.6875,268643.125,296485.53125,270747.6875,-0.01904296875,0.88720703125,-0.50732421875,0.0,2.014159917831421,-2.746581792831421,60.0,1182076.0,1.0
483391.4918614,289981.625,304021.8125,351177.9375,332344.78125,341503.28125,269354.1875,299164.4375,271778.1875,-0.02001953125,0.879150390625,-0.50634765625,-0.2746581733226776,2.075195074081421,-2.777099370956421,60.0,1182077.0,1.0
483391.4943802,290407.1875,307065.15625,357354.0,336479.6875,345299.6875,269884.53125,303547.34375,273043.90625,-0.020263671875,0.87255859375,-0.507080078125,-0.4577636420726776,2.136230230331421,-2.838134527206421,60.0,1182078.0,1.0
483391.4943984,292273.84375,306761.0625,357867.0,336624.71875,345255.25,269486.59375,303401.96875,272750.125,-0.021484375,0.86767578125,-0.506103515625,-0.5187987685203552,2.136230230331421,-2.838134527206421,60.0,1182079.0,1.0
483391.5568762,292992.40625,303624.875,352169.53125,332734.875,341535.9375,268760.34375,299045.78125,271370.5,-0.023193359375,0.8623046875,-0.505615234375,-0.6408690810203552,1.9836424589157104,-2.777099370956421,60.0,1182080.0,1.0
483391.5569193,291486.4375,301929.34375,348028.3125,330069.9375,339211.53125,268680.84375,296417.40625,270768.0625,-0.02392578125,0.857666015625,-0.502685546875,-0.5493163466453552,2.014159917831421,-2.624511480331421,60.0,1182081.0,1.0
483391.5593972,289940.0625,303973.09375,351026.125,332216.75,341386.78125,269348.8125,299016.03125,271754.65625,-0.02490234375,0.851806640625,-0.503662109375,-0.3967284858226776,1.9531248807907104,-2.593993902206421,60.0,1182082.0,1.0
483391.5618258,290343.4375,307036.0,357216.65625,336296.0625,345194.28125,269888.03125,303424.21875,273035.96875,-0.027099609375,0.85009765625,-0.505126953125,-0.1525878757238388,1.9531248807907104,-2.685546636581421,60.0,1182083.0,1.0
483391.564368,292191.6875,306757.5,357795.84375,336422.65625,345181.9375,269481.5,303333.03125,272757.1875,-0.030029296875,0.84912109375,-0.501220703125,0.2136230319738388,1.9226073026657104,-2.716064214706421,60.0,1182084.0,1.0
483391.5667179,292922.21875,303617.625,352115.90625,332474.15625,341460.90625,268721.53125,298983.90625,271370.03125,-0.029541015625,0.84912109375,-0.50146484375,0.4577636420726776,1.8615721464157104,-2.746581792831421,60.0,1182085.0,1.0
483391.5755356,291432.96875,301892.40625,347930.75,329715.34375,339106.5625,268637.40625,296318.6875,270764.03125,-0.02978515625,0.8515625,-0.50244140625,0.8850097060203552,1.8005369901657104,-2.716064214706421,60.0,1182086.0,1.0
483391.5755758,289905.28125,303936.875,350909.8125,331823.1875,341287.375,269345.25,298920.4375,271787.3125,-0.0322265625,0.855712890625,-0.501220703125,1.1901854276657104,1.7700194120407104,-2.807616949081421,60.0,1182087.0,1.0
483391.5755844,290299.1875,307022.25,357137.34375,335924.46875,345125.53125,269905.8125,303363.15625,273090.78125,-0.032470703125,0.85888671875,-0.499267578125,1.3122557401657104,1.6784666776657104,-2.777099370956421,60.0,1182088.0,1.0
483391.5755923,292169.59375,306797.1875,357814.4375,336129.125,345186.6875,269530.21875,303345.65625,272849.28125,-0.03125,0.86328125,-0.498291015625,1.3732908964157104,1.6479490995407104,-2.777099370956421,60.0,1182089.0,1.0
483391.5756006,292895.125,303628.53125,352124.84375,332177.6875,341451.625,268755.5,298975.875,271436.5625,-0.03076171875,0.8642578125,-0.5,1.5869139432907104,1.4648436307907104,-2.807616949081421,60.0,1182090.0,1.0
483391.5780724,291410.34375,301853.875,347874.78125,329396.6875,339052.90625,268639.625,296255.65625,270803.28125,-0.03125,0.866943359375,-0.4970703125,1.5258787870407104,1.4038084745407104,-2.746581792831421,60.0,1182091.0,1.0
483391.6431052,289881.40625,303871.90625,350792.21875,331518.3125,341202.34375,269348.71875,298806.4375,271816.90625,-0.032470703125,0.867431640625,-0.49853515625,1.4648436307907104,1.2512205839157104,-2.685546636581421,60.0,1182092.0,1.0
483391.6431463,290285.25,306998.53125,357060.46875,335724.28125,345080.03125,269939.09375,303273.3125,273145.40625,-0.033203125,0.8720703125,-0.498779296875,1.4038084745407104,1.2512205839157104,-2.655029058456421,60.0,1182093.0,1.0
483391.6431754,292146.875,306805.4375,357801.375,336030.0625,345177.375,269558.75,303292.96875,272905.5,-0.031494140625,0.87255859375,-0.500244140625,1.3122557401657104,1.2512205839157104,-2.716064214706421,60.0,1182094.0,1.0
483391.6431843,292889.59375,303641.21875,352135.75,332140.9375,341454.75,268768.46875,298941.0,271485.28125,-0.03173828125,0.873046875,-0.500244140625,1.2207030057907104,1.1291502714157104,-2.655029058456421,60.0,1182095.0,1.0
483391.6431923,291414.09375,301838.40625,347833.46875,329374.96875,339025.71875,268644.125,296191.125,270829.3125,-0.03271484375,0.872802734375,-0.500732421875,1.0375975370407104,1.1901854276657104,-2.532958745956421,60.0,1182096.0,1.0
483391.6432001,289860.375,303822.71875,350682.78125,331511.34375,341129.5625,269335.3125,298694.5,271808.65625,-0.033447265625,0.871826171875,-0.502197265625,0.9765624403953552,1.0986326932907104,-2.441406011581421,60.0,1182097.0,1.0
483391.6517934,290236.78125,306963.0625,356960.5,335784.625,345013.75,269920.9375,303171.5625,273125.09375,-0.03466796875,0.869384765625,-0.5,0.8544921278953552,1.1291502714157104,-2.349853277206421,60.0,1182098.0,1.0
483391.6518409,292064.8125,306779.3125,357745.9375,336166.40625,345133.5625,269524.84375,303228.59375,272866.71875,-0.034423828125,0.864013671875,-0.50146484375,0.7324218153953552,1.0375975370407104,-2.227782964706421,60.0,1182099.0,1.0
483391.6518509,292856.9375,303647.21875,352130.125,332367.40625,341450.0,268750.78125,298928.84375,271470.09375,-0.03564453125,0.860107421875,-0.5029296875,0.6408690810203552,0.9765624403953552,-2.136230230331421,60.0,1182100.0,1.0
483391.6518587,291410.0625,301830.8125,347787.0,329615.75,338997.40625,268622.90625,296156.25,270806.15625,-0.035400390625,0.859130859375,-0.50244140625,0.6103515028953552,0.9765624403953552,-2.014159917831421,60.0,1182101.0,1.0
483391.6518687,289842.40625,303785.25,350567.90625,331729.9375,341055.4375,269302.875,298614.03125,271759.9375,-0.037109375,0.8583984375,-0.5029296875,0.8544921278953552,0.7934569716453552,-1.8310545682907104,60.0,1182102.0,1.0
483391.6556972,290198.4375,306936.75,356860.46875,336024.78125,344946.53125,269880.96875,303112.125,273071.90625,-0.037109375,0.85791015625,-0.50244140625,0.9460448622703552,0.7019042372703552,-1.7395018339157104,60.0,1182103.0,1.0
483391.6557553,290198.4375,306936.75,356860.46875,336024.78125,344946.53125,269880.96875,303112.125,273071.90625,-0.037109375,0.85791015625,-0.50244140625,0.9460448622703552,0.7019042372703552,-1.7395018339157104,60.0,1182104.0,0.0
483391.655757,290198.4375,306936.75,356860.46875,336024.78125,344946.53125,269880.96875,303112.125,273071.90625,-0.037109375,0.85791015625,-0.50244140625,0.9460448622703552,0.7019042372703552,-1.7395018339157104,60.0,1182105.0,0.0
483391.6557583,290198.4375,306936.75,356860.46875,336024.78125,344946.53125,269880.96875,303112.125,273071.90625,-0.037109375,0.85791015625,-0.50244140625,0.9460448622703552,0.7019042372703552,-1.7395018339157104,60.0,1182106.0,0.0
483391.6557597,290198.4375,306936.75,356860.46875,336024.78125,344946.53125,269880.96875,303112.125,273071.90625,-0.037109375,0.85791015625,-0.50244140625,0.9460448622703552,0.7019042372703552,-1.7395018339157104,60.0,1182107.0,0.0
483391.655761,290198.4375,306936.75,356860.46875,336024.78125,344946.53125,269880.96875,303112.125,273071.90625,-0.037109375,0.85791015625,-0.50244140625,0.9460448622703552,0.7019042372703552,-1.7395018339157104,60.0,1182108.0,0.0
483391.6557623,290198.4375,306936.75,356860.46875,336024.78125,344946.53125,269880.96875,303112.125,273071.90625,-0.037109375,0.85791015625,-0.50244140625,0.9460448622703552,0.7019042372703552,-1.7395018339157104,60.0,1182109.0,0.0
483391.6557637,290198.4375,306936.75,356860.46875,336024.78125,344946.53125,269880.96875,303112.125,273071.90625,-0.037109375,0.85791015625,-0.50244140625,0.9460448622703552,0.7019042372703552,-1.7395018339157104,60.0,1182110.0,0.0
483391.655765,290198.4375,306936.75,356860.46875,336024.78125,344946.53125,269880.96875,303112.125,273071.90625,-0.037109375,0.85791015625,-0.50244140625,0.9460448622703552,0.7019042372703552,-1.7395018339157104,60.0,1182111.0,0.0
483391.6557663,290198.4375,306936.75,356860.46875,336024.78125,344946.53125,269880.96875,303112.125,273071.90625,-0.037109375,0.85791015625,-0.50244140625,0.9460448622703552,0.7019042372703552,-1.7395018339157104,60.0,1182112.0,0.0
483391.6557676,290198.4375,306936.75,356860.46875,336024.78125,344946.53125,269880.96875,303112.125,273071.90625,-0.037109375,0.85791015625,-0.50244140625,0.9460448622703552,0.7019042372703552,-1.7395018339157104,60.0,1182113.0,0.0
483391.655769,290198.4375,306936.75,356860.46875,336024.78125,344946.53125,269880.96875,303112.125,273071.90625,-0.037109375,0.85791015625,-0.50244140625,0.9460448622703552,0.7019042372703552,-1.7395018339157104,60.0,1182114.0,0.0
483391.6557703,290198.4375,306936.75,356860.46875,336024.78125,344946.53125,269880.96875,303112.125,273071.90625,-0.037109375,0.85791015625,-0.50244140625,0.9460448622703552,0.7019042372703552,-1.7395018339157104,60.0,1182115.0,0.0
483391.6557716,290198.4375,306936.75,356860.46875,336024.78125,344946.53125,269880.96875,303112.125,273071.90625,-0.037109375,0.85791015625,-0.50244140625,0.9460448622703552,0.7019042372703552,-1.7395018339157104,60.0,1182116.0,0.0
483391.6557729,290198.4375,306936.75,356860.46875,336024.78125,344946.53125,269880.96875,303112.125,273071.90625,-0.037109375,0.85791015625,-0.50244140625,0.9460448622703552,0.7019042372703552,-1.7395018339157104,60.0,1182117.0,0.0
483391.6557742,290198.4375,306936.75,356860.46875,336024.78125,344946.53125,269880.96875,303112.125,273071.90625,-0.037109375,0.85791015625,-0.50244140625,0.9460448622703552,0.7019042372703552,-1.7395018339157104,60.0,1182118.0,0.0
483391.6557755,290198.4375,306936.75,356860.46875,336024.78125,344946.53125,269880.96875,303112.125,273071.90625,-0.037109375,0.85791015625,-0.50244140625,0.9460448622703552,0.7019042372703552,-1.7395018339157104,60.0,1182119.0,0.0
483391.6557768,290198.4375,306936.75,356860.46875,336024.78125,344946.53125,269880.96875,303112.125,273071.90625,-0.037109375,0.85791015625,-0.50244140625,0.9460448622703552,0.7019042372703552,-1.7395018339157104,60.0,1182120.0,0.0
483391.6557781,290198.4375,306936.75,356860.46875,336024.78125,344946.53125,269880.96875,303112.125,273071.90625,-0.037109375,0.85791015625,-0.50244140625,0.9460448622703552,0.7019042372703552,-1.7395018339157104,60.0,1182121.0,0.0
483391.6557794,290198.4375,306936.75,356860.46875,336024.78125,344946.53125,269880.96875,303112.125,273071.90625,-0.037109375,0.85791015625,-0.50244140625,0.9460448622703552,0.7019042372703552,-1.7395018339157104,60.0,1182122.0,0.0
483391.6557807,290198.4375,306936.75,356860.46875,336024.78125,344946.53125,269880.96875,303112.125,273071.90625,-0.037109375,0.85791015625,-0.50244140625,0.9460448622703552,0.7019042372703552,-1.7395018339157104,60.0,1182123.0,0.0
483391.6557821,290198.4375,306936.75,356860.46875,336024.78125,344946.53125,269880.96875,303112.125,273071.90625,-0.037109375,0.85791015625,-0.50244140625,0.9460448622703552,0.7019042372703552,-1.7395018339157104,60.0,1182124.0,0.0
483391.6557834,290198.4375,306936.75,356860.46875,336024.78125,344946.53125,269880.96875,303112.125,273071.90625,-0.037109375,0.85791015625,-0.50244140625,0.9460448622703552,0.7019042372703552,-1.7395018339157104,60.0,1182125.0,0.0
483391.6557847,290198.4375,306936.75,356860.46875,336024.78125,344946.53125,269880.96875,303112.125,273071.90625,-0.037109375,0.85791015625,-0.50244140625,0.9460448622703552,0.7019042372703552,-1.7395018339157104,60.0,1182126.0,0.0
483391.655786,290198.4375,306936.75,356860.46875,336024.78125,344946.53125,269880.96875,303112.125,273071.90625,-0.037109375,0.85791015625,-0.50244140625,0.9460448622703552,0.7019042372703552,-1.7395018339157104,60.0,1182127.0,0.0
483391.6557873,290198.4375,306936.75,356860.46875,336024.78125,344946.53125,269880.96875,303112.125,273071.90625,-0.037109375,0.85791015625,-0.50244140625,0.9460448622703552,0.7019042372703552,-1.7395018339157104,60.0,1182128.0,0.0
483391.6557886,290198.4375,306936.75,356860.46875,336024.78125,344946.53125,269880.96875,303112.125,273071.90625,-0.037109375,0.85791015625,-0.50244140625,0.9460448622703552,0.7019042372703552,-1.7395018339157104,60.0,1182129.0,0.0
483391.6557899,290198.4375,306936.75,356860.46875,336024.78125,344946.53125,269880.96875,303112.125,273071.90625,-0.037109375,0.85791015625,-0.50244140625,0.9460448622703552,0.7019042372703552,-1.7395018339157104,60.0,1182130.0,0.0
483391.6557912,290198.4375,306936.75,356860.46875,336024.78125,344946.53125,269880.96875,303112.125,273071.90625,-0.037109375,0.85791015625,-0.50244140625,0.9460448622703552,0.7019042372703552,-1.7395018339157104,60.0,1182131.0,0.0
483391.6557925,290198.4375,306936.75,356860.46875,336024.78125,344946.53125,269880.96875,303112.125,273071.90625,-0.037109375,0.85791015625,-0.50244140625,0.9460448622703552,0.7019042372703552,-1.7395018339157104,60.0,1182132.0,0.0
483391.6557938,290198.4375,306936.75,356860.46875,336024.78125,344946.53125,269880.96875,303112.125,273071.90625,-0.037109375,0.85791015625,-0.50244140625,0.9460448622703552,0.7019042372703552,-1.7395018339157104,60.0,1182133.0,0.0
483391.6557951,290198.4375,306936.75,356860.46875,336024.78125,344946.53125,269880.96875,303112.125,273071.90625,-0.037109375,0.85791015625,-0.50244140625,0.9460448622703552,0.7019042372703552,-1.7395018339157104,60.0,1182134.0,0.0
483391.6557964,290198.4375,306936.75,356860.46875,336024.78125,344946.53125,269880.96875,303112.125,273071.90625,-0.037109375,0.85791015625,-0.50244140625,0.9460448622703552,0.7019042372703552,-1.7395018339157104,60.0,1182135.0,0.0
483391.6557977,290198.4375,306936.75,356860.46875,336024.78125,344946.53125,269880.96875,303112.125,273071.90625,-0.037109375,0.85791015625,-0.50244140625,0.9460448622703552,0.7019042372703552,-1.7395018339157104,60.0,1182136.0,0.0
483391.655799,290198.4375,306936.75,356860.46875,336024.78125,344946.53125,269880.96875,303112.125,273071.90625,-0.037109375,0.85791015625,-0.50244140625,0.9460448622703552,0.7019042372703552,-1.7395018339157104,60.0,1182137.0,0.0
483391.6558003,290198.4375,306936.75,356860.46875,336024.78125,344946.53125,269880.96875,303112.125,273071.90625,-0.037109375,0.85791015625,-0.50244140625,0.9460448622703552,0.7019042372703552,-1.7395018339157104,60.0,1182138.0,0.0
483391.6558016,290198.4375,306936.75,356860.46875,336024.78125,344946.53125,269880.96875,303112.125,273071.90625,-0.037109375,0.85791015625,-0.50244140625,0.9460448622703552,0.7019042372703552,-1.7395018339157104,60.0,1182139.0,0.0
483391.655803,290198.4375,306936.75,356860.46875,336024.78125,344946.53125,269880.96875,303112.125,273071.90625,-0.037109375,0.85791015625,-0.50244140625,0.9460448622703552,0.7019042372703552,-1.7395018339157104,60.0,1182140.0,0.0
483391.6558043,290198.4375,306936.75,356860.46875,336024.78125,344946.53125,269880.96875,303112.125,273071.90625,-0.037109375,0.85791015625,-0.50244140625,0.9460448622703552,0.7019042372703552,-1.7395018339157104,60.0,1182141.0,0.0
483391.6558057,290198.4375,306936.75,356860.46875,336024.78125,344946.53125,269880.96875,303112.125,273071.90625,-0.037109375,0.85791015625,-0.50244140625,0.9460448622703552,0.7019042372703552,-1.7395018339157104,60.0,1182142.0,0.0
483391.655807,290009.25,306681.9375,356092.625,335862.59375,344452.8125,269906.96875,302448.25,272990.625,-0.0341796875,0.862060546875,-0.516845703125,-0.2136230319738388,1.0986326932907104,-0.3662109076976776,60.0,1182143.0,1.0
483391.6558172,291845.65625,306878.1875,357574.71875,336748.90625,345037.8125,269628.65625,303046.5,272933.78125,-0.034423828125,0.861083984375,-0.518310546875,-0.2136230319738388,1.2512205839157104,-0.3967284858226776,60.0,1182144.0,1.0
483391.6579339,292822.625,303831.125,352253.75,333170.46875,341509.71875,268865.46875,298926.15625,271583.71875,-0.032958984375,0.861572265625,-0.520751953125,-0.0915527269244194,1.3427733182907104,-0.4272460639476776,60.0,1182145.0,1.0
483391.6603599,291472.9375,301721.28125,347472.53125,330093.875,338743.5625,268655.71875,295793.25,270781.03125,-0.031982421875,0.863525390625,-0.518798828125,-0.0915527269244194,1.5869139432907104,-0.3662109076976776,60.0,1182146.0,1.0
483391.6628269,289826.59375,303414.40625,349683.125,331762.03125,340457.3125,269297.75,297856.15625,271625.28125,-0.031005859375,0.863525390625,-0.519287109375,-0.0610351525247097,1.8615721464157104,-0.1831054538488388,60.0,1182147.0,1.0
483391.6654227,290013.28125,306674.09375,356041.75,336061.90625,344425.90625,269934.6875,302456.5,272998.0625,-0.0302734375,0.863525390625,-0.51708984375,0.0610351525247097,1.9226073026657104,-0.1220703050494194,60.0,1182148.0,1.0
483391.7255939,291816.4375,306879.28125,357565.6875,336953.71875,345024.0625,269637.25,303083.84375,272926.96875,-0.03125,0.86328125,-0.51904296875,0.1220703050494194,2.227782964706421,0.03051757626235485,60.0,1182149.0,1.0
483391.7280965,292768.0,303795.96875,352236.34375,333350.1875,341471.09375,268835.25,298946.1875,271543.03125,-0.030517578125,0.86669921875,-0.51806640625,0.0610351525247097,2.471923589706421,0.0915527269244194,60.0,1182150.0,1.0
483391.7295333,291445.5625,301667.90625,347430.0,330242.46875,338689.5625,268623.53125,295799.59375,270743.90625,-0.03076171875,0.864501953125,-0.516357421875,0.03051757626235485,2.746581792831421,0.1525878757238388,60.0,1182151.0,1.0
483391.739354,289802.0,303342.78125,349598.03125,331853.3125,340385.0,269277.1875,297846.75,271594.90625,-0.029296875,0.864501953125,-0.517822265625,0.0915527269244194,2.960204839706421,0.0915527269244194,60.0,1182152.0,1.0
483391.7418536,289968.5625,306612.84375,355971.03125,336135.03125,344378.34375,269927.625,302482.5,272986.875,-0.0302734375,0.860595703125,-0.51806640625,0.0610351525247097,3.204345464706421,0.2746581733226776,60.0,1182153.0,1.0
483391.7443489,291774.40625,306871.84375,357588.9375,337077.09375,345053.5625,269645.28125,303206.25,272958.25,-0.031005859375,0.859130859375,-0.5185546875,0.1525878757238388,3.448486089706421,0.4272460639476776,60.0,1182154.0,1.0
483391.7469328,292754.9375,303816.5625,352316.96875,333492.96875,341548.34375,268849.3125,299123.03125,271596.25,-0.033203125,0.861083984375,-0.51953125,0.1525878757238388,3.540038824081421,0.5493163466453552,60.0,1182155.0,1.0
483391.8217227,291456.5625,301672.46875,347467.8125,330306.84375,338744.375,268629.34375,295936.75,270788.8125,-0.037109375,0.859130859375,-0.51953125,0.0610351525247097,3.631591558456421,0.5798339247703552,60.0,1182156.0,1.0
483391.8217616,289803.6875,303312.90625,349550.71875,331786.71875,340383.65625,269264.15625,297900.125,271609.5625,-0.03955078125,0.85986328125,-0.521728515625,0.2136230319738388,3.814697027206421,0.6103515028953552,60.0,1182157.0,1.0
483391.8217701,289969.5625,306610.25,355926.15625,336006.09375,344382.375,269934.25,302515.5,273010.9375,-0.03857421875,0.859619140625,-0.52001953125,0.2441406100988388,3.936767339706421,0.7019042372703552,60.0,1182158.0,1.0
483391.821778,291785.78125,306924.25,357610.59375,336941.75,345104.34375,269673.375,303263.5625,273008.15625,-0.038818359375,0.860107421875,-0.517822265625,0.3051757514476776,3.997802495956421,0.7019042372703552,60.0,1182159.0,1.0
483391.8217864,292760.125,303851.0625,352331.0,333302.53125,341575.1875,268843.9375,299132.59375,271618.0625,-0.038330078125,0.857666015625,-0.518798828125,0.3051757514476776,4.028319835662842,0.7324218153953552,60.0,1182160.0,1.0
483391.8217943,291459.59375,301661.3125,347413.28125,330046.0625,338716.21875,268603.6875,295868.1875,270780.03125,-0.040283203125,0.857421875,-0.518310546875,0.3662109076976776,4.058837413787842,0.7629393935203552,60.0,1182161.0,1.0
483391.8218023,289796.5625,303276.34375,349423.40625,331476.46875,340310.78125,269238.9375,297768.0,271588.8125,-0.03857421875,0.857666015625,-0.51904296875,0.3051757514476776,4.028319835662842,0.8850097060203552,60.0,1182162.0,1.0
483391.82181,289897.84375,306542.21875,355752.78125,335662.6875,344269.1875,269876.125,302335.625,272953.625,-0.0400390625,0.857421875,-0.521240234375,0.3356933295726776,3.967284917831421,0.9155272841453552,60.0,1182163.0,1.0
483391.8218178,291682.9375,306871.40625,357480.3125,336640.8125,345007.59375,269614.96875,303103.96875,272945.46875,-0.041015625,0.859619140625,-0.520263671875,0.3967284858226776,3.906249761581421,0.9460448622703552,60.0,1182164.0,1.0
483391.8218258,292719.0,303854.28125,352272.09375,333080.71875,341532.09375,268832.40625,299025.0625,271602.59375,-0.0419921875,0.859375,-0.5185546875,0.4272460639476776,3.906249761581421,1.0375975370407104,60.0,1182165.0,1.0
483391.8218336,291454.34375,301654.5,347313.40625,329812.625,338640.21875,268600.03125,295718.5,270758.40625,-0.0419921875,0.859130859375,-0.522216796875,0.4882812201976776,3.784179449081421,1.0986326932907104,60.0,1182166.0,1.0
483391.824278,289797.96875,303252.5625,349259.25,331218.8125,340191.15625,269243.03125,297560.84375,271554.84375,-0.04296875,0.860107421875,-0.52001953125,0.5493163466453552,3.601073980331421,1.1596678495407104,60.0,1182167.0,1.0
483391.8344086,289902.75,306549.09375,355593.5625,335442.125,344155.5625,269902.59375,302128.375,272929.65625,-0.043212890625,0.860107421875,-0.517822265625,0.5493163466453552,3.570556402206421,1.2512205839157104,60.0,1182168.0,1.0
483391.8344507,291669.28125,306901.4375,357366.21875,336484.15625,344913.1875,269648.5,302923.625,272925.375,-0.042236328125,0.859375,-0.517822265625,0.5798339247703552,3.540038824081421,1.2207030057907104,60.0,1182169.0,1.0
483391.8344599,292696.90625,303866.4375,352164.4375,332945.625,341421.46875,268838.5625,298837.65625,271558.6875,-0.042724609375,0.861572265625,-0.52099609375,0.7324218153953552,3.448486089706421,1.2512205839157104,60.0,1182170.0,1.0
483391.8344678,291443.15625,301631.25,347159.09375,329658.84375,338490.625,268584.84375,295487.40625,270696.8125,-0.04248046875,0.860595703125,-0.51953125,0.6103515028953552,3.356933355331421,1.3732908964157104,60.0,1182171.0,1.0
483391.8344756,289771.78125,303189.28125,349025.90625,331031.59375,339987.125,269217.21875,297268.1875,271477.3125,-0.039794921875,0.864013671875,-0.52099609375,0.7019042372703552,3.234863042831421,1.4343260526657104,60.0,1182172.0,1.0
483391.8344834,289851.53125,306492.5,355354.84375,335283.15625,343952.875,269882.84375,301842.1875,272860.0,-0.037109375,0.860107421875,-0.52197265625,0.7019042372703552,3.082275152206421,1.4953612089157104,60.0,1182173.0,1.0
483391.8367173,291620.8125,306901.8125,357212.625,336417.71875,344779.25,269641.625,302717.125,272890.9375,-0.03759765625,0.85888671875,-0.52001953125,0.7934569716453552,3.021239995956421,1.5563963651657104,60.0,1182174.0,1.0
483391.9207294,292678.75,303898.4375,352071.46875,332959.90625,341336.90625,268850.90625,298680.03125,271548.125,-0.038330078125,0.858642578125,-0.521484375,0.6103515028953552,2.990722417831421,1.5563963651657104,60.0,1182175.0,1.0
483391.9207698,291445.46875,301640.65625,347030.59375,329681.625,338390.125,268595.84375,295302.84375,270680.96875,-0.03662109375,0.859619140625,-0.51806640625,0.6408690810203552,2.960204839706421,1.6784666776657104,60.0,1182176.0,1.0
483391.9207783,289749.6875,303151.28125,348813.65625,331012.90625,339838.0,269206.125,297027.15625,271433.875,-0.035888671875,0.860595703125,-0.518798828125,0.6713866591453552,2.838134527206421,1.6784666776657104,60.0,1182177.0,1.0
483391.9207878,289807.28125,306458.0,355144.03125,335287.8125,343818.40625,269879.8125,301617.03125,272826.5625,-0.03515625,0.85888671875,-0.521484375,0.7019042372703552,2.655029058456421,1.6174315214157104,60.0,1182178.0,1.0
483391.9229621,291558.3125,306891.15625,357067.15625,336487.46875,344691.53125,269639.65625,302549.90625,272872.96875,-0.036865234375,0.86083984375,-0.52099609375,0.6713866591453552,2.471923589706421,1.7395018339157104,60.0,1182179.0,1.0
483391.9810415,291558.3125,306891.15625,357067.15625,336487.46875,344691.53125,269639.65625,302549.90625,272872.96875,-0.036865234375,0.86083984375,-0.52099609375,0.6713866591453552,2.471923589706421,1.7395018339157104,60.0,1182180.0,0.0
483391.9810504,291558.3125,306891.15625,357067.15625,336487.46875,344691.53125,269639.65625,302549.90625,272872.96875,-0.036865234375,0.86083984375,-0.52099609375,0.6713866591453552,2.471923589706421,1.7395018339157104,60.0,1182181.0,0.0
483391.981052,291558.3125,306891.15625,357067.15625,336487.46875,344691.53125,269639.65625,302549.90625,272872.96875,-0.036865234375,0.86083984375,-0.52099609375,0.6713866591453552,2.471923589706421,1.7395018339157104,60.0,1182182.0,0.0
483391.9810533,291558.3125,306891.15625,357067.15625,336487.46875,344691.53125,269639.65625,302549.90625,272872.96875,-0.036865234375,0.86083984375,-0.52099609375,0.6713866591453552,2.471923589706421,1.7395018339157104,60.0,1182183.0,0.0
483391.9810548,291558.3125,306891.15625,357067.15625,336487.46875,344691.53125,269639.65625,302549.90625,272872.96875,-0.036865234375,0.86083984375,-0.52099609375,0.6713866591453552,2.471923589706421,1.7395018339157104,60.0,1182184.0,0.0
483391.9810561,291558.3125,306891.15625,357067.15625,336487.46875,344691.53125,269639.65625,302549.90625,272872.96875,-0.036865234375,0.86083984375,-0.52099609375,0.6713866591453552,2.471923589706421,1.7395018339157104,60.0,1182185.0,0.0
483391.9810574,291558.3125,306891.15625,357067.15625,336487.46875,344691.53125,269639.65625,302549.90625,272872.96875,-0.036865234375,0.86083984375,-0.52099609375,0.6713866591453552,2.471923589706421,1.7395018339157104,60.0,1182186.0,0.0
483391.9810587,291558.3125,306891.15625,357067.15625,336487.46875,344691.53125,269639.65625,302549.90625,272872.96875,-0.036865234375,0.86083984375,-0.52099609375,0.6713866591453552,2.471923589706421,1.7395018339157104,60.0,1182187.0,0.0
483391.98106,291558.3125,306891.15625,357067.15625,336487.46875,344691.53125,269639.65625,302549.90625,272872.96875,-0.036865234375,0.86083984375,-0.52099609375,0.6713866591453552,2.471923589706421,1.7395018339157104,60.0,1182188.0,0.0
483391.9810614,291478.90625,306893.21875,356861.1875,336626.75,344592.9375,269665.5,302349.90625,272888.34375,-0.0341796875,0.866455078125,-0.5224609375,-0.2441406100988388,1.2512205839157104,1.8615721464157104,60.0,1182189.0,1.0
483391.9933964,292619.40625,303948.0625,351869.125,333280.4375,341236.84375,268872.8125,298420.3125,271571.03125,-0.03515625,0.868408203125,-0.523193359375,-0.4577636420726776,1.1901854276657104,1.7089842557907104,60.0,1182190.0,1.0
483392.0718292,291442.4375,301608.1875,346729.3125,329914.34375,338211.875,268586.1875,294953.46875,270660.25,-0.037109375,0.86962890625,-0.521728515625,-0.6408690810203552,1.1291502714157104,1.8615721464157104,60.0,1182191.0,1.0
483392.071842,289735.9375,303033.25,348326.84375,331083.8125,339551.96875,269205.125,296556.96875,271388.53125,-0.03466796875,0.867919921875,-0.5224609375,-0.7324218153953552,0.9155272841453552,1.7395018339157104,60.0,1182192.0,1.0
483392.0718436,289716.875,306353.375,354632.71875,335304.4375,343534.15625,269894.09375,301169.28125,272793.9375,-0.035888671875,0.866943359375,-0.52294921875,-0.8850097060203552,0.7019042372703552,1.7700194120407104,60.0,1182193.0,1.0
483392.0718451,291432.59375,306893.65625,356748.875,336612.28125,344535.625,269665.21875,302274.0,272884.9375,-0.0341796875,0.86376953125,-0.52197265625,-1.0681151151657104,0.6103515028953552,1.7395018339157104,60.0,1182194.0,1.0
483392.0718466,292578.4375,303954.3125,351787.0625,333273.46875,341186.34375,268859.3125,298356.8125,271563.4375,-0.032470703125,0.862548828125,-0.520751953125,-1.3732908964157104,0.3967284858226776,1.7089842557907104,60.0,1182195.0,1.0
483392.0718481,291442.53125,301617.59375,346631.40625,329884.21875,338147.9375,268575.71875,294872.375,270656.5625,-0.032470703125,0.86279296875,-0.521484375,-1.3732908964157104,0.3356933295726776,1.7089842557907104,60.0,1182196.0,1.0
483392.0718495,289714.28125,303003.9375,348148.46875,330980.71875,339438.34375,269169.5625,296420.09375,271364.40625,-0.031494140625,0.862548828125,-0.522216796875,-1.5258787870407104,0.1220703050494194,1.7089842557907104,60.0,1182197.0,1.0
483392.0718509,289656.1875,306316.71875,354431.71875,335177.03125,343414.8125,269857.0,301027.75,272770.78125,-0.03173828125,0.861083984375,-0.525390625,-1.6174315214157104,0.0610351525247097,1.6479490995407104,60.0,1182198.0,1.0
483392.0718523,291382.625,306910.84375,356635.25,336549.0625,344480.90625,269660.5625,302203.5625,272899.0,-0.031005859375,0.859130859375,-0.5205078125,-1.7395018339157104,0.1220703050494194,1.6479490995407104,60.0,1182199.0,1.0
483392.0718537,292560.375,303992.15625,351727.78125,333233.59375,341160.40625,268853.59375,298311.65625,271580.875,-0.03076171875,0.859619140625,-0.51806640625,-1.7395018339157104,0.0915527269244194,1.5869139432907104,60.0,1182200.0,1.0
483392.0718551,291444.15625,301626.875,346536.90625,329807.25,338088.84375,268554.78125,294785.8125,270660.9375,-0.028564453125,0.862060546875,-0.517822265625,-1.9226073026657104,0.0915527269244194,1.6174315214157104,60.0,1182201.0,1.0
483392.0718567,289700.78125,302974.34375,347982.15625,330847.0625,339330.0,269143.28125,296281.40625,271358.0625,-0.0302734375,0.860595703125,-0.517822265625,-1.9531248807907104,0.1525878757238388,1.5563963651657104,60.0,1182202.0,1.0
483392.0741894,289619.78125,306290.875,354260.3125,335054.375,343312.0,269848.0625,300899.03125,272776.6875,-0.029296875,0.86083984375,-0.51806640625,-2.105712652206421,0.0610351525247097,1.5869139432907104,60.0,1182203.0,1.0
483392.074195,291335.59375,306915.65625,356532.34375,336481.125,344424.125,269668.53125,302126.84375,272917.40625,-0.028564453125,0.85986328125,-0.5205078125,-2.136230230331421,0.0610351525247097,1.5869139432907104,60.0,1182204.0,1.0
483392.0765856,292583.0,304050.71875,351715.28125,333240.03125,341161.65625,268905.0,298297.53125,271638.4375,-0.030029296875,0.85888671875,-0.52001953125,-2.227782964706421,-0.0610351525247097,1.6479490995407104,60.0,1182205.0,1.0
483392.0793166,291507.96875,301666.21875,346507.84375,329796.96875,338075.59375,268603.59375,294750.84375,270703.96875,-0.030029296875,0.8583984375,-0.51611328125,-2.319335699081421,-0.2441406100988388,1.5869139432907104,60.0,1182206.0,1.0
483392.0894005,289745.9375,302956.8125,347875.3125,330798.3125,339272.5,269177.96875,296191.84375,271369.0625,-0.029052734375,0.861328125,-0.515869140625,-2.349853277206421,-0.1220703050494194,1.5258787870407104,60.0,1182207.0,1.0
483392.0894131,289627.125,306264.78125,354128.53125,335015.46875,343246.5625,269886.25,300804.875,272784.46875,-0.0302734375,0.861083984375,-0.5166015625,-2.410888433456421,-0.1220703050494194,1.4343260526657104,60.0,1182208.0,1.0
483392.1631998,291320.21875,306914.6875,356450.25,336488.90625,344385.875,269686.40625,302073.75,272926.15625,-0.03076171875,0.861083984375,-0.516845703125,-2.502441167831421,-0.1525878757238388,1.2817381620407104,60.0,1182209.0,1.0
483392.1632392,292568.53125,304043.90625,351663.6875,333270.15625,341126.96875,268886.21875,298252.125,271627.875,-0.030517578125,0.86181640625,-0.517333984375,-2.532958745956421,-0.1525878757238388,1.2207030057907104,60.0,1182210.0,1.0
483392.1632479,291532.84375,301646.0,346432.65625,329825.75,338019.8125,268591.625,294673.96875,270688.65625,-0.029296875,0.860107421875,-0.515869140625,-2.624511480331421,-0.2136230319738388,1.1291502714157104,60.0,1182211.0,1.0
483392.1632565,289766.78125,302903.25,347725.46875,330796.96875,339173.875,269171.53125,296061.46875,271346.96875,-0.02978515625,0.86279296875,-0.51171875,-2.593993902206421,-0.2746581733226776,1.0986326932907104,60.0,1182212.0,1.0
483392.1632646,289604.78125,306183.15625,353952.21875,335021.1875,343141.59375,269872.125,300665.5625,272758.25,-0.029541015625,0.865478515625,-0.511474609375,-2.746581792831421,-0.2746581733226776,1.1291502714157104,60.0,1182213.0,1.0
483392.1632724,291315.5,306874.0,356366.03125,336589.21875,344353.9375,269705.71875,302010.34375,272934.21875,-0.029296875,0.866943359375,-0.511474609375,-2.899169683456421,-0.3967284858226776,1.1291502714157104,60.0,1182214.0,1.0
483392.1632802,292616.28125,304022.53125,351647.84375,333420.0,341134.125,268907.9375,298222.0,271637.53125,-0.02734375,0.8740234375,-0.514892578125,-2.990722417831421,-0.3051757514476776,1.0681151151657104,60.0,1182215.0,1.0
483392.1632892,291602.125,301579.59375,346380.625,329960.40625,337998.1875,268597.625,294599.03125,270678.65625,-0.029052734375,0.87744140625,-0.51416015625,-3.051757574081421,-0.2746581733226776,1.1901854276657104,60.0,1182216.0,1.0
483392.1655064,289824.34375,302782.09375,347603.625,330888.1875,339121.21875,269179.84375,295940.5,271312.90625,-0.031494140625,0.876953125,-0.515869140625,-3.417968511581421,-0.3051757514476776,1.0986326932907104,60.0,1182217.0,1.0
483392.1655473,289824.34375,302782.09375,347603.625,330888.1875,339121.21875,269179.84375,295940.5,271312.90625,-0.031494140625,0.876953125,-0.515869140625,-3.417968511581421,-0.3051757514476776,1.0986326932907104,60.0,1182218.0,0.0
483392.165549,289824.34375,302782.09375,347603.625,330888.1875,339121.21875,269179.84375,295940.5,271312.90625,-0.031494140625,0.876953125,-0.515869140625,-3.417968511581421,-0.3051757514476776,1.0986326932907104,60.0,1182219.0,0.0
483392.1655503,289824.34375,302782.09375,347603.625,330888.1875,339121.21875,269179.84375,295940.5,271312.90625,-0.031494140625,0.876953125,-0.515869140625,-3.417968511581421,-0.3051757514476776,1.0986326932907104,60.0,1182220.0,0.0
483392.1655517,289824.34375,302782.09375,347603.625,330888.1875,339121.21875,269179.84375,295940.5,271312.90625,-0.031494140625,0.876953125,-0.515869140625,-3.417968511581421,-0.3051757514476776,1.0986326932907104,60.0,1182221.0,0.0
483392.165553,289824.34375,302782.09375,347603.625,330888.1875,339121.21875,269179.84375,295940.5,271312.90625,-0.031494140625,0.876953125,-0.515869140625,-3.417968511581421,-0.3051757514476776,1.0986326932907104,60.0,1182222.0,0.0
483392.1655543,289824.34375,302782.09375,347603.625,330888.1875,339121.21875,269179.84375,295940.5,271312.90625,-0.031494140625,0.876953125,-0.515869140625,-3.417968511581421,-0.3051757514476776,1.0986326932907104,60.0,1182223.0,0.0
483392.1655556,289824.34375,302782.09375,347603.625,330888.1875,339121.21875,269179.84375,295940.5,271312.90625,-0.031494140625,0.876953125,-0.515869140625,-3.417968511581421,-0.3051757514476776,1.0986326932907104,60.0,1182224.0,0.0
483392.1655569,289824.34375,302782.09375,347603.625,330888.1875,339121.21875,269179.84375,295940.5,271312.90625,-0.031494140625,0.876953125,-0.515869140625,-3.417968511581421,-0.3051757514476776,1.0986326932907104,60.0,1182225.0,0.0
483392.1655582,289824.34375,302782.09375,347603.625,330888.1875,339121.21875,269179.84375,295940.5,271312.90625,-0.031494140625,0.876953125,-0.515869140625,-3.417968511581421,-0.3051757514476776,1.0986326932907104,60.0,1182226.0,0.0
483392.1655595,289824.34375,302782.09375,347603.625,330888.1875,339121.21875,269179.84375,295940.5,271312.90625,-0.031494140625,0.876953125,-0.515869140625,-3.417968511581421,-0.3051757514476776,1.0986326932907104,60.0,1182227.0,0.0
483392.1655608,289824.34375,302782.09375,347603.625,330888.1875,339121.21875,269179.84375,295940.5,271312.90625,-0.031494140625,0.876953125,-0.515869140625,-3.417968511581421,-0.3051757514476776,1.0986326932907104,60.0,1182228.0,0.0
483392.1655621,289824.34375,302782.09375,347603.625,330888.1875,339121.21875,269179.84375,295940.5,271312.90625,-0.031494140625,0.876953125,-0.515869140625,-3.417968511581421,-0.3051757514476776,1.0986326932907104,60.0,1182229.0,0.0
483392.1655634,289824.34375,302782.09375,347603.625,330888.1875,339121.21875,269179.84375,295940.5,271312.90625,-0.031494140625,0.876953125,-0.515869140625,-3.417968511581421,-0.3051757514476776,1.0986326932907104,60.0,1182230.0,0.0
483392.1655647,291869.71875,301575.46875,346320.90625,330258.46875,338028.21875,268643.75,294567.65625,270643.6875,-0.02197265625,0.843505859375,-0.5009765625,-2.563476324081421,0.0610351525247097,0.3662109076976776,60.0,1182231.0,1.0
483392.1679177,290035.1875,302699.75,347312.875,330967.125,339014.1875,269200.03125,295763.9375,271245.40625,-0.022705078125,0.845703125,-0.50341796875,-2.258300542831421,0.1831054538488388,0.3662109076976776,60.0,1182232.0,1.0
483392.170383,289709.65625,305988.78125,353440.28125,335078.40625,342975.5625,269918.6875,300387.0,272675.125,-0.021728515625,0.846923828125,-0.505126953125,-1.8920897245407104,0.3967284858226776,0.3051757514476776,60.0,1182233.0,1.0
483392.2118627,291366.53125,306863.0,356107.46875,336769.5625,344362.625,269783.59375,301950.53125,272927.34375,-0.02099609375,0.849365234375,-0.50537109375,-1.4648436307907104,0.7324218153953552,0.3051757514476776,60.0,1182234.0,1.0
483392.211905,292794.09375,304151.65625,351612.8125,333683.3125,341235.15625,268964.53125,298260.25,271659.0,-0.023193359375,0.851318359375,-0.504150390625,-1.1901854276657104,0.8544921278953552,0.2746581733226776,60.0,1182235.0,1.0
483392.2119138,291897.15625,301681.0625,346256.15625,330065.71875,337999.96875,268613.1875,294509.375,270660.59375,-0.02392578125,0.85205078125,-0.500732421875,-0.7019042372703552,1.0986326932907104,0.3967284858226776,60.0,1182236.0,1.0
483392.2119217,290054.5,302779.25,347183.5,330722.5,338946.4375,269162.75,295655.9375,271271.59375,-0.0263671875,0.856689453125,-0.501708984375,-0.3967284858226776,1.2207030057907104,0.4272460639476776,60.0,1182237.0,1.0
483392.2119295,289681.65625,306053.25,353280.25,334820.75,342885.53125,269879.71875,300250.46875,272696.9375,-0.0283203125,0.85986328125,-0.504150390625,-0.0610351525247097,1.4038084745407104,0.4272460639476776,60.0,1182238.0,1.0
483392.2119372,291318.4375,306964.21875,356007.15625,336568.84375,344311.125,269757.0625,301856.375,272969.875,-0.02880859375,0.8583984375,-0.502197265625,0.0915527269244194,1.5258787870407104,0.6103515028953552,60.0,1182239.0,1.0
483392.211945,292764.6875,304276.0,351567.125,333537.5625,341219.15625,268945.78125,298209.65625,271715.96875,-0.02880859375,0.86279296875,-0.5029296875,0.3356933295726776,1.5869139432907104,0.6713866591453552,60.0,1182240.0,1.0
483392.2294127,291883.75,301779.6875,346178.8125,329921.6875,337963.125,268577.21875,294439.1875,270706.5625,-0.029296875,0.865478515625,-0.5029296875,0.5493163466453552,1.6174315214157104,0.6103515028953552,60.0,1182241.0,1.0
483392.2294523,289989.21875,302800.78125,346994.125,330516.6875,338826.8125,269086.0625,295496.6875,271256.5,-0.032470703125,0.8642578125,-0.503173828125,0.7019042372703552,1.7089842557907104,0.7324218153953552,60.0,1182242.0,1.0
483392.2294618,289565.25,306047.78125,353053.0625,334620.75,342743.09375,269788.78125,300066.28125,272661.6875,-0.0322265625,0.86474609375,-0.5029296875,0.7324218153953552,1.6784666776657104,0.7324218153953552,60.0,1182243.0,1.0
483392.2294697,291188.625,306988.09375,355852.5625,336458.21875,344224.21875,269683.09375,301732.75,272952.4375,-0.032470703125,0.86767578125,-0.504150390625,0.7324218153953552,1.7089842557907104,0.8239745497703552,60.0,1182244.0,1.0
483392.2331832,292686.1875,304347.09375,351502.84375,333533.5625,341209.6875,268911.96875,298163.6875,271736.96875,-0.031494140625,0.867919921875,-0.505859375,0.8239745497703552,1.7700194120407104,0.7934569716453552,60.0,1182245.0,1.0
483392.2332243,292686.1875,304347.09375,351502.84375,333533.5625,341209.6875,268911.96875,298163.6875,271736.96875,-0.031494140625,0.867919921875,-0.505859375,0.8239745497703552,1.7700194120407104,0.7934569716453552,60.0,1182246.0,0.0
483392.2332259,292686.1875,304347.09375,351502.84375,333533.5625,341209.6875,268911.96875,298163.6875,271736.96875,-0.031494140625,0.867919921875,-0.505859375,0.8239745497703552,1.7700194120407104,0.7934569716453552,60.0,1182247.0,0.0
483392.2332274,292686.1875,304347.09375,351502.84375,333533.5625,341209.6875,268911.96875,298163.6875,271736.96875,-0.031494140625,0.867919921875,-0.505859375,0.8239745497703552,1.7700194120407104,0.7934569716453552,60.0,1182248.0,0.0
483392.2332287,291113.25,307019.90625,355758.25,336569.375,344209.0,269689.375,301666.59375,272947.28125,-0.033447265625,0.873046875,-0.5048828125,1.0375975370407104,1.7700194120407104,0.7629393935203552,60.0,1182249.0,1.0
483392.233239,292604.1875,304370.34375,351434.625,333705.40625,341197.4375,268906.34375,298114.09375,271718.28125,-0.033935546875,0.871337890625,-0.505859375,0.9460448622703552,1.8310545682907104,0.7629393935203552,60.0,1182250.0,1.0
483392.2763832,291785.78125,301835.375,346002.4375,330132.34375,337908.59375,268553.90625,294303.8125,270692.4375,-0.03564453125,0.87158203125,-0.504638671875,0.7629393935203552,1.8005369901657104,0.7019042372703552,60.0,1182251.0,1.0
483392.2764218,289902.6875,302791.9375,346690.6875,330682.1875,338693.40625,269065.3125,295265.125,271212.3125,-0.036865234375,0.873046875,-0.5048828125,0.6408690810203552,1.7089842557907104,0.7324218153953552,60.0,1182252.0,1.0
483392.2764311,289444.03125,306032.3125,352725.28125,334789.71875,342592.71875,269774.21875,299817.46875,272604.75,-0.037353515625,0.8740234375,-0.509765625,0.5798339247703552,1.7089842557907104,0.6103515028953552,60.0,1182253.0,1.0
483392.2764401,291063.4375,307061.125,355667.0625,336746.5625,344160.8125,269689.375,301594.15625,272926.34375,-0.038818359375,0.871826171875,-0.508544921875,0.5187987685203552,1.7395018339157104,0.4882812201976776,60.0,1182254.0,1.0
483392.2764479,292578.34375,304446.59375,351396.34375,333904.59375,341172.40625,268914.375,298070.71875,271713.71875,-0.040283203125,0.873291015625,-0.50634765625,0.3967284858226776,1.6784666776657104,0.3967284858226776,60.0,1182255.0,1.0
483392.2764557,291749.09375,301857.0,345896.75,330252.125,337821.5,268524.40625,294187.25,270647.09375,-0.03857421875,0.872802734375,-0.505615234375,0.3051757514476776,1.4343260526657104,0.3356933295726776,60.0,1182256.0,1.0
483392.2764635,289867.1875,302775.3125,346508.46875,330710.4375,338550.34375,269034.8125,295078.8125,271147.875,-0.038330078125,0.870849609375,-0.505859375,0.2746581733226776,1.3732908964157104,0.2136230319738388,60.0,1182257.0,1.0
483392.2764712,289406.75,306027.84375,352538.4375,334770.75,342450.75,269764.8125,299626.21875,272563.71875,-0.0361328125,0.87109375,-0.505615234375,0.2136230319738388,1.2817381620407104,0.2136230319738388,60.0,1182258.0,1.0
483392.2764791,290998.0,307070.78125,355531.25,336726.1875,344049.59375,269690.625,301434.9375,272904.625,-0.035888671875,0.869873046875,-0.507080078125,0.1220703050494194,1.1596678495407104,0.1525878757238388,60.0,1182259.0,1.0
483392.2764869,292547.34375,304486.46875,351330.46875,333912.625,341108.46875,268933.96875,297959.3125,271715.875,-0.03515625,0.8701171875,-0.508544921875,0.0915527269244194,1.1291502714157104,0.1525878757238388,60.0,1182260.0,1.0
483392.2764947,291763.6875,301894.75,345820.65625,330231.3125,337752.21875,268550.15625,294065.71875,270658.0,-0.03369140625,0.869873046875,-0.508544921875,0.0915527269244194,1.2512205839157104,0.2136230319738388,60.0,1182261.0,1.0
483392.2765042,289857.625,302751.96875,346335.03125,330584.90625,338411.15625,269032.9375,294878.1875,271128.5625,-0.031005859375,0.86962890625,-0.50927734375,-0.1220703050494194,1.2512205839157104,0.3356933295726776,60.0,1182262.0,1.0
483392.2876325,289367.40625,305986.8125,352335.125,334592.5,342292.125,269757.40625,299403.59375,272537.34375,-0.033203125,0.869140625,-0.512939453125,-0.1220703050494194,1.2207030057907104,0.2441406100988388,60.0,1182263.0,1.0
483392.2876743,289367.40625,305986.8125,352335.125,334592.5,342292.125,269757.40625,299403.59375,272537.34375,-0.033203125,0.869140625,-0.512939453125,-0.1220703050494194,1.2207030057907104,0.2441406100988388,60.0,1182264.0,0.0
483392.287676,289367.40625,305986.8125,352335.125,334592.5,342292.125,269757.40625,299403.59375,272537.34375,-0.033203125,0.869140625,-0.512939453125,-0.1220703050494194,1.2207030057907104,0.2441406100988388,60.0,1182265.0,0.0
483392.2876773,289367.40625,305986.8125,352335.125,334592.5,342292.125,269757.40625,299403.59375,272537.34375,-0.033203125,0.869140625,-0.512939453125,-0.1220703050494194,1.2207030057907104,0.2441406100988388,60.0,1182266.0,0.0
483392.2876787,289367.40625,305986.8125,352335.125,334592.5,342292.125,269757.40625,299403.59375,272537.34375,-0.033203125,0.869140625,-0.512939453125,-0.1220703050494194,1.2207030057907104,0.2441406100988388,60.0,1182267.0,0.0
483392.28768,289367.40625,305986.8125,352335.125,334592.5,342292.125,269757.40625,299403.59375,272537.34375,-0.033203125,0.869140625,-0.512939453125,-0.1220703050494194,1.2207030057907104,0.2441406100988388,60.0,1182268.0,0.0
483392.2876813,289367.40625,305986.8125,352335.125,334592.5,342292.125,269757.40625,299403.59375,272537.34375,-0.033203125,0.869140625,-0.512939453125,-0.1220703050494194,1.2207030057907104,0.2441406100988388,60.0,1182269.0,0.0
483392.2876826,292476.875,304500.78125,351195.1875,333615.53125,340984.375,268923.0625,297732.5,271721.3125,-0.03125,0.864990234375,-0.509521484375,-0.3051757514476776,1.8615721464157104,0.5187987685203552,60.0,1182270.0,1.0
483392.2953064,291716.9375,301846.09375,345612.53125,329858.84375,337571.625,268507.125,293775.59375,270629.75,-0.0322265625,0.863037109375,-0.5087890625,-0.3051757514476776,1.8615721464157104,0.5187987685203552,60.0,1182271.0,1.0
483392.298131,289816.40625,302642.28125,346001.8125,330125.09375,338156.78125,268993.875,294504.90625,271084.125,-0.03369140625,0.862060546875,-0.508544921875,-0.3051757514476776,1.9531248807907104,0.5493163466453552,60.0,1182272.0,1.0
483392.3003249,289314.8125,305905.71875,351999.65625,334155.375,342050.0,269750.96875,299049.0,272521.15625,-0.034912109375,0.86376953125,-0.5078125,-0.3051757514476776,2.105712652206421,0.6103515028953552,60.0,1182273.0,1.0
483392.3018899,290910.28125,307094.9375,355229.40625,336284.25,343815.625,269728.875,301057.53125,272941.1875,-0.03564453125,0.86279296875,-0.50830078125,-0.2746581733226776,2.044677495956421,0.5187987685203552,60.0,1182274.0,1.0
483392.3194182,292496.8125,304562.75,351180.78125,333568.34375,340961.40625,268967.6875,297694.6875,271771.125,-0.03466796875,0.86474609375,-0.507568359375,-0.3967284858226776,1.9836424589157104,0.5798339247703552,60.0,1182275.0,1.0
483392.3194332,291762.53125,301892.15625,345574.78125,329806.1875,337529.59375,268543.4375,293722.5,270668.09375,-0.03564453125,0.86376953125,-0.50927734375,-0.3662109076976776,1.9836424589157104,0.6408690810203552,60.0,1182276.0,1.0
483392.3194354,289870.21875,302665.6875,345904.71875,330055.09375,338084.625,269024.8125,294412.09375,271113.09375,-0.034912109375,0.86376953125,-0.51171875,-0.3967284858226776,1.8615721464157104,0.4882812201976776,60.0,1182277.0,1.0
483392.3194375,289308.3125,305884.625,351847.5,334072.125,341938.25,269744.25,298912.9375,272513.28125,-0.035400390625,0.864013671875,-0.51025390625,-0.4577636420726776,1.7700194120407104,0.4577636420726776,60.0,1182278.0,1.0
483392.3194395,290851.375,307066.5,355103.53125,336244.375,343717.46875,269708.0625,300939.34375,272920.53125,-0.03564453125,0.865234375,-0.510986328125,-0.4577636420726776,1.8310545682907104,0.4882812201976776,60.0,1182279.0,1.0
483392.3194415,292476.15625,304577.65625,351134.5625,333614.46875,340926.875,268971.15625,297640.65625,271784.96875,-0.0380859375,0.86376953125,-0.509521484375,-0.5798339247703552,1.7700194120407104,0.4272460639476776,60.0,1182280.0,1.0
483392.3194435,291760.71875,301887.6875,345511.75,329871.34375,337488.75,268536.8125,293655.4375,270679.0,-0.038330078125,0.864013671875,-0.505126953125,-0.6408690810203552,1.7700194120407104,0.4272460639476776,60.0,1182281.0,1.0
483392.3194457,289877.28125,302638.96875,345788.5625,330115.625,338018.65625,269021.40625,294312.9375,271117.8125,-0.0390625,0.864013671875,-0.50634765625,-0.7324218153953552,1.7089842557907104,0.3967284858226776,60.0,1182282.0,1.0
483392.3243633,289338.15625,305896.96875,351749.78125,334191.3125,341906.6875,269794.6875,298846.0625,272549.0625,-0.040283203125,0.865478515625,-0.511474609375,-0.9155272841453552,1.6784666776657104,0.3356933295726776,60.0,1182283.0,1.0
483392.3243798,290859.96875,307107.875,355058.625,336425.59375,343721.46875,269755.09375,300915.5625,272958.25,-0.038330078125,0.863037109375,-0.511962890625,-0.8239745497703552,1.5563963651657104,0.2746581733226776,60.0,1182284.0,1.0
483392.3266487,292458.1875,304601.8125,351106.84375,333810.1875,340929.75,268965.625,297622.875,271782.21875,-0.0380859375,0.86279296875,-0.507080078125,-0.8239745497703552,1.4953612089157104,0.2441406100988388,60.0,1182285.0,1.0
483392.3293009,291764.40625,301889.65625,345460.4375,330067.875,337474.625,268531.09375,293622.1875,270668.90625,-0.038818359375,0.862060546875,-0.509765625,-0.9765624403953552,1.4038084745407104,0.2746581733226776,60.0,1182286.0,1.0
483392.3705443,289876.75,302598.46875,345661.96875,330279.125,337954.375,269002.375,294226.65625,271090.46875,-0.038818359375,0.8642578125,-0.509033203125,-0.9460448622703552,1.3122557401657104,0.3051757514476776,60.0,1182287.0,1.0
483392.3705584,289876.75,302598.46875,345661.96875,330279.125,337954.375,269002.375,294226.65625,271090.46875,-0.038818359375,0.8642578125,-0.509033203125,-0.9460448622703552,1.3122557401657104,0.3051757514476776,60.0,1182288.0,0.0
483392.3705587,289876.75,302598.46875,345661.96875,330279.125,337954.375,269002.375,294226.65625,271090.46875,-0.038818359375,0.8642578125,-0.509033203125,-0.9460448622703552,1.3122557401657104,0.3051757514476776,60.0,1182289.0,0.0
483392.370559,289876.75,302598.46875,345661.96875,330279.125,337954.375,269002.375,294226.65625,271090.46875,-0.038818359375,0.8642578125,-0.509033203125,-0.9460448622703552,1.3122557401657104,0.3051757514476776,60.0,1182290.0,0.0
483392.3705593,289876.75,302598.46875,345661.96875,330279.125,337954.375,269002.375,294226.65625,271090.46875,-0.038818359375,0.8642578125,-0.509033203125,-0.9460448622703552,1.3122557401657104,0.3051757514476776,60.0,1182291.0,0.0
483392.3705596,289876.75,302598.46875,345661.96875,330279.125,337954.375,269002.375,294226.65625,271090.46875,-0.038818359375,0.8642578125,-0.509033203125,-0.9460448622703552,1.3122557401657104,0.3051757514476776,60.0,1182292.0,0.0
483392.3705599,289876.75,302598.46875,345661.96875,330279.125,337954.375,269002.375,294226.65625,271090.46875,-0.038818359375,0.8642578125,-0.509033203125,-0.9460448622703552,1.3122557401657104,0.3051757514476776,60.0,1182293.0,0.0
483392.3705601,289876.75,302598.46875,345661.96875,330279.125,337954.375,269002.375,294226.65625,271090.46875,-0.038818359375,0.8642578125,-0.509033203125,-0.9460448622703552,1.3122557401657104,0.3051757514476776,60.0,1182294.0,0.0
483392.3705604,289876.75,302598.46875,345661.96875,330279.125,337954.375,269002.375,294226.65625,271090.46875,-0.038818359375,0.8642578125,-0.509033203125,-0.9460448622703552,1.3122557401657104,0.3051757514476776,60.0,1182295.0,0.0
483392.3705607,289876.75,302598.46875,345661.96875,330279.125,337954.375,269002.375,294226.65625,271090.46875,-0.038818359375,0.8642578125,-0.509033203125,-0.9460448622703552,1.3122557401657104,0.3051757514476776,60.0,1182296.0,0.0
483392.3705609,289876.75,302598.46875,345661.96875,330279.125,337954.375,269002.375,294226.65625,271090.46875,-0.038818359375,0.8642578125,-0.509033203125,-0.9460448622703552,1.3122557401657104,0.3051757514476776,60.0,1182297.0,0.0
483392.3705612,289876.75,302598.46875,345661.96875,330279.125,337954.375,269002.375,294226.65625,271090.46875,-0.038818359375,0.8642578125,-0.509033203125,-0.9460448622703552,1.3122557401657104,0.3051757514476776,60.0,1182298.0,0.0
483392.3705614,289876.75,302598.46875,345661.96875,330279.125,337954.375,269002.375,294226.65625,271090.46875,-0.038818359375,0.8642578125,-0.509033203125,-0.9460448622703552,1.3122557401657104,0.3051757514476776,60.0,1182299.0,0.0
483392.3705617,289876.75,302598.46875,345661.96875,330279.125,337954.375,269002.375,294226.65625,271090.46875,-0.038818359375,0.8642578125,-0.509033203125,-0.9460448622703552,1.3122557401657104,0.3051757514476776,60.0,1182300.0,0.0
483392.370562,289876.75,302598.46875,345661.96875,330279.125,337954.375,269002.375,294226.65625,271090.46875,-0.038818359375,0.8642578125,-0.509033203125,-0.9460448622703552,1.3122557401657104,0.3051757514476776,60.0,1182301.0,0.0
483392.3705622,289876.75,302598.46875,345661.96875,330279.125,337954.375,269002.375,294226.65625,271090.46875,-0.038818359375,0.8642578125,-0.509033203125,-0.9460448622703552,1.3122557401657104,0.3051757514476776,60.0,1182302.0,0.0
483392.3705625,289876.75,302598.46875,345661.96875,330279.125,337954.375,269002.375,294226.65625,271090.46875,-0.038818359375,0.8642578125,-0.509033203125,-0.9460448622703552,1.3122557401657104,0.3051757514476776,60.0,1182303.0,0.0
483392.3705627,289876.75,302598.46875,345661.96875,330279.125,337954.375,269002.375,294226.65625,271090.46875,-0.038818359375,0.8642578125,-0.509033203125,-0.9460448622703552,1.3122557401657104,0.3051757514476776,60.0,1182304.0,0.0
483392.370563,289876.75,302598.46875,345661.96875,330279.125,337954.375,269002.375,294226.65625,271090.46875,-0.038818359375,0.8642578125,-0.509033203125,-0.9460448622703552,1.3122557401657104,0.3051757514476776,60.0,1182305.0,0.0
483392.3705633,289876.75,302598.46875,345661.96875,330279.125,337954.375,269002.375,294226.65625,271090.46875,-0.038818359375,0.8642578125,-0.509033203125,-0.9460448622703552,1.3122557401657104,0.3051757514476776,60.0,1182306.0,0.0
483392.3705635,289876.75,302598.46875,345661.96875,330279.125,337954.375,269002.375,294226.65625,271090.46875,-0.038818359375,0.8642578125,-0.509033203125,-0.9460448622703552,1.3122557401657104,0.3051757514476776,60.0,1182307.0,0.0
483392.3705638,289876.75,302598.46875,345661.96875,330279.125,337954.375,269002.375,294226.65625,271090.46875,-0.038818359375,0.8642578125,-0.509033203125,-0.9460448622703552,1.3122557401657104,0.3051757514476776,60.0,1182308.0,0.0
483392.370564,289876.75,302598.46875,345661.96875,330279.125,337954.375,269002.375,294226.65625,271090.46875,-0.038818359375,0.8642578125,-0.509033203125,-0.9460448622703552,1.3122557401657104,0.3051757514476776,60.0,1182309.0,0.0
483392.3705643,289876.75,302598.46875,345661.96875,330279.125,337954.375,269002.375,294226.65625,271090.46875,-0.038818359375,0.8642578125,-0.509033203125,-0.9460448622703552,1.3122557401657104,0.3051757514476776,60.0,1182310.0,0.0
483392.3705646,289876.75,302598.46875,345661.96875,330279.125,337954.375,269002.375,294226.65625,271090.46875,-0.038818359375,0.8642578125,-0.509033203125,-0.9460448622703552,1.3122557401657104,0.3051757514476776,60.0,1182311.0,0.0
483392.3705648,289876.75,302598.46875,345661.96875,330279.125,337954.375,269002.375,294226.65625,271090.46875,-0.038818359375,0.8642578125,-0.509033203125,-0.9460448622703552,1.3122557401657104,0.3051757514476776,60.0,1182312.0,0.0
483392.3705651,289445.71875,305710.53125,350944.40625,334163.59375,341418.71875,269832.0625,298146.625,272520.53125,-0.03125,0.869140625,-0.510009765625,-1.9531248807907104,-1.0375975370407104,1.7700194120407104,60.0,1182313.0,1.0
483392.3705668,290881.0625,307119.34375,354605.34375,336587.875,343478.03125,269855.40625,300504.03125,273032.46875,-0.028076171875,0.8701171875,-0.512451171875,-2.166747808456421,-0.8239745497703552,1.8005369901657104,60.0,1182314.0,1.0
483392.3705685,292609.125,304778.375,351007.34375,334169.875,340884.15625,269097.84375,297432.53125,271937.6875,-0.03271484375,0.8720703125,-0.511962890625,-2.258300542831421,-0.7019042372703552,2.014159917831421,60.0,1182315.0,1.0
483392.37057,292096.71875,301984.6875,345260.09375,330322.5,337330.125,268640.4375,293305.9375,270784.25,-0.035400390625,0.86865234375,-0.510986328125,-2.410888433456421,-0.7934569716453552,1.8615721464157104,60.0,1182316.0,1.0
483392.3705716,290187.25,302473.03125,345041.21875,330203.84375,337537.09375,269066.28125,293603.40625,271101.09375,-0.0361328125,0.868896484375,-0.514892578125,-2.502441167831421,-0.6408690810203552,1.8310545682907104,60.0,1182317.0,1.0
483392.3705732,289485.59375,305697.125,350835.78125,334148.84375,341364.53125,269845.03125,298086.09375,272536.1875,-0.0380859375,0.868408203125,-0.5107421875,-2.319335699081421,-0.6103515028953552,1.8920897245407104,60.0,1182318.0,1.0
483392.3705748,290898.03125,307141.9375,354545.71875,336621.40625,343462.1875,269877.9375,300496.40625,273047.84375,-0.0400390625,0.86279296875,-0.510986328125,-2.380370855331421,-0.7324218153953552,1.8920897245407104,60.0,1182319.0,1.0
483392.3705763,292653.71875,304837.21875,351012.53125,334257.03125,340907.40625,269139.15625,297472.3125,271962.09375,-0.041748046875,0.856689453125,-0.506591796875,-2.410888433456421,-0.7629393935203552,1.6784666776657104,60.0,1182320.0,1.0
483392.370578,292183.8125,302047.0,345270.375,330408.34375,337361.875,268672.09375,293347.09375,270817.3125,-0.040771484375,0.85498046875,-0.508544921875,-2.288818120956421,-0.7629393935203552,1.4953612089157104,60.0,1182321.0,1.0
483392.3705799,290322.4375,302554.03125,345046.40625,330311.15625,337601.75,269144.6875,293665.8125,271186.125,-0.041748046875,0.8525390625,-0.512939453125,-2.136230230331421,-0.7324218153953552,1.2512205839157104,60.0,1182322.0,1.0
483392.3830988,289554.875,305733.6875,350794.46875,334217.875,341411.65625,269905.90625,298129.0,272599.90625,-0.041748046875,0.853271484375,-0.5146484375,-2.014159917831421,-0.8544921278953552,1.0375975370407104,60.0,1182323.0,1.0
483392.3831427,289554.875,305733.6875,350794.46875,334217.875,341411.65625,269905.90625,298129.0,272599.90625,-0.041748046875,0.853271484375,-0.5146484375,-2.014159917831421,-0.8544921278953552,1.0375975370407104,60.0,1182324.0,0.0
483392.3831444,289554.875,305733.6875,350794.46875,334217.875,341411.65625,269905.90625,298129.0,272599.90625,-0.041748046875,0.853271484375,-0.5146484375,-2.014159917831421,-0.8544921278953552,1.0375975370407104,60.0,1182325.0,0.0
483392.3831458,289554.875,305733.6875,350794.46875,334217.875,341411.65625,269905.90625,298129.0,272599.90625,-0.041748046875,0.853271484375,-0.5146484375,-2.014159917831421,-0.8544921278953552,1.0375975370407104,60.0,1182326.0,0.0
483392.3831471,289554.875,305733.6875,350794.46875,334217.875,341411.65625,269905.90625,298129.0,272599.90625,-0.041748046875,0.853271484375,-0.5146484375,-2.014159917831421,-0.8544921278953552,1.0375975370407104,60.0,1182327.0,0.0
483392.3831484,289554.875,305733.6875,350794.46875,334217.875,341411.65625,269905.90625,298129.0,272599.90625,-0.041748046875,0.853271484375,-0.5146484375,-2.014159917831421,-0.8544921278953552,1.0375975370407104,60.0,1182328.0,0.0
483392.3831497,289554.875,305733.6875,350794.46875,334217.875,341411.65625,269905.90625,298129.0,272599.90625,-0.041748046875,0.853271484375,-0.5146484375,-2.014159917831421,-0.8544921278953552,1.0375975370407104,60.0,1182329.0,0.0
483392.383151,289554.875,305733.6875,350794.46875,334217.875,341411.65625,269905.90625,298129.0,272599.90625,-0.041748046875,0.853271484375,-0.5146484375,-2.014159917831421,-0.8544921278953552,1.0375975370407104,60.0,1182330.0,0.0
483392.3831523,289554.875,305733.6875,350794.46875,334217.875,341411.65625,269905.90625,298129.0,272599.90625,-0.041748046875,0.853271484375,-0.5146484375,-2.014159917831421,-0.8544921278953552,1.0375975370407104,60.0,1182331.0,0.0
483392.3831536,289554.875,305733.6875,350794.46875,334217.875,341411.65625,269905.90625,298129.0,272599.90625,-0.041748046875,0.853271484375,-0.5146484375,-2.014159917831421,-0.8544921278953552,1.0375975370407104,60.0,1182332.0,0.0
483392.3831549,289554.875,305733.6875,350794.46875,334217.875,341411.65625,269905.90625,298129.0,272599.90625,-0.041748046875,0.853271484375,-0.5146484375,-2.014159917831421,-0.8544921278953552,1.0375975370407104,60.0,1182333.0,0.0
483392.3831562,289554.875,305733.6875,350794.46875,334217.875,341411.65625,269905.90625,298129.0,272599.90625,-0.041748046875,0.853271484375,-0.5146484375,-2.014159917831421,-0.8544921278953552,1.0375975370407104,60.0,1182334.0,0.0
483392.3831575,292667.75,304939.3125,350993.5625,334586.84375,341043.46875,269184.65625,297566.90625,272021.09375,-0.018798828125,0.864990234375,-0.5146484375,-1.9226073026657104,-0.4577636420726776,0.2441406100988388,60.0,1182335.0,1.0
483392.3831675,292249.875,302080.8125,345169.0625,330679.40625,337406.3125,268679.5,293341.71875,270820.46875,-0.02294921875,0.866455078125,-0.50732421875,-1.5258787870407104,-0.03051757626235485,0.7629393935203552,60.0,1182336.0,1.0
483392.400504,290318.96875,302417.875,344669.1875,330388.5625,337444.65625,269082.75,293443.0,271083.40625,-0.02783203125,0.8662109375,-0.5068359375,-1.4343260526657104,0.1525878757238388,0.9460448622703552,60.0,1182337.0,1.0
483392.4005437,289470.5625,305577.96875,350317.3125,334263.90625,341207.53125,269872.84375,297863.21875,272501.03125,-0.028076171875,0.8642578125,-0.5068359375,-1.2817381620407104,0.3662109076976776,0.9765624403953552,60.0,1182338.0,1.0
483392.4005524,290824.375,307182.625,354255.75,336901.4375,343473.375,269950.875,300473.25,273089.4375,-0.025390625,0.86279296875,-0.506103515625,-1.3122557401657104,0.7324218153953552,1.1901854276657104,60.0,1182339.0,1.0
483392.4005606,292627.96875,304984.46875,350921.25,334631.46875,341012.53125,269172.15625,297555.28125,272004.65625,-0.02587890625,0.86181640625,-0.504638671875,-1.3427733182907104,1.0375975370407104,1.4038084745407104,60.0,1182340.0,1.0
483392.4005683,292223.875,302107.34375,345052.75,330681.8125,337331.90625,268645.90625,293278.875,270776.46875,-0.027587890625,0.859375,-0.5068359375,-1.3732908964157104,1.2817381620407104,1.6479490995407104,60.0,1182341.0,1.0
483392.4005766,290297.21875,302417.875,344481.78125,330334.46875,337333.78125,269034.625,293329.65625,271027.0625,-0.030029296875,0.859130859375,-0.508544921875,-1.2817381620407104,1.5563963651657104,1.8005369901657104,60.0,1182342.0,1.0
483392.4005845,289416.125,305557.5625,350085.1875,334152.25,341079.78125,269807.28125,297720.6875,272429.0625,-0.031982421875,0.8603515625,-0.50732421875,-1.1596678495407104,1.7700194120407104,2.014159917831421,60.0,1182343.0,1.0
483392.4005925,290749.1875,307192.09375,354071.84375,336804.25,343385.40625,269891.78125,300368.3125,273036.84375,-0.0322265625,0.859375,-0.510498046875,-1.0070799589157104,2.014159917831421,2.227782964706421,60.0,1182344.0,1.0
483392.4006004,292576.5625,305040.53125,350810.65625,334570.40625,340975.96875,269148.1875,297496.625,271987.75,-0.035888671875,0.860107421875,-0.5126953125,-0.8544921278953552,2.166747808456421,2.349853277206421,60.0,1182345.0,1.0
483392.4006081,292212.0625,302170.65625,344947.25,330605.21875,337302.40625,268630.78125,293211.625,270769.21875,-0.036865234375,0.861328125,-0.51025390625,-0.6408690810203552,2.441406011581421,2.410888433456421,60.0,1182346.0,1.0
483392.4006159,290271.125,302437.8125,344293.59375,330184.8125,337243.84375,269012.5625,293190.0,270990.25,-0.03564453125,0.86328125,-0.5087890625,-0.6713866591453552,2.685546636581421,2.380370855331421,60.0,1182347.0,1.0
483392.4029466,289373.9375,305587.625,349871.15625,333977.28125,340979.8125,269797.8125,297561.46875,272401.15625,-0.03662109375,0.8623046875,-0.50634765625,-0.7019042372703552,2.899169683456421,2.471923589706421,60.0,1182348.0,1.0
483392.4029864,289373.9375,305587.625,349871.15625,333977.28125,340979.8125,269797.8125,297561.46875,272401.15625,-0.03662109375,0.8623046875,-0.50634765625,-0.7019042372703552,2.899169683456421,2.471923589706421,60.0,1182349.0,0.0
483392.4029882,289373.9375,305587.625,349871.15625,333977.28125,340979.8125,269797.8125,297561.46875,272401.15625,-0.03662109375,0.8623046875,-0.50634765625,-0.7019042372703552,2.899169683456421,2.471923589706421,60.0,1182350.0,0.0
483392.4029897,289373.9375,305587.625,349871.15625,333977.28125,340979.8125,269797.8125,297561.46875,272401.15625,-0.03662109375,0.8623046875,-0.50634765625,-0.7019042372703552,2.899169683456421,2.471923589706421,60.0,1182351.0,0.0
483392.402991,289373.9375,305587.625,349871.15625,333977.28125,340979.8125,269797.8125,297561.46875,272401.15625,-0.03662109375,0.8623046875,-0.50634765625,-0.7019042372703552,2.899169683456421,2.471923589706421,60.0,1182352.0,0.0
483392.4029923,289373.9375,305587.625,349871.15625,333977.28125,340979.8125,269797.8125,297561.46875,272401.15625,-0.03662109375,0.8623046875,-0.50634765625,-0.7019042372703552,2.899169683456421,2.471923589706421,60.0,1182353.0,0.0
483392.4029936,289373.9375,305587.625,349871.15625,333977.28125,340979.8125,269797.8125,297561.46875,272401.15625,-0.03662109375,0.8623046875,-0.50634765625,-0.7019042372703552,2.899169683456421,2.471923589706421,60.0,1182354.0,0.0
483392.4029949,289373.9375,305587.625,349871.15625,333977.28125,340979.8125,269797.8125,297561.46875,272401.15625,-0.03662109375,0.8623046875,-0.50634765625,-0.7019042372703552,2.899169683456421,2.471923589706421,60.0,1182355.0,0.0
483392.4029962,289373.9375,305587.625,349871.15625,333977.28125,340979.8125,269797.8125,297561.46875,272401.15625,-0.03662109375,0.8623046875,-0.50634765625,-0.7019042372703552,2.899169683456421,2.471923589706421,60.0,1182356.0,0.0
483392.4029975,290170.375,302514.875,343886.0,329922.125,337064.84375,268912.25,292912.84375,270961.8125,-0.0478515625,0.864501953125,-0.514892578125,-0.9765624403953552,3.356933355331421,2.746581792831421,60.0,1182357.0,1.0
483392.4054449,289225.15625,305648.3125,349397.21875,333701.8125,340753.53125,269684.09375,297241.28125,272362.09375,-0.046142578125,0.862548828125,-0.516357421875,-1.1901854276657104,3.295898199081421,2.746581792831421,60.0,1182358.0,1.0
483392.4079393,290434.65625,307317.8125,353481.3125,336417.28125,343102.78125,269739.625,299952.90625,272958.34375,-0.042724609375,0.86328125,-0.51220703125,-1.3122557401657104,3.234863042831421,2.807616949081421,60.0,1182359.0,1.0
483392.4105621,292259.0,305197.25,350363.875,334288.3125,340765.25,268979.28125,297170.21875,271909.25,-0.045166015625,0.863525390625,-0.511962890625,-1.5258787870407104,3.173827886581421,2.777099370956421,60.0,1182360.0,1.0
483392.4177341,292020.28125,302315.3125,344502.1875,330367.375,337094.1875,268499.375,292885.03125,270711.375,-0.044677734375,0.86572265625,-0.509765625,-1.6784666776657104,3.112792730331421,2.593993902206421,60.0,1182361.0,1.0
483392.4177803,290120.28125,302489.125,343672.9375,329871.8125,336931.375,268889.4375,292742.5,270916.65625,-0.04443359375,0.8662109375,-0.511474609375,-1.8310545682907104,3.051757574081421,2.471923589706421,60.0,1182362.0,1.0
483392.4542334,289155.9375,305582.34375,349153.5625,333633.78125,340603.6875,269685.4375,297053.09375,272315.15625,-0.04345703125,0.8662109375,-0.51123046875,-1.8615721464157104,2.899169683456421,2.380370855331421,60.0,1182363.0,1.0
483392.4542452,290414.09375,307322.5625,353344.53125,336444.5625,343037.0625,269806.9375,299854.5625,272978.65625,-0.041259765625,0.866943359375,-0.511962890625,-1.9531248807907104,2.838134527206421,2.349853277206421,60.0,1182364.0,1.0
483392.4542472,292284.125,305243.84375,350322.65625,334399.625,340763.0,269085.96875,297142.5,271969.875,-0.0419921875,0.869140625,-0.51123046875,-2.105712652206421,2.807616949081421,2.197265386581421,60.0,1182365.0,1.0
483392.4542488,292043.78125,302300.5625,344429.03125,330456.6875,337053.3125,268559.4375,292813.0625,270741.78125,-0.04150390625,0.871337890625,-0.50830078125,-2.166747808456421,2.746581792831421,2.136230230331421,60.0,1182366.0,1.0
483392.4542505,290098.84375,302390.40625,343496.09375,329871.4375,336799.0625,268891.59375,292570.3125,270889.65625,-0.042236328125,0.87548828125,-0.504638671875,-2.319335699081421,2.716064214706421,2.105712652206421,60.0,1182367.0,1.0
483392.4542521,289128.59375,305490.5,348961.4375,333628.21875,340465.71875,269706.34375,296868.8125,272301.125,-0.040771484375,0.878173828125,-0.5068359375,-2.502441167831421,2.563476324081421,1.9836424589157104,60.0,1182368.0,1.0
483392.4542537,290364.1875,307261.21875,353201.21875,336471.03125,342935.9375,269834.90625,299708.21875,272978.03125,-0.041015625,0.878662109375,-0.50537109375,-2.777099370956421,2.410888433456421,1.8005369901657104,60.0,1182369.0,1.0
483392.4542553,292238.25,305203.78125,350220.375,334451.5,340674.5625,269091.6875,297013.9375,271956.1875,-0.04052734375,0.880126953125,-0.50390625,-2.899169683456421,2.380370855331421,1.6784666776657104,60.0,1182370.0,1.0
483392.4592578,292041.46875,302271.9375,344328.1875,330514.46875,336954.4375,268558.5625,292672.6875,270718.625,-0.038330078125,0.87939453125,-0.5048828125,-3.143310308456421,2.319335699081421,1.7089842557907104,60.0,1182371.0,1.0
483392.4592642,290136.75,302361.09375,343375.5625,329933.5,336702.9375,268916.875,292424.59375,270892.53125,-0.03515625,0.879638671875,-0.503662109375,-3.326415777206421,2.349853277206421,1.5869139432907104,60.0,1182372.0,1.0
483392.4618199,289123.9375,305425.96875,348791.21875,333646.65625,340339.75,269718.5,296695.5625,272288.59375,-0.0341796875,0.876708984375,-0.50048828125,-3.540038824081421,2.380370855331421,1.3732908964157104,60.0,1182373.0,1.0
483392.4667795,290310.90625,307197.46875,353056.1875,336497.3125,342821.40625,269826.875,299555.6875,272957.09375,-0.03125,0.876708984375,-0.503173828125,-3.662109136581421,2.227782964706421,1.2817381620407104,60.0,1182374.0,1.0
483392.4744713,292216.53125,305186.53125,350167.28125,334553.25,340624.78125,269120.28125,296933.65625,271973.8125,-0.030517578125,0.875,-0.503173828125,-3.814697027206421,2.288818120956421,1.1596678495407104,60.0,1182375.0,1.0
483392.4744845,292033.78125,302231.0,344254.78125,330602.875,336876.5625,268579.375,292564.15625,270716.84375,-0.03125,0.874755859375,-0.503173828125,-3.845214605331421,2.349853277206421,1.1901854276657104,60.0,1182376.0,1.0
483392.4744862,290086.6875,302251.21875,343185.84375,329918.28125,336531.0,268875.5,292218.75,270821.09375,-0.029052734375,0.8759765625,-0.502685546875,-3.906249761581421,2.471923589706421,1.1291502714157104,60.0,1182377.0,1.0
483392.4744878,289047.9375,305315.8125,348557.5,333582.0,340148.875,269654.3125,296468.09375,272197.59375,-0.03076171875,0.877197265625,-0.50537109375,-4.150390148162842,2.410888433456421,1.1596678495407104,60.0,1182378.0,1.0
483392.4744894,290236.15625,307144.09375,352889.4375,336471.375,342691.25,269800.15625,299394.75,272902.375,-0.03076171875,0.8759765625,-0.5,-4.089354991912842,2.502441167831421,1.1596678495407104,60.0,1182379.0,1.0
483392.474491,292179.59375,305181.0,350080.625,334577.65625,340552.8125,269105.8125,296830.90625,271942.0625,-0.03271484375,0.87060546875,-0.501708984375,-4.211425304412842,2.410888433456421,1.1291502714157104,60.0,1182380.0,1.0
483392.4744926,292061.59375,302240.5625,344195.6875,330641.40625,336831.0625,268566.40625,292481.0,270697.875,-0.030029296875,0.869384765625,-0.50048828125,-4.272460460662842,2.349853277206421,1.0375975370407104,60.0,1182381.0,1.0
483392.4744943,290140.9375,302242.90625,343086.34375,329920.71875,336468.15625,268881.40625,292112.8125,270810.53125,-0.02978515625,0.866943359375,-0.49658203125,-4.241942882537842,2.441406011581421,0.9460448622703552,60.0,1182382.0,1.0
483392.474496,289089.4375,305309.71875,348443.0625,333555.8125,340091.5625,269695.8125,296369.84375,272219.40625,-0.02880859375,0.86279296875,-0.49560546875,-4.150390148162842,2.471923589706421,0.9155272841453552,60.0,1182383.0,1.0
483392.4767948,290224.90625,307139.90625,352797.09375,336429.4375,342642.78125,269836.34375,299313.9375,272921.6875,-0.029541015625,0.859375,-0.498291015625,-4.089354991912842,2.532958745956421,0.8544921278953552,60.0,1182384.0,1.0
483392.476809,290224.90625,307139.90625,352797.09375,336429.4375,342642.78125,269836.34375,299313.9375,272921.6875,-0.029541015625,0.859375,-0.498291015625,-4.089354991912842,2.532958745956421,0.8544921278953552,60.0,1182385.0,0.0
483392.4768094,290224.90625,307139.90625,352797.09375,336429.4375,342642.78125,269836.34375,299313.9375,272921.6875,-0.029541015625,0.859375,-0.498291015625,-4.089354991912842,2.532958745956421,0.8544921278953552,60.0,1182386.0,0.0
483392.4768097,290224.90625,307139.90625,352797.09375,336429.4375,342642.78125,269836.34375,299313.9375,272921.6875,-0.029541015625,0.859375,-0.498291015625,-4.089354991912842,2.532958745956421,0.8544921278953552,60.0,1182387.0,0.0
483392.47681,290224.90625,307139.90625,352797.09375,336429.4375,342642.78125,269836.34375,299313.9375,272921.6875,-0.029541015625,0.859375,-0.498291015625,-4.089354991912842,2.532958745956421,0.8544921278953552,60.0,1182388.0,0.0
483392.4768103,290224.90625,307139.90625,352797.09375,336429.4375,342642.78125,269836.34375,299313.9375,272921.6875,-0.029541015625,0.859375,-0.498291015625,-4.089354991912842,2.532958745956421,0.8544921278953552,60.0,1182389.0,0.0
483392.4768105,290224.90625,307139.90625,352797.09375,336429.4375,342642.78125,269836.34375,299313.9375,272921.6875,-0.029541015625,0.859375,-0.498291015625,-4.089354991912842,2.532958745956421,0.8544921278953552,60.0,1182390.0,0.0
483392.4768108,292059.1875,302234.125,344052.375,330407.0,336702.84375,268567.3125,292270.4375,270709.9375,-0.031494140625,0.87646484375,-0.4951171875,-2.716064214706421,2.380370855331421,0.3051757514476776,60.0,1182391.0,1.0
483392.4843131,290162.65625,302186.03125,342833.125,329604.21875,336275.84375,268887.75,291813.3125,270813.84375,-0.031005859375,0.87841796875,-0.494384765625,-2.746581792831421,2.349853277206421,0.2441406100988388,60.0,1182392.0,1.0
483392.4868059,288990.375,305155.25,348044.75,333130.3125,339797.125,269653.78125,295951.0625,272157.8125,-0.030029296875,0.878662109375,-0.491943359375,-2.777099370956421,2.410888433456421,0.1525878757238388,60.0,1182393.0,1.0
483392.4893088,290090.96875,307054.0625,352489.8125,336087.0,342416.125,269819.8125,298965.875,272896.125,-0.028564453125,0.878662109375,-0.490234375,-2.899169683456421,2.471923589706421,0.2136230319738388,60.0,1182394.0,1.0
483392.4915809,292098.96875,305207.4375,349897.4375,334335.34375,340412.78125,269134.78125,296548.46875,271985.4375,-0.030029296875,0.877197265625,-0.48974609375,-2.746581792831421,2.471923589706421,0.2441406100988388,60.0,1182395.0,1.0
483392.4967624,292048.25,302215.53125,343982.53125,330372.46875,336642.59375,268550.78125,292138.75,270699.5,-0.029296875,0.8798828125,-0.49169921875,-2.899169683456421,2.471923589706421,0.1220703050494194,60.0,1182396.0,1.0
483392.4967765,290136.03125,302113.96875,342673.625,329533.21875,336149.96875,268845.0,291611.59375,270768.40625,-0.02783203125,0.87841796875,-0.49267578125,-2.807616949081421,2.441406011581421,0.1525878757238388,60.0,1182397.0,1.0
483392.4992174,288929.9375,305061.90625,347827.03125,333048.53125,339633.34375,269597.8125,295710.46875,272095.40625,-0.02978515625,0.877197265625,-0.492431640625,-2.838134527206421,2.441406011581421,0.1525878757238388,60.0,1182398.0,1.0
483392.5016216,290022.46875,307004.0,352332.25,336079.0625,342301.25,269779.40625,298784.53125,272856.96875,-0.030029296875,0.876953125,-0.49072265625,-2.868652105331421,2.502441167831421,0.1525878757238388,60.0,1182399.0,1.0
483392.5042138,292047.1875,305192.53125,349815.46875,334410.46875,340346.375,269117.4375,296429.21875,271965.125,-0.030029296875,0.8779296875,-0.48974609375,-2.868652105331421,2.502441167831421,0.0,60.0,1182400.0,1.0
483392.5068058,292047.375,302215.8125,343911.46875,330484.78125,336582.40625,268537.53125,292026.375,270678.46875,-0.029052734375,0.87744140625,-0.48681640625,-2.777099370956421,2.441406011581421,-0.03051757626235485,60.0,1182401.0,1.0
483392.5117449,290138.0,302076.34375,342537.46875,329619.65625,336047.21875,268827.40625,291453.71875,270721.46875,-0.030517578125,0.87744140625,-0.488037109375,-2.807616949081421,2.410888433456421,0.0610351525247097,60.0,1182402.0,1.0
483392.5133252,288962.46875,305068.96875,347705.375,333164.84375,339562.09375,269643.0625,295587.25,272090.84375,-0.03173828125,0.87744140625,-0.486328125,-2.868652105331421,2.349853277206421,-0.03051757626235485,60.0,1182403.0,1.0
483392.5255117,290068.34375,307080.875,352288.375,336252.25,342297.3125,269863.875,298736.25,272892.8125,-0.03173828125,0.876953125,-0.48583984375,-2.899169683456421,2.319335699081421,0.03051757626235485,60.0,1182404.0,1.0
483392.5295214,292113.875,305309.46875,349848.0,334638.4375,340395.53125,269191.71875,296436.71875,272021.90625,-0.03125,0.8740234375,-0.4873046875,-2.960204839706421,2.319335699081421,-0.0610351525247097,60.0,1182405.0,1.0
483392.5295527,292124.71875,302302.625,343929.25,330704.0,336608.53125,268593.9375,292009.375,270719.4375,-0.0322265625,0.873779296875,-0.489990234375,-2.960204839706421,2.319335699081421,-0.03051757626235485,60.0,1182406.0,1.0
483392.5295585,290195.5625,302101.8125,342465.9375,329756.5625,336004.75,268844.65625,291360.90625,270726.84375,-0.031982421875,0.872802734375,-0.4921875,-2.899169683456421,2.380370855331421,0.0,60.0,1182407.0,1.0
483392.5295647,288956.5625,305037.59375,347547.65625,333202.46875,339453.90625,269610.34375,295427.125,272049.8125,-0.031494140625,0.8720703125,-0.493896484375,-2.777099370956421,2.227782964706421,0.0610351525247097,60.0,1182408.0,1.0
483392.5341697,289978.84375,307014.53125,352115.28125,336241.40625,342160.0625,269789.15625,298559.0625,272816.71875,-0.030517578125,0.8720703125,-0.491455078125,-2.716064214706421,2.227782964706421,0.0610351525247097,60.0,1182409.0,1.0
483392.5367559,292006.875,305248.75,349704.40625,334626.8125,340260.25,269116.4375,296271.84375,271936.34375,-0.02880859375,0.871337890625,-0.492919921875,-2.685546636581421,2.258300542831421,0.1525878757238388,60.0,1182410.0,1.0
483392.5392746,292094.5625,302285.53125,343831.34375,330710.34375,336514.90625,268552.5625,291885.46875,270678.65625,-0.03173828125,0.87060546875,-0.49267578125,-2.593993902206421,2.258300542831421,0.1831054538488388,60.0,1182411.0,1.0
483392.5507202,290231.5,302111.5625,342372.0625,329750.28125,335936.46875,268854.03125,291257.375,270733.28125,-0.031005859375,0.8701171875,-0.494384765625,-2.532958745956421,2.197265386581421,0.2746581733226776,60.0,1182412.0,1.0
483392.5507588,289006.625,305068.59375,347457.09375,333170.375,339410.1875,269657.625,295349.09375,272093.25,-0.033447265625,0.869873046875,-0.49365234375,-2.349853277206421,2.105712652206421,0.3662109076976776,60.0,1182413.0,1.0
483392.5507674,290015.96875,307081.0625,352078.78125,336223.28125,342157.75,269865.21875,298531.25,272885.3125,-0.0341796875,0.868896484375,-0.4951171875,-2.136230230331421,2.075195074081421,0.3967284858226776,60.0,1182414.0,1.0
483392.5507756,292042.1875,305328.6875,349725.25,334616.1875,340288.25,269176.34375,296281.15625,272010.625,-0.03564453125,0.869140625,-0.4912109375,-2.014159917831421,1.9226073026657104,0.3662109076976776,60.0,1182415.0,1.0
483392.5507834,292102.71875,302295.375,343793.375,330628.8125,336478.0,268552.90625,291828.6875,270699.9375,-0.03857421875,0.86865234375,-0.48974609375,-1.8920897245407104,1.8920897245407104,0.3356933295726776,60.0,1182416.0,1.0
483392.5507917,290216.125,302060.9375,342236.78125,329580.875,335822.28125,268826.3125,291116.1875,270714.25,-0.03759765625,0.86865234375,-0.490478515625,-1.8310545682907104,1.7700194120407104,0.3356933295726776,60.0,1182417.0,1.0
483392.5507996,288981.96875,305015.59375,347293.46875,332988.15625,339286.625,269637.96875,295191.90625,272072.6875,-0.035888671875,0.871337890625,-0.488525390625,-1.6479490995407104,1.5563963651657104,0.3356933295726776,60.0,1182418.0,1.0
483392.5508087,289972.78125,307055.40625,351960.5,336073.34375,342073.4375,269840.65625,298410.8125,272873.96875,-0.033203125,0.872802734375,-0.49072265625,-1.5869139432907104,1.5869139432907104,0.4577636420726776,60.0,1182419.0,1.0
483392.5529209,291998.03125,305323.59375,349663.28125,334504.5,340238.90625,269153.1875,296196.40625,272007.59375,-0.03076171875,0.875732421875,-0.489990234375,-1.4343260526657104,1.5258787870407104,0.5187987685203552,60.0,1182420.0,1.0
483392.5555578,292147.6875,302337.21875,343798.53125,330582.75,336488.0,268578.65625,291799.90625,270745.625,-0.030517578125,0.876708984375,-0.489013671875,-1.3732908964157104,1.4648436307907104,0.5493163466453552,60.0,1182421.0,1.0
483392.5580613,290289.375,302078.65625,342204.875,329520.53125,335818.15625,268851.34375,291063.90625,270755.375,-0.032470703125,0.87841796875,-0.48828125,-1.4343260526657104,1.4648436307907104,0.6408690810203552,60.0,1182422.0,1.0
483392.5606207,288999.84375,304977.21875,347183.9375,332885.96875,339223.3125,269631.625,295077.375,272085.125,-0.033935546875,0.879150390625,-0.486328125,-1.4648436307907104,1.4343260526657104,0.6408690810203552,60.0,1182423.0,1.0
483392.5654337,289969.8125,307041.71875,351900.4375,336022.375,342042.0625,269848.875,298338.65625,272903.28125,-0.0341796875,0.8779296875,-0.486328125,-1.6174315214157104,1.4953612089157104,0.7019042372703552,60.0,1182424.0,1.0
483392.5679181,292011.59375,305344.875,349678.84375,334524.71875,340252.65625,269178.3125,296185.3125,272040.5,-0.03466796875,0.875732421875,-0.48876953125,-1.6479490995407104,1.4953612089157104,0.7324218153953552,60.0,1182425.0,1.0
483392.5705793,292151.53125,302307.4375,343774.9375,330583.125,336458.21875,268568.28125,291751.15625,270747.84375,-0.035400390625,0.87451171875,-0.48583984375,-1.6479490995407104,1.4648436307907104,0.7324218153953552,60.0,1182426.0,1.0
483392.5745405,290289.28125,302002.3125,342107.78125,329489.3125,335727.96875,268821.40625,290957.15625,270734.4375,-0.037109375,0.87451171875,-0.486328125,-1.5258787870407104,1.4038084745407104,0.7934569716453552,60.0,1182427.0,1.0
483392.5745814,288994.65625,304898.90625,347057.25,332854.3125,339114.4375,269616.0625,294953.375,272063.3125,-0.03759765625,0.875244140625,-0.4873046875,-1.4648436307907104,1.2207030057907104,0.8239745497703552,60.0,1182428.0,1.0
483392.57459,289980.71875,307021.4375,351840.0625,336073.0625,341986.71875,269877.75,298276.25,272924.03125,-0.03759765625,0.875244140625,-0.489501953125,-1.4953612089157104,1.3427733182907104,0.7934569716453552,60.0,1182429.0,1.0
483392.5745993,292051.84375,305369.1875,349695.75,334650.4375,340248.375,269230.8125,296182.53125,272099.59375,-0.036865234375,0.87646484375,-0.4921875,-1.4953612089157104,1.1901854276657104,0.7629393935203552,60.0,1182430.0,1.0
483392.5818337,292245.59375,302348.125,343811.59375,330732.34375,336460.8125,268627.21875,291753.5,270805.34375,-0.0361328125,0.87744140625,-0.489990234375,-1.5869139432907104,1.1901854276657104,0.8239745497703552,60.0,1182431.0,1.0
483392.5843751,290384.84375,301995.59375,342071.46875,329585.34375,335673.6875,268853.59375,290890.0,270755.28125,-0.033447265625,0.877197265625,-0.489990234375,-1.7089842557907104,1.0986326932907104,0.7629393935203552,60.0,1182432.0,1.0
483392.5844168,289076.1875,304875.9375,346988.21875,332924.59375,339050.21875,269642.59375,294866.65625,272078.3125,-0.036376953125,0.877197265625,-0.488037109375,-1.7395018339157104,1.0681151151657104,0.6713866591453552,60.0,1182433.0,1.0
483392.5866736,290008.8125,306995.25,351786.625,336134.59375,341925.1875,269873.71875,298195.0,272914.71875,-0.0390625,0.87841796875,-0.48974609375,-1.8310545682907104,1.1291502714157104,0.7019042372703552,60.0,1182434.0,1.0
483392.5893274,292108.25,305394.75,349728.65625,334769.78125,340245.4375,269252.15625,296161.15625,272117.9375,-0.03759765625,0.876708984375,-0.49072265625,-1.9836424589157104,1.0986326932907104,0.6408690810203552,60.0,1182435.0,1.0
483392.5893671,292382.8125,302410.90625,343898.25,330900.53125,336504.90625,268684.4375,291773.6875,270861.03125,-0.035400390625,0.874267578125,-0.494384765625,-2.105712652206421,0.9765624403953552,0.6713866591453552,60.0,1182436.0,1.0
483392.5918454,290536.75,302031.09375,342105.625,329722.125,335685.5625,268911.4375,290870.78125,270802.3125,-0.034912109375,0.872802734375,-0.49169921875,-2.014159917831421,0.8850097060203552,0.7324218153953552,60.0,1182437.0,1.0
483392.5918869,289175.53125,304868.0625,346945.125,333011.15625,339007.9375,269686.15625,294791.71875,272097.09375,-0.031494140625,0.87060546875,-0.49267578125,-1.9531248807907104,0.8239745497703552,0.7629393935203552,60.0,1182438.0,1.0
483392.5943915,290082.125,307009.71875,351780.25,336249.65625,341919.5625,269939.25,298162.4375,272952.90625,-0.03076171875,0.868896484375,-0.487548828125,-1.8310545682907104,0.8544921278953552,0.9460448622703552,60.0,1182439.0,1.0
483392.5944319,292196.6875,305449.46875,349798.1875,334923.84375,340294.40625,269300.34375,296188.625,272166.3125,-0.03076171875,0.869873046875,-0.48681640625,-1.7089842557907104,0.9155272841453552,0.9765624403953552,60.0,1182440.0,1.0
483392.5991574,292448.28125,302411.53125,343916.21875,330997.625,336496.3125,268675.75,291743.3125,270846.28125,-0.033935546875,0.868896484375,-0.4873046875,-1.7089842557907104,0.8544921278953552,1.1596678495407104,60.0,1182441.0,1.0
483392.6017371,290625.09375,302018.40625,342077.1875,329781.3125,335657.59375,268906.34375,290813.09375,270784.96875,-0.03857421875,0.8662109375,-0.48876953125,-1.7395018339157104,0.8544921278953552,1.1291502714157104,60.0,1182442.0,1.0
483392.6042955,289269.21875,304869.125,346898.1875,333048.0625,338985.59375,269696.96875,294737.53125,272086.375,-0.03857421875,0.865966796875,-0.48876953125,-1.6174315214157104,0.8544921278953552,1.1901854276657104,60.0,1182443.0,1.0
483392.6043296,290114.40625,307008.65625,351732.96875,336252.5,341888.625,269909.3125,298107.28125,272918.3125,-0.037841796875,0.86767578125,-0.489990234375,-1.4038084745407104,0.7934569716453552,1.1596678495407104,60.0,1182444.0,1.0
483392.6068266,292203.375,305464.40625,349787.28125,334931.875,340275.5625,269273.90625,296156.0625,272128.46875,-0.037109375,0.865234375,-0.48974609375,-1.2817381620407104,0.7324218153953552,1.0070799589157104,60.0,1182445.0,1.0
483392.6091827,292495.03125,302454.0625,343924.78125,331007.71875,336495.6875,268655.09375,291725.0625,270832.78125,-0.035400390625,0.864013671875,-0.48828125,-1.0375975370407104,0.6408690810203552,0.8850097060203552,60.0,1182446.0,1.0
483392.6144225,290662.09375,302026.875,342012.375,329714.53125,335606.4375,268871.03125,290738.8125,270752.875,-0.036865234375,0.8662109375,-0.490234375,-0.8239745497703552,0.7019042372703552,0.6408690810203552,60.0,1182447.0,1.0
483392.6144643,289246.875,304838.03125,346753.90625,332897.6875,338878.375,269645.125,294602.8125,272024.6875,-0.036376953125,0.867919921875,-0.491455078125,-0.6713866591453552,0.7019042372703552,0.5798339247703552,60.0,1182448.0,1.0
483392.6157646,290103.84375,307049.59375,351669.125,336164.4375,341853.9375,269897.40625,298049.15625,272911.59375,-0.034912109375,0.873046875,-0.4892578125,-0.4882812201976776,0.7934569716453552,0.6408690810203552,60.0,1182449.0,1.0
483392.6409039,292195.96875,305540.75,349796.40625,334884.84375,340293.4375,269249.9375,296152.9375,272146.625,-0.032470703125,0.87646484375,-0.487548828125,-0.3356933295726776,0.7934569716453552,0.7934569716453552,60.0,1182450.0,1.0
483392.6646594,292479.28125,302497.15625,343910.5625,330937.96875,336480.84375,268617.8125,291691.4375,270839.9375,-0.03173828125,0.87744140625,-0.48779296875,-0.3967284858226776,0.9765624403953552,0.8239745497703552,60.0,1182451.0,1.0
483392.6694286,290666.75,302053.53125,341952.75,329618.34375,335560.59375,268829.09375,290669.0625,270751.34375,-0.03076171875,0.87646484375,-0.489501953125,-0.3662109076976776,1.0681151151657104,0.9765624403953552,60.0,1182452.0,1.0
483392.6694667,289288.71875,304901.15625,346710.71875,332824.65625,338867.5625,269634.28125,294561.84375,272072.5,-0.03076171875,0.877685546875,-0.4912109375,-0.2746581733226776,1.1901854276657104,1.0681151151657104,60.0,1182453.0,1.0
483392.6717931,290116.96875,307129.0625,351661.4375,336118.21875,341874.25,269903.5,298041.5625,272970.59375,-0.030029296875,0.877197265625,-0.493408203125,-0.2136230319738388,1.3122557401657104,1.1901854276657104,60.0,1182454.0,1.0
483392.6768673,292155.5625,305602.71875,349802.84375,334854.4375,340306.84375,269245.1875,296147.9375,272174.34375,-0.031005859375,0.875732421875,-0.49462890625,-0.1525878757238388,1.5563963651657104,1.2207030057907104,60.0,1182455.0,1.0
483392.6769078,292450.875,302544.375,343909.59375,330909.28125,336491.84375,268594.84375,291683.46875,270843.0625,-0.0302734375,0.876708984375,-0.4951171875,-0.0915527269244194,1.6479490995407104,1.2512205839157104,60.0,1182456.0,1.0
483392.6791765,290640.46875,302054.78125,341887.46875,329560.03125,335534.03125,268796.8125,290616.6875,270737.75,-0.02880859375,0.87841796875,-0.4921875,0.03051757626235485,1.8005369901657104,1.3122557401657104,60.0,1182457.0,1.0
483392.6818171,289201.90625,304827.90625,346553.34375,332724.15625,338762.53125,269571.53125,294429.71875,272003.84375,-0.03125,0.8798828125,-0.489990234375,0.1831054538488388,1.8310545682907104,1.4343260526657104,60.0,1182458.0,1.0
483392.6844251,289983.59375,307051.5625,351516.78125,336046.34375,341766.15625,269844.84375,297914.34375,272899.0,-0.029052734375,0.879150390625,-0.488525390625,0.1831054538488388,1.8920897245407104,1.4953612089157104,60.0,1182459.0,1.0
483392.6844651,292070.53125,305598.0625,349770.03125,334890.65625,340290.65625,269227.5,296119.3125,272164.15625,-0.027587890625,0.88037109375,-0.490478515625,0.0915527269244194,2.044677495956421,1.4343260526657104,60.0,1182460.0,1.0
483392.6881272,292374.0625,302510.125,343867.5625,330961.75,336463.78125,268564.09375,291642.625,270819.5625,-0.02734375,0.880615234375,-0.490966796875,0.03051757626235485,2.136230230331421,1.5258787870407104,60.0,1182461.0,1.0
483392.6881666,290573.5,301982.0,341784.65625,329589.71875,335464.21875,268760.6875,290525.75,270698.25,-0.030029296875,0.879150390625,-0.489501953125,-0.03051757626235485,2.166747808456421,1.5869139432907104,60.0,1182462.0,1.0
483392.6881774,289150.59375,304766.0625,346438.8125,332751.875,338695.65625,269557.03125,294334.65625,271984.8125,-0.029296875,0.875244140625,-0.489501953125,-0.1525878757238388,2.197265386581421,1.4953612089157104,60.0,1182463.0,1.0
483392.6904889,289961.59375,307070.4375,351491.21875,336143.875,341774.625,269866.40625,297898.96875,272927.875,-0.0283203125,0.874267578125,-0.48974609375,-0.0915527269244194,2.319335699081421,1.5258787870407104,60.0,1182464.0,1.0
483392.6905232,292041.90625,305642.59375,349800.34375,335027.375,340332.0625,269252.625,296143.90625,272194.5625,-0.029052734375,0.8759765625,-0.489990234375,-0.1831054538488388,2.441406011581421,1.4343260526657104,60.0,1182465.0,1.0
483392.6931072,292403.84375,302584.15625,343930.15625,331133.15625,336532.0,268614.34375,291693.78125,270871.875,-0.02978515625,0.877685546875,-0.4912109375,-0.2136230319738388,2.563476324081421,1.4648436307907104,60.0,1182466.0,1.0
483392.6968529,290617.65625,302024.65625,341788.125,329709.78125,335488.875,268803.53125,290525.75,270729.78125,-0.03076171875,0.876708984375,-0.48974609375,-0.2746581733226776,2.593993902206421,1.3427733182907104,60.0,1182467.0,1.0
483392.696892,289168.375,304778.3125,346382.59375,332799.4375,338676.25,269574.84375,294284.78125,271986.84375,-0.032470703125,0.875732421875,-0.4912109375,-0.3662109076976776,2.716064214706421,1.3427733182907104,60.0,1182468.0,1.0
483392.6969022,289941.21875,307083.65625,351452.3125,336176.15625,341765.53125,269879.4375,297862.40625,272923.03125,-0.03271484375,0.874755859375,-0.4912109375,-0.3356933295726776,2.563476324081421,1.2512205839157104,60.0,1182469.0,1.0
483392.7006561,292003.5625,305666.46875,349801.15625,335071.875,340340.09375,269244.46875,296133.625,272186.5,-0.0322265625,0.87548828125,-0.48974609375,-0.4272460639476776,2.655029058456421,1.1596678495407104,60.0,1182470.0,1.0
483392.7006965,292401.59375,302614.03125,343943.125,331173.28125,336549.34375,268600.84375,291689.90625,270869.4375,-0.0341796875,0.8759765625,-0.49267578125,-0.6103515028953552,2.716064214706421,1.1291502714157104,60.0,1182471.0,1.0
483392.7007183,290621.96875,302019.375,341740.40625,329681.0,335466.25,268769.71875,290471.9375,270711.28125,-0.033447265625,0.875,-0.49609375,-0.6408690810203552,2.746581792831421,0.9460448622703552,60.0,1182472.0,1.0
483392.7030717,289147.625,304737.4375,346269.9375,332701.625,338604.90625,269528.0,294176.59375,271949.21875,-0.03125,0.87060546875,-0.49365234375,-0.7934569716453552,2.777099370956421,0.9155272841453552,60.0,1182473.0,1.0
483392.7031129,289883.0,307046.65625,351356.75,336067.0625,341697.75,269830.09375,297765.9375,272886.1875,-0.030029296875,0.871337890625,-0.491455078125,-0.9460448622703552,2.746581792831421,0.7324218153953552,60.0,1182474.0,1.0
483392.7055458,291954.5625,305665.5625,349785.3125,335004.5625,340331.53125,269228.03125,296105.71875,272187.5625,-0.02880859375,0.87060546875,-0.489990234375,-0.8850097060203552,2.807616949081421,0.6408690810203552,60.0,1182475.0,1.0
483392.7055802,292391.21875,302616.625,343945.09375,331114.375,336557.28125,268599.0625,291676.34375,270884.46875,-0.030029296875,0.87255859375,-0.491943359375,-0.8544921278953552,2.960204839706421,0.4882812201976776,60.0,1182476.0,1.0
483392.7080129,290641.1875,301999.625,341691.40625,329587.75,335444.1875,268782.0625,290421.78125,270726.75,-0.030517578125,0.872802734375,-0.493408203125,-0.9155272841453552,2.960204839706421,0.5493163466453552,60.0,1182477.0,1.0
483392.7105348,289158.375,304702.9375,346173.90625,332577.0,338553.03125,269558.125,294095.25,271963.15625,-0.03173828125,0.872802734375,-0.49365234375,-0.9765624403953552,2.838134527206421,0.5187987685203552,60.0,1182478.0,1.0
483392.7130314,289894.53125,307060.0625,351312.125,335982.59375,341690.34375,269879.8125,297731.15625,272922.9375,-0.030517578125,0.87353515625,-0.494140625,-1.0070799589157104,2.807616949081421,0.4882812201976776,60.0,1182479.0,1.0
483392.715624,291979.875,305721.71875,349817.59375,334967.09375,340382.84375,269269.6875,296130.9375,272227.09375,-0.03076171875,0.873046875,-0.49755859375,-1.1596678495407104,2.807616949081421,0.4272460639476776,60.0,1182480.0,1.0
483392.7181094,292406.59375,302633.15625,343949.71875,331051.96875,336574.0,268598.25,291667.3125,270888.5,-0.032958984375,0.872314453125,-0.49560546875,-1.1291502714157104,2.807616949081421,0.4882812201976776,60.0,1182481.0,1.0
483392.7181514,290669.53125,301988.0,341647.6875,329498.96875,335426.46875,268774.46875,290372.96875,270725.25,-0.033935546875,0.87548828125,-0.49658203125,-1.3122557401657104,2.868652105331421,0.3662109076976776,60.0,1182482.0,1.0
483392.7217995,289153.90625,304659.75,346072.4375,332448.78125,338491.15625,269520.84375,293993.9375,271933.5625,-0.03369140625,0.87646484375,-0.49560546875,-1.3732908964157104,2.960204839706421,0.2441406100988388,60.0,1182483.0,1.0
483392.721839,289845.90625,307022.25,351229.0625,335875.84375,341636.25,269830.53125,297641.375,272888.96875,-0.0341796875,0.875732421875,-0.496337890625,-1.3427733182907104,2.838134527206421,0.2746581733226776,60.0,1182484.0,1.0
483392.7218488,291938.375,305726.625,349805.96875,334934.90625,340370.6875,269250.65625,296095.625,272229.15625,-0.032470703125,0.8759765625,-0.4951171875,-1.2817381620407104,2.838134527206421,0.2136230319738388,60.0,1182485.0,1.0
483392.724267,292396.40625,302644.25,343952.9375,331045.1875,336567.65625,268593.25,291641.8125,270898.78125,-0.033447265625,0.875244140625,-0.496826171875,-1.2512205839157104,2.807616949081421,0.2746581733226776,60.0,1182486.0,1.0
483392.7268157,290653.59375,301947.75,341566.3125,329446.9375,335359.6875,268733.96875,290277.1875,270688.40625,-0.03369140625,0.87548828125,-0.499755859375,-1.2207030057907104,2.777099370956421,0.4272460639476776,60.0,1182487.0,1.0
483392.7291827,289172.59375,304648.375,345988.46875,332420.34375,338447.1875,269509.65625,293915.25,271920.6875,-0.035400390625,0.877685546875,-0.498046875,-1.1596678495407104,2.655029058456421,0.5493163466453552,60.0,1182488.0,1.0
483392.7313795,289834.46875,307022.5,351167.1875,335875.65625,341606.5625,269822.59375,297585.0625,272875.75,-0.03564453125,0.880126953125,-0.495361328125,-1.1901854276657104,2.593993902206421,0.6103515028953552,60.0,1182489.0,1.0
483392.7314193,291889.21875,305717.15625,349769.59375,334966.03125,340345.8125,269231.96875,296054.875,272196.15625,-0.0361328125,0.881591796875,-0.49658203125,-1.1901854276657104,2.563476324081421,0.6408690810203552,60.0,1182490.0,1.0
483392.7405535,292414.375,302672.75,343969.5,331147.5625,336591.0,268609.0625,291651.03125,270909.6875,-0.03759765625,0.879638671875,-0.496337890625,-1.3427733182907104,2.471923589706421,0.7019042372703552,60.0,1182491.0,1.0
