Time,FZ,C3,CZ,C4,PZ,PO7,OZ,PO8,AccX,AccY,AccZ,Gyro1,Gyro2,Gyro3,Battery,Counter,Validation
515151.4820774,281786.3125,311268.25,315220.0625,286472.3125,297442.46875,300555.34375,152805.65625,304505.34375,0.03173828125,0.94921875,-0.309326171875,-1.5258787870407104,1.8005369901657104,0.7324218153953552,80.0,871255.0,1.0
515151.4820909,280623.03125,311702.34375,316396.1875,289577.15625,300869.0625,301942.5625,153357.109375,306020.78125,0.031982421875,0.9482421875,-0.31005859375,-1.5563963651657104,1.8920897245407104,0.7934569716453552,80.0,871256.0,1.0
515151.4846399,287030.75,314225.125,318350.28125,293401.875,301957.34375,302393.375,153567.3125,306911.46875,0.03076171875,0.948974609375,-0.311767578125,-1.4648436307907104,1.9226073026657104,0.8850097060203552,80.0,871257.0,1.0
515151.4846532,291913.71875,315354.875,318304.59375,292645.6875,299265.65625,301296.0,153104.453125,305953.09375,0.0322265625,0.9453125,-0.31005859375,-1.3732908964157104,1.9836424589157104,0.8850097060203552,80.0,871258.0,1.0
515151.4870658,289010.65625,313814.75,316456.46875,288459.375,296575.125,300243.75,152568.984375,304507.5625,0.033935546875,0.945068359375,-0.311279296875,-1.2207030057907104,2.075195074081421,0.9460448622703552,80.0,871259.0,1.0
515151.4895719,282460.25,311880.4375,315384.28125,286768.78125,297715.5,300728.4375,152823.71875,304609.15625,0.033203125,0.94677734375,-0.31103515625,-1.0986326932907104,2.075195074081421,0.9765624403953552,80.0,871260.0,1.0
515151.4944651,281187.375,312262.03125,316522.25,289825.875,301108.59375,302086.4375,153458.5,306113.40625,0.0322265625,0.94775390625,-0.3115234375,-1.0070799589157104,2.136230230331421,0.9765624403953552,80.0,871261.0,1.0
515151.4969464,287523.46875,314756.75,318464.625,293652.6875,302202.125,302530.25,153543.53125,307008.65625,0.03125,0.94775390625,-0.307861328125,-0.9765624403953552,2.258300542831421,0.9460448622703552,80.0,871262.0,1.0
515151.499602,292408.5,315874.96875,318415.46875,292914.25,299497.5625,301416.0625,153029.96875,306047.34375,0.033203125,0.94921875,-0.3056640625,-0.8544921278953552,2.288818120956421,1.0070799589157104,80.0,871263.0,1.0
515151.5033673,289502.5,314305.15625,316539.875,288698.09375,296752.21875,300326.625,152635.234375,304580.875,0.0322265625,0.951416015625,-0.30712890625,-0.8239745497703552,2.288818120956421,0.9460448622703552,80.0,871264.0,1.0
515151.5033797,282903.1875,312337.40625,315438.75,286950.46875,297843.71875,300792.1875,152906.40625,304667.78125,0.031005859375,0.951904296875,-0.3076171875,-0.8239745497703552,2.319335699081421,1.0070799589157104,80.0,871265.0,1.0
515151.5033818,281550.0,312685.1875,316560.09375,289981.34375,301231.15625,302149.8125,153596.09375,306165.8125,0.0322265625,0.951416015625,-0.30712890625,-0.8544921278953552,2.410888433456421,1.0070799589157104,80.0,871266.0,1.0
515151.5056315,287838.28125,315170.96875,318506.21875,293822.90625,302352.25,302612.5,153910.09375,307074.1875,0.03271484375,0.94921875,-0.308837890625,-0.7629393935203552,2.502441167831421,1.0986326932907104,80.0,871267.0,1.0
515151.5082268,292771.46875,316319.125,318491.375,293136.53125,299682.375,301526.65625,153492.03125,306141.40625,0.03564453125,0.9462890625,-0.30810546875,-0.7934569716453552,2.471923589706421,1.0375975370407104,80.0,871268.0,1.0
515151.5106504,289904.46875,314752.90625,316619.8125,288920.375,296905.46875,300419.0,153045.171875,304666.09375,0.037109375,0.943115234375,-0.313232421875,-0.7629393935203552,2.563476324081421,1.1291502714157104,80.0,871269.0,1.0
515151.5131954,283270.65625,312750.4375,315491.21875,287114.96875,297938.3125,300847.6875,153365.609375,304723.03125,0.040283203125,0.94482421875,-0.314453125,-0.6713866591453552,2.624511480331421,1.2512205839157104,80.0,871270.0,1.0
515151.5157311,281828.40625,313060.25,316596.28125,290108.75,301320.75,302205.53125,154127.171875,306216.5,0.0390625,0.943603515625,-0.3115234375,-0.3967284858226776,2.807616949081421,1.2817381620407104,80.0,871271.0,1.0
515151.5157455,288071.625,315527.0,318548.125,293962.125,302470.625,302680.0,154329.6875,307130.25,0.036376953125,0.9423828125,-0.312744140625,-0.2746581733226776,2.929687261581421,1.2512205839157104,80.0,871272.0,1.0
515151.518277,293024.40625,316670.78125,318531.0625,293295.03125,299794.9375,301575.84375,153695.515625,306187.4375,0.035400390625,0.942626953125,-0.31103515625,-0.1220703050494194,3.021239995956421,1.2512205839157104,80.0,871273.0,1.0
515151.520657,290183.59375,315088.25,316644.9375,289064.125,296974.78125,300438.84375,152953.078125,304692.5625,0.032958984375,0.940673828125,-0.311767578125,-0.03051757626235485,3.082275152206421,1.1901854276657104,80.0,871274.0,1.0
515151.5233114,283533.84375,313056.125,315504.625,287221.0,297971.9375,300857.09375,152813.875,304737.09375,0.03076171875,0.938720703125,-0.31396484375,0.2441406100988388,3.082275152206421,1.0986326932907104,80.0,871275.0,1.0
515151.525826,281996.5,313304.3125,316578.15625,290154.90625,301329.6875,302195.25,152977.84375,306211.21875,0.0302734375,0.934814453125,-0.3134765625,0.4882812201976776,3.112792730331421,1.1596678495407104,80.0,871276.0,1.0
515151.5306652,288189.0,315749.96875,318529.4375,294003.15625,302505.46875,302681.875,152934.9375,307135.875,0.031005859375,0.93212890625,-0.314208984375,0.6713866591453552,3.112792730331421,1.0375975370407104,80.0,871277.0,1.0
515151.5306812,293185.25,316907.15625,318542.40625,293367.03125,299854.3125,301598.28125,152134.109375,306209.09375,0.03173828125,0.9306640625,-0.3154296875,0.9765624403953552,3.021239995956421,0.9765624403953552,80.0,871278.0,1.0
515151.5332959,290383.875,315308.75,316660.3125,289118.40625,297004.53125,300449.40625,151261.6875,304705.625,0.0302734375,0.927978515625,-0.313232421875,1.3122557401657104,2.960204839706421,1.0375975370407104,80.0,871279.0,1.0
515151.5358267,283705.625,313226.8125,315497.9375,287216.875,297950.8125,300841.1875,151233.609375,304733.0625,0.030029296875,0.92919921875,-0.31787109375,1.7395018339157104,2.990722417831421,1.0070799589157104,80.0,871280.0,1.0
515151.5358452,282096.5625,313425.28125,316562.84375,290110.5625,301301.96875,302185.9375,151681.71875,306209.4375,0.0322265625,0.9306640625,-0.31884765625,2.075195074081421,2.990722417831421,0.9765624403953552,80.0,871281.0,1.0
515151.5393887,288271.90625,315855.46875,318531.15625,293974.09375,302512.375,302700.5625,151779.4375,307153.3125,0.03564453125,0.9326171875,-0.32275390625,2.471923589706421,2.929687261581421,0.8544921278953552,80.0,871282.0,1.0
515151.5508585,293313.375,317005.6875,318555.03125,293368.09375,299881.21875,301619.1875,151197.40625,306233.5625,0.03466796875,0.934814453125,-0.322509765625,2.929687261581421,2.929687261581421,0.7019042372703552,80.0,871283.0,1.0
515151.5508855,290569.65625,315394.125,316677.125,289123.6875,297006.25,300453.3125,150666.328125,304728.59375,0.0361328125,0.93505859375,-0.31884765625,3.417968511581421,3.143310308456421,0.6103515028953552,80.0,871284.0,1.0
515151.555907,283873.53125,313249.6875,315485.84375,287162.96875,297897.28125,300806.21875,150862.484375,304724.9375,0.035400390625,0.936279296875,-0.31884765625,3.875732183456421,3.173827886581421,0.4577636420726776,80.0,871285.0,1.0
515151.5559411,282217.96875,313395.625,316537.03125,290037.0625,301250.65625,302148.03125,151566.5625,306195.03125,0.0322265625,0.936767578125,-0.32080078125,4.028319835662842,3.234863042831421,0.2746581733226776,80.0,871286.0,1.0
515151.5583951,288383.46875,315813.0,318519.4375,293937.875,302514.15625,302692.34375,151901.75,307155.1875,0.031494140625,0.939697265625,-0.31787109375,4.272460460662842,3.265380620956421,0.2746581733226776,80.0,871287.0,1.0
515151.5721513,293502.03125,316995.9375,318578.1875,293399.375,299932.0,301654.0625,151456.40625,306263.4375,0.02978515625,0.94775390625,-0.315185546875,4.394530773162842,3.387450933456421,0.2136230319738388,80.0,871288.0,1.0
515151.5745839,290810.78125,315382.78125,316703.21875,289178.46875,297049.4375,300487.5625,150966.375,304758.90625,0.030517578125,0.953857421875,-0.3125,4.516601085662842,3.387450933456421,0.3356933295726776,80.0,871289.0,1.0
515151.5746223,284104.1875,313220.8125,315499.4375,287210.375,297908.96875,300817.3125,151205.359375,304745.21875,0.0302734375,0.958740234375,-0.31201171875,4.547118663787842,3.387450933456421,0.4272460639476776,80.0,871290.0,1.0
515151.5971608,282394.375,313370.3125,316548.28125,290091.3125,301270.3125,302160.375,151927.859375,306220.25,0.02978515625,0.964111328125,-0.310546875,4.364013195037842,3.326415777206421,0.3967284858226776,80.0,871291.0,1.0
515151.5972033,288516.40625,315824.8125,318536.78125,294032.65625,302573.25,302727.65625,152259.109375,307195.15625,0.031005859375,0.9677734375,-0.31298828125,4.089354991912842,3.326415777206421,0.4577636420726776,80.0,871292.0,1.0
515151.602182,293662.875,317063.625,318612.5,293556.28125,300018.8125,301703.78125,151813.40625,306318.4375,0.030517578125,0.97021484375,-0.3115234375,3.753661870956421,3.295898199081421,0.5493163466453552,80.0,871293.0,1.0
515151.6022244,291010.25,315488.0,316739.25,289359.625,297110.75,300519.40625,151364.328125,304808.4375,0.031494140625,0.972412109375,-0.312744140625,3.326415777206421,3.356933355331421,0.6408690810203552,80.0,871294.0,1.0
515151.6047784,284282.46875,313326.84375,315520.0,287368.53125,297923.1875,300819.96875,151671.34375,304778.03125,0.031494140625,0.97265625,-0.311279296875,2.990722417831421,3.479003667831421,0.7324218153953552,80.0,871295.0,1.0
515151.6048154,282473.59375,313467.3125,316542.125,290209.96875,301271.40625,302150.90625,152387.3125,306240.375,0.0302734375,0.973876953125,-0.3115234375,2.655029058456421,3.448486089706421,0.8239745497703552,80.0,871296.0,1.0
515151.6069681,288557.28125,315952.46875,318540.625,294172.5625,302615.90625,302741.59375,152740.296875,307229.5625,0.02978515625,0.976318359375,-0.310302734375,2.197265386581421,3.509521245956421,0.8850097060203552,80.0,871297.0,1.0
515151.6095435,293752.28125,317245.9375,318643.90625,293759.0625,300098.75,301740.4375,152362.8125,306368.5,0.02880859375,0.9755859375,-0.310302734375,1.7395018339157104,3.509521245956421,0.9765624403953552,80.0,871298.0,1.0
515151.6121522,291152.40625,315700.4375,316780.1875,289583.84375,297175.5,300550.78125,151867.859375,304853.40625,0.030517578125,0.97607421875,-0.31103515625,1.2207030057907104,3.479003667831421,1.0986326932907104,80.0,871299.0,1.0
515151.6471445,284402.1875,313502.8125,315537.28125,287546.53125,297940.8125,300825.71875,152087.625,304798.78125,0.028564453125,0.977783203125,-0.308837890625,0.7324218153953552,3.448486089706421,1.2512205839157104,80.0,871300.0,1.0
515151.6495782,282514.96875,313585.0625,316538.8125,290346.75,301281.6875,302153.5625,152714.8125,306251.625,0.0283203125,0.97705078125,-0.309326171875,0.2136230319738388,3.356933355331421,1.2512205839157104,80.0,871301.0,1.0
515151.6496174,288560.9375,316072.46875,318543.40625,294322.0625,302668.375,302778.8125,152920.890625,307257.5625,0.028564453125,0.978515625,-0.30859375,-0.3356933295726776,3.265380620956421,1.4343260526657104,80.0,871302.0,1.0
515151.6584706,293801.53125,317409.0,318665.09375,293943.875,300176.6875,301796.84375,152401.0,306405.25,0.027587890625,0.983642578125,-0.30810546875,-0.7324218153953552,3.204345464706421,1.4648436307907104,80.0,871303.0,1.0
515151.6585086,291247.09375,315887.75,316797.28125,289769.28125,297230.5625,300588.875,151832.8125,304878.6875,0.027099609375,0.989990234375,-0.304443359375,-1.4038084745407104,3.204345464706421,1.4343260526657104,80.0,871304.0,1.0
515151.6608712,284465.125,313679.75,315526.09375,287669.03125,297947.96875,300832.40625,151985.96875,304805.75,0.02490234375,1.0,-0.305419921875,-2.197265386581421,3.082275152206421,1.4343260526657104,80.0,871305.0,1.0
515151.6609088,282506.75,313750.1875,316508.75,290414.34375,301285.71875,302159.21875,152552.984375,306260.5625,0.021728515625,1.007568359375,-0.30419921875,-3.204345464706421,2.746581792831421,1.3122557401657104,80.0,871306.0,1.0
515151.6633541,288532.96875,316251.375,318525.25,294386.4375,302715.3125,302808.125,152794.921875,307279.09375,0.018798828125,1.01708984375,-0.297607421875,-4.333495616912842,2.502441167831421,1.2512205839157104,80.0,871307.0,1.0
515151.6658795,293844.71875,317635.8125,318680.375,294040.4375,300263.4375,301852.28125,152249.984375,306447.71875,0.0166015625,1.02197265625,-0.296875,-5.645751476287842,2.166747808456421,1.1901854276657104,80.0,871308.0,1.0
515151.668206,291331.84375,316119.5,316811.3125,289834.90625,297285.28125,300621.40625,151662.765625,304907.65625,0.015380859375,1.024658203125,-0.296630859375,-6.958007335662842,1.8005369901657104,1.0070799589157104,80.0,871309.0,1.0
515151.6707358,284526.1875,313896.1875,315527.34375,287681.0,297968.34375,300845.28125,151886.734375,304820.9375,0.01025390625,1.03076171875,-0.29638671875,-8.605956077575684,1.4038084745407104,0.7934569716453552,80.0,871310.0,1.0
515151.6733515,282479.125,313941.71875,316491.6875,290374.5625,301302.96875,302169.5,152553.703125,306265.9375,0.00537109375,1.03564453125,-0.299560546875,-10.223387718200684,0.9460448622703552,0.5798339247703552,80.0,871311.0,1.0
515151.6783916,288493.875,316473.71875,318524.875,294357.1875,302781.3125,302844.5,152854.296875,307298.15625,0.001953125,1.03857421875,-0.30224609375,-11.962889671325684,0.4272460639476776,0.2136230319738388,80.0,871312.0,1.0
515151.6784323,293884.6875,317923.375,318714.6875,294056.25,300368.9375,301903.15625,152341.0,306479.28125,0.00146484375,1.042236328125,-0.2998046875,-13.519286155700684,-0.3356933295726776,-0.2746581733226776,80.0,871313.0,1.0
515151.6809192,291417.3125,316440.90625,316847.25,289849.46875,297368.4375,300653.40625,151698.4375,304927.6875,0.002197265625,1.047119140625,-0.298828125,-15.136717796325684,-1.0375975370407104,-0.9155272841453552,80.0,871314.0,1.0
515151.6832755,284563.8125,314212.4375,315527.53125,287649.96875,298008.75,300848.9375,151732.046875,304826.59375,0.005859375,1.053955078125,-0.2978515625,-16.845701217651367,-1.7089842557907104,-1.6479490995407104,80.0,871315.0,1.0
515151.6858845,282443.53125,314250.15625,316473.71875,290341.40625,301357.21875,302180.9375,152304.96875,306284.1875,0.010009765625,1.061767578125,-0.29931640625,-18.859861373901367,-2.075195074081421,-2.288818120956421,80.0,871316.0,1.0
515151.6859273,288477.25,316828.40625,318537.21875,294381.53125,302897.96875,302892.78125,152529.5625,307340.78125,0.015869140625,1.069580078125,-0.296875,-20.874021530151367,-2.685546636581421,-2.990722417831421,80.0,871317.0,1.0
515151.6882794,293986.59375,318354.5625,318773.4375,294154.96875,300525.03125,301972.625,152019.859375,306534.4375,0.021728515625,1.072509765625,-0.300048828125,-23.254392623901367,-3.173827886581421,-3.570556402206421,80.0,871318.0,1.0
515151.6908318,291596.40625,316918.0625,316920.03125,289983.40625,297507.0,300724.59375,151513.90625,304991.71875,0.02685546875,1.072998046875,-0.304443359375,-25.573728561401367,-3.295898199081421,-4.089354991912842,80.0,871319.0,1.0
515151.6932546,284643.59375,314646.25,315545.3125,287736.78125,298074.84375,300891.5,151699.953125,304871.8125,0.03369140625,1.0732421875,-0.310791015625,-27.587888717651367,-3.387450933456421,-4.882812023162842,80.0,871320.0,1.0
515151.7445518,282340.46875,314646.25,316433.03125,290371.09375,301392.375,302183.96875,152342.609375,306304.46875,0.046142578125,1.074951171875,-0.314697265625,-29.296873092651367,-3.356933355331421,-5.523681163787842,80.0,871321.0,1.0
515151.7445915,288362.46875,317275.96875,318523.1875,294452.15625,302985.0625,302900.65625,152632.5625,307381.03125,0.061767578125,1.074951171875,-0.317626953125,-31.127927780151367,-2.899169683456421,-5.828856945037842,80.0,871322.0,1.0
515151.7472048,294003.25,318906.5625,318822.15625,294306.5,300650.46875,302009.71875,152225.125,306614.1875,0.080322265625,1.0595703125,-0.319091796875,-33.386226654052734,-2.410888433456421,-6.011962413787842,80.0,871323.0,1.0
515151.7472399,291666.125,317511.90625,316962.40625,290129.9375,297576.3125,300746.21875,151659.90625,305061.8125,0.071044921875,1.02197265625,-0.324462890625,-35.705562591552734,-1.5869139432907104,-5.584716320037842,80.0,871324.0,1.0
515151.7521064,284613.34375,315162.5625,315526.4375,287805.71875,298064.1875,300870.84375,151804.828125,304904.90625,0.08349609375,0.97314453125,-0.326904296875,-37.841793060302734,-0.5493163466453552,-4.699706554412842,80.0,871325.0,1.0
515151.7545968,282217.34375,315098.8125,316408.4375,290398.625,301390.59375,302200.4375,152553.875,306335.0625,0.07861328125,0.890869140625,-0.32568359375,-39.428707122802734,0.3967284858226776,-3.021239995956421,80.0,871326.0,1.0
515151.7561847,288326.15625,317723.34375,318569.875,294515.1875,303084.21875,302997.5,152993.5,307441.71875,0.05712890625,0.79541015625,-0.32666015625,-39.062496185302734,1.5563963651657104,-1.6784666776657104,80.0,871327.0,1.0
515151.7633904,294174.28125,319362.0,318954.03125,294405.03125,300881.21875,302127.46875,152644.265625,306689.71875,0.043212890625,0.718994140625,-0.33251953125,-36.437984466552734,2.410888433456421,-1.4038084745407104,80.0,871328.0,1.0
515151.7682316,291913.4375,317852.1875,317075.6875,290109.375,297830.65625,300789.40625,152146.90625,305068.6875,0.03955078125,0.676513671875,-0.337158203125,-31.402585983276367,2.746581792831421,-1.7089842557907104,80.0,871329.0,1.0
515151.7708159,284775.1875,315368.90625,315555.9375,287568.71875,298236.375,300856.8125,152285.84375,304835.25,0.044189453125,0.6650390625,-0.336181640625,-25.268552780151367,3.234863042831421,-1.9531248807907104,80.0,871330.0,1.0
515151.7733589,282303.96875,315201.46875,316387.34375,290007.0,301509.75,302200.6875,152955.671875,306258.0,0.047607421875,0.677001953125,-0.325927734375,-19.134519577026367,3.692626714706421,-2.044677495956421,80.0,871331.0,1.0
515151.7757759,288450.25,317842.1875,318584.96875,294069.3125,303221.90625,303050.875,153359.796875,307390.78125,0.05029296875,0.7060546875,-0.3095703125,-13.458250999450684,4.547118663787842,-1.9531248807907104,80.0,871332.0,1.0
515151.7782153,294389.125,319513.71875,318986.3125,293880.3125,300968.65625,302177.09375,152980.359375,306618.46875,0.05029296875,0.739501953125,-0.290771484375,-8.819579124450684,5.401610851287842,-1.4038084745407104,80.0,871333.0,1.0
515151.7808774,292201.96875,318012.5,317111.1875,289476.5625,297828.59375,300828.75,152409.484375,305006.8125,0.04736328125,0.77392578125,-0.274169921875,-5.065917491912842,6.011962413787842,-0.5493163466453552,80.0,871334.0,1.0
515151.783373,285044.5625,315455.1875,315568.8125,286818.40625,298190.6875,300882.46875,152518.5625,304773.5625,0.04736328125,0.803955078125,-0.265380859375,-2.319335699081421,6.530761241912842,0.3967284858226776,80.0,871335.0,1.0
515151.7858269,282468.21875,315191.8125,316368.9375,289214.25,301474.71875,302214.1875,153138.609375,306172.96875,0.04931640625,0.825439453125,-0.266357421875,0.0610351525247097,7.141112804412842,1.2207030057907104,80.0,871336.0,1.0
515151.7858613,288558.53125,317773.25,318557.96875,293345.375,303218.78125,303056.3125,153442.9375,307296.625,0.048583984375,0.84619140625,-0.265869140625,2.410888433456421,7.904052257537842,2.166747808456421,80.0,871337.0,1.0
515151.7907323,294537.53125,319467.5,318990.15625,293285.21875,301007.8125,302198.46875,152836.859375,306563.125,0.0458984375,0.865234375,-0.26611328125,4.669188976287842,8.392333030700684,2.960204839706421,80.0,871338.0,1.0
515151.7933479,292355.90625,317995.15625,317115.21875,288967.46875,297842.28125,300833.84375,152064.5625,304969.71875,0.04541015625,0.885009765625,-0.266357421875,6.652831554412842,9.033202171325684,3.723144292831421,80.0,871339.0,1.0
515151.7958445,285140.5,315427.21875,315548.625,286410.34375,298129.625,300856.375,152009.84375,304735.5625,0.045166015625,0.906982421875,-0.2646484375,8.483885765075684,9.613036155700684,4.425048351287842,80.0,871340.0,1.0
515151.7958867,282480.09375,315127.0625,316337.46875,288977.21875,301384.21875,302166.28125,152586.421875,306148.0,0.044677734375,0.928466796875,-0.259765625,9.735106468200684,10.253905296325684,5.035399913787842,80.0,871341.0,1.0
515151.8034169,288518.75,317677.40625,318541.875,293339.75,303172.09375,303005.53125,153054.734375,307314.40625,0.043212890625,0.948486328125,-0.259033203125,10.742186546325684,10.925292015075684,5.798339366912842,80.0,871342.0,1.0
515151.8057947,294512.5,319323.125,318977.8125,293509.71875,300966.34375,302120.40625,152648.390625,306604.0,0.03955078125,0.96533203125,-0.25537109375,11.291502952575684,11.535643577575684,6.439208507537842,80.0,871343.0,1.0
515151.8083961,292377.71875,317797.65625,317096.34375,289394.9375,297768.0,300722.25,151936.609375,305014.4375,0.032470703125,0.978515625,-0.255615234375,11.566161155700684,11.840819358825684,7.171630382537842,80.0,871344.0,1.0
515151.8084376,285144.09375,315186.15625,315512.6875,286970.125,298009.65625,300707.6875,151899.59375,304771.25,0.025146484375,0.985595703125,-0.25732421875,11.657713890075684,12.237547874450684,7.598876476287842,80.0,871345.0,1.0
515151.8110985,282377.90625,314852.0625,316277.46875,289627.9375,301253.0625,302000.34375,152578.640625,306193.0,0.0185546875,0.987060546875,-0.259765625,11.474608421325684,12.329100608825684,8.117674827575684,80.0,871346.0,1.0
515151.8182123,288306.3125,317389.4375,318457.75,294094.53125,303054.09375,302845.59375,152983.296875,307375.75,0.015869140625,0.98583984375,-0.260009765625,11.352538108825684,12.329100608825684,8.331297874450684,80.0,871347.0,1.0
515151.8208254,294259.03125,319053.375,318888.15625,294412.375,300852.15625,301975.75,152664.921875,306674.71875,0.014404296875,0.98486328125,-0.260986328125,11.260985374450684,12.390135765075684,8.483885765075684,80.0,871348.0,1.0
515151.8208393,292132.5,317554.90625,317006.21875,290423.84375,297619.75,300573.5625,152085.03125,305070.5625,0.015869140625,0.981201171875,-0.261962890625,11.199950218200684,12.207030296325684,8.514403343200684,80.0,871349.0,1.0
515151.8258212,284902.84375,314945.5625,315416.46875,288033.34375,297832.53125,300546.84375,152195.1875,304807.28125,0.01708984375,0.980712890625,-0.26318359375,11.108397483825684,12.145995140075684,8.483885765075684,80.0,871350.0,1.0
515151.828317,282081.53125,314578.75,316173.75,290634.75,301083.71875,301850.84375,152855.625,306222.3125,0.015380859375,0.979736328125,-0.265625,10.925292015075684,12.023924827575684,8.422850608825684,80.0,871351.0,1.0
515151.8308561,287942.15625,317060.75,318340.34375,295049.3125,302900.40625,302715.3125,153158.71875,307396.5,0.015380859375,0.981201171875,-0.26904296875,10.559081077575684,11.688231468200684,8.300780296325684,80.0,871352.0,1.0
515151.8358418,293932.96875,318715.40625,318795.71875,295398.6875,300723.34375,301888.75,152694.703125,306701.8125,0.016845703125,0.9814453125,-0.271240234375,10.253905296325684,11.444090843200684,8.239745140075684,80.0,871353.0,1.0
515151.8358567,291880.90625,317203.8125,316933.8125,291392.5625,297469.0,300499.5625,152143.0625,305076.125,0.02197265625,0.98046875,-0.273681640625,9.918211936950684,11.169432640075684,7.965087413787842,80.0,871354.0,1.0
515151.8383381,284669.3125,314553.0625,315330.8125,288830.0625,297630.03125,300449.75,152172.828125,304761.65625,0.025146484375,0.98046875,-0.27783203125,9.613036155700684,10.955809593200684,7.690429210662842,80.0,871355.0,1.0
515151.8408399,281788.28125,314149.5,316062.4375,291186.5625,300867.09375,301742.3125,152817.625,306151.0625,0.02587890625,0.978515625,-0.2802734375,9.155272483825684,10.772704124450684,7.568358898162842,80.0,871356.0,1.0
515151.8483114,287593.90625,316633.40625,318228.40625,295372.3125,302714.53125,302628.34375,153238.375,307326.40625,0.02490234375,0.97802734375,-0.286376953125,8.789061546325684,10.498045921325684,7.141112804412842,80.0,871357.0,1.0
515151.8483288,293616.375,318319.625,318707.375,295500.625,300565.25,301826.78125,152816.828125,306629.90625,0.027099609375,0.97607421875,-0.291015625,8.453368186950684,10.009764671325684,6.622313976287842,80.0,871358.0,1.0
515151.8533267,291644.0625,316846.375,316866.3125,291218.84375,297313.625,300446.875,152237.65625,304993.40625,0.028076171875,0.977294921875,-0.290771484375,8.117674827575684,9.826659202575684,6.347655773162842,80.0,871359.0,1.0
515151.8558361,284488.0,314225.9375,315275.46875,288320.4375,297468.5625,300405.65625,152430.953125,304669.59375,0.0283203125,0.976318359375,-0.29052734375,7.720946788787842,9.368895530700684,5.859374523162842,80.0,871360.0,1.0
515151.8582859,281565.375,313807.78125,315994.5,290323.0625,300688.28125,301688.9375,153231.671875,306027.6875,0.03076171875,0.973388671875,-0.294189453125,7.263183116912842,9.002684593200684,5.432128429412842,80.0,871361.0,1.0
515151.860808,287330.4375,316293.75,318169.59375,294262.15625,302573.6875,302596.78125,153772.765625,307203.8125,0.03173828125,0.97314453125,-0.29638671875,6.866454601287842,8.758543968200684,5.187987804412842,80.0,871362.0,1.0
515151.8645683,293390.1875,318021.8125,318673.5,294240.15625,300479.53125,301819.65625,153515.625,306521.1875,0.03271484375,0.974365234375,-0.293701171875,6.378173351287842,8.361815452575684,4.760741710662842,80.0,871363.0,1.0
515151.8720759,291469.25,316565.0,316833.84375,289820.59375,297217.96875,300422.65625,153036.859375,304866.90625,0.0322265625,0.973388671875,-0.2958984375,5.950927257537842,7.995604991912842,4.333495616912842,80.0,871364.0,1.0
515151.8758823,284319.03125,313924.90625,315227.90625,286848.0,297327.46875,300349.53125,153248.65625,304515.34375,0.030517578125,0.97119140625,-0.2998046875,5.554198741912842,7.568358898162842,3.875732183456421,80.0,871365.0,1.0
515151.8759166,281330.25,313469.09375,315926.375,288899.34375,300529.9375,301621.96875,154203.984375,305860.5625,0.0302734375,0.971923828125,-0.2998046875,5.157470226287842,7.049560070037842,3.448486089706421,80.0,871366.0,1.0
515151.8808118,287031.8125,315941.46875,318098.25,292984.28125,302439.78125,302532.40625,154833.140625,307043.96875,0.029296875,0.97119140625,-0.301025390625,4.730224132537842,6.561278820037842,3.082275152206421,80.0,871367.0,1.0
515151.8832171,293121.9375,317695.375,318622.15625,293132.5,300379.5625,301757.3125,154517.96875,306383.6875,0.029541015625,0.97119140625,-0.301025390625,4.211425304412842,6.011962413787842,2.655029058456421,80.0,871368.0,1.0
515151.9021761,291281.5,316274.59375,316806.5,288865.1875,297129.625,300364.46875,153920.734375,304755.15625,0.030517578125,0.973388671875,-0.302978515625,3.540038824081421,5.523681163787842,2.258300542831421,80.0,871369.0,1.0
515151.9022148,284156.9375,313645.15625,315197.96875,286032.96875,297217.34375,300277.5625,153929.234375,304402.4375,0.0322265625,0.9716796875,-0.301025390625,3.112792730331421,5.065917491912842,1.8310545682907104,80.0,871370.0,1.0
515151.90461,281130.59375,313199.4375,315894.28125,288269.75,300435.53125,301558.40625,154605.59375,305755.875,0.032470703125,0.970458984375,-0.303955078125,2.380370855331421,4.577636241912842,1.5258787870407104,80.0,871371.0,1.0
515151.9071481,286808.03125,315699.90625,318072.9375,292562.0,302395.875,302499.125,155002.46875,306964.5625,0.0302734375,0.96923828125,-0.3017578125,1.9226073026657104,4.058837413787842,1.2512205839157104,80.0,871372.0,1.0
515151.9096213,292933.40625,317492.59375,318608.03125,292898.96875,300364.46875,301743.65625,154570.09375,306332.625,0.030517578125,0.9677734375,-0.300537109375,1.4038084745407104,3.662109136581421,1.0681151151657104,80.0,871373.0,1.0
515151.9146212,291124.875,316083.1875,316781.0,288765.40625,297078.46875,300324.21875,153849.84375,304713.125,0.0302734375,0.967041015625,-0.30029296875,0.8850097060203552,3.173827886581421,0.8239745497703552,80.0,871374.0,1.0
515151.9169871,284007.1875,313453.8125,315163.09375,286042.34375,297137.03125,300222.75,153704.109375,304364.25,0.03173828125,0.967529296875,-0.302490234375,0.3356933295726776,2.624511480331421,0.6408690810203552,80.0,871375.0,1.0
515151.919591,281021.25,313069.09375,315888.1875,288428.09375,300418.8125,301553.125,154215.0625,305739.15625,0.034423828125,0.969970703125,-0.30419921875,-0.2136230319738388,2.166747808456421,0.3967284858226776,80.0,871376.0,1.0
515151.9196318,286857.84375,315758.28125,318156.53125,292939.375,302546.34375,302621.4375,154705.28125,307010.875,0.03369140625,0.969970703125,-0.302490234375,-0.7629393935203552,1.6784666776657104,0.2746581733226776,80.0,871377.0,1.0
515151.9219854,293124.28125,317680.53125,318736.6875,293463.5,300588.0625,301914.25,154433.484375,306416.875,0.03271484375,0.97265625,-0.304931640625,-1.4038084745407104,1.2817381620407104,0.1525878757238388,80.0,871378.0,1.0
515151.946984,291443.25,316362.84375,316934.59375,289476.75,297316.75,300503.84375,153922.53125,304813.4375,0.031005859375,0.97314453125,-0.303955078125,-2.014159917831421,0.7629393935203552,0.0,80.0,871379.0,1.0
515151.9495204,284376.6875,313781.21875,315310.25,286822.34375,297354.5625,300379.5625,153796.015625,304457.875,0.031494140625,0.977294921875,-0.303466796875,-2.593993902206421,0.3356933295726776,-0.0915527269244194,80.0,871380.0,1.0
515151.9495701,281283.84375,313353.6875,315982.6875,289179.28125,300585.1875,301658.34375,153801.28125,305811.5,0.033447265625,0.98046875,-0.303466796875,-3.204345464706421,-0.1525878757238388,-0.1525878757238388,80.0,871381.0,1.0
515151.9520959,287019.3125,315999.40625,318219.84375,293679.40625,302688.3125,302698.59375,153226.484375,307080.96875,0.033447265625,0.982666015625,-0.302490234375,-3.906249761581421,-0.5798339247703552,-0.03051757626235485,80.0,871382.0,1.0
515151.9545261,293432.65625,318060.0625,318868.21875,294324.65625,300824.8125,302067.375,151829.5,306522.375,0.034912109375,0.987548828125,-0.300537109375,-4.547118663787842,-0.8850097060203552,-0.03051757626235485,80.0,871383.0,1.0
515151.956907,291945.1875,316918.5,317124.59375,290454.75,297624.5625,300709.75,150505.03125,304933.5,0.03564453125,0.98828125,-0.298095703125,-5.249022960662842,-1.3427733182907104,0.0610351525247097,80.0,871384.0,1.0
515151.9588627,284964.09375,314450.4375,315511.6875,287819.6875,297674.5625,300595.75,149933.09375,304575.25,0.03857421875,0.990478515625,-0.2958984375,-6.072997570037842,-1.6784666776657104,0.2136230319738388,80.0,871385.0,1.0
515151.988151,281827.15625,314057.125,316161.875,290110.1875,300897.0625,301866.65625,149932.640625,305937.09375,0.040771484375,0.98779296875,-0.294677734375,-7.049560070037842,-1.8920897245407104,0.1831054538488388,80.0,871386.0,1.0
515151.9958129,287495.03125,316714.65625,318386.5625,294540.84375,303007.78125,302912.1875,150175.203125,307229.9375,0.04150390625,0.984619140625,-0.296875,-7.751464366912842,-2.075195074081421,0.3662109076976776,80.0,871387.0,1.0
515151.9958348,293917.0625,318780.78125,319040.9375,295147.90625,301141.65625,302279.90625,149925.140625,306681.15625,0.042724609375,0.97998046875,-0.297607421875,-8.544920921325684,-2.227782964706421,0.4882812201976776,80.0,871388.0,1.0
515152.0008563,292402.3125,317565.5625,317258.96875,291169.84375,297851.125,300857.96875,149497.421875,305055.375,0.044921875,0.973876953125,-0.294921875,-9.277342796325684,-2.380370855331421,0.4882812201976776,80.0,871389.0,1.0
515152.0008823,285283.90625,314961.125,315560.6875,288315.53125,297757.09375,300639.375,149641.265625,304642.59375,0.046875,0.968505859375,-0.294677734375,-9.887694358825684,-2.502441167831421,0.6408690810203552,80.0,871390.0,1.0
515152.0058643,282000.625,314483.78125,316166.6875,290391.03125,300921.46875,301870.875,150368.0625,305979.65625,0.05126953125,0.958740234375,-0.29248046875,-10.406493186950684,-2.563476324081421,0.5798339247703552,80.0,871391.0,1.0
515152.0082589,287634.875,317151.6875,318406.0625,294667.8125,303063.21875,302934.46875,150866.953125,307264.71875,0.05224609375,0.9501953125,-0.290771484375,-10.803221702575684,-2.655029058456421,0.7629393935203552,80.0,871392.0,1.0
515152.010683,294125.53125,319288.5,319094.78125,295154.625,301235.0,302317.71875,150488.765625,306708.875,0.054931640625,0.940185546875,-0.29248046875,-11.077879905700684,-2.563476324081421,0.8239745497703552,80.0,871393.0,1.0
515152.0133785,292659.28125,318117.03125,317323.09375,291024.71875,297930.96875,300886.15625,149892.6875,305072.71875,0.05615234375,0.93408203125,-0.295654296875,-11.108397483825684,-2.471923589706421,0.8544921278953552,80.0,871394.0,1.0
515152.0158839,285459.6875,315446.6875,315583.3125,287963.0,297767.625,300625.25,149923.890625,304627.1875,0.056640625,0.93017578125,-0.297607421875,-10.864256858825684,-2.380370855331421,0.8239745497703552,80.0,871395.0,1.0
515152.0207825,281981.5,314828.8125,316118.3125,289829.625,300856.8125,301802.75,150557.25,305926.09375,0.05712890625,0.9287109375,-0.29833984375,-10.437010765075684,-2.288818120956421,0.7934569716453552,80.0,871396.0,1.0
515152.0233775,287466.59375,317380.84375,318320.78125,293989.03125,302969.25,302838.96875,151043.34375,307198.46875,0.05712890625,0.928955078125,-0.294921875,-10.070799827575684,-2.136230230331421,0.5798339247703552,80.0,871397.0,1.0
515152.0257579,293893.4375,319419.5,318988.09375,294402.15625,301102.6875,302185.6875,150563.953125,306635.625,0.05810546875,0.933837890625,-0.29150390625,-9.582518577575684,-2.014159917831421,0.4882812201976776,80.0,871398.0,1.0
515152.0281961,292271.96875,318049.5,317128.1875,290129.84375,297650.3125,300638.9375,149509.65625,304948.8125,0.0595703125,0.93994140625,-0.292724609375,-9.216307640075684,-1.7700194120407104,0.3356933295726776,80.0,871399.0,1.0
515152.0309201,284774.03125,315076.28125,315251.0,286888.5,297270.96875,300229.90625,149167.59375,304428.09375,0.056884765625,0.943603515625,-0.288330078125,-8.789061546325684,-1.5869139432907104,0.1831054538488388,80.0,871400.0,1.0
515152.033342,280979.6875,314152.71875,315674.40625,288656.4375,300199.59375,301302.25,149612.484375,305667.53125,0.0556640625,0.949951171875,-0.2900390625,-8.605956077575684,-1.4343260526657104,0.1525878757238388,80.0,871401.0,1.0
515152.035737,286272.3125,316493.125,317834.40625,292813.15625,302259.625,302313.53125,149822.765625,306916.09375,0.05517578125,0.953125,-0.284423828125,-8.514403343200684,-1.3732908964157104,-0.0610351525247097,80.0,871402.0,1.0
515152.0433807,292651.84375,318410.09375,318513.8125,293274.84375,300387.34375,301671.5,149120.828125,306360.71875,0.052490234375,0.956298828125,-0.28125,-8.422850608825684,-1.0681151151657104,-0.1831054538488388,80.0,871403.0,1.0
515152.0434229,290987.0,316907.53125,316644.9375,289019.59375,296880.96875,300102.125,148036.421875,304668.0625,0.05224609375,0.95849609375,-0.277099609375,-8.239745140075684,-1.0681151151657104,-0.3662109076976776,80.0,871404.0,1.0
515152.0459129,283372.75,313770.125,314734.5625,285781.0,296426.0,299660.375,147620.578125,304134.75,0.0517578125,0.96044921875,-0.2763671875,-8.209227561950684,-0.9460448622703552,-0.4882812201976776,80.0,871405.0,1.0
515152.0483553,279401.28125,312679.09375,315131.90625,287582.84375,299321.6875,300734.5,148196.359375,305373.21875,0.04833984375,0.962646484375,-0.277587890625,-8.239745140075684,-0.9765624403953552,-0.6408690810203552,80.0,871406.0,1.0
515152.0508051,284581.875,314896.3125,317296.78125,291831.0,301391.03125,301771.28125,148741.921875,306632.875,0.045166015625,0.962158203125,-0.276611328125,-8.148192405700684,-0.9460448622703552,-0.9155272841453552,80.0,871407.0,1.0
515152.0508449,290945.15625,316722.96875,317981.375,292396.9375,299512.5,301128.25,148513.484375,306074.875,0.044677734375,0.963623046875,-0.275146484375,-8.209227561950684,-0.8850097060203552,-0.9765624403953552,80.0,871408.0,1.0
515152.0533852,289267.78125,315116.25,316104.46875,288211.375,295955.71875,299527.6875,147887.28125,304368.71875,0.0439453125,0.962646484375,-0.271240234375,-8.148192405700684,-0.8239745497703552,-0.9765624403953552,80.0,871409.0,1.0
515152.0558637,281535.6875,311808.90625,314151.46875,284986.46875,295397.1875,299030.6875,147907.9375,303807.0625,0.0419921875,0.959716796875,-0.271484375,-8.056639671325684,-0.8239745497703552,-1.0986326932907104,80.0,871410.0,1.0
515152.058386,277296.28125,310455.65625,314445.4375,286730.4375,298155.65625,300010.65625,148585.546875,304986.34375,0.040283203125,0.955322265625,-0.272216796875,-7.965087413787842,-0.8850097060203552,-1.1901854276657104,80.0,871411.0,1.0
515152.0607082,282263.46875,312462.5625,316556.96875,290962.6875,300170.71875,301008.375,149077.734375,306223.75,0.04052734375,0.950439453125,-0.27001953125,-7.781981945037842,-0.9765624403953552,-1.2817381620407104,80.0,871412.0,1.0
515152.1171675,288522.6875,314122.59375,317227.875,291558.21875,298249.0,300344.78125,148727.078125,305654.21875,0.041015625,0.94775390625,-0.2705078125,-7.598876476287842,-0.9155272841453552,-1.3732908964157104,80.0,871413.0,1.0
515152.1172098,286669.4375,312258.28125,315280.21875,287331.59375,294543.25,298661.15625,147868.78125,303891.5625,0.0419921875,0.947509765625,-0.2724609375,-7.263183116912842,-0.9765624403953552,-1.4343260526657104,80.0,871414.0,1.0
515152.1210783,278685.75,308643.375,313221.90625,283964.71875,293812.96875,298058.8125,147502.75,303245.78125,0.041015625,0.94677734375,-0.272216796875,-6.744384288787842,-1.0986326932907104,-1.5563963651657104,80.0,871415.0,1.0
515152.1211136,274289.0,307100.5625,313500.75,285602.46875,296546.34375,299043.65625,147917.0625,304409.59375,0.039306640625,0.947265625,-0.27294921875,-6.256103038787842,-1.1596678495407104,-1.4953612089157104,80.0,871416.0,1.0
515152.1211234,279246.09375,309038.71875,315670.40625,289805.21875,298650.34375,300118.5,148352.46875,305670.125,0.04052734375,0.947509765625,-0.27294921875,-5.920409679412842,-1.0681151151657104,-1.6174315214157104,80.0,871417.0,1.0
515152.1258854,285659.6875,310732.8125,316444.9375,290445.65625,296861.75,299563.90625,147899.0,305138.78125,0.040771484375,0.94580078125,-0.273681640625,-5.523681163787842,-1.0986326932907104,-1.5869139432907104,80.0,871418.0,1.0
515152.1321845,284178.46875,309081.71875,314670.46875,286326.125,293376.125,298062.125,146896.46875,303433.71875,0.04052734375,0.94873046875,-0.272216796875,-5.065917491912842,-1.1291502714157104,-1.5258787870407104,80.0,871419.0,1.0
515152.1322215,276721.75,305845.09375,312840.3125,283093.71875,292958.15625,297705.75,146652.75,302872.9375,0.038818359375,0.95361328125,-0.27294921875,-4.547118663787842,-1.0375975370407104,-1.4648436307907104,80.0,871420.0,1.0
515152.1322301,272949.5,304828.0,313393.28125,284905.625,296118.25,299001.0,147413.703125,304155.40625,0.041259765625,0.95361328125,-0.274658203125,-4.211425304412842,-1.0070799589157104,-1.3122557401657104,80.0,871421.0,1.0
515152.1322379,278737.625,307507.34375,315920.375,289409.40625,298793.21875,300474.875,148167.75,305585.5625,0.039794921875,0.955078125,-0.272705078125,-3.875732183456421,-1.0070799589157104,-1.2817381620407104,80.0,871422.0,1.0
515152.1322457,286170.1875,310105.15625,317087.59375,290451.90625,297616.96875,300329.9375,148045.71875,305240.625,0.039306640625,0.95654296875,-0.27294921875,-3.479003667831421,-1.0375975370407104,-1.1596678495407104,80.0,871423.0,1.0
515152.132254,285437.0625,309144.21875,315518.9375,286580.03125,294474.875,299020.40625,147368.546875,303639.15625,0.038330078125,0.95751953125,-0.27001953125,-3.204345464706421,-0.9155272841453552,-1.0070799589157104,80.0,871424.0,1.0
515152.1322629,278229.6875,306213.71875,313668.46875,283340.90625,294080.03125,298617.96875,147170.515625,303087.78125,0.0380859375,0.9609375,-0.267333984375,-2.990722417831421,-0.7934569716453552,-0.7934569716453552,80.0,871425.0,1.0
515152.1347874,274333.15625,305212.71875,314080.125,285020.0625,297089.65625,299743.875,147804.3125,304342.15625,0.03955078125,0.9619140625,-0.2685546875,-2.807616949081421,-0.7629393935203552,-0.5493163466453552,80.0,871426.0,1.0
515152.1348244,279659.75,307614.375,316346.21875,289275.3125,299440.78125,300930.40625,148454.03125,305692.125,0.038818359375,0.9658203125,-0.268798828125,-2.624511480331421,-0.7629393935203552,-0.3356933295726776,80.0,871427.0,1.0
515152.1370467,286480.09375,309736.4375,317203.0,289993.34375,297822.15625,300437.3125,148351.125,305229.625,0.038818359375,0.965576171875,-0.265869140625,-2.655029058456421,-0.6103515028953552,-0.2746581733226776,80.0,871428.0,1.0
515152.1395503,285261.5625,308348.40625,315415.40625,285840.1875,294316.25,298873.40625,147844.015625,303538.65625,0.038330078125,0.96240234375,-0.265869140625,-2.624511480331421,-0.5798339247703552,0.0,80.0,871429.0,1.0
515152.1420645,277775.6875,305159.625,313462.75,282424.21875,293729.84375,298360.5625,147836.046875,302932.65625,0.03857421875,0.960205078125,-0.265625,-2.502441167831421,-0.3967284858226776,0.1220703050494194,80.0,871430.0,1.0
515152.1469896,273802.09375,304108.71875,313889.75,284080.3125,296766.0,299538.34375,148421.9375,304179.4375,0.040771484375,0.957763671875,-0.26611328125,-2.288818120956421,-0.2746581733226776,0.2746581733226776,80.0,871431.0,1.0
515152.1496602,279457.0,306815.96875,316360.15625,288566.40625,299427.90625,300979.03125,149005.59375,305621.3125,0.042724609375,0.955810546875,-0.2685546875,-2.166747808456421,-0.3662109076976776,0.4577636420726776,80.0,871432.0,1.0
515152.1519616,286940.4375,309507.84375,317524.53125,289676.65625,298260.4375,300819.53125,148724.84375,305303.28125,0.0419921875,0.955322265625,-0.268798828125,-2.044677495956421,-0.3051757514476776,0.5798339247703552,80.0,871433.0,1.0
515152.1546946,286384.0625,308693.96875,315980.625,285878.375,295107.40625,299495.6875,147929.125,303724.375,0.041015625,0.954833984375,-0.266357421875,-1.8920897245407104,-0.03051757626235485,0.7019042372703552,80.0,871434.0,1.0
515152.1547339,279364.53125,305953.90625,314158.96875,282732.25,294725.8125,299104.71875,147837.03125,303183.90625,0.04345703125,0.95556640625,-0.267578125,-1.7395018339157104,0.1525878757238388,0.8544921278953552,80.0,871435.0,1.0
515152.1571119,275655.5,305240.4375,314648.46875,284613.28125,297896.8125,300347.375,148545.3125,304480.46875,0.04443359375,0.953369140625,-0.267822265625,-1.8005369901657104,0.2746581733226776,0.9765624403953552,80.0,871436.0,1.0
515152.159624,281498.875,308239.15625,317167.0625,289324.3125,300690.875,301848.96875,149188.6875,305972.5,0.045654296875,0.948486328125,-0.26953125,-1.7089842557907104,0.5493163466453552,1.0681151151657104,80.0,871437.0,1.0
515152.1721546,289172.65625,311188.0625,318364.21875,290638.59375,299600.46875,301712.1875,148980.015625,305696.875,0.04443359375,0.947509765625,-0.267822265625,-1.4038084745407104,0.7629393935203552,1.1901854276657104,80.0,871438.0,1.0
515152.1721958,288706.21875,310514.28125,316787.96875,286952.96875,296402.65625,300331.28125,148380.546875,304118.21875,0.044921875,0.946533203125,-0.26904296875,-1.0375975370407104,0.7934569716453552,1.0681151151657104,80.0,871439.0,1.0
515152.1771802,281611.96875,307784.0625,314876.09375,283819.6875,295890.1875,299835.25,148335.296875,303551.53125,0.044921875,0.9501953125,-0.274169921875,-0.7324218153953552,0.9460448622703552,1.0375975370407104,80.0,871440.0,1.0
515152.1772232,277683.4375,306982.375,315247.9375,285670.15625,298912.84375,300958.125,148948.71875,304815.125,0.044921875,0.950439453125,-0.2734375,-0.4882812201976776,1.1901854276657104,1.0986326932907104,80.0,871441.0,1.0
515152.1785227,283261.625,309845.8125,317653.25,290351.5,301571.4375,302344.71875,149559.828125,306285.78125,0.044677734375,0.951904296875,-0.271728515625,-0.1525878757238388,1.4038084745407104,1.2207030057907104,80.0,871442.0,1.0
515152.1882382,290784.84375,312713.15625,318788.1875,291682.6875,300392.875,302137.9375,149453.15625,306011.3125,0.044921875,0.955322265625,-0.27001953125,0.03051757626235485,1.4953612089157104,1.1291502714157104,80.0,871443.0,1.0
515152.1907578,290199.40625,311946.25,317141.125,287973.0,297074.0,300671.75,148907.234375,304400.375,0.045166015625,0.955810546875,-0.26904296875,0.1220703050494194,1.7700194120407104,1.1291502714157104,80.0,871444.0,1.0
515152.1982437,282974.875,309116.15625,315168.375,284791.09375,296447.1875,300105.96875,148912.0625,303801.0,0.047119140625,0.956787109375,-0.267822265625,0.2136230319738388,1.8920897245407104,1.1596678495407104,80.0,871445.0,1.0
515152.2007356,278916.78125,308249.625,315504.46875,286600.6875,299425.25,301206.40625,149598.984375,305056.0,0.046875,0.96044921875,-0.2724609375,0.2136230319738388,2.105712652206421,1.1901854276657104,80.0,871446.0,1.0
515152.2083286,284486.03125,311163.46875,317942.03125,291320.03125,302152.5,302646.46875,150385.765625,306556.4375,0.04638671875,0.961669921875,-0.273681640625,0.2441406100988388,2.227782964706421,1.3122557401657104,80.0,871447.0,1.0
515152.2083693,292086.71875,314112.65625,319119.96875,292728.5625,301038.21875,302485.0,150341.234375,306305.71875,0.0458984375,0.961181640625,-0.272705078125,0.1525878757238388,2.319335699081421,1.1291502714157104,80.0,871448.0,1.0
515152.210741,291580.125,313410.28125,317486.875,289066.0,297717.90625,301017.9375,149822.3125,304698.28125,0.04443359375,0.964599609375,-0.27099609375,0.0610351525247097,2.410888433456421,1.1291502714157104,80.0,871449.0,1.0
515152.2132753,284336.46875,310582.34375,315485.59375,285843.875,297033.78125,300417.03125,149871.046875,304079.84375,0.044921875,0.965576171875,-0.27099609375,0.03051757626235485,2.563476324081421,1.1596678495407104,80.0,871450.0,1.0
515152.2157373,280167.875,309675.75,315788.15625,287582.65625,299971.25,301491.6875,150598.375,305321.34375,0.04443359375,0.965576171875,-0.272216796875,-0.1525878757238388,2.624511480331421,1.0681151151657104,80.0,871451.0,1.0
515152.2184248,285623.21875,312545.1875,318201.15625,292252.8125,302685.375,302916.75,151213.578125,306813.65625,0.042724609375,0.966796875,-0.27392578125,-0.3356933295726776,2.685546636581421,1.0070799589157104,80.0,871452.0,1.0
515152.2245057,293206.8125,315497.46875,319377.125,293652.6875,301571.8125,302749.75,151139.015625,306560.71875,0.04248046875,0.967041015625,-0.26953125,-0.5187987685203552,2.807616949081421,0.9155272841453552,80.0,871453.0,1.0
515152.2308999,292710.40625,314797.875,317740.15625,289963.84375,298220.28125,301267.65625,150539.1875,304942.71875,0.04248046875,0.966064453125,-0.27001953125,-0.7019042372703552,2.777099370956421,0.8850097060203552,80.0,871454.0,1.0
515152.2309422,285400.5,311916.28125,315697.5625,286638.4375,297453.375,300618.71875,150485.0,304286.1875,0.04150390625,0.966552734375,-0.273193359375,-0.7019042372703552,2.746581792831421,0.7019042372703552,80.0,871455.0,1.0
515152.233506,281052.0,310897.75,315925.375,288224.59375,300300.96875,301631.625,151159.140625,305484.34375,0.040283203125,0.96533203125,-0.271728515625,-0.9155272841453552,2.807616949081421,0.6103515028953552,80.0,871456.0,1.0
515152.2495838,286335.34375,313669.5625,318289.125,292785.96875,302973.53125,303021.28125,151746.265625,306957.3125,0.039794921875,0.965576171875,-0.270751953125,-1.0681151151657104,2.777099370956421,0.5187987685203552,80.0,871457.0,1.0
515152.2520452,293862.25,316571.15625,319458.65625,294133.40625,301840.375,302832.625,151476.890625,306697.0625,0.042724609375,0.962646484375,-0.269775390625,-1.3122557401657104,2.868652105331421,0.5798339247703552,80.0,871458.0,1.0
515152.2520814,293318.5625,315804.25,317796.21875,290352.84375,298421.28125,301307.34375,150785.6875,305054.125,0.041015625,0.959716796875,-0.269775390625,-1.4038084745407104,2.838134527206421,0.4272460639476776,80.0,871459.0,1.0
515152.2546323,285907.0625,312828.9375,315705.4375,286882.34375,297559.9375,300602.28125,150704.046875,304356.03125,0.04150390625,0.958984375,-0.26806640625,-1.6174315214157104,2.746581792831421,0.3051757514476776,80.0,871460.0,1.0
515152.2596,281437.71875,311724.40625,315898.1875,288353.6875,300358.375,301583.25,151355.734375,305526.28125,0.0390625,0.956787109375,-0.270263671875,-1.4953612089157104,2.716064214706421,0.1525878757238388,80.0,871461.0,1.0
515152.2620202,286651.125,314468.84375,318270.4375,292877.6875,303055.78125,302995.625,152053.46875,307010.25,0.037841796875,0.957275390625,-0.27001953125,-1.6174315214157104,2.777099370956421,0.0915527269244194,80.0,871462.0,1.0
515152.2671549,294190.1875,317377.0,319468.3125,294230.34375,301955.53125,302841.5625,151996.703125,306767.0625,0.03759765625,0.959228515625,-0.271484375,-1.5258787870407104,2.655029058456421,-0.03051757626235485,80.0,871463.0,1.0
515152.2721282,293701.3125,316616.59375,317826.71875,290440.46875,298531.53125,301324.40625,151321.578125,305126.53125,0.036865234375,0.958984375,-0.270751953125,-1.4953612089157104,2.624511480331421,-0.0610351525247097,80.0,871464.0,1.0
515152.274692,286295.8125,313614.46875,315730.9375,286929.28125,297635.5,300610.59375,151021.53125,304417.625,0.035400390625,0.958984375,-0.269775390625,-1.5258787870407104,2.532958745956421,-0.1831054538488388,80.0,871465.0,1.0
515152.2747328,281742.3125,312455.84375,315905.625,288363.09375,300417.65625,301590.59375,151497.625,305581.09375,0.035888671875,0.96044921875,-0.269775390625,-1.5563963651657104,2.410888433456421,-0.3051757514476776,80.0,871466.0,1.0
515152.2770518,286868.375,315142.34375,318268.125,292894.9375,303127.75,303003.9375,152049.09375,307062.28125,0.0341796875,0.96337890625,-0.2734375,-1.4038084745407104,2.410888433456421,-0.3051757514476776,80.0,871467.0,1.0
515152.2971516,294441.875,318057.65625,319496.46875,294310.71875,302065.4375,302871.4375,151839.78125,306841.53125,0.033203125,0.96533203125,-0.270751953125,-1.4648436307907104,2.288818120956421,-0.3051757514476776,80.0,871468.0,1.0
515152.2995789,294011.46875,317307.875,317873.90625,290559.8125,298641.9375,301361.0625,151096.453125,305213.4375,0.03125,0.966552734375,-0.27001953125,-1.5563963651657104,2.075195074081421,-0.3051757514476776,80.0,871469.0,1.0
515152.2996187,286577.09375,314260.90625,315747.8125,287030.9375,297688.0625,300614.0,150715.40625,304478.59375,0.03271484375,0.966064453125,-0.268798828125,-1.4953612089157104,1.9226073026657104,-0.3662109076976776,80.0,871470.0,1.0
515152.3047255,281921.125,313031.8125,315884.34375,288448.75,300428.375,301565.5625,151200.703125,305619.15625,0.03076171875,0.96484375,-0.267822265625,-1.5869139432907104,1.7395018339157104,-0.2746581733226776,80.0,871471.0,1.0
515152.307171,286990.4375,315694.96875,318252.90625,293033.96875,303163.34375,302997.65625,151827.984375,307116.90625,0.0302734375,0.96533203125,-0.267578125,-1.8005369901657104,1.6479490995407104,-0.1831054538488388,80.0,871472.0,1.0
515152.3120723,294581.78125,318609.65625,319493.25,294527.0625,302125.78125,302873.84375,151621.09375,306902.25,0.0302734375,0.96337890625,-0.265625,-1.8005369901657104,1.4648436307907104,-0.1525878757238388,80.0,871473.0,1.0
515152.314484,294185.0,317847.375,317862.46875,290815.34375,298673.59375,301340.34375,150875.796875,305250.625,0.027587890625,0.96337890625,-0.270263671875,-1.8615721464157104,1.2817381620407104,-0.0610351525247097,80.0,871474.0,1.0
515152.3171339,286742.9375,314769.15625,315719.21875,287280.8125,297671.25,300568.3125,150581.75,304492.03125,0.028564453125,0.964111328125,-0.2685546875,-1.9226073026657104,1.0681151151657104,-0.1220703050494194,80.0,871475.0,1.0
515152.3246794,282005.625,313481.25,315834.71875,288684.25,300387.875,301512.71875,151097.265625,305621.5,0.028076171875,0.963134765625,-0.267578125,-1.8920897245407104,0.9460448622703552,-0.1831054538488388,80.0,871476.0,1.0
515152.3247209,287013.9375,316108.75,318205.53125,293292.375,303151.0,302959.40625,151725.53125,307129.0,0.030029296875,0.962158203125,-0.26611328125,-1.8615721464157104,0.7324218153953552,-0.03051757626235485,80.0,871477.0,1.0
515152.3271789,294671.03125,319057.84375,319495.3125,294872.375,302172.625,302873.75,151656.0625,306947.84375,0.028564453125,0.9619140625,-0.265380859375,-1.8920897245407104,0.6408690810203552,-0.03051757626235485,80.0,871478.0,1.0
515152.3296181,294363.71875,318331.78125,317896.90625,291223.75,298738.5,301355.96875,151087.96875,305312.875,0.02734375,0.959716796875,-0.26806640625,-1.7395018339157104,0.4882812201976776,0.0,80.0,871479.0,1.0
515152.3319892,286922.5625,315234.625,315731.28125,287660.625,297696.90625,300559.0,150914.34375,304532.96875,0.02587890625,0.95703125,-0.268310546875,-1.7395018339157104,0.3356933295726776,0.0610351525247097,80.0,871480.0,1.0
515152.3356727,282128.03125,313915.875,315826.0625,289019.0625,300396.28125,301483.5625,151572.28125,305652.34375,0.027587890625,0.956787109375,-0.265625,-1.6784666776657104,0.1220703050494194,0.03051757626235485,80.0,871481.0,1.0
515152.3718638,287069.625,316521.09375,318190.15625,293603.0625,303180.25,302934.625,152289.0625,307161.09375,0.028564453125,0.95654296875,-0.2685546875,-1.5869139432907104,-0.03051757626235485,0.0,80.0,871482.0,1.0
515152.3718751,294753.625,319492.8125,319495.9375,295195.375,302232.96875,302868.3125,152176.9375,306985.9375,0.02587890625,0.955078125,-0.267578125,-1.4953612089157104,-0.2746581733226776,0.0915527269244194,80.0,871483.0,1.0
515152.3756681,294532.625,318803.3125,317919.15625,291555.375,298802.96875,301357.9375,151381.046875,305351.21875,0.026123046875,0.95458984375,-0.269287109375,-1.4343260526657104,-0.3356933295726776,0.0,80.0,871484.0,1.0
515152.3756741,287118.90625,315708.5625,315757.125,287948.96875,297734.09375,300554.0,151016.703125,304562.90625,0.0263671875,0.954345703125,-0.26806640625,-1.2817381620407104,-0.4272460639476776,-0.0610351525247097,80.0,871485.0,1.0
515152.375676,282244.96875,314345.03125,315822.5625,289214.15625,300403.875,301463.90625,151435.578125,305663.15625,0.027099609375,0.952392578125,-0.265869140625,-1.0986326932907104,-0.5187987685203552,-0.03051757626235485,80.0,871486.0,1.0
515152.3866247,287123.46875,316922.625,318178.25,293745.5625,303202.15625,302920.6875,151996.609375,307174.59375,0.02880859375,0.954833984375,-0.26513671875,-0.9155272841453552,-0.5493163466453552,-0.0610351525247097,80.0,871487.0,1.0
515152.3866381,294840.96875,319906.0625,319505.0625,295335.03125,302287.0625,302875.71875,151859.1875,307013.5625,0.02783203125,0.955322265625,-0.264404296875,-0.7324218153953552,-0.7019042372703552,-0.1831054538488388,80.0,871488.0,1.0
515152.3866399,294675.65625,319229.59375,317942.3125,291674.375,298855.8125,301369.84375,151241.75,305378.3125,0.027587890625,0.95458984375,-0.2685546875,-0.4882812201976776,-0.7934569716453552,-0.1831054538488388,80.0,871489.0,1.0
515152.3866418,287277.0625,316120.1875,315769.90625,288007.6875,297751.1875,300551.84375,151073.125,304577.21875,0.02978515625,0.9580078125,-0.266845703125,-0.3967284858226776,-0.7934569716453552,-0.2136230319738388,80.0,871490.0,1.0
515152.3932371,282342.40625,314708.1875,315809.5,289208.25,300393.96875,301446.28125,151606.078125,305662.90625,0.032958984375,0.959228515625,-0.265625,-0.4272460639476776,-0.8239745497703552,-0.1525878757238388,80.0,871491.0,1.0
515152.393252,287164.3125,317255.03125,318161.1875,293717.65625,303210.28125,302915.59375,152205.1875,307176.1875,0.033203125,0.963623046875,-0.26904296875,-0.3356933295726776,-0.9155272841453552,-0.0915527269244194,80.0,871492.0,1.0
515152.3956086,294928.59375,320268.5,319522.9375,295346.03125,302347.78125,302903.34375,152100.5,307040.90625,0.035888671875,0.966552734375,-0.269775390625,-0.3967284858226776,-0.9765624403953552,-0.0915527269244194,80.0,871493.0,1.0
515152.4008023,294830.15625,319611.90625,317973.15625,291695.28125,298916.0625,301396.375,151358.6875,305406.90625,0.03857421875,0.965576171875,-0.271240234375,-0.3356933295726776,-0.8544921278953552,0.0610351525247097,80.0,871494.0,1.0
515152.4033098,287433.4375,316475.875,315780.0,287987.40625,297765.84375,300546.9375,150943.296875,304579.8125,0.039794921875,0.962158203125,-0.269775390625,-0.5187987685203552,-0.7629393935203552,0.0915527269244194,80.0,871495.0,1.0
515152.4083189,282435.59375,315027.65625,315801.8125,289158.53125,300389.21875,301426.78125,151426.640625,305656.1875,0.037841796875,0.95703125,-0.269287109375,-0.5493163466453552,-0.5798339247703552,0.2136230319738388,80.0,871496.0,1.0
515152.4106006,287196.78125,317556.875,318156.34375,293687.53125,303234.40625,302909.4375,152064.203125,307183.875,0.03662109375,0.954833984375,-0.267822265625,-0.3967284858226776,-0.4272460639476776,0.2441406100988388,80.0,871497.0,1.0
515152.4133024,294998.4375,320588.6875,319538.125,295372.25,302403.75,302913.53125,151947.25,307060.84375,0.034912109375,0.959228515625,-0.26806640625,-0.2441406100988388,-0.4272460639476776,0.2136230319738388,80.0,871498.0,1.0
515152.4133207,294992.34375,319965.59375,318008.21875,291769.40625,298976.21875,301415.0625,151284.578125,305435.0,0.03076171875,0.96142578125,-0.26611328125,-0.2136230319738388,-0.2136230319738388,0.0915527269244194,80.0,871499.0,1.0
515152.41579,287606.71875,316813.28125,315799.40625,288049.71875,297785.25,300544.4375,150997.3125,304596.09375,0.031005859375,0.96240234375,-0.266845703125,-0.3356933295726776,-0.3051757514476776,0.2441406100988388,80.0,871500.0,1.0
515152.4183494,282540.09375,315321.875,315798.5,289203.875,300382.5,301407.5625,151378.359375,305664.9375,0.031005859375,0.961669921875,-0.2666015625,-0.4882812201976776,-0.3051757514476776,0.3051757514476776,80.0,871501.0,1.0
515152.4233124,287257.84375,317836.1875,318163.96875,293770.40625,303256.9375,302912.71875,152005.8125,307213.375,0.031982421875,0.96240234375,-0.263916015625,-0.4882812201976776,-0.2136230319738388,0.3662109076976776,80.0,871502.0,1.0
515152.4283291,295069.0625,320866.09375,319556.46875,295497.125,302446.21875,302924.53125,151937.78125,307094.9375,0.02978515625,0.96337890625,-0.268798828125,-0.4577636420726776,-0.1525878757238388,0.2746581733226776,80.0,871503.0,1.0
515152.4283542,295097.65625,320244.375,318026.96875,291914.34375,299006.8125,301418.84375,151288.859375,305462.4375,0.030029296875,0.961669921875,-0.2724609375,-0.5798339247703552,-0.2136230319738388,0.1831054538488388,80.0,871504.0,1.0
515152.4306512,287721.3125,317084.71875,315809.0625,288186.0625,297781.5625,300536.65625,150727.5625,304610.84375,0.029296875,0.962158203125,-0.271484375,-0.6103515028953552,-0.2136230319738388,0.2136230319738388,80.0,871505.0,1.0
515152.4371121,282579.09375,315545.84375,315775.28125,289302.75,300343.90625,301377.78125,150915.40625,305660.84375,0.02880859375,0.96337890625,-0.271240234375,-0.5493163466453552,-0.1220703050494194,0.1525878757238388,80.0,871506.0,1.0
515152.4667904,287207.875,318011.25,318113.625,293848.84375,303216.0,302868.46875,151408.578125,307195.59375,0.030029296875,0.96337890625,-0.271728515625,-0.3967284858226776,-0.1220703050494194,0.2441406100988388,80.0,871507.0,1.0
515152.4668298,295062.625,321066.5625,319541.34375,295637.6875,302457.46875,302913.1875,151110.859375,307103.6875,0.03076171875,0.96435546875,-0.272216796875,-0.4272460639476776,0.0,0.0915527269244194,80.0,871508.0,1.0
515152.484613,295180.625,320478.0,318037.90625,292104.9375,299031.125,301417.65625,150340.078125,305485.78125,0.031494140625,0.966552734375,-0.2705078125,-0.5493163466453552,0.03051757626235485,0.1220703050494194,80.0,871509.0,1.0
515152.4846545,287827.09375,317312.4375,315810.3125,288362.28125,297773.1875,300516.4375,150033.59375,304625.875,0.03125,0.967529296875,-0.267822265625,-0.6103515028953552,0.0,0.0,80.0,871510.0,1.0
515152.4871966,282616.28125,315721.0,315750.40625,289432.40625,300304.03125,301339.4375,150509.328125,305660.46875,0.03173828125,0.968505859375,-0.264892578125,-0.6713866591453552,0.0,0.2136230319738388,80.0,871511.0,1.0
515152.4886275,287172.71875,318142.125,318074.09375,293964.34375,303185.78125,302831.90625,151099.40625,307195.3125,0.0302734375,0.968017578125,-0.268798828125,-0.8239745497703552,0.03051757626235485,0.1831054538488388,80.0,871512.0,1.0
515152.4958349,295050.09375,321198.4375,319510.34375,295782.78125,302451.65625,302886.96875,150917.46875,307110.3125,0.031982421875,0.966064453125,-0.2685546875,-0.9155272841453552,0.1525878757238388,0.03051757626235485,80.0,871513.0,1.0
515152.4983504,295256.625,320641.5,318036.46875,292294.3125,299038.46875,301402.75,150339.546875,305500.625,0.033203125,0.963623046875,-0.2685546875,-0.9460448622703552,0.2746581733226776,0.0610351525247097,80.0,871514.0,1.0
515152.5008604,287922.75,317466.21875,315803.25,288526.875,297747.6875,300489.625,150459.078125,304627.1875,0.034423828125,0.962646484375,-0.266845703125,-1.0375975370407104,0.3051757514476776,0.1220703050494194,80.0,871515.0,1.0
515152.503307,282651.15625,315844.375,315727.34375,289550.5,300265.84375,301308.78125,151310.234375,305655.75,0.035888671875,0.961669921875,-0.26904296875,-1.0070799589157104,0.5187987685203552,0.1831054538488388,80.0,871516.0,1.0
515152.5056991,287148.75,318253.0,318055.78125,294070.5625,303177.90625,302819.46875,152307.921875,307206.59375,0.034423828125,0.961669921875,-0.26904296875,-0.9765624403953552,0.6713866591453552,0.2441406100988388,80.0,871517.0,1.0
515152.5083744,295048.9375,321328.0625,319516.5,295912.34375,302481.15625,302897.09375,152496.578125,307138.09375,0.034423828125,0.9619140625,-0.267822265625,-0.9155272841453552,0.7934569716453552,0.3051757514476776,80.0,871518.0,1.0
515152.5107559,295289.4375,320769.0,318035.375,292396.59375,299041.84375,301396.125,151992.40625,305508.3125,0.033203125,0.962646484375,-0.267822265625,-0.9460448622703552,0.8239745497703552,0.3967284858226776,80.0,871519.0,1.0
515152.5208301,287960.5625,317577.0,315787.15625,288573.1875,297707.8125,300462.625,152088.703125,304617.53125,0.034423828125,0.963134765625,-0.2705078125,-1.0375975370407104,1.0375975370407104,0.4577636420726776,80.0,871520.0,1.0
515152.523342,282607.34375,315899.8125,315678.4375,289520.09375,300189.65625,301258.0,152882.28125,305631.15625,0.034423828125,0.961181640625,-0.269775390625,-0.9765624403953552,1.1291502714157104,0.5187987685203552,80.0,871521.0,1.0
515152.5258548,287006.59375,318252.28125,317989.0,293991.71875,303100.21875,302761.53125,153689.625,307177.0,0.033935546875,0.9609375,-0.27001953125,-1.1291502714157104,1.2817381620407104,0.5493163466453552,80.0,871522.0,1.0
515152.5308418,294918.21875,321333.96875,319466.625,295842.78125,302430.65625,302853.09375,153722.96875,307119.0625,0.03564453125,0.959716796875,-0.267333984375,-1.0986326932907104,1.3732908964157104,0.5798339247703552,80.0,871523.0,1.0
515152.533388,295215.40625,320794.75,318001.78125,292329.1875,298991.875,301356.5,153257.25,305497.84375,0.03369140625,0.957275390625,-0.26904296875,-1.0375975370407104,1.5563963651657104,0.6408690810203552,80.0,871524.0,1.0
515152.5382964,287854.0,317559.46875,315723.40625,288429.15625,297596.15625,300386.1875,153278.609375,304577.03125,0.03515625,0.95654296875,-0.267333984375,-1.0070799589157104,1.6784666776657104,0.7019042372703552,80.0,871525.0,1.0
515152.5383356,282414.5625,315818.53125,315584.84375,289311.0625,300038.125,301157.6875,154085.25,305567.6875,0.0361328125,0.955810546875,-0.2666015625,-0.7324218153953552,1.7700194120407104,0.7629393935203552,80.0,871526.0,1.0
515152.5407411,286743.3125,318134.53125,317886.78125,293775.15625,302962.625,302665.0,155102.609375,307118.53125,0.0361328125,0.95751953125,-0.26611328125,-0.6103515028953552,1.8615721464157104,0.8850097060203552,80.0,871527.0,1.0
515152.543189,294668.0625,321215.3125,319384.625,295658.4375,302321.9375,302776.125,155410.171875,307080.0,0.034423828125,0.958740234375,-0.26708984375,-0.5187987685203552,1.9836424589157104,1.0681151151657104,80.0,871528.0,1.0
515152.5458095,295001.375,320663.59375,317925.0625,292153.6875,298866.625,301271.84375,154915.484375,305452.15625,0.03173828125,0.958984375,-0.263916015625,-0.5187987685203552,2.075195074081421,0.9155272841453552,80.0,871529.0,1.0
515152.5507244,287641.03125,317395.9375,315628.65625,288226.46875,297426.375,300279.25,154669.78125,304514.1875,0.033203125,0.9619140625,-0.262939453125,-0.4577636420726776,2.136230230331421,0.9765624403953552,80.0,871530.0,1.0
515152.5507383,282105.3125,315591.09375,315453.5,289055.375,299830.53125,301031.15625,155284.375,305489.25,0.03466796875,0.9599609375,-0.261474609375,-0.3967284858226776,2.166747808456421,1.0070799589157104,80.0,871531.0,1.0
515152.5532931,286336.5,317847.28125,317737.9375,293501.9375,302755.71875,302535.15625,156236.828125,307035.5625,0.032470703125,0.96240234375,-0.26513671875,-0.3051757514476776,2.166747808456421,1.0375975370407104,80.0,871532.0,1.0
515152.5557839,294290.6875,320936.8125,319266.96875,295444.125,302161.09375,302675.34375,156436.109375,307019.46875,0.033203125,0.96435546875,-0.26611328125,-0.3356933295726776,2.288818120956421,1.1901854276657104,80.0,871533.0,1.0
515152.5583019,294700.53125,320405.75,317832.25,291983.625,298718.46875,301185.125,156016.96875,305405.75,0.032470703125,0.96533203125,-0.267333984375,-0.4882812201976776,2.288818120956421,1.0681151151657104,80.0,871534.0,1.0
515152.5633041,287336.15625,317108.3125,315519.28125,288027.53125,297233.4375,300175.34375,156034.234375,304448.84375,0.031494140625,0.965576171875,-0.263916015625,-0.5187987685203552,2.380370855331421,1.1596678495407104,80.0,871535.0,1.0
515152.5633203,281727.125,315251.53125,315321.78125,288823.8125,299608.0625,300913.875,156713.546875,305408.625,0.03369140625,0.966064453125,-0.261962890625,-0.6713866591453552,2.349853277206421,1.1291502714157104,80.0,871536.0,1.0
515152.5683191,285901.1875,317488.5,317613.3125,293289.21875,302567.53125,302439.21875,157367.28125,306970.75,0.033447265625,0.96630859375,-0.265625,-0.6408690810203552,2.380370855331421,1.1901854276657104,80.0,871537.0,1.0
515152.5706398,293890.9375,320595.375,319168.71875,295284.875,302016.59375,302601.34375,157323.5625,306967.6875,0.032470703125,0.967041015625,-0.265625,-0.7934569716453552,2.380370855331421,1.1291502714157104,80.0,871538.0,1.0
515152.5733251,294392.6875,320100.96875,317764.40625,291880.96875,298593.46875,301128.0,156622.703125,305357.84375,0.034423828125,0.967041015625,-0.2646484375,-0.8544921278953552,2.380370855331421,1.2207030057907104,80.0,871539.0,1.0
515152.5783098,287103.0,316841.90625,315469.5,287945.28125,297104.6875,300125.1875,156306.03125,304397.5,0.03515625,0.967041015625,-0.262939453125,-0.8850097060203552,2.288818120956421,1.1291502714157104,80.0,871540.0,1.0
515152.5783312,281476.78125,314984.03125,315260.71875,288720.28125,299476.65625,300858.4375,156815.28125,305342.90625,0.032470703125,0.966796875,-0.267822265625,-1.0681151151657104,2.319335699081421,1.1901854276657104,80.0,871541.0,1.0
515152.5807892,285579.84375,317191.125,317534.15625,293180.0625,302443.53125,302372.96875,157454.546875,306897.6875,0.033203125,0.96630859375,-0.264404296875,-1.1901854276657104,2.227782964706421,1.2207030057907104,80.0,871542.0,1.0
515152.5858148,293605.8125,320329.65625,319115.6875,295235.1875,301933.90625,302554.46875,157337.421875,306916.5625,0.032470703125,0.966552734375,-0.267333984375,-1.1901854276657104,2.349853277206421,1.0986326932907104,80.0,871543.0,1.0
515152.5992458,294166.9375,319854.8125,317715.9375,291851.46875,298501.84375,301071.125,156585.6875,305304.28125,0.032470703125,0.967529296875,-0.26611328125,-1.2207030057907104,2.410888433456421,1.0681151151657104,80.0,871544.0,1.0
515152.5992841,286852.8125,316555.0625,315387.59375,287861.6875,296952.875,300031.9375,156183.265625,304320.4375,0.0322265625,0.966796875,-0.268310546875,-1.4343260526657104,2.410888433456421,0.9765624403953552,80.0,871545.0,1.0
515152.6245728,281107.875,314618.34375,315133.0625,288554.875,299269.40625,300731.65625,156617.703125,305244.75,0.03271484375,0.96484375,-0.268310546875,-1.4038084745407104,2.380370855331421,0.9460448622703552,80.0,871546.0,1.0
515152.6295692,285130.75,316789.40625,317401.125,292984.71875,302251.3125,302259.875,157252.484375,306809.1875,0.033447265625,0.96337890625,-0.26953125,-1.3732908964157104,2.349853277206421,1.0375975370407104,80.0,871547.0,1.0
515152.6296106,293187.75,319945.65625,319019.9375,295070.3125,301789.0625,302477.78125,157171.125,306857.625,0.03466796875,0.96337890625,-0.267822265625,-1.4343260526657104,2.197265386581421,0.9155272841453552,80.0,871548.0,1.0
515152.6358037,293852.40625,319516.875,317653.875,291714.25,298377.90625,301010.96875,156476.609375,305255.8125,0.0361328125,0.9609375,-0.26806640625,-1.3732908964157104,2.319335699081421,0.8850097060203552,80.0,871549.0,1.0
515152.6408097,286569.125,316215.59375,315309.46875,287671.4375,296790.59375,299947.375,156110.484375,304242.03125,0.03564453125,0.96044921875,-0.267822265625,-1.2817381620407104,2.227782964706421,0.9155272841453552,80.0,871550.0,1.0
515152.6433436,280764.65625,314241.9375,315032.9375,288299.15625,299084.15625,300631.5,156512.109375,305152.125,0.03466796875,0.963134765625,-0.2666015625,-1.2512205839157104,2.258300542831421,0.9155272841453552,80.0,871551.0,1.0
515152.645977,284758.90625,316412.75,317317.71875,292729.09375,302108.78125,302181.5625,157151.546875,306732.1875,0.035888671875,0.96337890625,-0.265869140625,-1.2207030057907104,2.258300542831421,0.8544921278953552,80.0,871552.0,1.0
515152.6483524,292914.15625,319634.625,318985.0625,294873.25,301720.5,302441.375,157075.640625,306801.40625,0.0380859375,0.959716796875,-0.266357421875,-1.0070799589157104,2.258300542831421,0.8239745497703552,80.0,871553.0,1.0
515152.648395,293710.0625,319276.1875,317656.75,291558.125,298343.59375,300998.71875,156357.875,305205.40625,0.0380859375,0.960205078125,-0.26904296875,-1.0375975370407104,2.410888433456421,0.9155272841453552,80.0,871554.0,1.0
515152.6533837,286526.03125,316037.3125,315335.5625,287526.0625,296765.28125,299956.21875,156026.625,304202.34375,0.037109375,0.9609375,-0.26806640625,-0.8850097060203552,2.380370855331421,0.8239745497703552,80.0,871555.0,1.0
515152.653425,280773.0625,314122.125,315073.25,288160.40625,299090.3125,300670.6875,156481.890625,305121.53125,0.035888671875,0.9609375,-0.266845703125,-0.7934569716453552,2.532958745956421,0.9155272841453552,80.0,871556.0,1.0
515152.6559044,284865.21875,316398.875,317409.53125,292664.375,302221.0,302286.34375,157274.390625,306732.8125,0.035400390625,0.963134765625,-0.2666015625,-0.7019042372703552,2.532958745956421,1.0070799589157104,80.0,871557.0,1.0
515152.6559417,293277.625,319829.25,319187.21875,294973.125,302002.75,302647.1875,157348.59375,306860.6875,0.035400390625,0.96435546875,-0.266845703125,-0.6713866591453552,2.563476324081421,1.0070799589157104,80.0,871558.0,1.0
515152.6584025,294397.625,319720.8125,317968.6875,291830.75,298770.0625,301295.71875,156745.546875,305326.0,0.035400390625,0.96630859375,-0.26318359375,-0.7324218153953552,2.532958745956421,1.0070799589157104,80.0,871559.0,1.0
515152.6584381,287362.8125,316616.78125,315670.40625,287853.1875,297216.15625,300262.0,156312.546875,304334.125,0.033447265625,0.963623046875,-0.265625,-0.7324218153953552,2.563476324081421,1.0375975370407104,80.0,871560.0,1.0
515152.6608855,281597.21875,314737.25,315379.8125,288477.78125,299516.78125,300945.0625,156575.859375,305239.8125,0.033935546875,0.962158203125,-0.263916015625,-0.7019042372703552,2.532958745956421,0.9765624403953552,80.0,871561.0,1.0
515152.6632646,285642.6875,317036.71875,317701.4375,293009.21875,302659.09375,302552.25,157126.15625,306864.78125,0.03466796875,0.963134765625,-0.26171875,-0.7629393935203552,2.502441167831421,1.0375975370407104,80.0,871562.0,1.0
515152.6658241,294035.34375,320481.21875,319461.96875,295362.9375,302429.65625,302892.34375,156983.109375,307006.6875,0.034423828125,0.960693359375,-0.260986328125,-0.7019042372703552,2.502441167831421,1.0375975370407104,80.0,871563.0,1.0
515152.6658625,295109.46875,320337.15625,318193.71875,292212.59375,299113.65625,301479.71875,156350.734375,305455.90625,0.03515625,0.958740234375,-0.262939453125,-0.7629393935203552,2.410888433456421,1.0986326932907104,80.0,871564.0,1.0
515152.7008677,287991.15625,317164.21875,315829.53125,288175.96875,297451.84375,300375.1875,156254.703125,304427.1875,0.033935546875,0.958984375,-0.261962890625,-0.6713866591453552,2.410888433456421,1.1901854276657104,80.0,871565.0,1.0
515152.7045618,282057.03125,315188.40625,315465.65625,288725.46875,299666.90625,301004.59375,156910.953125,305309.46875,0.035400390625,0.960693359375,-0.26171875,-0.6713866591453552,2.380370855331421,1.2512205839157104,80.0,871566.0,1.0
515152.7046027,285886.0625,317363.3125,317709.6875,293188.375,302737.84375,302558.21875,157688.609375,306907.71875,0.032470703125,0.95849609375,-0.26513671875,-0.5798339247703552,2.380370855331421,1.1291502714157104,80.0,871567.0,1.0
515152.704613,294116.34375,320685.40625,319417.71875,295498.46875,302438.4375,302849.15625,157857.6875,307031.90625,0.031494140625,0.955810546875,-0.265869140625,-0.3662109076976776,2.380370855331421,1.1291502714157104,80.0,871568.0,1.0
515152.7086072,295075.5,320420.84375,318106.71875,292286.53125,299028.09375,301383.6875,157389.90625,305459.5,0.032470703125,0.95751953125,-0.265869140625,-0.2746581733226776,2.380370855331421,1.2512205839157104,80.0,871569.0,1.0
515152.7086419,287815.65625,317108.6875,315678.71875,288145.28125,297254.53125,300217.8125,157153.0625,304387.21875,0.032958984375,0.955078125,-0.2666015625,-0.2136230319738388,2.227782964706421,1.3122557401657104,80.0,871570.0,1.0
515152.7086504,281664.8125,314959.78125,315239.90625,288567.90625,299362.75,300788.34375,157721.421875,305225.96875,0.036376953125,0.953369140625,-0.267578125,-0.03051757626235485,2.166747808456421,1.3122557401657104,80.0,871571.0,1.0
515152.7086591,285277.21875,316971.4375,317434.9375,292942.4375,302380.65625,302307.28125,158517.0625,306803.71875,0.035400390625,0.95361328125,-0.268310546875,0.03051757626235485,2.136230230331421,1.3122557401657104,80.0,871572.0,1.0
515152.7158986,293392.9375,320182.3125,319122.65625,295211.46875,302054.59375,302579.25,158572.140625,306916.28125,0.036376953125,0.95703125,-0.2685546875,0.3051757514476776,2.044677495956421,1.3732908964157104,80.0,871573.0,1.0
515152.7159403,294290.59375,319813.0625,317785.75,291946.25,298588.125,301084.375,157933.671875,305313.3125,0.036865234375,0.958740234375,-0.2666015625,0.3967284858226776,2.014159917831421,1.3122557401657104,80.0,871574.0,1.0
515152.718346,286957.15625,316395.5,315333.15625,287720.34375,296747.125,299896.6875,157557.71875,304218.875,0.036376953125,0.96142578125,-0.267333984375,0.4577636420726776,1.9836424589157104,1.2512205839157104,80.0,871575.0,1.0
515152.7208381,280696.15625,314133.5625,314871.625,288054.8125,298817.8125,300453.5,157903.09375,305037.03125,0.034423828125,0.9619140625,-0.271484375,0.6103515028953552,1.9531248807907104,1.2207030057907104,80.0,871576.0,1.0
515152.7232724,284186.4375,316034.28125,317054.59375,292373.34375,301834.65625,301974.3125,158564.359375,306605.59375,0.03466796875,0.963134765625,-0.2685546875,0.6408690810203552,1.8615721464157104,1.0986326932907104,80.0,871577.0,1.0
515152.7283275,292276.4375,319184.34375,318758.0625,294636.59375,301534.6875,302263.71875,158642.046875,306724.15625,0.03369140625,0.962646484375,-0.26904296875,0.6103515028953552,1.7395018339157104,1.1596678495407104,80.0,871578.0,1.0
515152.7333901,293195.53125,318771.46875,317431.1875,291353.9375,298057.40625,300767.6875,157919.375,305118.9375,0.035888671875,0.964111328125,-0.270263671875,0.6103515028953552,1.6174315214157104,1.0681151151657104,80.0,871579.0,1.0
515152.7334313,285778.96875,315231.40625,314927.875,287019.3125,296117.0,299523.75,157444.71875,303977.3125,0.03759765625,0.964111328125,-0.271240234375,0.5187987685203552,1.6174315214157104,1.0986326932907104,80.0,871580.0,1.0
515152.7360213,279254.84375,312750.4375,314360.03125,287173.34375,298049.625,299992.0,157872.875,304733.9375,0.04052734375,0.964599609375,-0.272216796875,0.5187987685203552,1.6784666776657104,1.0375975370407104,80.0,871581.0,1.0
515152.7383589,282488.59375,314451.15625,316472.90625,291363.125,300987.09375,301463.0,158649.5625,306278.09375,0.04296875,0.965576171875,-0.270263671875,0.4272460639476776,1.7700194120407104,1.0375975370407104,80.0,871582.0,1.0
515152.7470362,290475.15625,317486.4375,318181.5625,293590.53125,300677.375,301759.03125,158709.828125,306406.9375,0.04296875,0.965576171875,-0.27294921875,0.4577636420726776,1.8615721464157104,1.0986326932907104,80.0,871583.0,1.0
515152.7470753,291333.375,316954.09375,316842.96875,290253.25,297152.96875,300244.375,157982.5,304783.21875,0.043212890625,0.9638671875,-0.27099609375,0.3967284858226776,1.9836424589157104,1.0070799589157104,80.0,871584.0,1.0
515152.7495058,283830.59375,313274.8125,314307.46875,285819.28125,295132.96875,298965.6875,157432.546875,303605.09375,0.04296875,0.963623046875,-0.271240234375,0.3356933295726776,1.8920897245407104,1.0681151151657104,80.0,871585.0,1.0
515152.7721268,277308.71875,310752.375,313775.5,285943.28125,297096.375,299474.59375,157759.6875,304362.375,0.042724609375,0.9619140625,-0.271484375,0.1525878757238388,1.9531248807907104,1.0681151151657104,80.0,871586.0,1.0
515152.7770166,280706.1875,312561.1875,316010.5,290232.125,300209.5,301073.375,158469.765625,305955.96875,0.041748046875,0.961669921875,-0.27197265625,0.1831054538488388,2.105712652206421,1.0070799589157104,80.0,871587.0,1.0
515152.7770563,289020.9375,315814.0625,317874.375,292647.75,300127.875,301518.6875,158640.625,306148.46875,0.040771484375,0.96240234375,-0.27294921875,0.0915527269244194,2.105712652206421,0.9460448622703552,80.0,871588.0,1.0
515152.7797366,290348.8125,315596.90625,316718.5,289542.09375,296838.15625,300160.875,158092.203125,304596.0,0.03955078125,0.962646484375,-0.272705078125,0.03051757626235485,2.136230230331421,0.9155272841453552,80.0,871589.0,1.0
515152.7819601,283323.40625,312264.625,314350.65625,285323.25,295032.84375,299021.46875,157597.421875,303480.8125,0.039306640625,0.962890625,-0.269287109375,0.03051757626235485,2.136230230331421,0.8544921278953552,80.0,871590.0,1.0
515152.784588,277091.71875,309990.625,313907.8125,285587.34375,297142.59375,299611.5625,157679.3125,304276.46875,0.0380859375,0.9658203125,-0.265380859375,0.0,2.136230230331421,0.7934569716453552,80.0,871591.0,1.0
515152.7871561,280636.28125,311964.46875,316189.125,289991.90625,300363.28125,301258.96875,158453.84375,305917.53125,0.038818359375,0.9658203125,-0.26806640625,0.03051757626235485,2.136230230331421,0.6713866591453552,80.0,871592.0,1.0
515152.7895552,289058.21875,315330.28125,318077.3125,292505.03125,300333.0625,301719.5,158721.625,306150.53125,0.0361328125,0.96630859375,-0.26953125,-0.03051757626235485,2.197265386581421,0.5493163466453552,80.0,871593.0,1.0
515152.7895944,290419.625,315136.09375,316887.5,289417.1875,296999.09375,300315.28125,158220.671875,304591.53125,0.035400390625,0.96435546875,-0.271240234375,-0.03051757626235485,2.166747808456421,0.5187987685203552,80.0,871594.0,1.0
515152.7919948,283416.65625,311816.6875,314494.78125,285185.21875,295146.75,299145.3125,158001.890625,303468.5,0.03466796875,0.9619140625,-0.270263671875,-0.03051757626235485,2.166747808456421,0.3967284858226776,80.0,871595.0,1.0
515152.795859,277185.53125,309570.59375,314038.0,285442.15625,297247.0,299728.5,158613.890625,304262.5,0.036865234375,0.96435546875,-0.267578125,-0.03051757626235485,2.136230230331421,0.4577636420726776,80.0,871596.0,1.0
515152.8470212,280750.1875,311607.21875,316325.5625,289888.09375,300512.96875,301394.78125,159513.59375,305913.21875,0.0380859375,0.96435546875,-0.267578125,-0.1220703050494194,1.9836424589157104,0.4577636420726776,80.0,871597.0,1.0
515152.8470606,289364.1875,315144.875,318290.90625,292544.21875,300602.1875,301920.75,159712.25,306188.34375,0.038818359375,0.96484375,-0.268310546875,-0.1220703050494194,2.014159917831421,0.4272460639476776,80.0,871598.0,1.0
515152.84957,291025.90625,315190.53125,317206.59375,289629.34375,297392.65625,300595.40625,159041.96875,304683.34375,0.03759765625,0.96435546875,-0.2705078125,-0.2136230319738388,2.044677495956421,0.4577636420726776,80.0,871599.0,1.0
515152.849606,284196.53125,312025.28125,314837.46875,285464.25,295562.9375,299434.09375,158503.296875,303565.9375,0.036376953125,0.962646484375,-0.267333984375,-0.1525878757238388,1.9531248807907104,0.3967284858226776,80.0,871600.0,1.0
515152.8521507,277989.90625,309851.34375,314364.25,285740.34375,297660.34375,300006.375,158859.671875,304362.75,0.03466796875,0.9619140625,-0.269287109375,-0.0915527269244194,1.9836424589157104,0.3967284858226776,80.0,871601.0,1.0
515152.8544706,281518.34375,311928.34375,316636.34375,290215.875,300941.125,301664.0625,159661.296875,306026.15625,0.036865234375,0.9619140625,-0.268798828125,-0.1831054538488388,1.8920897245407104,0.3356933295726776,80.0,871602.0,1.0
515152.8569915,290152.9375,315524.03125,318600.96875,292928.125,301050.375,302188.34375,159929.6875,306318.96875,0.03564453125,0.961669921875,-0.269287109375,-0.1831054538488388,1.9531248807907104,0.3051757514476776,80.0,871603.0,1.0
515152.8594839,291883.3125,315634.90625,317519.5,290060.9375,297833.78125,300854.9375,159429.71875,304828.09375,0.036376953125,0.960693359375,-0.267578125,-0.0610351525247097,2.014159917831421,0.3051757514476776,80.0,871604.0,1.0
515152.8620561,285062.0,312493.84375,315121.0,285882.9375,295952.125,299667.71875,158984.5625,303704.0,0.03662109375,0.961181640625,-0.267822265625,0.03051757626235485,1.8920897245407104,0.2441406100988388,80.0,871605.0,1.0
515152.8645905,278753.53125,310286.84375,314590.8125,286098.5,297987.125,300198.6875,159066.734375,304479.9375,0.03662109375,0.962646484375,-0.270263671875,-0.03051757626235485,1.9226073026657104,0.3662109076976776,80.0,871606.0,1.0
515152.8670043,282140.625,312312.34375,316818.90625,290540.5,301242.0,301835.8125,159686.0625,306142.1875,0.037109375,0.964111328125,-0.269775390625,-0.0915527269244194,1.8615721464157104,0.4272460639476776,80.0,871607.0,1.0
515152.8721079,290720.40625,315889.625,318772.28125,293265.53125,301348.65625,302355.09375,159792.359375,306441.0,0.034912109375,0.963134765625,-0.269775390625,-0.1220703050494194,1.8920897245407104,0.3662109076976776,80.0,871608.0,1.0
515152.8745805,292479.375,316016.3125,317689.28125,290410.78125,298112.5625,301008.375,159104.28125,304942.90625,0.032958984375,0.965576171875,-0.27001953125,-0.3356933295726776,1.7700194120407104,0.4272460639476776,80.0,871609.0,1.0
515152.8798162,285671.9375,312886.96875,315279.6875,286207.3125,296190.5,299799.3125,158591.890625,303798.5625,0.035400390625,0.966064453125,-0.267822265625,-0.3967284858226776,1.6784666776657104,0.4882812201976776,80.0,871610.0,1.0
515152.882138,279305.71875,310671.28125,314729.84375,286385.125,298198.75,300316.53125,158879.421875,304558.0,0.033203125,0.964599609375,-0.268310546875,-0.3967284858226776,1.7395018339157104,0.4272460639476776,80.0,871611.0,1.0
515152.8844786,282642.1875,312708.53125,316955.875,290827.40625,301474.53125,301959.75,159761.25,306221.5,0.033447265625,0.96240234375,-0.266845703125,-0.5187987685203552,1.6784666776657104,0.5187987685203552,80.0,871612.0,1.0
515152.8870319,291275.6875,316352.21875,318945.8125,293613.78125,301642.09375,302511.5625,160027.953125,306545.59375,0.033447265625,0.959228515625,-0.265869140625,-0.4577636420726776,1.6174315214157104,0.5493163466453552,80.0,871613.0,1.0
515152.8870713,293122.65625,316545.40625,317886.4375,290807.28125,298430.5,301185.125,159499.640625,305061.90625,0.03369140625,0.9580078125,-0.2666015625,-0.4577636420726776,1.6174315214157104,0.4272460639476776,80.0,871614.0,1.0
515152.8897829,286350.71875,313448.28125,315472.0,286592.125,296482.40625,299969.53125,159169.46875,303916.78125,0.033935546875,0.96044921875,-0.267333984375,-0.4577636420726776,1.5563963651657104,0.4577636420726776,80.0,871615.0,1.0
515152.8898203,279916.375,311212.125,314890.59375,286715.0625,298452.03125,300461.28125,159708.59375,304665.75,0.03662109375,0.962158203125,-0.267822265625,-0.3051757514476776,1.5258787870407104,0.3662109076976776,80.0,871616.0,1.0
515152.892021,283149.59375,313213.03125,317086.5,291126.46875,301719.875,302084.5625,160591.484375,306325.125,0.036865234375,0.96142578125,-0.266845703125,-0.3051757514476776,1.4343260526657104,0.3662109076976776,80.0,871617.0,1.0
515152.894552,291773.53125,316861.5625,319075.0,293933.59375,301900.8125,302631.8125,160819.375,306652.1875,0.035888671875,0.961181640625,-0.268798828125,-0.3051757514476776,1.3427733182907104,0.3662109076976776,80.0,871618.0,1.0
515152.8969698,293669.75,317075.25,318022.0625,291141.9375,298673.5,301293.125,160243.421875,305163.8125,0.03759765625,0.962158203125,-0.267333984375,-0.3051757514476776,1.3122557401657104,0.2136230319738388,80.0,871619.0,1.0
515152.8996367,286911.5625,313972.28125,315591.28125,286900.21875,296677.3125,300049.90625,159847.25,304001.4375,0.037841796875,0.962158203125,-0.268310546875,-0.4272460639476776,1.3122557401657104,0.1831054538488388,80.0,871620.0,1.0
515152.8996775,280390.5,311691.5,314966.75,286963.6875,298597.78125,300511.09375,160270.15625,304730.46875,0.0361328125,0.962890625,-0.26611328125,-0.3662109076976776,1.3122557401657104,0.2746581733226776,80.0,871621.0,1.0
515152.90219,283527.40625,313655.875,317147.125,291356.15625,301866.75,302134.90625,160979.421875,306390.125,0.036865234375,0.962158203125,-0.264404296875,-0.3356933295726776,1.3732908964157104,0.3051757514476776,80.0,871622.0,1.0
515152.9022284,292155.28125,317318.78125,319154.84375,294206.625,302082.78125,302701.03125,160931.5,306737.75,0.036376953125,0.963623046875,-0.26708984375,-0.3051757514476776,1.4343260526657104,0.3356933295726776,80.0,871623.0,1.0
515152.9221582,294117.5,317569.5,318122.1875,291452.375,298867.0625,301374.21875,160218.828125,305263.96875,0.037109375,0.965087890625,-0.267333984375,-0.3356933295726776,1.3427733182907104,0.2136230319738388,80.0,871624.0,1.0
515152.9259351,287382.03125,314473.5,315683.71875,287190.5,296836.0,300118.0625,159793.25,304090.75,0.0361328125,0.9638671875,-0.26806640625,-0.4272460639476776,1.3427733182907104,0.0915527269244194,80.0,871625.0,1.0
515152.9259763,280785.21875,312151.25,315029.78125,287200.4375,298717.03125,300561.59375,160088.5625,304797.6875,0.03515625,0.9638671875,-0.26904296875,-0.5493163466453552,1.3732908964157104,0.1220703050494194,80.0,871626.0,1.0
515152.9259865,283817.46875,314061.78125,317186.28125,291562.4375,301977.53125,302175.46875,160208.1875,306445.90625,0.034912109375,0.96484375,-0.268310546875,-0.3967284858226776,1.4343260526657104,0.1831054538488388,80.0,871627.0,1.0
515152.9410189,292445.5,317732.5625,319210.90625,294440.09375,302221.875,302761.375,159408.53125,306805.6875,0.037841796875,0.965576171875,-0.26611328125,-0.3967284858226776,1.3732908964157104,0.1220703050494194,80.0,871628.0,1.0
515152.9410536,294481.65625,318026.8125,318204.90625,291729.4375,299024.59375,301449.40625,158570.609375,305348.625,0.036376953125,0.96337890625,-0.26416015625,-0.5187987685203552,1.4038084745407104,0.1525878757238388,80.0,871629.0,1.0
515152.9410639,287758.96875,314921.78125,315747.1875,287435.5,296949.09375,300168.125,158115.0,304152.625,0.0361328125,0.966064453125,-0.266357421875,-0.5493163466453552,1.3732908964157104,0.1831054538488388,80.0,871630.0,1.0
515152.9432766,281093.6875,312561.53125,315062.875,287386.9375,298792.9375,300591.625,158397.34375,304841.0625,0.036376953125,0.967041015625,-0.267822265625,-0.6408690810203552,1.4953612089157104,0.2441406100988388,80.0,871631.0,1.0
515152.9483642,284051.71875,314449.90625,317212.9375,291744.90625,302069.4375,302213.75,159025.609375,306503.59375,0.03662109375,0.96728515625,-0.266845703125,-0.7934569716453552,1.4953612089157104,0.3051757514476776,80.0,871632.0,1.0
515152.9507277,292693.6875,318134.53125,319259.625,294672.1875,302355.0,302820.46875,159026.5,306889.90625,0.035400390625,0.967041015625,-0.268310546875,-0.7934569716453552,1.4953612089157104,0.3356933295726776,80.0,871633.0,1.0
515152.9533406,294782.5,318439.6875,318264.8125,291981.5625,299150.5,301508.0625,158302.390625,305429.28125,0.033447265625,0.96630859375,-0.2685546875,-0.9155272841453552,1.5258787870407104,0.2441406100988388,80.0,871634.0,1.0
515152.9558365,288074.5625,315320.46875,315792.4375,287656.5,297030.1875,300204.15625,157766.125,304204.75,0.034423828125,0.967041015625,-0.26513671875,-0.8850097060203552,1.5869139432907104,0.3967284858226776,80.0,871635.0,1.0
515152.958352,281340.96875,312918.34375,315076.5625,287555.125,298836.84375,300601.75,157948.703125,304869.6875,0.03369140625,0.966552734375,-0.267333984375,-0.8850097060203552,1.5563963651657104,0.3967284858226776,80.0,871636.0,1.0
515152.9608537,284211.28125,314772.375,317210.875,291893.15625,302118.96875,302224.3125,158589.65625,306536.40625,0.033203125,0.96728515625,-0.267822265625,-0.8850097060203552,1.5258787870407104,0.3662109076976776,80.0,871637.0,1.0
515152.9671069,292845.6875,318458.1875,319268.84375,294847.15625,302426.8125,302842.375,158592.609375,306933.28125,0.0361328125,0.966552734375,-0.26806640625,-1.0375975370407104,1.4648436307907104,0.3967284858226776,80.0,871638.0,1.0
515152.9695451,294990.375,318784.15625,318288.84375,292183.1875,299227.375,301532.28125,157800.109375,305474.0625,0.037109375,0.965576171875,-0.265380859375,-1.0375975370407104,1.4648436307907104,0.5798339247703552,80.0,871639.0,1.0
515152.9695835,288317.75,315675.75,315819.96875,287847.65625,297080.96875,300220.5,156964.59375,304242.46875,0.0341796875,0.96240234375,-0.263916015625,-1.0375975370407104,1.4953612089157104,0.6103515028953552,80.0,871640.0,1.0
515152.9970089,281530.0625,313241.84375,315083.96875,287701.46875,298859.28125,300607.71875,156432.984375,304894.4375,0.032958984375,0.962158203125,-0.26220703125,-1.0375975370407104,1.3732908964157104,0.5798339247703552,80.0,871641.0,1.0
515153.0010288,284315.53125,315060.90625,317208.09375,292013.84375,302150.09375,302229.84375,156368.34375,306558.9375,0.03369140625,0.962890625,-0.262451171875,-1.1596678495407104,1.3732908964157104,0.5493163466453552,80.0,871642.0,1.0
515153.0010693,292952.78125,318749.46875,319287.53125,294994.65625,302493.3125,302861.5,155949.203125,306967.875,0.035888671875,0.96240234375,-0.267333984375,-1.1596678495407104,1.3732908964157104,0.5493163466453552,80.0,871643.0,1.0
515153.0010782,295168.84375,319097.53125,318325.78125,292357.0625,299300.96875,301550.71875,155013.28125,305508.21875,0.03271484375,0.9619140625,-0.268310546875,-1.3732908964157104,1.4343260526657104,0.4882812201976776,80.0,871644.0,1.0
515153.0010872,288548.4375,316011.75,315866.65625,288007.6875,297142.40625,300244.75,154281.046875,304281.46875,0.033203125,0.962890625,-0.267822265625,-1.3122557401657104,1.4953612089157104,0.5493163466453552,80.0,871645.0,1.0
515153.0046968,281703.53125,313547.78125,315105.875,287804.75,298887.625,300612.03125,154358.46875,304917.25,0.033203125,0.96240234375,-0.26513671875,-1.1596678495407104,1.4343260526657104,0.5187987685203552,80.0,871646.0,1.0
515153.0047322,284380.625,315311.34375,317199.34375,292078.65625,302167.875,302221.53125,154891.25,306568.40625,0.033447265625,0.96337890625,-0.262451171875,-1.1291502714157104,1.3732908964157104,0.4882812201976776,80.0,871647.0,1.0
515153.0047421,293024.15625,319008.21875,319294.5,295090.53125,302544.71875,302871.78125,154874.0,306993.4375,0.02978515625,0.96728515625,-0.263916015625,-1.1596678495407104,1.2817381620407104,0.3967284858226776,80.0,871648.0,1.0
515153.0070971,295319.3125,319392.5,318363.875,292487.53125,299369.34375,301581.46875,154044.03125,305546.84375,0.0322265625,0.970458984375,-0.2646484375,-1.4038084745407104,1.3122557401657104,0.4882812201976776,80.0,871649.0,1.0
515153.0096785,288728.5,316299.375,315896.59375,288117.40625,297178.78125,300261.46875,153464.484375,304302.84375,0.033447265625,0.965576171875,-0.2666015625,-1.6479490995407104,1.3122557401657104,0.5187987685203552,80.0,871650.0,1.0
515153.0283764,281829.3125,313796.875,315112.3125,287872.6875,298894.4375,300612.90625,153731.28125,304929.125,0.035400390625,0.952392578125,-0.265869140625,-1.8615721464157104,1.3122557401657104,0.6408690810203552,80.0,871651.0,1.0
515153.0307791,284423.625,315523.84375,317193.4375,292131.15625,302177.90625,302215.8125,154378.765625,306586.09375,0.035400390625,0.94580078125,-0.268798828125,-1.6784666776657104,1.3732908964157104,0.5493163466453552,80.0,871652.0,1.0
515153.0308188,293074.65625,319229.59375,319305.9375,295176.96875,302586.03125,302880.375,154409.078125,307022.5,0.03564453125,0.947998046875,-0.2734375,-1.0986326932907104,1.4038084745407104,0.4882812201976776,80.0,871653.0,1.0
515153.0334025,295447.875,319655.53125,318402.5,292614.5625,299430.15625,301605.15625,153680.234375,305587.6875,0.037353515625,0.957763671875,-0.268798828125,-0.6408690810203552,1.3427733182907104,0.3356933295726776,80.0,871654.0,1.0
515153.0358161,288892.75,316575.375,315927.875,288224.96875,297203.90625,300267.625,153080.21875,304325.53125,0.0361328125,0.965087890625,-0.265625,-0.4272460639476776,1.4343260526657104,0.4272460639476776,80.0,871655.0,1.0
515153.0382192,281951.53125,314044.96875,315122.15625,287942.59375,298893.0,300605.125,153314.28125,304933.40625,0.033935546875,0.968505859375,-0.260986328125,-0.4882812201976776,1.4953612089157104,0.4272460639476776,80.0,871656.0,1.0
515153.040712,284479.34375,315734.78125,317193.53125,292197.03125,302192.46875,302214.90625,154078.71875,306594.34375,0.0361328125,0.97119140625,-0.260498046875,-0.7019042372703552,1.5258787870407104,0.3662109076976776,80.0,871657.0,1.0
515153.0433923,293150.84375,319448.28125,319329.71875,295291.40625,302643.96875,302903.0625,154277.109375,307051.21875,0.037841796875,0.969970703125,-0.263671875,-0.9765624403953552,1.6174315214157104,0.4882812201976776,80.0,871658.0,1.0
515153.0721574,295610.25,319905.4375,318449.0625,292776.3125,299505.0625,301638.5,153655.375,305626.9375,0.03369140625,0.965087890625,-0.265625,-1.1596678495407104,1.6174315214157104,0.5187987685203552,80.0,871659.0,1.0
515153.0721989,289093.09375,316830.1875,315965.09375,288377.9375,297252.8125,300284.25,153324.296875,304352.1875,0.03369140625,0.9609375,-0.267578125,-1.2512205839157104,1.6174315214157104,0.4577636420726776,80.0,871660.0,1.0
515153.0746601,282107.28125,314289.59375,315138.78125,288060.1875,298919.1875,300609.15625,154148.546875,304954.78125,0.034912109375,0.95849609375,-0.26953125,-1.1901854276657104,1.6479490995407104,0.4272460639476776,80.0,871661.0,1.0
515153.0746952,284549.34375,315957.9375,317193.96875,292300.9375,302227.4375,302217.59375,155565.375,306622.6875,0.0341796875,0.956787109375,-0.268310546875,-0.8850097060203552,1.8005369901657104,0.4577636420726776,80.0,871662.0,1.0
515153.0770941,293223.53125,319686.09375,319343.6875,295430.0,302708.625,302919.875,156212.421875,307099.21875,0.03466796875,0.9580078125,-0.264892578125,-0.7629393935203552,1.8615721464157104,0.3967284858226776,80.0,871663.0,1.0
515153.0796786,295751.15625,320170.25,318480.8125,292943.59375,299570.875,301659.0625,155935.703125,305679.25,0.033935546875,0.9638671875,-0.264892578125,-0.5187987685203552,1.7700194120407104,0.3967284858226776,80.0,871664.0,1.0
515153.0797256,289268.34375,317093.5625,315996.28125,288526.96875,297282.0625,300297.59375,155769.40625,304393.84375,0.033447265625,0.965576171875,-0.26416015625,-0.6408690810203552,1.8920897245407104,0.4577636420726776,80.0,871665.0,1.0
515153.0820171,282206.78125,314494.34375,315132.0,288146.53125,298898.90625,300595.40625,156474.109375,304967.3125,0.033935546875,0.966552734375,-0.263427734375,-0.5798339247703552,1.8005369901657104,0.4272460639476776,80.0,871666.0,1.0
515153.0846001,284544.0625,316106.15625,317163.9375,292351.1875,302202.03125,302196.6875,157097.8125,306623.40625,0.03466796875,0.965087890625,-0.264892578125,-0.8239745497703552,1.8005369901657104,0.5798339247703552,80.0,871667.0,1.0
515153.086961,293203.75,319823.0,319329.1875,295504.5625,302714.0625,302914.96875,156655.25,307109.75,0.033203125,0.962646484375,-0.269775390625,-0.8850097060203552,1.9226073026657104,0.5493163466453552,80.0,871668.0,1.0
515153.0907933,295784.9375,320317.78125,318482.15625,293047.5625,299585.71875,301656.84375,155764.75,305693.1875,0.033447265625,0.961181640625,-0.2724609375,-0.8850097060203552,1.8615721464157104,0.5798339247703552,80.0,871669.0,1.0
515153.12716,289324.03125,317229.90625,315988.6875,288608.15625,297266.6875,300278.4375,155036.09375,304393.125,0.032470703125,0.960693359375,-0.2666015625,-0.7324218153953552,1.8615721464157104,0.7324218153953552,80.0,871670.0,1.0
515153.1272009,282222.71875,314606.1875,315106.25,288182.65625,298857.9375,300566.96875,155030.546875,304955.0625,0.033935546875,0.962646484375,-0.26318359375,-0.6103515028953552,2.014159917831421,0.7629393935203552,80.0,871671.0,1.0
515153.1272107,284482.8125,316183.59375,317125.65625,292365.3125,302166.4375,302169.59375,155480.4375,306615.15625,0.034423828125,0.963623046875,-0.2646484375,-0.4882812201976776,1.9531248807907104,0.6408690810203552,80.0,871672.0,1.0
515153.1321899,293150.375,319907.65625,319307.5625,295550.59375,302712.1875,302902.53125,155486.609375,307118.4375,0.0322265625,0.96435546875,-0.26513671875,-0.5187987685203552,1.8920897245407104,0.5798339247703552,80.0,871673.0,1.0
515153.1322284,295819.625,320446.78125,318493.0625,293142.96875,299609.59375,301665.3125,154906.359375,305718.59375,0.03466796875,0.96337890625,-0.265625,-0.4272460639476776,1.9836424589157104,0.6408690810203552,80.0,871674.0,1.0
515153.136933,289420.40625,317386.65625,316009.0625,288699.4375,297277.40625,300293.5625,154427.140625,304416.5625,0.034912109375,0.963623046875,-0.267822265625,-0.4882812201976776,1.9531248807907104,0.6713866591453552,80.0,871675.0,1.0
515153.1396014,282277.0625,314738.3125,315105.4375,288228.625,298840.875,300568.46875,154728.625,304963.90625,0.03515625,0.965087890625,-0.264892578125,-0.5493163466453552,1.9531248807907104,0.7934569716453552,80.0,871676.0,1.0
515153.1419502,284449.46875,316271.03125,317105.90625,292386.75,302151.0625,302160.5625,155487.0625,306619.71875,0.03466796875,0.966064453125,-0.26513671875,-0.5493163466453552,2.044677495956421,0.8239745497703552,80.0,871677.0,1.0
515153.1445984,293094.25,319976.875,319287.25,295582.53125,302714.59375,302893.59375,155649.234375,307123.09375,0.033203125,0.966796875,-0.263671875,-0.6103515028953552,1.9531248807907104,0.7934569716453552,80.0,871678.0,1.0
515153.1473329,295805.3125,320517.40625,318475.09375,293174.6875,299600.03125,301645.65625,154981.546875,305710.375,0.03173828125,0.96484375,-0.263671875,-0.7019042372703552,1.8920897245407104,0.7629393935203552,80.0,871679.0,1.0
515153.1495059,289423.1875,317449.0625,315978.84375,288694.34375,297230.84375,300253.21875,154413.453125,304390.4375,0.029052734375,0.96240234375,-0.262939453125,-0.6713866591453552,1.8920897245407104,0.8239745497703552,80.0,871680.0,1.0
515153.1519543,282208.5,314749.21875,315042.3125,288156.8125,298754.15625,300504.03125,154776.8125,304918.65625,0.03076171875,0.962158203125,-0.2666015625,-0.6408690810203552,1.8615721464157104,0.7324218153953552,80.0,871681.0,1.0
515153.154457,284260.375,316213.28125,317013.375,292269.46875,302050.59375,302085.71875,155651.828125,306569.21875,0.031494140625,0.962158203125,-0.267578125,-0.5493163466453552,1.8615721464157104,0.6103515028953552,80.0,871682.0,1.0
515153.1569699,292893.4375,319913.46875,319216.8125,295496.59375,302647.90625,302841.9375,156238.609375,307101.625,0.02978515625,0.9619140625,-0.2626953125,-0.5493163466453552,1.7089842557907104,0.6408690810203552,80.0,871683.0,1.0
515153.1595753,295656.8125,320465.90625,318430.375,293117.5625,299545.9375,301612.03125,155767.53125,305705.0,0.03076171875,0.961669921875,-0.26416015625,-0.4577636420726776,1.7395018339157104,0.5187987685203552,80.0,871684.0,1.0
515153.162116,289272.625,317359.84375,315910.0,288584.5625,297117.09375,300192.625,155140.96875,304353.96875,0.032470703125,0.962158203125,-0.264892578125,-0.5187987685203552,1.6784666776657104,0.3967284858226776,80.0,871685.0,1.0
515153.1621579,281977.28125,314598.6875,314936.625,287976.3125,298590.8125,300416.03125,155472.578125,304856.1875,0.03369140625,0.9609375,-0.26611328125,-0.4272460639476776,1.6174315214157104,0.4272460639476776,80.0,871686.0,1.0
515153.1671494,283928.84375,316011.65625,316889.90625,292058.8125,301887.3125,301994.96875,156339.375,306502.875,0.03466796875,0.961669921875,-0.263671875,-0.4272460639476776,1.6174315214157104,0.3356933295726776,80.0,871687.0,1.0
515153.1695244,292553.875,319706.9375,319107.5625,295309.125,302514.0625,302765.5625,156702.8125,307041.8125,0.033935546875,0.9609375,-0.263916015625,-0.5187987685203552,1.5869139432907104,0.3356933295726776,80.0,871688.0,1.0
515153.1695652,295386.71875,320282.4375,318340.34375,292961.90625,299421.46875,301535.875,156120.953125,305644.28125,0.031982421875,0.957275390625,-0.265869140625,-0.4577636420726776,1.6174315214157104,0.4882812201976776,80.0,871689.0,1.0
515153.1743031,289052.875,317190.59375,315827.3125,288427.90625,296975.03125,300110.28125,155684.640625,304286.5625,0.0322265625,0.957275390625,-0.2666015625,-0.3051757514476776,1.5258787870407104,0.4882812201976776,80.0,871690.0,1.0
515153.1743391,281722.84375,314407.34375,314846.15625,287790.875,298430.3125,300329.0625,156087.25,304779.71875,0.032958984375,0.9560546875,-0.265380859375,-0.3356933295726776,1.5563963651657104,0.4577636420726776,80.0,871691.0,1.0
515153.194984,283603.3125,315792.0,316795.75,291873.28125,301749.28125,301918.25,156944.921875,306432.6875,0.03125,0.95703125,-0.26513671875,-0.2441406100988388,1.5869139432907104,0.3662109076976776,80.0,871692.0,1.0
515153.2171129,292242.625,319498.875,319036.84375,295171.15625,302421.25,302712.46875,157294.515625,306990.75,0.03173828125,0.958984375,-0.265380859375,-0.0610351525247097,1.5563963651657104,0.3356933295726776,80.0,871693.0,1.0
515153.2195842,295176.625,320124.03125,318308.78125,292884.3125,299366.125,301512.71875,157036.21875,305617.28125,0.032470703125,0.9599609375,-0.267333984375,0.0,1.4648436307907104,0.3356933295726776,80.0,871694.0,1.0
515153.2220003,288915.4375,317058.53125,315807.09375,288358.0,296913.25,300088.375,156883.140625,304255.0,0.031982421875,0.963134765625,-0.267578125,0.1220703050494194,1.4648436307907104,0.2746581733226776,80.0,871695.0,1.0
515153.2333581,281574.875,314270.8125,314807.71875,287689.59375,298347.15625,300293.28125,157589.109375,304733.6875,0.02978515625,0.96435546875,-0.263427734375,0.1220703050494194,1.3732908964157104,0.2441406100988388,80.0,871696.0,1.0
515153.2358664,283406.28125,315646.0625,316752.5625,291763.40625,301682.9375,301887.40625,158757.65625,306394.25,0.032470703125,0.96533203125,-0.264404296875,0.03051757626235485,1.4038084745407104,0.3051757514476776,80.0,871697.0,1.0
515153.2382057,292092.4375,319394.65625,319031.90625,295122.96875,302416.53125,302716.125,159437.765625,306983.875,0.03369140625,0.96337890625,-0.26416015625,0.0610351525247097,1.4343260526657104,0.2746581733226776,80.0,871698.0,1.0
515153.2401322,295155.96875,320096.40625,318352.25,292906.21875,299407.8125,301549.0,159087.921875,305634.625,0.035888671875,0.961181640625,-0.265625,-0.03051757626235485,1.4343260526657104,0.3662109076976776,80.0,871699.0,1.0
515153.2657877,288998.59375,317089.8125,315871.1875,288401.96875,296960.71875,300137.0,158547.90625,304278.34375,0.037109375,0.95947265625,-0.266357421875,-0.0915527269244194,1.4343260526657104,0.5493163466453552,80.0,871700.0,1.0
515153.2683506,281687.96875,314327.15625,314870.375,287728.125,298401.4375,300346.75,158765.34375,304747.71875,0.037841796875,0.95751953125,-0.26806640625,-0.1220703050494194,1.6174315214157104,0.5798339247703552,80.0,871701.0,1.0
515153.2745373,283536.90625,315740.40625,316825.0,291830.03125,301781.5625,301961.1875,159611.84375,306417.03125,0.0390625,0.95751953125,-0.267333984375,-0.03051757626235485,1.7395018339157104,0.6713866591453552,80.0,871702.0,1.0
515153.2771221,292231.375,319509.625,319104.53125,295221.6875,302539.46875,302794.71875,159942.109375,307019.90625,0.037841796875,0.960205078125,-0.269775390625,0.0610351525247097,1.8920897245407104,0.8544921278953552,80.0,871703.0,1.0
515153.2796248,295320.125,320212.0,318408.125,293017.34375,299504.53125,301601.125,159400.84375,305658.25,0.03759765625,0.9619140625,-0.2646484375,0.2136230319738388,2.075195074081421,0.9765624403953552,80.0,871704.0,1.0
515153.2871204,289166.84375,317191.5625,315906.4375,288486.75,297001.40625,300161.40625,158954.703125,304287.53125,0.032470703125,0.962646484375,-0.2666015625,0.1831054538488388,2.014159917831421,1.0070799589157104,80.0,871705.0,1.0
515153.2871615,281741.4375,314350.3125,314857.40625,287736.25,298370.21875,300330.9375,159313.234375,304737.15625,0.029052734375,0.96435546875,-0.265625,0.1525878757238388,1.9836424589157104,0.9155272841453552,80.0,871706.0,1.0
515153.2897198,283395.625,315642.6875,316746.40625,291759.21875,301695.1875,301900.03125,160059.15625,306380.375,0.02978515625,0.965087890625,-0.2646484375,0.1525878757238388,2.014159917831421,0.8544921278953552,80.0,871707.0,1.0
515153.2919611,292067.3125,319394.46875,319040.15625,295174.8125,302482.875,302748.65625,160166.53125,306991.3125,0.02978515625,0.964111328125,-0.263427734375,0.0,2.014159917831421,0.8544921278953552,80.0,871708.0,1.0
515153.294605,295273.4375,320158.625,318397.125,293033.71875,299496.5,301596.40625,159598.265625,305658.96875,0.030029296875,0.96533203125,-0.262939453125,-0.0915527269244194,1.9226073026657104,0.7934569716453552,80.0,871709.0,1.0
515153.2973302,289178.3125,317154.375,315892.46875,288487.53125,296971.5625,300144.25,159132.171875,304268.84375,0.03076171875,0.963623046875,-0.268798828125,-0.0915527269244194,1.9226073026657104,0.6713866591453552,80.0,871710.0,1.0
515153.2994734,281740.0,314310.34375,314833.0,287697.8125,298323.03125,300302.59375,159181.4375,304707.40625,0.031005859375,0.963134765625,-0.267578125,-0.1220703050494194,1.8615721464157104,0.6408690810203552,80.0,871711.0,1.0
515153.3021165,283355.125,315607.90625,316735.9375,291718.8125,301682.40625,301893.9375,159892.40625,306374.03125,0.02880859375,0.962646484375,-0.267578125,-0.2746581733226776,1.7700194120407104,0.5798339247703552,80.0,871712.0,1.0
515153.3046067,292048.71875,319385.53125,319057.5625,295173.40625,302519.0,302768.25,160138.546875,307009.0,0.030517578125,0.96630859375,-0.26611328125,-0.1831054538488388,1.7395018339157104,0.4577636420726776,80.0,871713.0,1.0
515153.3071095,295328.25,320172.3125,318428.6875,293059.625,299540.46875,301617.6875,159515.734375,305673.09375,0.03125,0.96826171875,-0.26611328125,-0.2136230319738388,1.6784666776657104,0.3051757514476776,80.0,871714.0,1.0
515153.3094671,289290.40625,317176.53125,315926.625,288498.8125,296990.40625,300158.71875,158717.421875,304273.96875,0.029541015625,0.9716796875,-0.266357421875,-0.3051757514476776,1.6174315214157104,0.2746581733226776,80.0,871715.0,1.0
515153.3145347,281814.03125,314295.9375,314837.375,287664.375,298306.3125,300298.03125,158738.96875,304694.53125,0.030029296875,0.97119140625,-0.263427734375,-0.4882812201976776,1.6174315214157104,0.2441406100988388,80.0,871716.0,1.0
515153.3145754,283363.71875,315563.8125,316730.75,291680.09375,301678.125,301893.75,159683.015625,306370.09375,0.029541015625,0.97021484375,-0.263916015625,-0.7324218153953552,1.4953612089157104,0.1831054538488388,80.0,871717.0,1.0
515153.3171511,292083.5,319361.03125,319079.65625,295190.75,302569.9375,302797.125,160140.78125,307027.875,0.03125,0.967041015625,-0.263916015625,-0.8850097060203552,1.3732908964157104,0.0610351525247097,80.0,871718.0,1.0
515153.3246047,295483.90625,320218.09375,318496.8125,293155.40625,299640.875,301678.1875,159330.84375,305711.34375,0.029541015625,0.967529296875,-0.26220703125,-0.8544921278953552,1.3732908964157104,-0.03051757626235485,80.0,871719.0,1.0
515153.3246469,289540.3125,317279.8125,316017.125,288630.15625,297098.25,300230.34375,158694.078125,304318.65625,0.028076171875,0.96728515625,-0.26220703125,-0.9460448622703552,1.3122557401657104,-0.1525878757238388,80.0,871720.0,1.0
515153.3246575,282058.375,314413.34375,314920.28125,287785.59375,298399.65625,300360.875,159127.53125,304734.03125,0.03271484375,0.9658203125,-0.265625,-0.8544921278953552,1.3122557401657104,-0.1220703050494194,80.0,871721.0,1.0
515153.3272136,283484.59375,315618.8125,316762.9375,291759.9375,301733.46875,301912.28125,160077.125,306381.0,0.03271484375,0.966064453125,-0.2666015625,-0.8850097060203552,1.2512205839157104,0.03051757626235485,80.0,871722.0,1.0
515153.3308934,292109.59375,319360.21875,319079.5625,295249.65625,302593.625,302784.0,160466.84375,307026.78125,0.033447265625,0.966552734375,-0.266845703125,-0.9765624403953552,1.3427733182907104,0.03051757626235485,80.0,871723.0,1.0
515153.3309308,295479.0,320186.59375,318477.9375,293199.28125,299620.6875,301637.34375,159960.0,305705.90625,0.03369140625,0.96533203125,-0.2626953125,-0.9155272841453552,1.3732908964157104,-0.0610351525247097,80.0,871724.0,1.0
515153.3309462,289477.71875,317195.84375,315957.84375,288609.6875,297000.96875,300146.65625,159575.546875,304284.78125,0.031982421875,0.964599609375,-0.2626953125,-1.0070799589157104,1.3427733182907104,0.0915527269244194,80.0,871725.0,1.0
515153.339621,281866.96875,314244.34375,314809.75,287667.15625,298230.9375,300243.21875,159972.609375,304667.53125,0.031494140625,0.96337890625,-0.263671875,-1.0375975370407104,1.3732908964157104,0.1220703050494194,80.0,871726.0,1.0
515153.3421541,283175.6875,315395.5625,316639.125,291593.53125,301564.5625,301809.09375,160942.84375,306317.625,0.03271484375,0.962646484375,-0.26611328125,-1.0070799589157104,1.4953612089157104,0.2136230319738388,80.0,871727.0,1.0
515153.3496245,291819.28125,319164.875,318994.71875,295128.15625,302489.84375,302731.25,161437.984375,306999.875,0.033935546875,0.96240234375,-0.265625,-0.9155272841453552,1.5258787870407104,0.3967284858226776,80.0,871728.0,1.0
515153.3496664,295276.03125,320032.84375,318425.46875,293121.5,299553.09375,301613.28125,161000.609375,305694.625,0.032958984375,0.961669921875,-0.26513671875,-0.8850097060203552,1.5563963651657104,0.3967284858226776,80.0,871729.0,1.0
515153.354552,289320.1875,317042.875,315902.3125,288508.03125,296908.78125,300114.46875,160410.078125,304254.1875,0.031494140625,0.960693359375,-0.265869140625,-0.6713866591453552,1.4953612089157104,0.4577636420726776,80.0,871730.0,1.0
515153.3595464,281659.96875,314052.5,314727.0625,287509.96875,298102.90625,300188.40625,160544.1875,304614.15625,0.03271484375,0.958251953125,-0.263671875,-0.6103515028953552,1.5869139432907104,0.6103515028953552,80.0,871731.0,1.0
515153.36209,282844.875,315132.0625,316521.5625,291385.9375,301420.0,301734.78125,161297.609375,306257.09375,0.0322265625,0.957763671875,-0.264404296875,-0.5493163466453552,1.6479490995407104,0.6103515028953552,80.0,871732.0,1.0
515153.3644578,291414.375,318844.625,318861.59375,294901.6875,302337.84375,302641.5625,161670.625,306935.25,0.03125,0.958740234375,-0.26220703125,-0.3967284858226776,1.6784666776657104,0.7629393935203552,80.0,871733.0,1.0
515153.367144,294880.84375,319689.9375,318296.71875,292893.4375,299388.5625,301515.5625,161057.5625,305627.75,0.03076171875,0.963623046875,-0.260498046875,-0.3051757514476776,1.6479490995407104,0.7629393935203552,80.0,871734.0,1.0
515153.3694726,288928.3125,316677.5625,315763.09375,288241.5,296700.8125,299996.46875,160425.546875,304170.25,0.03076171875,0.965087890625,-0.263671875,-0.3662109076976776,1.7395018339157104,0.8239745497703552,80.0,871735.0,1.0
515153.3721223,281188.625,313623.5,314550.21875,287165.3125,297838.625,300042.78125,160651.921875,304505.78125,0.031005859375,0.96484375,-0.260986328125,-0.3356933295726776,1.8005369901657104,0.8850097060203552,80.0,871736.0,1.0
515153.3744736,282248.46875,314631.3125,316319.75,290993.53125,301142.28125,301585.03125,161450.765625,306145.59375,0.030029296875,0.965087890625,-0.2646484375,-0.4272460639476776,1.7395018339157104,0.8544921278953552,80.0,871737.0,1.0
515153.3770898,290748.03125,318289.84375,318654.34375,294497.03125,302066.3125,302494.3125,161486.625,306820.25,0.028564453125,0.964599609375,-0.265625,-0.4577636420726776,1.7700194120407104,0.8850097060203552,80.0,871738.0,1.0
515153.385882,294200.375,319093.0625,318080.1875,292472.6875,299090.40625,301348.75,160552.765625,305498.375,0.029296875,0.964599609375,-0.26171875,-0.5187987685203552,1.7089842557907104,0.9765624403953552,80.0,871739.0,1.0
515153.385923,288199.46875,316013.0,315518.03125,287754.5,296334.34375,299796.53125,159881.40625,304019.21875,0.03125,0.962646484375,-0.26025390625,-0.5798339247703552,1.6479490995407104,1.0681151151657104,80.0,871740.0,1.0
515153.3908713,280334.96875,312864.09375,314269.46875,286590.3125,297413.5625,299818.1875,160162.953125,304336.09375,0.031005859375,0.962646484375,-0.261474609375,-0.5798339247703552,1.6479490995407104,1.1596678495407104,80.0,871741.0,1.0
515153.3933527,281275.96875,313792.03125,316020.15625,290370.375,300711.875,301354.46875,160956.171875,305962.6875,0.032470703125,0.96044921875,-0.260498046875,-0.6713866591453552,1.6174315214157104,1.1291502714157104,80.0,871742.0,1.0
515153.3959289,289859.3125,317503.6875,318426.8125,293959.4375,301739.0,302327.84375,161080.796875,306679.0,0.033935546875,0.95849609375,-0.265380859375,-0.5493163466453552,1.6174315214157104,1.0375975370407104,80.0,871743.0,1.0
515153.3959695,293592.15625,318475.09375,317979.78125,292093.78125,298908.28125,301281.21875,160277.125,305411.03125,0.03369140625,0.958251953125,-0.263427734375,-0.7019042372703552,1.7395018339157104,1.0986326932907104,80.0,871744.0,1.0
515153.3982488,287909.96875,315588.21875,315535.46875,287521.59375,296278.03125,299816.3125,159529.59375,303969.0,0.03466796875,0.959228515625,-0.265869140625,-0.6408690810203552,1.7395018339157104,1.0070799589157104,80.0,871745.0,1.0
515153.4033975,280255.21875,312582.28125,314347.53125,286451.46875,297441.21875,299882.65625,159676.671875,304299.0,0.03369140625,0.958251953125,-0.2666015625,-0.5798339247703552,1.7700194120407104,0.9460448622703552,80.0,871746.0,1.0
515153.4034364,281284.46875,313598.9375,316123.59375,290304.28125,300805.84375,301438.6875,160510.65625,305939.875,0.032958984375,0.95751953125,-0.263916015625,-0.4882812201976776,1.8310545682907104,1.0681151151657104,80.0,871747.0,1.0
515153.4058262,289904.03125,317357.875,318530.875,293949.875,301865.78125,302414.1875,160963.6875,306669.25,0.03271484375,0.95947265625,-0.260498046875,-0.3356933295726776,1.8615721464157104,0.9765624403953552,80.0,871748.0,1.0
515153.4083764,293594.75,318299.6875,318030.46875,292068.03125,298970.59375,301316.46875,160542.21875,305390.1875,0.03369140625,0.960693359375,-0.26318359375,-0.2746581733226776,2.014159917831421,0.8544921278953552,80.0,871749.0,1.0
515153.4108046,287711.5,315268.59375,315468.78125,287353.25,296174.125,299752.71875,160022.5,303904.96875,0.032958984375,0.960693359375,-0.262451171875,-0.2441406100988388,2.044677495956421,0.8239745497703552,80.0,871750.0,1.0
515153.4144492,279789.59375,312080.625,314169.96875,286101.8125,297183.34375,299732.53125,160323.4375,304183.03125,0.033447265625,0.960693359375,-0.265380859375,-0.1525878757238388,1.9836424589157104,0.7934569716453552,80.0,871751.0,1.0
515153.4221508,280608.09375,312962.34375,315889.53125,289844.65625,300492.9375,301258.0,161219.75,305801.03125,0.032470703125,0.96142578125,-0.26318359375,-0.1525878757238388,1.9531248807907104,0.7629393935203552,80.0,871752.0,1.0
515153.4221938,289238.5625,316722.96875,318340.34375,293515.78125,301610.96875,302274.0,161595.4375,306552.125,0.03369140625,0.9638671875,-0.263427734375,-0.0915527269244194,2.014159917831421,0.7019042372703552,80.0,871753.0,1.0
515153.4471525,293172.90625,317802.75,317957.59375,291759.375,298838.71875,301265.40625,161120.046875,305319.375,0.034912109375,0.96728515625,-0.26513671875,0.0,2.136230230331421,0.7019042372703552,80.0,871754.0,1.0
515153.4471901,287617.53125,314969.875,315512.9375,287180.9375,296163.75,299783.9375,160709.140625,303865.46875,0.03515625,0.966552734375,-0.2666015625,-0.1525878757238388,2.075195074081421,0.6713866591453552,80.0,871755.0,1.0
515153.4509867,279944.96875,311960.90625,314298.4375,286045.84375,297280.8125,299832.21875,161111.203125,304178.5625,0.033935546875,0.968017578125,-0.26513671875,-0.1831054538488388,2.136230230331421,0.6103515028953552,80.0,871756.0,1.0
515153.4510215,280882.84375,312962.71875,316065.5625,289890.6875,300684.0,301405.875,162104.96875,305835.71875,0.03369140625,0.96826171875,-0.26513671875,-0.2136230319738388,2.166747808456421,0.5187987685203552,80.0,871757.0,1.0
515153.4510313,289609.25,316821.78125,318546.4375,293670.71875,301871.0625,302448.875,162584.1875,306623.125,0.03369140625,0.96728515625,-0.265625,-0.3662109076976776,2.166747808456421,0.5187987685203552,80.0,871758.0,1.0
515153.4546922,293660.90625,317989.4375,318185.21875,292001.25,299122.0625,301444.9375,162176.75,305411.65625,0.0341796875,0.966796875,-0.264892578125,-0.3051757514476776,2.136230230331421,0.3967284858226776,80.0,871759.0,1.0
515153.4547291,288167.375,315202.0,315729.40625,287440.59375,296415.15625,299943.4375,161759.84375,303953.59375,0.034423828125,0.9677734375,-0.263427734375,-0.2746581733226776,2.288818120956421,0.3662109076976776,80.0,871760.0,1.0
515153.4547394,280440.46875,312178.15625,314469.03125,286269.8125,297480.71875,299955.15625,162111.3125,304246.96875,0.034423828125,0.96826171875,-0.26416015625,-0.3051757514476776,2.349853277206421,0.4577636420726776,80.0,871761.0,1.0
515153.457213,281253.90625,313140.53125,316192.71875,290081.9375,300857.0,301504.03125,162863.671875,305896.6875,0.03173828125,0.96533203125,-0.26123046875,-0.4272460639476776,2.288818120956421,0.4882812201976776,80.0,871762.0,1.0
515153.4596269,289924.5,316985.75,318670.0,293876.8125,302051.9375,302544.5625,163054.109375,306693.5625,0.03271484375,0.965087890625,-0.26025390625,-0.4882812201976776,2.319335699081421,0.5493163466453552,80.0,871763.0,1.0
515153.4744583,294007.34375,318164.59375,318312.46875,292236.46875,299300.5,301531.84375,162360.9375,305480.0625,0.0341796875,0.96240234375,-0.26513671875,-0.4882812201976776,2.380370855331421,0.4577636420726776,80.0,871764.0,1.0
515153.4783421,288546.28125,315387.78125,315844.46875,287660.53125,296555.625,300008.625,161561.453125,304001.71875,0.033203125,0.961181640625,-0.2646484375,-0.4272460639476776,2.288818120956421,0.4882812201976776,80.0,871765.0,1.0
515153.4783808,280776.90625,312345.15625,314552.375,286432.0,297578.71875,299995.90625,161518.90625,304266.34375,0.03271484375,0.96142578125,-0.266845703125,-0.5187987685203552,2.166747808456421,0.4272460639476776,80.0,871766.0,1.0
515153.4783908,281531.21875,313298.59375,316270.75,290235.4375,300973.84375,301551.6875,162143.671875,305923.6875,0.031005859375,0.963134765625,-0.265625,-0.4882812201976776,2.166747808456421,0.4272460639476776,80.0,871767.0,1.0
515153.4808399,290213.28125,317177.34375,318769.40625,294076.90625,302216.625,302621.28125,162344.21875,306752.9375,0.031494140625,0.963623046875,-0.263427734375,-0.3967284858226776,2.197265386581421,0.4577636420726776,80.0,871768.0,1.0
515153.4845863,294363.46875,318400.71875,318430.9375,292470.1875,299475.21875,301618.03125,161601.25,305549.34375,0.031005859375,0.964111328125,-0.26171875,-0.5187987685203552,2.197265386581421,0.4882812201976776,80.0,871769.0,1.0
515153.5219767,288932.875,315631.59375,315951.40625,287872.4375,296693.03125,300078.8125,160809.28125,304058.21875,0.032470703125,0.9638671875,-0.263916015625,-0.4882812201976776,2.197265386581421,0.4272460639476776,80.0,871770.0,1.0
515153.5259207,281126.03125,312574.78125,314641.78125,286604.28125,297684.84375,300055.46875,160992.296875,304319.09375,0.03076171875,0.9619140625,-0.265869140625,-0.4882812201976776,2.258300542831421,0.6103515028953552,80.0,871771.0,1.0
515153.5259595,281767.71875,313483.5,316324.84375,290362.6875,301058.0,301592.71875,161831.90625,305966.6875,0.031005859375,0.960693359375,-0.262939453125,-0.5187987685203552,2.166747808456421,0.6103515028953552,80.0,871772.0,1.0
515153.5259683,290395.5625,317338.71875,318807.5,294204.125,302306.28125,302653.53125,162185.703125,306790.65625,0.03173828125,0.958740234375,-0.263916015625,-0.4882812201976776,2.044677495956421,0.6103515028953552,80.0,871773.0,1.0
515153.5259774,294606.8125,318595.0,318487.875,292635.59375,299582.0625,301665.3125,161590.25,305599.15625,0.032470703125,0.9580078125,-0.263916015625,-0.3967284858226776,2.105712652206421,0.6408690810203552,80.0,871774.0,1.0
