Time,FZ,C3,CZ,C4,PZ,PO7,OZ,PO8,AccX,AccY,AccZ,Gyro1,Gyro2,Gyro3,Battery,Counter,Validation
1136166.3939756,286909.6875,282169.78125,310404.84375,287856.40625,293623.25,273190.53125,273279.78125,285351.40625,-0.0859375,0.893310546875,-0.332275390625,3.906249761581421,-9.521483421325684,-2.166747808456421,60.0,2833966.0,1.0
1136166.4013608,286178.53125,282281.0,309754.78125,286684.90625,293380.78125,273344.25,273252.15625,285371.09375,-0.084228515625,0.8935546875,-0.33740234375,4.272460460662842,-8.819579124450684,-1.7395018339157104,60.0,2833967.0,1.0
1136166.4013918,285927.8125,282264.0,309385.71875,286078.46875,293183.09375,273371.59375,273192.34375,285246.625,-0.086669921875,0.8935546875,-0.338623046875,4.486083507537842,-8.239745140075684,-1.3732908964157104,60.0,2833968.0,1.0
1136166.4014003,286542.125,282157.4375,309879.25,286996.21875,293361.03125,273253.75,273220.59375,285239.75,-0.08935546875,0.89306640625,-0.338623046875,4.882812023162842,-7.751464366912842,-1.1596678495407104,60.0,2833969.0,1.0
1136166.4044931,287119.96875,282071.34375,310478.71875,288064.03125,293611.28125,273115.09375,273239.4375,285277.84375,-0.093017578125,0.89697265625,-0.337158203125,5.157470226287842,-7.324218273162842,-0.7629393935203552,60.0,2833970.0,1.0
1136166.4045209,286891.4375,282147.4375,310377.9375,287841.84375,293607.15625,273163.0,273245.4375,285328.96875,-0.095947265625,0.902099609375,-0.33984375,5.371093273162842,-6.866454601287842,-0.5798339247703552,60.0,2833971.0,1.0
1136166.4127044,286191.5625,282290.75,309755.0625,286697.71875,293396.875,273353.0,273256.53125,285386.90625,-0.096435546875,0.903564453125,-0.337890625,5.584716320037842,-6.561278820037842,-0.3967284858226776,60.0,2833972.0,1.0
1136166.419524,285927.90625,282262.40625,309373.71875,286087.9375,293197.5,273376.25,273196.96875,285265.84375,-0.101318359375,0.908203125,-0.337158203125,5.615233898162842,-6.256103038787842,-0.3356933295726776,60.0,2833973.0,1.0
1136166.4195524,286524.6875,282143.03125,309845.09375,286981.65625,293358.0,273246.25,273214.25,285236.96875,-0.10498046875,0.91455078125,-0.332763671875,5.645751476287842,-6.072997570037842,-0.1220703050494194,60.0,2833974.0,1.0
1136166.4332711,287106.28125,282055.6875,310446.15625,288045.6875,293600.375,273104.34375,273236.40625,285259.3125,-0.111083984375,0.917724609375,-0.32958984375,5.554198741912842,-5.950927257537842,-0.1831054538488388,60.0,2833975.0,1.0
1136166.4333008,286872.75,282121.84375,310357.21875,287824.59375,293592.0625,273148.78125,273243.03125,285304.75,-0.11572265625,0.9228515625,-0.32666015625,5.493163585662842,-5.889892101287842,-0.2441406100988388,60.0,2833976.0,1.0
1136166.4356222,286174.125,282265.09375,309749.5,286690.09375,293386.15625,273341.5625,273257.0625,285365.1875,-0.119384765625,0.92724609375,-0.327880859375,5.310058116912842,-5.981444835662842,-0.3356933295726776,60.0,2833977.0,1.0
1136166.4356492,285929.15625,282262.21875,309390.90625,286089.46875,293204.75,273386.53125,273212.625,285260.21875,-0.12255859375,0.927978515625,-0.327392578125,5.004882335662842,-5.920409679412842,-0.3356933295726776,60.0,2833978.0,1.0
1136166.4427022,286521.46875,282143.21875,309853.5625,286969.84375,293360.21875,273253.9375,273223.71875,285227.21875,-0.123291015625,0.93115234375,-0.327392578125,4.577636241912842,-5.859374523162842,-0.5493163466453552,60.0,2833979.0,1.0
1136166.4452487,287092.25,282050.0625,310438.3125,288016.46875,293595.1875,273106.5,273235.34375,285241.53125,-0.1240234375,0.934326171875,-0.3251953125,4.302978038787842,-5.981444835662842,-0.7934569716453552,60.0,2833980.0,1.0
1136166.4491954,286869.375,282123.09375,310350.59375,287810.8125,293589.1875,273150.5,273240.96875,285292.125,-0.12353515625,0.93505859375,-0.32275390625,3.906249761581421,-6.011962413787842,-1.0681151151657104,60.0,2833981.0,1.0
1136166.4558622,286177.53125,282266.4375,309748.15625,286690.5625,293384.53125,273338.0625,273252.875,285361.0625,-0.12548828125,0.93310546875,-0.32275390625,3.540038824081421,-6.164550304412842,-1.2512205839157104,60.0,2833982.0,1.0
1136166.4559079,285923.4375,282252.46875,309379.53125,286080.34375,293193.5625,273369.71875,273196.34375,285250.125,-0.1220703125,0.9326171875,-0.32177734375,3.173827886581421,-6.256103038787842,-1.3122557401657104,60.0,2833983.0,1.0
1136166.4646428,286522.375,282139.90625,309841.9375,286957.15625,293353.34375,273245.25,273210.03125,285218.46875,-0.1201171875,0.930419921875,-0.320556640625,2.868652105331421,-6.439208507537842,-1.2817381620407104,60.0,2833984.0,1.0
1136166.4646865,287108.25,282054.96875,310429.0,288015.375,293590.90625,273100.40625,273225.40625,285232.9375,-0.11669921875,0.9296875,-0.321533203125,2.593993902206421,-6.530761241912842,-1.2512205839157104,60.0,2833985.0,1.0
1136166.4665363,286897.0,282134.90625,310346.9375,287825.46875,293595.90625,273149.78125,273239.1875,285289.28125,-0.113037109375,0.9287109375,-0.326416015625,2.349853277206421,-6.561278820037842,-1.2207030057907104,60.0,2833986.0,1.0
1136166.481592,286193.90625,282274.28125,309734.9375,286706.5625,293392.0625,273339.75,273252.59375,285361.53125,-0.11083984375,0.92724609375,-0.32958984375,2.166747808456421,-6.469726085662842,-1.1596678495407104,60.0,2833987.0,1.0
1136166.4816366,285926.3125,282253.71875,309358.25,286097.5,293200.625,273372.3125,273197.25,285263.875,-0.106689453125,0.921630859375,-0.326171875,1.9226073026657104,-6.347655773162842,-1.0681151151657104,60.0,2833988.0,1.0
1136166.4816558,286520.6875,282146.34375,309823.625,286969.21875,293364.96875,273253.65625,273219.96875,285235.4375,-0.103271484375,0.92041015625,-0.32666015625,1.8920897245407104,-6.225585460662842,-0.9765624403953552,60.0,2833989.0,1.0
1136166.4840013,287113.4375,282070.1875,310419.875,288027.28125,293608.15625,273114.46875,273241.15625,285245.65625,-0.10400390625,0.9169921875,-0.32763671875,1.8005369901657104,-6.011962413787842,-0.7629393935203552,60.0,2833990.0,1.0
1136166.4865641,286895.28125,282136.53125,310341.1875,287837.1875,293607.0,273153.4375,273245.0,285294.90625,-0.103271484375,0.913330078125,-0.32958984375,1.8615721464157104,-5.828856945037842,-0.6103515028953552,60.0,2833991.0,1.0
1136166.4902806,286200.0625,282278.6875,309748.34375,286733.28125,293413.25,273346.375,273265.1875,285381.90625,-0.101318359375,0.91064453125,-0.3330078125,1.9531248807907104,-5.615233898162842,-0.4272460639476776,60.0,2833992.0,1.0
1136166.4991729,285937.375,282267.59375,309379.09375,286124.5,293230.84375,273390.5625,273218.71875,285290.09375,-0.09912109375,0.90869140625,-0.334228515625,2.075195074081421,-5.401610851287842,-0.2746581733226776,60.0,2833993.0,1.0
1136166.5022089,286532.65625,282155.28125,309838.90625,286984.0625,293388.21875,273267.78125,273231.84375,285254.59375,-0.098876953125,0.9052734375,-0.336181640625,2.227782964706421,-5.065917491912842,-0.2136230319738388,60.0,2833994.0,1.0
1136166.5022515,287116.125,282059.0,310417.5625,288022.0,293608.6875,273109.0,273231.65625,285246.28125,-0.0966796875,0.899658203125,-0.338134765625,2.563476324081421,-4.821776866912842,-0.2441406100988388,60.0,2833995.0,1.0
1136166.5153751,286914.25,282130.0,310341.125,287842.84375,293608.3125,273149.59375,273237.75,285300.0,-0.09716796875,0.893798828125,-0.33935546875,3.082275152206421,-4.547118663787842,-0.1220703050494194,60.0,2833996.0,1.0
1136166.5408124,286226.96875,282270.71875,309747.625,286743.21875,293416.28125,273342.4375,273258.9375,285390.40625,-0.0986328125,0.890380859375,-0.340576171875,3.570556402206421,-4.302978038787842,0.0915527269244194,60.0,2833997.0,1.0
1136166.5408524,285971.625,282262.125,309383.75,286133.46875,293234.25,273388.75,273219.59375,285304.125,-0.10009765625,0.8857421875,-0.34423828125,4.150390148162842,-3.997802495956421,0.3967284858226776,60.0,2833998.0,1.0
1136166.5443408,286570.75,282161.5625,309843.75,286987.125,293390.625,273270.46875,273238.09375,285266.9375,-0.1005859375,0.87939453125,-0.34765625,4.791259288787842,-3.692626714706421,0.3967284858226776,60.0,2833999.0,1.0
1136166.5490608,287146.09375,282058.90625,310414.6875,288022.28125,293602.34375,273101.75,273229.0,285247.15625,-0.102294921875,0.876953125,-0.351318359375,5.523681163787842,-3.295898199081421,0.3967284858226776,60.0,2834000.0,1.0
1136166.5515059,286938.03125,282124.53125,310336.90625,287845.6875,293595.625,273132.875,273228.4375,285293.5625,-0.103515625,0.875732421875,-0.358154296875,6.347655773162842,-3.173827886581421,0.3051757514476776,60.0,2834001.0,1.0
1136166.5540524,286258.09375,282274.28125,309763.53125,286767.8125,293418.78125,273336.46875,273259.65625,285398.625,-0.10595703125,0.8779296875,-0.35791015625,7.171630382537842,-3.082275152206421,0.3051757514476776,60.0,2834002.0,1.0
1136166.556768,285988.15625,282265.96875,309394.46875,286154.90625,293235.0625,273379.8125,273213.53125,285308.3125,-0.104248046875,0.87548828125,-0.358154296875,8.026122093200684,-2.807616949081421,0.1831054538488388,60.0,2834003.0,1.0
1136166.5590047,286568.6875,282155.75,309839.8125,286990.15625,293380.4375,273253.5625,273214.875,285253.78125,-0.104248046875,0.871826171875,-0.355224609375,8.728026390075684,-2.593993902206421,0.1220703050494194,60.0,2834004.0,1.0
1136166.5615725,287163.0625,282076.875,310435.625,288037.90625,293620.125,273114.375,273228.0,285249.9375,-0.101318359375,0.869384765625,-0.3564453125,9.490965843200684,-2.380370855331421,0.2441406100988388,60.0,2834005.0,1.0
1136166.5640815,286956.53125,282147.96875,310370.625,287865.90625,293618.78125,273150.65625,273232.125,285295.1875,-0.103515625,0.86376953125,-0.361083984375,10.192870140075684,-2.319335699081421,0.3051757514476776,60.0,2834006.0,1.0
1136166.5666818,286266.9375,282294.21875,309799.3125,286788.4375,293437.8125,273346.28125,273258.6875,285400.40625,-0.10888671875,0.86083984375,-0.3623046875,11.016844749450684,-2.136230230331421,0.3051757514476776,60.0,2834007.0,1.0
1136166.569064,286002.125,282293.59375,309450.15625,286185.21875,293264.90625,273399.84375,273223.34375,285323.4375,-0.10986328125,0.857177734375,-0.3662109375,11.962889671325684,-2.044677495956421,0.2746581733226776,60.0,2834008.0,1.0
1136166.572211,286574.0625,282177.1875,309896.125,287009.65625,293404.46875,273268.0625,273224.15625,285261.1875,-0.11083984375,0.856689453125,-0.3671875,13.092040061950684,-2.014159917831421,0.2746581733226776,60.0,2834009.0,1.0
1136166.5722541,287152.0625,282084.40625,310477.625,288037.8125,293624.78125,273111.59375,273227.375,285239.5625,-0.1103515625,0.857666015625,-0.369140625,14.068602561950684,-2.014159917831421,0.1220703050494194,60.0,2834010.0,1.0
1136166.5739179,286956.625,282162.0,310411.28125,287875.90625,293628.25,273154.34375,273240.625,285298.03125,-0.1103515625,0.863037109375,-0.368896484375,14.984129905700684,-1.9226073026657104,-0.03051757626235485,60.0,2834011.0,1.0
1136166.5773212,286257.5625,282286.8125,309816.28125,286787.125,293429.0625,273334.65625,273253.03125,285388.6875,-0.108154296875,0.86669921875,-0.368408203125,15.747069358825684,-1.9226073026657104,-0.0610351525247097,60.0,2834012.0,1.0
1136166.5773659,285993.53125,282277.34375,309450.0,286183.625,293251.6875,273384.125,273216.21875,285312.0625,-0.109130859375,0.86962890625,-0.366943359375,16.204832077026367,-2.014159917831421,0.03051757626235485,60.0,2834013.0,1.0
1136166.5790653,286550.53125,282146.25,309862.6875,286981.46875,293373.28125,273242.5,273207.09375,285234.90625,-0.108154296875,0.871826171875,-0.36865234375,16.815183639526367,-1.9836424589157104,0.03051757626235485,60.0,2834014.0,1.0
1136166.5878292,287133.28125,282052.46875,310432.5625,288001.34375,293583.5625,273081.65625,273201.1875,285201.375,-0.109619140625,0.876708984375,-0.3671875,17.303464889526367,-1.9226073026657104,-0.0610351525247097,60.0,2834015.0,1.0
1136166.5922468,286952.4375,282135.0,310384.75,287856.59375,293596.4375,273129.03125,273218.71875,285265.40625,-0.11083984375,0.880126953125,-0.368896484375,17.700193405151367,-1.9226073026657104,-0.1220703050494194,60.0,2834016.0,1.0
1136166.5922916,286286.875,282295.3125,309836.5,286816.96875,293438.0,273344.6875,273267.34375,285399.875,-0.108642578125,0.885009765625,-0.369140625,18.035886764526367,-1.8920897245407104,-0.0915527269244194,60.0,2834017.0,1.0
1136166.5985075,286026.875,282300.40625,309484.15625,286214.0,293274.21875,273410.65625,273240.15625,285335.78125,-0.111572265625,0.888671875,-0.3720703125,18.249509811401367,-1.8615721464157104,-0.1831054538488388,60.0,2834018.0,1.0
1136166.5985519,286562.53125,282157.53125,309879.78125,286983.34375,293378.0,273254.03125,273211.03125,285236.34375,-0.110595703125,0.89501953125,-0.3662109375,18.371580123901367,-1.8005369901657104,-0.1831054538488388,60.0,2834019.0,1.0
1136166.604056,287122.3125,282044.6875,310428.28125,287981.15625,293568.375,273077.4375,273188.9375,285181.625,-0.1083984375,0.902099609375,-0.366943359375,18.371580123901367,-1.8310545682907104,-0.1525878757238388,60.0,2834020.0,1.0
1136166.6134355,286946.875,282133.84375,310384.28125,287847.75,293589.375,273131.4375,273214.875,285249.59375,-0.105224609375,0.908203125,-0.364013671875,18.310544967651367,-1.8615721464157104,-0.0610351525247097,60.0,2834021.0,1.0
1136166.6134812,286282.125,282297.625,309841.15625,286816.78125,293438.375,273348.4375,273268.3125,285394.78125,-0.10400390625,0.91064453125,-0.365478515625,18.157957077026367,-1.7395018339157104,-0.03051757626235485,60.0,2834022.0,1.0
1136166.6158523,286002.28125,282287.96875,309472.0625,286196.3125,293262.84375,273398.0625,273230.34375,285326.75,-0.105224609375,0.913330078125,-0.365966796875,17.974851608276367,-1.7089842557907104,0.1220703050494194,60.0,2834023.0,1.0
1136166.6158946,286555.28125,282166.75,309880.9375,286974.15625,293385.875,273265.09375,273223.53125,285248.78125,-0.104248046875,0.914306640625,-0.3642578125,17.730710983276367,-1.6174315214157104,0.2746581733226776,60.0,2834024.0,1.0
1136166.6291848,287110.3125,282052.5625,310424.15625,287964.96875,293569.96875,273084.0625,273195.8125,285183.96875,-0.102783203125,0.91455078125,-0.365966796875,17.303464889526367,-1.5563963651657104,0.3356933295726776,60.0,2834025.0,1.0
1136166.6339985,286923.09375,282126.5,310373.375,287828.625,293577.3125,273125.46875,273209.6875,285240.0,-0.10009765625,0.91455078125,-0.367431640625,17.059324264526367,-1.3427733182907104,0.6103515028953552,60.0,2834026.0,1.0
1136166.6340418,286267.03125,282294.21875,309843.28125,286814.65625,293436.75,273351.84375,273271.375,285399.96875,-0.098388671875,0.91259765625,-0.366455078125,16.632078170776367,-1.2817381620407104,0.8239745497703552,60.0,2834027.0,1.0
1136166.6340539,285989.96875,282291.09375,309484.875,286203.65625,293271.25,273409.6875,273240.25,285347.125,-0.0986328125,0.90771484375,-0.367919921875,16.265867233276367,-1.0986326932907104,1.0375975370407104,60.0,2834028.0,1.0
1136166.6365714,286530.0625,282160.46875,309883.96875,286970.125,293384.8125,273268.59375,273226.9375,285267.28125,-0.099853515625,0.90576171875,-0.3662109375,15.960692405700684,-0.9765624403953552,1.0681151151657104,60.0,2834029.0,1.0
1136166.6515005,287089.65625,282046.75,310428.09375,287964.25,293569.96875,273091.125,273206.5625,285209.4375,-0.100830078125,0.899658203125,-0.366943359375,15.686034202575684,-0.7629393935203552,1.1291502714157104,60.0,2834030.0,1.0
1136166.6548071,286910.3125,282123.1875,310382.25,287836.3125,293577.3125,273132.59375,273224.59375,285263.71875,-0.1015625,0.8974609375,-0.3671875,15.350340843200684,-0.6408690810203552,1.2512205839157104,60.0,2834031.0,1.0
1136166.6548532,286262.1875,282290.375,309858.03125,286831.71875,293436.03125,273354.96875,273286.65625,285422.3125,-0.10498046875,0.89208984375,-0.3671875,15.258788108825684,-0.4882812201976776,1.3732908964157104,60.0,2834032.0,1.0
1136166.6658323,285987.8125,282287.875,309501.03125,286220.8125,293270.0,273415.21875,273257.78125,285368.40625,-0.105224609375,0.88720703125,-0.368408203125,15.167235374450684,-0.3662109076976776,1.3122557401657104,60.0,2834033.0,1.0
1136166.6658708,286510.5,282140.28125,309882.0,286959.03125,293366.03125,273258.6875,273228.09375,285264.5,-0.10546875,0.881591796875,-0.36962890625,14.953612327575684,-0.2441406100988388,1.2512205839157104,60.0,2834034.0,1.0
1136166.6726197,287073.9375,282030.125,310426.9375,287947.96875,293552.96875,273079.21875,273206.5625,285202.625,-0.10546875,0.880126953125,-0.369873046875,14.739989280700684,-0.2441406100988388,1.2512205839157104,60.0,2834035.0,1.0
1136166.6726518,286921.3125,282131.875,310405.75,287844.34375,293581.9375,273138.25,273241.25,285282.5625,-0.10546875,0.8779296875,-0.367919921875,14.678954124450684,-0.1220703050494194,1.2207030057907104,60.0,2834036.0,1.0
1136166.6726631,286268.90625,282295.46875,309886.5625,286840.84375,293439.09375,273352.1875,273294.34375,285442.78125,-0.10888671875,0.876708984375,-0.3701171875,14.648436546325684,-0.0915527269244194,1.1901854276657104,60.0,2834037.0,1.0
1136166.6757858,285972.0,282274.65625,309504.1875,286205.0625,293250.0625,273389.65625,273238.03125,285368.3125,-0.11181640625,0.873291015625,-0.371826171875,14.526366233825684,0.0,1.1291502714157104,60.0,2834038.0,1.0
1136166.6758185,286502.875,282143.75,309894.0625,286957.78125,293363.4375,273247.6875,273217.375,285277.84375,-0.113525390625,0.873291015625,-0.372802734375,14.526366233825684,-0.0610351525247097,1.0986326932907104,60.0,2834039.0,1.0
1136166.6891359,287064.4375,282029.5,310437.21875,287952.53125,293554.59375,273071.375,273193.125,285211.59375,-0.113037109375,0.8720703125,-0.3720703125,14.282225608825684,-0.1831054538488388,1.0681151151657104,60.0,2834040.0,1.0
1136166.692214,286899.21875,282114.78125,310411.125,287849.0,293580.0,273121.96875,273219.34375,285280.875,-0.114501953125,0.870361328125,-0.3720703125,14.251708030700684,-0.1525878757238388,1.0375975370407104,60.0,2834041.0,1.0
1136166.692258,286247.0,282279.375,309887.375,286853.4375,293434.53125,273338.78125,273276.65625,285447.09375,-0.114013671875,0.872314453125,-0.37353515625,14.190672874450684,-0.2136230319738388,0.9765624403953552,60.0,2834042.0,1.0
1136166.6946598,285969.03125,282281.8125,309526.53125,286245.40625,293276.1875,273408.4375,273257.25,285409.09375,-0.11572265625,0.873291015625,-0.3740234375,14.190672874450684,-0.2136230319738388,0.8544921278953552,60.0,2834043.0,1.0
1136166.6947025,286480.96875,282139.90625,309883.78125,286969.0625,293371.84375,273259.75,273231.21875,285301.0625,-0.117431640625,0.874755859375,-0.376953125,14.099120140075684,-0.2746581733226776,0.7019042372703552,60.0,2834044.0,1.0
1136166.7128207,287055.0625,282039.5,310424.4375,287964.96875,293569.15625,273091.21875,273218.96875,285240.71875,-0.118896484375,0.8759765625,-0.377197265625,14.007567405700684,-0.3356933295726776,0.5798339247703552,60.0,2834045.0,1.0
1136166.7160011,286907.8125,282129.90625,310400.125,287873.21875,293599.75,273145.125,273249.5625,285316.1875,-0.11865234375,0.878662109375,-0.374755859375,13.824461936950684,-0.4577636420726776,0.3051757514476776,60.0,2834046.0,1.0
1136166.7160459,286257.375,282284.84375,309873.6875,286877.3125,293457.0625,273354.59375,273297.03125,285471.9375,-0.120849609375,0.88916015625,-0.376953125,13.458250999450684,-0.7324218153953552,0.03051757626235485,60.0,2834047.0,1.0
1136166.7184101,285951.78125,282261.34375,309480.40625,286233.3125,293267.96875,273391.71875,273239.0,285396.375,-0.12158203125,0.89501953125,-0.379150390625,13.153075218200684,-0.8544921278953552,-0.03051757626235485,60.0,2834048.0,1.0
1136166.7184531,286468.09375,282124.4375,309844.46875,286953.5,293362.0,273244.90625,273212.0,285293.9375,-0.122314453125,0.90283203125,-0.37744140625,12.725829124450684,-0.9460448622703552,-0.1831054538488388,60.0,2834049.0,1.0
1136166.7203948,287031.46875,282009.65625,310376.875,287936.78125,293543.0625,273066.34375,273190.09375,285214.1875,-0.12158203125,0.909912109375,-0.376220703125,12.176512718200684,-1.1291502714157104,-0.3967284858226776,60.0,2834050.0,1.0
1136166.7290779,286875.53125,282093.875,310350.78125,287839.625,293565.40625,273111.34375,273214.40625,285276.59375,-0.122314453125,0.918212890625,-0.374755859375,11.596678733825684,-1.3732908964157104,-0.4272460639476776,60.0,2834051.0,1.0
1136166.7347457,286233.0625,282260.625,309837.65625,286856.5,293434.0625,273332.0625,273272.96875,285448.40625,-0.123779296875,0.925537109375,-0.373779296875,10.986327171325684,-1.4953612089157104,-0.5798339247703552,60.0,2834052.0,1.0
1136166.7347898,285951.34375,282264.28125,309472.875,286232.875,293273.125,273398.40625,273247.0625,285401.75,-0.123291015625,0.93310546875,-0.37353515625,10.192870140075684,-1.6784666776657104,-0.6408690810203552,60.0,2834053.0,1.0
1136166.7365475,286447.09375,282116.5,309816.75,286923.46875,293351.8125,273238.09375,273203.6875,285276.59375,-0.124755859375,0.93994140625,-0.3701171875,9.338377952575684,-1.8615721464157104,-0.5798339247703552,60.0,2834054.0,1.0
1136166.7451301,287021.96875,282015.1875,310371.15625,287920.6875,293544.59375,273070.46875,273190.46875,285212.75,-0.127197265625,0.94482421875,-0.369873046875,8.361815452575684,-2.136230230331421,-0.6408690810203552,60.0,2834055.0,1.0
1136166.7521367,286881.4375,282104.0625,310366.875,287839.25,293579.28125,273122.3125,273225.15625,285287.65625,-0.128662109375,0.947509765625,-0.366943359375,7.385253429412842,-2.197265386581421,-0.7324218153953552,60.0,2834056.0,1.0
1136166.7521865,286233.59375,282264.0,309855.09375,286853.09375,293442.65625,273334.5,273279.0625,285455.21875,-0.129638671875,0.953125,-0.36767578125,6.317138195037842,-2.380370855331421,-0.7934569716453552,60.0,2834057.0,1.0
1136166.7541861,285948.375,282270.1875,309491.84375,286224.65625,293280.28125,273397.53125,273249.90625,285410.6875,-0.12744140625,0.95654296875,-0.364990234375,5.126952648162842,-2.563476324081421,-0.7934569716453552,60.0,2834058.0,1.0
1136166.7566293,286454.6875,282129.8125,309849.03125,286922.46875,293366.5625,273245.875,273214.15625,285291.40625,-0.132080078125,0.956787109375,-0.362548828125,3.967284917831421,-2.746581792831421,-0.8544921278953552,60.0,2834059.0,1.0
1136166.7653331,287019.21875,282018.9375,310387.15625,287907.28125,293548.4375,273066.28125,273189.75,285211.3125,-0.1318359375,0.957763671875,-0.36181640625,2.777099370956421,-3.021239995956421,-0.8544921278953552,60.0,2834060.0,1.0
1136166.7696693,286874.71875,282105.65625,310372.40625,287823.96875,293577.125,273114.09375,273216.65625,285279.09375,-0.1318359375,0.95556640625,-0.36083984375,1.6784666776657104,-3.234863042831421,-0.9765624403953552,60.0,2834061.0,1.0
1136166.7697131,286248.25,282284.03125,309875.40625,286858.625,293460.625,273346.75,273291.125,285468.8125,-0.132568359375,0.94970703125,-0.356689453125,0.5493163466453552,-3.356933355331421,-0.9765624403953552,60.0,2834062.0,1.0
1136166.7754226,285952.9375,282280.8125,309497.5625,286221.0625,293291.75,273409.6875,273258.75,285419.09375,-0.135986328125,0.9462890625,-0.355224609375,-0.6408690810203552,-3.540038824081421,-1.0375975370407104,60.0,2834063.0,1.0
1136166.7790222,286444.25,282131.5,309833.8125,286899.9375,293365.21875,273252.25,273214.15625,285290.4375,-0.134521484375,0.93798828125,-0.357666015625,-1.6479490995407104,-3.692626714706421,-1.2207030057907104,60.0,2834064.0,1.0
1136166.7883986,287018.21875,282023.6875,310372.59375,287891.28125,293547.0,273076.28125,273192.6875,285212.9375,-0.13232421875,0.928466796875,-0.354736328125,-2.502441167831421,-3.845214605331421,-1.3732908964157104,60.0,2834065.0,1.0
1136166.788442,286872.0625,282101.1875,310354.78125,287811.28125,293567.65625,273114.71875,273215.03125,285274.78125,-0.129150390625,0.9189453125,-0.35498046875,-3.326415777206421,-3.906249761581421,-1.5258787870407104,60.0,2834066.0,1.0
1136166.7902816,286225.1875,282261.78125,309839.28125,286829.75,293429.34375,273329.03125,273271.625,285443.15625,-0.12890625,0.909912109375,-0.353515625,-3.906249761581421,-4.150390148162842,-1.6784666776657104,60.0,2834067.0,1.0
1136166.7991811,285931.40625,282261.6875,309462.59375,286190.84375,293260.25,273390.625,273240.96875,285386.8125,-0.126708984375,0.89892578125,-0.3525390625,-4.364013195037842,-4.241942882537842,-1.8615721464157104,60.0,2834068.0,1.0
1136166.8022063,286441.1875,282128.46875,309812.90625,286883.75,293346.46875,273240.875,273208.59375,285273.1875,-0.125,0.888427734375,-0.3525390625,-4.821776866912842,-4.241942882537842,-2.044677495956421,60.0,2834069.0,1.0
1136166.8022497,287026.09375,282024.84375,310358.71875,287883.40625,293533.5,273065.09375,273187.15625,285198.53125,-0.123291015625,0.875732421875,-0.353271484375,-5.157470226287842,-4.180907726287842,-2.105712652206421,60.0,2834070.0,1.0
1136166.8066556,286901.71875,282117.75,310355.6875,287822.4375,293569.875,273116.0625,273221.3125,285269.78125,-0.121337890625,0.865234375,-0.350830078125,-5.187987804412842,-4.211425304412842,-2.197265386581421,60.0,2834071.0,1.0
1136166.8115726,286266.59375,282286.71875,309852.25,286852.90625,293440.40625,273338.96875,273288.0,285446.625,-0.121826171875,0.855224609375,-0.35400390625,-5.126952648162842,-4.241942882537842,-2.319335699081421,60.0,2834072.0,1.0
1136166.8154493,285959.65625,282281.28125,309470.46875,286197.21875,293261.15625,273398.3125,273251.78125,285393.34375,-0.121337890625,0.84716796875,-0.350341796875,-4.730224132537842,-4.089354991912842,-2.471923589706421,60.0,2834073.0,1.0
1136166.8221772,286466.6875,282147.25,309825.40625,286886.96875,293341.53125,273251.25,273219.15625,285272.03125,-0.123046875,0.8427734375,-0.353759765625,-4.455565929412842,-4.089354991912842,-2.593993902206421,60.0,2834074.0,1.0
1136166.8222195,287052.65625,282040.75,310375.8125,287885.21875,293527.5,273074.40625,273195.625,285188.78125,-0.1259765625,0.837646484375,-0.352294921875,-3.967284917831421,-4.119872570037842,-2.746581792831421,60.0,2834075.0,1.0
1136166.830324,286926.75,282124.53125,310372.6875,287820.125,293557.8125,273120.53125,273222.65625,285252.8125,-0.12646484375,0.829833984375,-0.355224609375,-3.509521245956421,-4.119872570037842,-2.746581792831421,60.0,2834076.0,1.0
1136166.8457747,286291.09375,282291.625,309868.875,286851.9375,293427.375,273342.09375,273290.59375,285425.25,-0.12939453125,0.826416015625,-0.35693359375,-2.960204839706421,-3.997802495956421,-2.868652105331421,60.0,2834077.0,1.0
1136166.8458166,285970.1875,282277.25,309470.5625,286182.71875,293237.375,273391.34375,273246.34375,285356.96875,-0.13134765625,0.82177734375,-0.356201171875,-2.319335699081421,-4.058837413787842,-3.021239995956421,60.0,2834078.0,1.0
1136166.8458274,286480.90625,282150.375,309828.625,286876.4375,293332.0625,273257.0625,273226.75,285249.65625,-0.13330078125,0.819580078125,-0.353515625,-1.9226073026657104,-4.089354991912842,-3.082275152206421,60.0,2834079.0,1.0
1136166.8458382,287086.0,282062.5625,310404.15625,287903.96875,293540.46875,273099.71875,273225.875,285194.3125,-0.13916015625,0.8173828125,-0.35302734375,-1.1596678495407104,-4.180907726287842,-3.204345464706421,60.0,2834080.0,1.0
1136166.8478423,286931.875,282117.75,310379.8125,287825.84375,293545.5625,273114.8125,273226.3125,285232.6875,-0.145751953125,0.81982421875,-0.3544921875,-0.3967284858226776,-4.272460460662842,-3.479003667831421,60.0,2834081.0,1.0
1136166.8501359,286271.6875,282264.625,309851.15625,286824.65625,293395.375,273314.8125,273269.75,285381.375,-0.148193359375,0.824462890625,-0.35498046875,0.2746581733226776,-4.364013195037842,-3.662109136581421,60.0,2834082.0,1.0
1136166.8577812,285959.28125,282256.59375,309453.3125,286155.8125,293212.15625,273369.8125,273224.0625,285315.28125,-0.154052734375,0.831787109375,-0.353515625,0.9460448622703552,-4.638671398162842,-3.814697027206421,60.0,2834083.0,1.0
1136166.8665716,286464.34375,282124.625,309800.90625,286847.625,293297.5625,273227.125,273187.875,285199.25,-0.15625,0.837890625,-0.354248046875,1.5563963651657104,-4.821776866912842,-4.058837413787842,60.0,2834084.0,1.0
1136166.8715679,287063.46875,282029.0625,310366.78125,287879.40625,293498.34375,273059.5625,273174.28125,285137.71875,-0.156005859375,0.842529296875,-0.352783203125,2.166747808456421,-5.035399913787842,-4.180907726287842,60.0,2834085.0,1.0
1136166.8716106,286932.5625,282109.78125,310361.5,287818.0625,293527.9375,273098.625,273200.28125,285199.875,-0.15673828125,0.84814453125,-0.353271484375,2.655029058456421,-5.310058116912842,-4.364013195037842,60.0,2834086.0,1.0
1136166.8716229,286273.46875,282261.0625,309837.46875,286814.65625,293386.15625,273309.625,273256.875,285357.125,-0.1572265625,0.855224609375,-0.35888671875,3.021239995956421,-5.554198741912842,-4.516601085662842,60.0,2834087.0,1.0
1136166.8746591,285958.03125,282259.375,309442.125,286136.40625,293204.75,273372.84375,273222.0,285295.8125,-0.15673828125,0.863037109375,-0.360107421875,3.387450933456421,-5.645751476287842,-4.516601085662842,60.0,2834088.0,1.0
1136166.8747021,286450.125,282122.03125,309782.59375,286814.03125,293280.84375,273222.46875,273180.0,285170.8125,-0.155029296875,0.872802734375,-0.36328125,3.692626714706421,-5.798339366912842,-4.577636241912842,60.0,2834089.0,1.0
1136166.8878391,287041.90625,282017.15625,310346.125,287841.21875,293476.8125,273051.0625,273161.03125,285107.34375,-0.152099609375,0.881103515625,-0.3662109375,3.936767339706421,-5.859374523162842,-4.608153820037842,60.0,2834090.0,1.0
1136166.8927578,286910.21875,282092.4375,310343.53125,287788.03125,293506.40625,273085.9375,273179.90625,285170.375,-0.1484375,0.888916015625,-0.364990234375,3.936767339706421,-5.889892101287842,-4.577636241912842,60.0,2834091.0,1.0
1136166.8928007,286243.34375,282240.125,309813.625,286780.6875,293357.28125,273286.65625,273227.28125,285316.09375,-0.14599609375,0.895751953125,-0.3671875,3.875732183456421,-5.920409679412842,-4.516601085662842,60.0,2834092.0,1.0
1136166.892813,285916.03125,282233.625,309408.78125,286099.125,293168.09375,273344.3125,273188.5625,285247.25,-0.144287109375,0.903076171875,-0.36669921875,3.692626714706421,-5.950927257537842,-4.241942882537842,60.0,2834093.0,1.0
1136166.8954321,286413.84375,282105.21875,309753.25,286783.8125,293252.125,273205.65625,273160.9375,285133.25,-0.140869140625,0.906982421875,-0.364013671875,3.448486089706421,-5.798339366912842,-3.906249761581421,60.0,2834094.0,1.0
1136166.9066248,287017.25,282006.875,310325.28125,287824.40625,293460.1875,273038.5625,273149.59375,285075.59375,-0.13671875,0.911865234375,-0.36474609375,3.234863042831421,-5.645751476287842,-3.662109136581421,60.0,2834095.0,1.0
1136166.9109181,286890.8125,282079.125,310326.625,287776.40625,293491.90625,273073.78125,273169.71875,285134.59375,-0.13720703125,0.913330078125,-0.363525390625,2.899169683456421,-5.340575695037842,-3.173827886581421,60.0,2834096.0,1.0
1136166.9109613,286241.71875,282241.21875,309810.5625,286788.4375,293355.3125,273290.59375,273233.5625,285298.03125,-0.135009765625,0.914306640625,-0.361328125,2.655029058456421,-5.126952648162842,-2.838134527206421,60.0,2834097.0,1.0
1136166.9247088,285918.875,282242.65625,309410.5625,286108.0625,293172.125,273353.96875,273200.5625,285242.78125,-0.135986328125,0.914306640625,-0.360107421875,2.227782964706421,-4.943847179412842,-2.380370855331421,60.0,2834098.0,1.0
1136166.9247522,286425.1875,282122.75,309765.59375,286799.90625,293262.59375,273218.4375,273173.75,285139.25,-0.135498046875,0.912353515625,-0.35888671875,1.7700194120407104,-4.730224132537842,-1.8920897245407104,60.0,2834099.0,1.0
1136166.9272935,287025.375,282019.9375,310335.9375,287837.375,293460.0,273043.125,273153.0,285075.78125,-0.134765625,0.906494140625,-0.35986328125,1.3122557401657104,-4.364013195037842,-1.4343260526657104,60.0,2834100.0,1.0
1136166.9273396,286889.03125,282082.0625,310327.0625,287783.09375,293478.5,273062.875,273160.9375,285123.875,-0.136962890625,0.902587890625,-0.35888671875,0.8544921278953552,-4.211425304412842,-1.1291502714157104,60.0,2834101.0,1.0
1136166.9334155,286227.96875,282235.125,309801.53125,286787.75,293333.9375,273268.15625,273211.65625,285278.53125,-0.140625,0.897705078125,-0.35986328125,0.6103515028953552,-3.997802495956421,-0.7019042372703552,60.0,2834102.0,1.0
1136166.9334587,285904.84375,282235.40625,309402.4375,286102.25,293151.625,273338.0625,273180.25,285223.90625,-0.147216796875,0.89404296875,-0.360107421875,0.3662109076976776,-3.723144292831421,-0.3662109076976776,60.0,2834103.0,1.0
1136166.939077,286411.34375,282116.9375,309759.78125,286789.53125,293245.6875,273211.5625,273162.5625,285125.46875,-0.149169921875,0.890869140625,-0.35888671875,0.1831054538488388,-3.723144292831421,-0.0915527269244194,60.0,2834104.0,1.0
1136166.9484189,287024.65625,282027.0,310342.625,287842.75,293459.03125,273049.625,273157.28125,285079.875,-0.15234375,0.886962890625,-0.360107421875,0.0915527269244194,-3.784179449081421,0.1525878757238388,60.0,2834105.0,1.0
1136166.9484622,286892.0625,282087.625,310339.5,287791.96875,293483.15625,273076.09375,273167.65625,285127.375,-0.1572265625,0.883544921875,-0.36083984375,-0.0610351525247097,-3.814697027206421,0.2136230319738388,60.0,2834106.0,1.0
1136166.966022,286223.125,282228.4375,309804.03125,286780.0625,293323.3125,273272.09375,273205.84375,285259.5,-0.156982421875,0.881103515625,-0.361328125,-0.1220703050494194,-3.967284917831421,0.3356933295726776,60.0,2834107.0,1.0
1136166.966067,285908.15625,282239.96875,309412.09375,286107.0,293150.125,273344.875,273178.125,285216.21875,-0.157958984375,0.87890625,-0.35791015625,0.0,-4.089354991912842,0.5187987685203552,60.0,2834108.0,1.0
1136166.9678131,286408.03125,282119.25,309758.71875,286784.96875,293241.59375,273212.90625,273156.03125,285114.5625,-0.156005859375,0.879150390625,-0.36083984375,0.0610351525247097,-4.150390148162842,0.7629393935203552,60.0,2834109.0,1.0
1136166.9714714,287017.4375,282025.75,310338.4375,287834.875,293454.625,273052.40625,273149.59375,285062.0,-0.153076171875,0.8779296875,-0.363037109375,-0.0915527269244194,-4.180907726287842,0.8544921278953552,60.0,2834110.0,1.0
1136166.9715132,286893.875,282090.75,310342.28125,287794.90625,293482.96875,273079.59375,273165.59375,285114.3125,-0.153076171875,0.876953125,-0.36181640625,0.1220703050494194,-4.272460460662842,1.0070799589157104,60.0,2834111.0,1.0
1136166.9715257,286237.53125,282238.96875,309821.84375,286803.65625,293338.5,273281.75,273215.40625,285273.8125,-0.152099609375,0.875244140625,-0.359130859375,0.0610351525247097,-4.302978038787842,1.0681151151657104,60.0,2834112.0,1.0
1136166.9739975,285910.9375,282245.59375,309422.46875,286113.78125,293158.0625,273351.46875,273184.46875,285230.34375,-0.152099609375,0.874755859375,-0.3583984375,-0.03051757626235485,-4.333495616912842,1.1901854276657104,60.0,2834113.0,1.0
1136166.9779174,286410.0,282120.4375,309765.96875,286783.4375,293245.875,273219.0625,273157.5625,285127.375,-0.15087890625,0.871337890625,-0.355224609375,0.03051757626235485,-4.333495616912842,1.2512205839157104,60.0,2834114.0,1.0
1136166.9896253,287014.125,282013.84375,310337.53125,287818.59375,293446.21875,273045.4375,273139.75,285063.78125,-0.1494140625,0.870361328125,-0.359619140625,0.0915527269244194,-4.272460460662842,1.2817381620407104,60.0,2834115.0,1.0
1136166.9896683,286900.84375,282086.53125,310351.125,287790.25,293482.96875,273078.6875,273161.65625,285116.625,-0.1484375,0.867919921875,-0.3564453125,0.2441406100988388,-4.211425304412842,1.4038084745407104,60.0,2834116.0,1.0
1136166.9921524,286263.375,282255.15625,309855.0,286833.0625,293366.3125,273305.0,273235.875,285304.75,-0.14794921875,0.866943359375,-0.355712890625,0.3356933295726776,-4.272460460662842,1.4648436307907104,60.0,2834117.0,1.0
1136166.9921876,285947.3125,282270.90625,309468.9375,286165.71875,293207.15625,273391.0,273223.625,285286.6875,-0.145751953125,0.8662109375,-0.356201171875,0.4272460639476776,-4.272460460662842,1.5563963651657104,60.0,2834118.0,1.0
1136167.0002818,286433.0625,282141.96875,309801.71875,286822.78125,293286.46875,273251.96875,273191.15625,285177.34375,-0.145263671875,0.867919921875,-0.355712890625,0.3967284858226776,-4.272460460662842,1.6784666776657104,60.0,2834119.0,1.0
1136167.0029265,287042.625,282043.625,310378.5625,287863.75,293493.875,273083.875,273178.375,285116.4375,-0.146728515625,0.865478515625,-0.35400390625,0.4882812201976776,-4.272460460662842,1.8920897245407104,60.0,2834120.0,1.0
1136167.0064457,286923.90625,282104.0625,310387.4375,287839.53125,293523.21875,273106.15625,273192.40625,285175.46875,-0.14697265625,0.86279296875,-0.35205078125,0.6713866591453552,-4.364013195037842,1.9531248807907104,60.0,2834121.0,1.0
1136167.0108998,286280.96875,282267.78125,309892.65625,286889.3125,293401.34375,273324.84375,273259.84375,285374.9375,-0.145751953125,0.859619140625,-0.352783203125,0.7934569716453552,-4.333495616912842,1.9836424589157104,60.0,2834122.0,1.0
1136167.0109432,285942.125,282263.125,309499.15625,286214.09375,293229.875,273392.6875,273231.125,285348.03125,-0.145751953125,0.855712890625,-0.352294921875,0.9765624403953552,-4.180907726287842,2.075195074081421,60.0,2834123.0,1.0
1136167.0240149,286415.90625,282126.0625,309819.59375,286846.375,293303.0,273247.9375,273190.625,285225.25,-0.14404296875,0.85595703125,-0.35302734375,1.2207030057907104,-4.180907726287842,2.136230230331421,60.0,2834124.0,1.0
1136167.0266787,287021.28125,282018.3125,310382.15625,287869.46875,293500.40625,273073.34375,273171.84375,285148.0,-0.146240234375,0.854736328125,-0.353515625,1.4953612089157104,-4.333495616912842,2.014159917831421,60.0,2834125.0,1.0
1136167.0290306,286925.25,282092.15625,310409.0625,287864.46875,293543.25,273107.125,273198.0625,285212.21875,-0.14599609375,0.857177734375,-0.35302734375,1.7395018339157104,-4.272460460662842,2.075195074081421,60.0,2834126.0,1.0
1136167.0321756,286307.71875,282278.75,309940.3125,286944.46875,293450.15625,273348.34375,273290.5,285433.9375,-0.145263671875,0.85888671875,-0.354248046875,2.044677495956421,-4.364013195037842,1.9836424589157104,60.0,2834127.0,1.0
1136167.032218,285991.125,282305.3125,309565.96875,286287.875,293306.84375,273445.96875,273288.90625,285435.90625,-0.14453125,0.86376953125,-0.356201171875,2.319335699081421,-4.333495616912842,1.9531248807907104,60.0,2834128.0,1.0
1136167.040282,286448.875,282160.3125,309867.78125,286900.125,293363.625,273294.0,273234.875,285287.75,-0.142822265625,0.866943359375,-0.35546875,2.532958745956421,-4.394530773162842,1.8920897245407104,60.0,2834129.0,1.0
1136167.0448307,287018.9375,282024.9375,310389.84375,287878.0625,293519.71875,273087.1875,273179.375,285159.375,-0.142822265625,0.87158203125,-0.356689453125,2.532958745956421,-4.333495616912842,1.9531248807907104,60.0,2834130.0,1.0
1136167.0448774,286905.9375,282079.65625,310395.1875,287853.75,293536.625,273100.15625,273185.53125,285200.125,-0.140625,0.875244140625,-0.36083984375,2.716064214706421,-4.272460460662842,2.075195074081421,60.0,2834131.0,1.0
1136167.0465642,286288.65625,282259.71875,309928.3125,286945.4375,293442.5625,273336.46875,273276.71875,285426.25,-0.13818359375,0.876953125,-0.3603515625,2.807616949081421,-4.150390148162842,2.105712652206421,60.0,2834132.0,1.0
1136167.0603253,285962.96875,282273.65625,309541.90625,286277.21875,293288.6875,273423.625,273265.09375,285421.6875,-0.134521484375,0.876220703125,-0.35693359375,2.868652105331421,-4.119872570037842,2.258300542831421,60.0,2834133.0,1.0
1136167.0634174,286415.34375,282126.59375,309835.15625,286872.6875,293339.03125,273267.625,273207.0,285268.09375,-0.1337890625,0.876953125,-0.35986328125,2.838134527206421,-3.784179449081421,2.349853277206421,60.0,2834134.0,1.0
1136167.0634601,286998.1875,282006.78125,310363.09375,287850.34375,293500.40625,273070.03125,273158.53125,285137.09375,-0.130126953125,0.876220703125,-0.363525390625,2.899169683456421,-3.692626714706421,2.532958745956421,60.0,2834135.0,1.0
1136167.0654374,286907.09375,282083.5,310390.03125,287850.59375,293540.375,273102.03125,273182.125,285188.78125,-0.12890625,0.876220703125,-0.365966796875,2.899169683456421,-3.417968511581421,2.838134527206421,60.0,2834136.0,1.0
1136167.0678174,286297.875,282273.5625,309940.375,286962.25,293454.625,273346.28125,273281.65625,285427.21875,-0.124755859375,0.875244140625,-0.3662109375,2.990722417831421,-3.112792730331421,2.868652105331421,60.0,2834137.0,1.0
1136167.0764962,285969.84375,282285.75,309563.4375,286311.8125,293306.3125,273433.28125,273271.1875,285432.25,-0.123779296875,0.87255859375,-0.3642578125,2.960204839706421,-2.838134527206421,3.021239995956421,60.0,2834138.0,1.0
1136167.0834188,286416.15625,282132.59375,309844.46875,286897.0,293351.375,273272.09375,273208.15625,285271.21875,-0.122802734375,0.873046875,-0.367919921875,3.021239995956421,-2.502441167831421,3.173827886581421,60.0,2834139.0,1.0
1136167.0834621,286993.375,282000.625,310352.28125,287846.5,293494.59375,273061.96875,273144.6875,285117.875,-0.122802734375,0.872802734375,-0.369873046875,3.234863042831421,-2.166747808456421,3.265380620956421,60.0,2834140.0,1.0
1136167.085396,286900.5625,282076.0,310373.125,287836.3125,293522.3125,273084.59375,273157.375,285155.34375,-0.12255859375,0.867431640625,-0.3720703125,3.326415777206421,-1.9531248807907104,3.356933355331421,60.0,2834141.0,1.0
1136167.0891686,286292.34375,282260.4375,309934.3125,286963.15625,293441.21875,273324.65625,273254.8125,285402.09375,-0.123291015625,0.868408203125,-0.3720703125,3.479003667831421,-1.6784666776657104,3.540038824081421,60.0,2834142.0,1.0
1136167.09782,285975.90625,282282.4375,309569.0,286327.8125,293302.375,273422.09375,273251.96875,285420.96875,-0.124267578125,0.868896484375,-0.375732421875,3.845214605331421,-1.3427733182907104,3.540038824081421,60.0,2834143.0,1.0
1136167.1022162,286414.46875,282129.53125,309840.0,286889.65625,293339.65625,273260.28125,273183.84375,285246.8125,-0.1240234375,0.86962890625,-0.3779296875,3.845214605331421,-0.9460448622703552,3.662109136581421,60.0,2834144.0,1.0
1136167.1022662,286994.8125,282010.53125,310350.78125,287832.90625,293484.5,273054.75,273125.46875,285080.875,-0.123779296875,0.8720703125,-0.379638671875,4.119872570037842,-0.7019042372703552,3.784179449081421,60.0,2834145.0,1.0
1136167.1152387,286908.4375,282091.90625,310382.875,287836.9375,293518.125,273083.0,273149.15625,285120.9375,-0.124267578125,0.873046875,-0.380126953125,4.425048351287842,-0.5187987685203552,3.814697027206421,60.0,2834146.0,1.0
1136167.1200961,286312.4375,282282.4375,309964.875,286992.21875,293457.125,273339.125,273266.1875,285391.1875,-0.12548828125,0.87646484375,-0.378173828125,4.486083507537842,-0.0915527269244194,3.845214605331421,60.0,2834147.0,1.0
1136167.1201303,285979.84375,282289.03125,309594.84375,286347.40625,293319.53125,273437.03125,273264.75,285420.96875,-0.123291015625,0.87548828125,-0.379150390625,4.547118663787842,0.0915527269244194,3.906249761581421,60.0,2834148.0,1.0
1136167.1201422,286403.5625,282129.625,309843.28125,286872.6875,293339.21875,273266.625,273186.34375,285232.875,-0.1220703125,0.87744140625,-0.379638671875,4.669188976287842,0.5187987685203552,4.028319835662842,60.0,2834149.0,1.0
1136167.1228349,286975.9375,282001.78125,310334.84375,287789.8125,293465.71875,273052.40625,273118.125,285050.75,-0.1220703125,0.879638671875,-0.38232421875,4.699706554412842,0.8239745497703552,4.058837413787842,60.0,2834150.0,1.0
1136167.1278178,286903.53125,282088.9375,310378.9375,287815.65625,293507.75,273088.875,273148.0,285102.6875,-0.119140625,0.882080078125,-0.38330078125,4.730224132537842,1.0681151151657104,4.119872570037842,60.0,2834151.0,1.0
1136167.1305295,286316.84375,282285.375,309970.96875,286998.46875,293454.09375,273349.40625,273270.125,285378.0625,-0.12158203125,0.884521484375,-0.38330078125,4.791259288787842,1.2512205839157104,4.150390148162842,60.0,2834152.0,1.0
1136167.1440708,285985.9375,282299.5,309605.375,286362.34375,293324.09375,273448.9375,273272.8125,285418.1875,-0.120849609375,0.8857421875,-0.3828125,4.730224132537842,1.5258787870407104,4.150390148162842,60.0,2834153.0,1.0
1136167.1477249,286404.90625,282135.34375,309845.875,286867.03125,293337.96875,273273.6875,273191.15625,285218.46875,-0.119873046875,0.886474609375,-0.38134765625,4.516601085662842,1.8310545682907104,4.119872570037842,60.0,2834154.0,1.0
1136167.1477673,286965.84375,281992.65625,310315.1875,287765.75,293447.9375,273046.15625,273110.0,285013.28125,-0.11962890625,0.886962890625,-0.3818359375,4.364013195037842,2.014159917831421,4.180907726287842,60.0,2834155.0,1.0
1136167.1477793,286893.15625,282075.4375,310352.46875,287798.65625,293487.09375,273074.40625,273135.03125,285058.4375,-0.11865234375,0.888916015625,-0.3837890625,4.211425304412842,2.197265386581421,4.333495616912842,60.0,2834156.0,1.0
1136167.1503224,286322.0,282283.875,309958.71875,286992.75,293449.8125,273340.75,273264.21875,285362.3125,-0.118896484375,0.888671875,-0.385986328125,4.028319835662842,2.502441167831421,4.364013195037842,60.0,2834157.0,1.0
1136167.1529604,286003.90625,282310.40625,309610.21875,286377.28125,293334.84375,273451.53125,273277.28125,285420.25,-0.1162109375,0.8876953125,-0.386474609375,3.875732183456421,2.716064214706421,4.394530773162842,60.0,2834158.0,1.0
1136167.1791622,286406.6875,282131.96875,309836.21875,286870.0,293337.0625,273265.03125,273181.875,285207.1875,-0.115234375,0.8896484375,-0.387451171875,3.936767339706421,2.929687261581421,4.425048351287842,60.0,2834159.0,1.0
1136167.1827534,286955.8125,281981.03125,310289.34375,287737.5,293430.3125,273023.625,273083.0,284974.5625,-0.114013671875,0.88623046875,-0.3876953125,3.784179449081421,3.143310308456421,4.425048351287842,60.0,2834160.0,1.0
1136167.1828194,286877.59375,282060.4375,310318.5,287752.71875,293461.53125,273046.96875,273103.71875,285011.03125,-0.113037109375,0.888916015625,-0.384765625,3.601073980331421,3.356933355331421,4.394530773162842,60.0,2834161.0,1.0
1136167.1828313,286320.3125,282279.65625,309941.65625,286976.28125,293436.125,273324.5625,273244.625,285332.375,-0.1123046875,0.889404296875,-0.38525390625,3.387450933456421,3.509521245956421,4.425048351287842,60.0,2834162.0,1.0
1136167.1864589,285998.0,282301.65625,309588.65625,286355.46875,293320.71875,273434.34375,273254.65625,285394.59375,-0.112548828125,0.885009765625,-0.38720703125,3.082275152206421,3.784179449081421,4.425048351287842,60.0,2834163.0,1.0
1136167.1865005,286386.65625,282115.0625,309796.96875,286822.875,293307.125,273244.375,273151.90625,285171.4375,-0.111328125,0.8837890625,-0.38818359375,2.990722417831421,4.028319835662842,4.364013195037842,60.0,2834164.0,1.0
1136167.1865134,286951.875,281986.3125,310264.65625,287709.625,293410.5625,273026.21875,273077.53125,284956.9375,-0.110595703125,0.87890625,-0.388671875,3.021239995956421,4.241942882537842,4.394530773162842,60.0,2834165.0,1.0
1136167.189592,286893.25,282074.46875,310308.46875,287752.25,293450.78125,273057.25,273108.375,284989.3125,-0.10986328125,0.876953125,-0.38916015625,2.838134527206421,4.455565929412842,4.272460460662842,60.0,2834166.0,1.0
1136167.1896432,286352.15625,282306.5625,309953.875,287007.59375,293438.90625,273344.5,273261.0,285320.125,-0.11279296875,0.876220703125,-0.388427734375,2.624511480331421,4.547118663787842,4.272460460662842,60.0,2834167.0,1.0
1136167.1915908,286032.0625,282336.78125,309613.34375,286401.15625,293331.0,273462.25,273279.0625,285392.90625,-0.1123046875,0.87646484375,-0.3857421875,2.502441167831421,4.852294445037842,4.241942882537842,60.0,2834168.0,1.0
1136167.2004003,286415.09375,282155.125,309820.0625,286863.09375,293319.4375,273273.15625,273180.34375,285167.0625,-0.11279296875,0.8779296875,-0.387939453125,2.471923589706421,4.943847179412842,4.058837413787842,60.0,2834169.0,1.0
1136167.2071825,286934.8125,281982.125,310240.96875,287686.90625,293380.4375,273010.03125,273066.28125,284906.15625,-0.114501953125,0.878173828125,-0.38623046875,2.349853277206421,5.157470226287842,3.997802495956421,60.0,2834170.0,1.0
1136167.2072238,286872.9375,282058.8125,310280.21875,287727.125,293408.15625,273023.8125,273082.4375,284931.75,-0.112060546875,0.875244140625,-0.383056640625,2.136230230331421,5.249022960662842,3.936767339706421,60.0,2834171.0,1.0
1136167.2129154,286311.8125,282272.40625,309910.625,286964.125,293386.6875,273294.875,273217.71875,285253.59375,-0.113525390625,0.873291015625,-0.38525390625,2.014159917831421,5.279540538787842,3.753661870956421,60.0,2834172.0,1.0
1136167.219667,285987.53125,282296.8125,309562.65625,286330.15625,293277.0625,273410.03125,273232.5625,285321.28125,-0.112060546875,0.871337890625,-0.387939453125,1.8615721464157104,5.462646007537842,3.601073980331421,60.0,2834173.0,1.0
1136167.2197102,286391.65625,282125.875,309782.0625,286810.34375,293280.65625,273238.5625,273149.59375,285115.5625,-0.11181640625,0.870361328125,-0.38525390625,1.7700194120407104,5.554198741912842,3.448486089706421,60.0,2834174.0,1.0
1136167.225913,286908.0,281954.84375,310198.0625,287633.71875,293345.03125,272982.59375,273038.90625,284855.125,-0.112060546875,0.87060546875,-0.3837890625,1.6784666776657104,5.645751476287842,3.295898199081421,60.0,2834175.0,1.0
1136167.2259565,286883.75,282071.53125,310265.375,287703.875,293392.0625,273021.21875,273076.8125,284901.34375,-0.11181640625,0.869384765625,-0.38427734375,1.4343260526657104,5.828856945037842,3.204345464706421,60.0,2834176.0,1.0
1136167.2277806,286347.125,282303.96875,309926.4375,286994.90625,293393.84375,273313.375,273234.1875,285249.65625,-0.11181640625,0.86865234375,-0.3818359375,1.3427733182907104,5.859374523162842,3.051757574081421,60.0,2834177.0,1.0
1136167.2366783,285997.65625,282298.15625,309564.625,286360.09375,293274.03125,273416.28125,273237.84375,285316.71875,-0.10986328125,0.87109375,-0.38525390625,1.2512205839157104,5.950927257537842,2.868652105331421,60.0,2834178.0,1.0
1136167.2408899,286389.6875,282118.8125,309767.84375,286806.78125,293263.03125,273233.0,273140.9375,285096.34375,-0.109375,0.87060546875,-0.38427734375,0.9460448622703552,6.072997570037842,2.777099370956421,60.0,2834179.0,1.0
1136167.2409327,286929.90625,281970.75,310202.4375,287650.25,293339.3125,272988.46875,273044.1875,284845.71875,-0.109130859375,0.869384765625,-0.381591796875,0.7324218153953552,6.195067882537842,2.685546636581421,60.0,2834180.0,1.0
1136167.2440832,286858.625,282044.34375,310236.59375,287671.15625,293365.0625,273003.6875,273062.6875,284867.46875,-0.110595703125,0.869140625,-0.38232421875,0.5493163466453552,6.347655773162842,2.563476324081421,60.0,2834181.0,1.0
1136167.2528203,286332.21875,282276.09375,309900.96875,286957.4375,293364.78125,273292.8125,273216.46875,285213.28125,-0.108154296875,0.86767578125,-0.384033203125,0.2441406100988388,6.408690929412842,2.685546636581421,60.0,2834182.0,1.0
1136167.2572393,286022.21875,282315.5,309571.3125,286363.78125,293272.875,273421.84375,273240.625,285301.4375,-0.107666015625,0.8671875,-0.384521484375,0.03051757626235485,6.530761241912842,2.593993902206421,60.0,2834183.0,1.0
1136167.2572805,286394.25,282131.875,309763.53125,286795.0625,293256.15625,273237.65625,273140.5625,285071.125,-0.1064453125,0.866455078125,-0.3837890625,-0.2441406100988388,6.591796398162842,2.532958745956421,60.0,2834184.0,1.0
1136167.2653397,286904.0625,281957.34375,310168.03125,287600.28125,293306.9375,272970.15625,273022.90625,284795.125,-0.107666015625,0.869384765625,-0.385009765625,-0.4272460639476776,6.683349132537842,2.410888433456421,60.0,2834185.0,1.0
1136167.2696703,286881.4375,282066.78125,310241.78125,287690.03125,293358.875,273008.0625,273065.09375,284843.59375,-0.1083984375,0.872802734375,-0.3857421875,-0.6103515028953552,6.713866710662842,2.410888433456421,60.0,2834186.0,1.0
1136167.2697146,286335.34375,282276.96875,309893.0,286970.03125,293349.03125,273281.46875,273203.96875,285175.09375,-0.11083984375,0.87109375,-0.3837890625,-0.9765624403953552,6.805419445037842,2.349853277206421,60.0,2834187.0,1.0
1136167.2778458,285991.3125,282292.25,309530.375,286308.96875,293227.1875,273389.75,273203.96875,285233.65625,-0.109619140625,0.8720703125,-0.382568359375,-1.3732908964157104,6.805419445037842,2.441406011581421,60.0,2834188.0,1.0
1136167.2810224,286361.25,282107.46875,309720.90625,286742.6875,293209.5625,273205.75,273105.25,285005.84375,-0.111083984375,0.870361328125,-0.382080078125,-1.6784666776657104,6.805419445037842,2.471923589706421,60.0,2834189.0,1.0
1136167.2810669,286898.4375,281954.125,310149.78125,287584.53125,293281.09375,272960.15625,273008.5,284751.59375,-0.1123046875,0.8701171875,-0.3818359375,-2.044677495956421,6.774901866912842,2.441406011581421,60.0,2834190.0,1.0
1136167.2828379,286844.6875,282039.15625,310196.0,287623.25,293317.3125,272985.09375,273037.5625,284785.46875,-0.11474609375,0.869140625,-0.38427734375,-2.410888433456421,6.713866710662842,2.410888433456421,60.0,2834191.0,1.0
1136167.2964733,286326.65625,282279.75,309863.6875,286911.03125,293316.0625,273275.65625,273188.5,285127.28125,-0.1162109375,0.8681640625,-0.38427734375,-2.532958745956421,6.713866710662842,2.349853277206421,60.0,2834192.0,1.0
1136167.2996183,286002.75,282308.28125,309518.46875,286307.4375,293206.96875,273391.875,273195.625,285199.59375,-0.118408203125,0.866455078125,-0.384033203125,-2.868652105331421,6.591796398162842,2.288818120956421,60.0,2834193.0,1.0
1136167.2996613,286350.53125,282106.125,309688.1875,286716.03125,293178.5625,273197.78125,273087.46875,284964.5625,-0.12109375,0.868896484375,-0.3818359375,-3.082275152206421,6.500243663787842,2.197265386581421,60.0,2834194.0,1.0
1136167.3017206,286878.03125,281939.65625,310109.0,287538.5,293244.875,272945.75,272990.71875,284709.03125,-0.123046875,0.86962890625,-0.38037109375,-3.356933355331421,6.225585460662842,2.075195074081421,60.0,2834195.0,1.0
1136167.3053379,286835.03125,282025.46875,310158.1875,287591.3125,293273.59375,272962.1875,273013.34375,284729.84375,-0.125244140625,0.867431640625,-0.37744140625,-3.753661870956421,5.889892101287842,1.9226073026657104,60.0,2834196.0,1.0
1136167.3090545,286340.875,282283.59375,309843.5625,286916.21875,293283.875,273258.6875,273172.125,285081.21875,-0.126953125,0.864990234375,-0.376953125,-4.180907726287842,5.645751476287842,1.7700194120407104,60.0,2834197.0,1.0
1136167.3259222,286012.75,282317.375,309506.3125,286308.78125,293187.75,273387.875,273196.625,285165.71875,-0.1240234375,0.86279296875,-0.37841796875,-4.455565929412842,5.462646007537842,1.6479490995407104,60.0,2834198.0,1.0
1136167.3259674,286375.40625,282136.34375,309699.78125,286739.8125,293184.8125,273220.84375,273116.34375,284957.40625,-0.1240234375,0.858642578125,-0.378173828125,-4.638671398162842,5.249022960662842,1.4038084745407104,60.0,2834199.0,1.0
1136167.3304642,286892.53125,281954.84375,310108.375,287542.96875,293241.40625,272956.375,273006.8125,284696.25,-0.123046875,0.858642578125,-0.376220703125,-4.669188976287842,4.943847179412842,1.2207030057907104,60.0,2834200.0,1.0
1136167.3328403,286839.3125,282025.03125,310150.21875,287578.4375,293265.53125,272960.84375,273017.375,284718.84375,-0.120361328125,0.8583984375,-0.373779296875,-4.852294445037842,4.669188976287842,0.9460448622703552,60.0,2834201.0,1.0
1136167.335338,286321.46875,282258.03125,309822.46875,286874.28125,293266.78125,273246.875,273164.78125,285063.875,-0.117919921875,0.8603515625,-0.373779296875,-5.035399913787842,4.577636241912842,0.7934569716453552,60.0,2834202.0,1.0
1136167.337827,285983.875,282292.0,309478.96875,286244.59375,293159.6875,273369.8125,273178.75,285139.78125,-0.113037109375,0.862548828125,-0.37646484375,-5.187987804412842,4.364013195037842,0.6408690810203552,60.0,2834203.0,1.0
1136167.3417135,286353.21875,282126.25,309679.0625,286679.375,293158.0625,273205.75,273101.125,284938.25,-0.113037109375,0.863037109375,-0.37646484375,-5.371093273162842,4.089354991912842,0.6103515028953552,60.0,2834204.0,1.0
1136167.3459077,286866.40625,281939.03125,310097.9375,287516.21875,293219.40625,272942.0,272995.1875,284684.875,-0.115234375,0.866943359375,-0.37353515625,-5.676269054412842,3.936767339706421,0.5493163466453552,60.0,2834205.0,1.0
1136167.3459506,286844.59375,282037.8125,310177.0625,287612.59375,293269.125,272969.8125,273028.4375,284733.625,-0.11572265625,0.869140625,-0.37841796875,-6.011962413787842,3.631591558456421,0.2746581733226776,60.0,2834206.0,1.0
1136167.3590705,286331.75,282284.21875,309861.1875,286913.1875,293284.3125,273267.875,273186.4375,285090.96875,-0.116455078125,0.864990234375,-0.37548828125,-6.256103038787842,3.417968511581421,0.2136230319738388,60.0,2834207.0,1.0
1136167.3622176,285989.78125,282295.65625,309513.125,286288.125,293182.75,273391.09375,273204.125,285179.40625,-0.116943359375,0.867919921875,-0.374267578125,-6.500243663787842,3.204345464706421,0.1220703050494194,60.0,2834208.0,1.0
1136167.3622602,286329.25,282100.03125,309671.71875,286681.6875,293146.1875,273197.53125,273094.25,284950.25,-0.1181640625,0.867919921875,-0.372802734375,-6.622313976287842,2.960204839706421,0.1220703050494194,60.0,2834209.0,1.0
1136167.3641495,286863.03125,281943.03125,310095.15625,287521.15625,293217.875,272952.625,273003.875,284713.6875,-0.11669921875,0.868896484375,-0.374267578125,-6.744384288787842,2.624511480331421,0.0,60.0,2834210.0,1.0
1136167.3663952,286835.5625,282028.78125,310162.3125,287620.375,293264.75,272974.96875,273035.6875,284754.09375,-0.11474609375,0.86865234375,-0.371337890625,-6.958007335662842,2.349853277206421,-0.1220703050494194,60.0,2834211.0,1.0
1136167.3746831,286313.15625,282255.53125,309836.6875,286909.875,293276.90625,273262.53125,273188.125,285100.53125,-0.11669921875,0.87060546875,-0.374755859375,-7.110595226287842,2.044677495956421,-0.0915527269244194,60.0,2834212.0,1.0
1136167.3747264,285979.78125,282285.1875,309492.8125,286280.34375,293179.09375,273390.5625,273206.1875,285187.625,-0.1171875,0.873291015625,-0.37548828125,-7.232665538787842,1.7700194120407104,-0.0915527269244194,60.0,2834213.0,1.0
1136167.3765777,286341.59375,282114.15625,309672.34375,286686.96875,293166.21875,273221.3125,273116.875,284979.5625,-0.117919921875,0.874267578125,-0.377197265625,-7.507323741912842,1.6174315214157104,-0.2136230319738388,60.0,2834214.0,1.0
1136167.3854527,286889.21875,281963.96875,310111.5,287537.6875,293248.71875,272980.71875,273032.75,284746.3125,-0.12060546875,0.874267578125,-0.3740234375,-7.812499523162842,1.2207030057907104,-0.2746581733226776,60.0,2834215.0,1.0
1136167.3884106,286852.125,282046.46875,310174.375,287610.375,293285.84375,272993.5,273054.75,284777.15625,-0.125732421875,0.87451171875,-0.372802734375,-8.026122093200684,0.9460448622703552,-0.2441406100988388,60.0,2834216.0,1.0
1136167.3884532,286328.53125,282269.375,309845.34375,286914.34375,293282.0,273272.09375,273195.0,285119.75,-0.129638671875,0.873291015625,-0.370849609375,-8.300780296325684,0.4577636420726776,-0.2441406100988388,60.0,2834217.0,1.0
1136167.4065632,286003.5625,282306.21875,309511.25,286304.65625,293190.625,273409.21875,273222.46875,285220.0,-0.13525390625,0.87353515625,-0.372802734375,-8.514403343200684,0.0,-0.3662109076976776,60.0,2834218.0,1.0
1136167.4096238,286335.59375,282105.5,309670.90625,286676.4375,293159.59375,273219.0625,273118.46875,284993.25,-0.139404296875,0.875732421875,-0.373291015625,-8.636473655700684,-0.5187987685203552,-0.4577636420726776,60.0,2834219.0,1.0
1136167.4096663,286866.59375,281937.9375,310103.28125,287517.5625,293233.875,272966.75,273027.90625,284753.0,-0.1435546875,0.87744140625,-0.369384765625,-8.850096702575684,-0.9765624403953552,-0.6103515028953552,60.0,2834220.0,1.0
1136167.412083,286840.125,282028.34375,310174.09375,287599.71875,293273.3125,272978.65625,273049.0,284783.6875,-0.1484375,0.879638671875,-0.3720703125,-9.124754905700684,-1.5869139432907104,-0.7934569716453552,60.0,2834221.0,1.0
1136167.4121223,286341.15625,282279.21875,309871.09375,286930.25,293297.0,273279.6875,273210.9375,285152.75,-0.151123046875,0.882080078125,-0.369140625,-9.216307640075684,-2.166747808456421,-0.9155272841453552,60.0,2834222.0,1.0
1136167.4140571,286022.40625,282329.8125,309548.0625,286337.65625,293220.125,273431.6875,273253.84375,285271.5625,-0.151611328125,0.884521484375,-0.367919921875,-9.674071311950684,-2.838134527206421,-1.0681151151657104,60.0,2834223.0,1.0
1136167.4177183,286360.1875,282137.9375,309711.6875,286718.90625,293195.53125,273252.59375,273160.15625,285049.84375,-0.152099609375,0.885498046875,-0.369140625,-9.857176780700684,-3.204345464706421,-1.0681151151657104,60.0,2834224.0,1.0
1136167.4321694,286864.8125,281942.78125,310108.03125,287498.0625,293242.21875,272977.3125,273042.125,284777.25,-0.151611328125,0.887451171875,-0.370849609375,-10.192870140075684,-3.875732183456421,-1.1291502714157104,60.0,2834225.0,1.0
1136167.4322186,286846.5625,282025.21875,310180.71875,287594.0,293281.28125,272985.71875,273059.28125,284812.5625,-0.15625,0.890625,-0.375,-10.498045921325684,-4.486083507537842,-1.0681151151657104,60.0,2834226.0,1.0
1136167.4849315,286333.625,282263.65625,309868.78125,286924.34375,293299.59375,273277.625,273214.875,285171.875,-0.154296875,0.89501953125,-0.379150390625,-10.681151390075684,-5.187987804412842,-1.0070799589157104,60.0,2834227.0,1.0
1136167.4849755,285998.09375,282309.53125,309528.21875,286294.9375,293216.46875,273426.65625,273253.5,285283.65625,-0.15283203125,0.89794921875,-0.3779296875,-10.864256858825684,-5.828856945037842,-1.0375975370407104,60.0,2834228.0,1.0
1136167.4849862,286364.65625,282149.46875,309713.65625,286702.1875,293214.9375,273274.125,273184.1875,285090.0625,-0.15283203125,0.89892578125,-0.381591796875,-11.047362327575684,-6.286620616912842,-1.0070799589157104,60.0,2834229.0,1.0
1136167.4849957,286908.0,281984.625,310144.59375,287547.53125,293284.21875,273021.375,273088.0,284838.75,-0.150146484375,0.903076171875,-0.378173828125,-11.291502952575684,-6.805419445037842,-0.8544921278953552,60.0,2834230.0,1.0
1136167.4850068,286842.625,282028.4375,310178.5625,287599.5625,293286.375,272993.84375,273069.75,284828.84375,-0.14697265625,0.90380859375,-0.3779296875,-11.596678733825684,-7.293700695037842,-0.7019042372703552,60.0,2834231.0,1.0
1136167.4877712,286345.34375,282275.1875,309880.84375,286939.46875,293316.3125,273297.375,273237.75,285206.5,-0.144775390625,0.906494140625,-0.38037109375,-11.810301780700684,-7.812499523162842,-0.5493163466453552,60.0,2834232.0,1.0
1136167.4878138,286015.875,282321.40625,309548.96875,286330.25,293234.875,273445.53125,273276.8125,285327.53125,-0.14111328125,0.90869140625,-0.3828125,-11.779784202575684,-8.026122093200684,-0.2441406100988388,60.0,2834233.0,1.0
1136167.4878259,286337.84375,282124.53125,309693.53125,286680.625,293200.1875,273261.8125,273171.9375,285098.84375,-0.140625,0.908447265625,-0.381591796875,-11.901854515075684,-8.361815452575684,0.1220703050494194,60.0,2834234.0,1.0
1136167.4909971,286859.25,281938.5625,310100.4375,287491.28125,293253.75,272990.0,273057.25,284824.28125,-0.136962890625,0.908935546875,-0.381103515625,-12.145995140075684,-8.575438499450684,0.6103515028953552,60.0,2834235.0,1.0
1136167.4910412,286848.1875,282021.53125,310180.53125,287606.875,293301.9375,273005.375,273086.03125,284862.53125,-0.135498046875,0.910888671875,-0.3798828125,-12.207030296325684,-8.758543968200684,0.9460448622703552,60.0,2834236.0,1.0
1136167.4928259,286342.5,282273.125,309877.4375,286954.9375,293331.625,273310.25,273257.34375,285246.53125,-0.1337890625,0.910400390625,-0.37939453125,-12.420653343200684,-9.033202171325684,1.4038084745407104,60.0,2834237.0,1.0
1136167.4954163,285999.875,282322.21875,309531.09375,286317.0,293240.5,273454.03125,273289.34375,285362.3125,-0.131591796875,0.909423828125,-0.379638671875,-12.542723655700684,-9.277342796325684,1.9836424589157104,60.0,2834238.0,1.0
1136167.4978376,286332.5625,282128.375,309683.78125,286685.09375,293208.0625,273267.4375,273182.125,285134.15625,-0.130615234375,0.9072265625,-0.37939453125,-12.634276390075684,-9.307860374450684,2.380370855331421,60.0,2834239.0,1.0
1136167.5003007,286886.71875,281968.25,310121.875,287543.5,293285.125,273018.625,273085.03125,284884.09375,-0.130615234375,0.905029296875,-0.37890625,-12.664793968200684,-9.338377952575684,2.868652105331421,60.0,2834240.0,1.0
1136167.502851,286855.59375,282042.46875,310183.84375,287606.09375,293316.40625,273019.34375,273097.03125,284900.09375,-0.12841796875,0.903076171875,-0.377197265625,-12.725829124450684,-9.429930686950684,3.234863042831421,60.0,2834241.0,1.0
1136167.5054344,286368.875,282304.25,309904.625,286966.09375,293354.6875,273332.0625,273275.46875,285285.875,-0.130126953125,0.899658203125,-0.377685546875,-12.756346702575684,-9.521483421325684,3.692626714706421,60.0,2834242.0,1.0
1136167.507841,286027.96875,282353.25,309577.5,286353.84375,293276.53125,273485.6875,273318.5625,285416.40625,-0.13037109375,0.89990234375,-0.375732421875,-12.603758811950684,-9.552000999450684,4.089354991912842,60.0,2834243.0,1.0
1136167.5103007,286349.8125,282146.25,309724.5625,286711.125,293240.0625,273291.46875,273205.21875,285184.84375,-0.131103515625,0.8994140625,-0.37109375,-12.664793968200684,-9.704588890075684,4.547118663787842,60.0,2834244.0,1.0
1136167.5128274,286870.25,281952.4375,310135.03125,287523.375,293289.15625,273013.96875,273084.96875,284896.5,-0.1298828125,0.896240234375,-0.370849609375,-12.634276390075684,-9.796141624450684,4.821776866912842,60.0,2834245.0,1.0
1136167.516022,286874.0,282042.90625,310229.625,287652.75,293344.65625,273032.90625,273117.59375,284931.1875,-0.127685546875,0.890625,-0.371337890625,-12.603758811950684,-9.765624046325684,5.187987804412842,60.0,2834246.0,1.0
1136167.5160746,286355.71875,282284.125,309915.71875,286979.0625,293361.84375,273325.375,273279.78125,285306.875,-0.12841796875,0.88720703125,-0.36865234375,-12.451170921325684,-9.826659202575684,5.493163585662842,60.0,2834247.0,1.0
1136167.5178358,286006.15625,282330.625,309568.625,286342.65625,293266.96875,273467.15625,273311.34375,285427.40625,-0.128173828125,0.884521484375,-0.37060546875,-12.237547874450684,-9.918211936950684,5.706786632537842,60.0,2834248.0,1.0
1136167.5209361,286333.46875,282135.1875,309721.0625,286705.75,293235.78125,273283.71875,273206.0,285196.90625,-0.12939453125,0.88232421875,-0.370361328125,-11.932372093200684,-10.009764671325684,5.920409679412842,60.0,2834249.0,1.0
1136167.5209794,286877.15625,281954.40625,310137.09375,287533.3125,293299.96875,273018.78125,273096.5,284920.84375,-0.13037109375,0.882080078125,-0.369873046875,-11.657713890075684,-10.040282249450684,6.072997570037842,60.0,2834250.0,1.0
1136167.5265972,286878.5,282041.3125,310218.0,287669.46875,293347.875,273029.78125,273117.9375,284947.21875,-0.130859375,0.88671875,-0.37255859375,-11.413573265075684,-10.009764671325684,6.256103038787842,60.0,2834251.0,1.0
1136167.5360629,286369.5,282295.40625,309913.3125,287005.71875,293380.96875,273340.125,273294.6875,285339.34375,-0.132080078125,0.891357421875,-0.36865234375,-11.230467796325684,-10.101317405700684,6.378173351287842,60.0,2834252.0,1.0
1136167.5361089,286005.59375,282335.28125,309551.1875,286353.03125,293282.78125,273479.96875,273322.40625,285458.15625,-0.1318359375,0.890380859375,-0.368408203125,-11.047362327575684,-10.070799827575684,6.439208507537842,60.0,2834253.0,1.0
1136167.5378363,286322.28125,282126.40625,309677.4375,286689.46875,293230.21875,273276.90625,273195.1875,285202.5625,-0.130615234375,0.892822265625,-0.3662109375,-11.016844749450684,-10.192870140075684,6.561278820037842,60.0,2834254.0,1.0
1136167.5415775,286877.15625,281952.34375,310104.0,287522.46875,293292.8125,273011.28125,273085.5,284922.96875,-0.129150390625,0.892578125,-0.3720703125,-10.986327171325684,-10.284422874450684,6.622313976287842,60.0,2834255.0,1.0
1136167.5583707,286885.71875,282045.78125,310203.34375,287659.46875,293349.75,273030.3125,273120.53125,284960.25,-0.13037109375,0.895751953125,-0.374267578125,-10.894774436950684,-10.314940452575684,6.744384288787842,60.0,2834256.0,1.0
1136167.5584131,286378.875,282301.46875,309914.625,287013.03125,293395.1875,273349.40625,273308.65625,285363.03125,-0.129638671875,0.896484375,-0.37744140625,-10.742186546325684,-10.284422874450684,6.774901866912842,60.0,2834257.0,1.0
1136167.5604625,286039.59375,282363.4375,309582.9375,286392.03125,293325.96875,273513.65625,273362.375,285507.6875,-0.130859375,0.901611328125,-0.379150390625,-10.437010765075684,-10.345458030700684,6.866454601287842,60.0,2834258.0,1.0
1136167.5634183,286353.5,282157.09375,309703.8125,286719.59375,293269.28125,273307.3125,273231.3125,285245.46875,-0.1298828125,0.9033203125,-0.377197265625,-10.284422874450684,-10.375975608825684,6.866454601287842,60.0,2834259.0,1.0
1136167.5634632,286897.96875,281971.65625,310109.8125,287539.28125,293315.59375,273028.28125,273103.28125,284942.65625,-0.12841796875,0.905517578125,-0.377197265625,-10.131834983825684,-10.375975608825684,6.866454601287842,60.0,2834260.0,1.0
1136167.5652934,286879.1875,282032.90625,310179.5625,287649.34375,293347.25,273020.65625,273113.28125,284951.0625,-0.12744140625,0.9052734375,-0.3740234375,-10.253905296325684,-10.437010765075684,6.958007335662842,60.0,2834261.0,1.0
1136167.5678237,286362.6875,282280.46875,309879.25,286995.875,293382.5625,273326.625,273291.03125,285349.90625,-0.127197265625,0.90283203125,-0.37548828125,-10.223387718200684,-10.498045921325684,7.080077648162842,60.0,2834262.0,1.0
1136167.5835284,285998.90625,282325.4375,309525.375,286348.125,293290.75,273474.6875,273326.34375,285484.90625,-0.1279296875,0.900146484375,-0.379150390625,-10.223387718200684,-10.528563499450684,7.019042491912842,60.0,2834263.0,1.0
1136167.5835717,286329.625,282136.53125,309665.65625,286694.40625,293250.96875,273291.46875,273213.53125,285240.0,-0.12646484375,0.898193359375,-0.377685546875,-10.070799827575684,-10.589598655700684,7.141112804412842,60.0,2834264.0,1.0
1136167.5852885,286890.09375,281965.9375,310090.9375,287530.09375,293315.6875,273026.03125,273099.15625,284945.3125,-0.12451171875,0.899169921875,-0.37744140625,-9.826659202575684,-10.559081077575684,7.171630382537842,60.0,2834265.0,1.0
1136167.5878656,286902.34375,282054.09375,310184.375,287656.40625,293361.84375,273035.15625,273123.5625,284963.375,-0.12646484375,0.900634765625,-0.377685546875,-9.521483421325684,-10.559081077575684,7.171630382537842,60.0,2834266.0,1.0
1136167.5902991,286392.5625,282307.8125,309894.53125,287009.1875,293399.90625,273343.15625,273304.8125,285370.1875,-0.12939453125,0.899658203125,-0.378662109375,-9.246825218200684,-10.620116233825684,7.263183116912842,60.0,2834267.0,1.0
1136167.5967252,286041.1875,282367.28125,309563.0,286394.53125,293328.03125,273506.96875,273357.65625,285529.96875,-0.1298828125,0.89892578125,-0.376953125,-9.033202171325684,-10.589598655700684,7.263183116912842,60.0,2834268.0,1.0
1136167.6034286,286369.40625,282175.21875,309704.1875,286748.21875,293289.59375,273327.0625,273247.59375,285281.125,-0.13134765625,0.899658203125,-0.380126953125,-8.728026390075684,-10.742186546325684,7.324218273162842,60.0,2834269.0,1.0
1136167.6034721,286890.28125,281970.5,310087.8125,287520.6875,293310.4375,273027.5625,273095.9375,284933.71875,-0.133056640625,0.901123046875,-0.379150390625,-8.514403343200684,-10.772704124450684,7.385253429412842,60.0,2834270.0,1.0
1136167.6115957,286872.21875,282029.3125,310150.6875,287603.84375,293329.75,273009.40625,273091.65625,284917.34375,-0.134033203125,0.904052734375,-0.38037109375,-8.087157249450684,-10.894774436950684,7.385253429412842,60.0,2834271.0,1.0
1136167.6146673,286370.75,282291.46875,309870.46875,286990.5,293382.5,273330.09375,273288.4375,285342.375,-0.13427734375,0.90576171875,-0.378173828125,-7.904052257537842,-10.955809593200684,7.385253429412842,60.0,2834272.0,1.0
1136167.6147102,285996.40625,282333.03125,309508.71875,286350.8125,293297.625,273480.84375,273329.125,285490.25,-0.131591796875,0.90234375,-0.37939453125,-7.904052257537842,-11.108397483825684,7.507323741912842,60.0,2834273.0,1.0
1136167.6192824,286305.65625,282132.9375,309621.125,286657.125,293246.40625,273292.375,273211.1875,285238.125,-0.13134765625,0.899658203125,-0.376220703125,-7.751464366912842,-11.230467796325684,7.659911632537842,60.0,2834274.0,1.0
1136167.6227297,286876.875,281963.34375,310043.21875,287494.5,293300.3125,273021.28125,273091.3125,284935.65625,-0.1337890625,0.89892578125,-0.37646484375,-7.598876476287842,-11.322020530700684,7.781981945037842,60.0,2834275.0,1.0
1136167.6321695,286892.78125,282042.09375,310148.0,287650.5,293356.125,273028.625,273121.15625,284964.90625,-0.1318359375,0.900634765625,-0.3818359375,-7.141112804412842,-11.596678733825684,7.965087413787842,60.0,2834276.0,1.0
1136167.632213,286383.875,282295.46875,309868.59375,287023.0625,293409.3125,273345.125,273315.8125,285395.40625,-0.128173828125,0.907470703125,-0.3828125,-6.683349132537842,-11.810301780700684,8.056639671325684,60.0,2834277.0,1.0
1136167.6345545,286004.34375,282338.5625,309510.25,286371.46875,293323.125,273492.84375,273353.25,285547.21875,-0.125,0.9130859375,-0.38037109375,-6.408690929412842,-11.840819358825684,8.331297874450684,60.0,2834278.0,1.0
1136167.6345863,286328.1875,282143.03125,309631.5,286686.875,293270.0,273299.875,273228.8125,285287.65625,-0.125,0.9189453125,-0.374267578125,-6.286620616912842,-11.871336936950684,8.636473655700684,60.0,2834279.0,1.0
1136167.6429281,286899.3125,281968.25,310055.1875,287523.28125,293318.46875,273022.8125,273101.5,284975.1875,-0.12353515625,0.923583984375,-0.371826171875,-6.347655773162842,-11.810301780700684,9.124754905700684,60.0,2834280.0,1.0
1136167.6491187,286906.03125,282040.40625,310160.15625,287668.125,293371.65625,273028.0,273127.6875,285000.75,-0.12353515625,0.92724609375,-0.369873046875,-6.347655773162842,-11.901854515075684,9.613036155700684,60.0,2834281.0,1.0
1136167.6515809,286383.09375,282287.25,309874.75,287032.09375,293420.65625,273340.9375,273320.0,285422.5,-0.12255859375,0.926025390625,-0.372314453125,-6.439208507537842,-12.084959983825684,9.948729515075684,60.0,2834282.0,1.0
1136167.655915,286001.21875,282336.875,309516.5,286374.40625,293335.71875,273494.25,273361.59375,285573.5,-0.12255859375,0.926513671875,-0.37158203125,-6.408690929412842,-12.084959983825684,10.284422874450684,60.0,2834283.0,1.0
1136167.6559578,286313.34375,282146.8125,309633.90625,286677.3125,293284.5,273307.40625,273238.65625,285317.09375,-0.123779296875,0.92724609375,-0.37255859375,-6.317138195037842,-12.145995140075684,10.528563499450684,60.0,2834284.0,1.0
1136167.6614797,286892.96875,281978.53125,310066.46875,287524.0,293350.03125,273045.96875,273124.28125,285012.375,-0.123779296875,0.927734375,-0.371826171875,-6.317138195037842,-12.207030296325684,10.864256858825684,60.0,2834285.0,1.0
1136167.6677941,286915.3125,282056.5,310176.59375,287690.5625,293403.21875,273047.21875,273146.46875,285032.0625,-0.121337890625,0.926025390625,-0.37158203125,-6.225585460662842,-12.298583030700684,11.169432640075684,60.0,2834286.0,1.0
1136167.6772225,286382.375,282290.03125,309885.5,287055.96875,293442.75,273347.8125,273329.3125,285452.09375,-0.12255859375,0.9296875,-0.36865234375,-6.195067882537842,-12.451170921325684,11.322020530700684,60.0,2834287.0,1.0
1136167.6772692,285997.65625,282335.1875,309526.625,286404.375,293361.46875,273505.71875,273378.75,285616.6875,-0.120849609375,0.927001953125,-0.3681640625,-6.225585460662842,-12.451170921325684,11.718749046325684,60.0,2834288.0,1.0
1136167.6795115,286318.25,282146.09375,309645.78125,286711.5625,293307.28125,273318.65625,273257.875,285359.28125,-0.12109375,0.92724609375,-0.3681640625,-6.256103038787842,-12.542723655700684,11.962889671325684,60.0,2834289.0,1.0
1136167.6795473,286879.375,281962.1875,310056.71875,287521.15625,293342.78125,273034.4375,273117.40625,285022.21875,-0.119140625,0.9248046875,-0.36669921875,-6.256103038787842,-12.512206077575684,12.115477561950684,60.0,2834290.0,1.0
1136167.6915956,286896.46875,282036.90625,310158.375,287666.15625,293387.84375,273032.65625,273130.46875,285026.59375,-0.114990234375,0.924072265625,-0.36572265625,-6.256103038787842,-12.542723655700684,12.207030296325684,60.0,2834291.0,1.0
1136167.6941634,286382.8125,282287.4375,309883.71875,287051.75,293443.90625,273346.1875,273324.65625,285460.21875,-0.1171875,0.920654296875,-0.36328125,-6.256103038787842,-12.512206077575684,12.451170921325684,60.0,2834292.0,1.0
1136167.6965936,285996.84375,282332.75,309528.84375,286405.96875,293369.0625,273504.28125,273375.78125,285635.28125,-0.1171875,0.91650390625,-0.362060546875,-6.103515148162842,-12.481688499450684,12.573241233825684,60.0,2834293.0,1.0
1136167.6991685,286314.5,282142.59375,309639.53125,286704.0625,293310.59375,273313.21875,273247.84375,285373.21875,-0.1171875,0.912353515625,-0.360107421875,-6.042479991912842,-12.420653343200684,12.695311546325684,60.0,2834294.0,1.0
1136167.7029311,286887.6875,281967.53125,310053.9375,287528.03125,293351.5625,273031.5,273111.15625,285037.59375,-0.11767578125,0.90576171875,-0.3623046875,-5.737304210662842,-12.451170921325684,12.664793968200684,60.0,2834295.0,1.0
1136167.7146674,286918.0,282048.71875,310174.8125,287705.3125,293415.65625,273039.71875,273143.34375,285061.28125,-0.113037109375,0.905517578125,-0.36181640625,-5.523681163787842,-12.329100608825684,12.542723655700684,60.0,2834296.0,1.0
1136167.7147111,286395.96875,282295.46875,309901.9375,287091.90625,293473.3125,273355.6875,273345.21875,285504.03125,-0.109375,0.90478515625,-0.359619140625,-5.279540538787842,-12.329100608825684,12.481688499450684,60.0,2834297.0,1.0
1136167.722175,286021.34375,282360.125,309566.5,286455.84375,293413.78125,273532.71875,273411.8125,285693.3125,-0.106689453125,0.907958984375,-0.355712890625,-5.004882335662842,-12.237547874450684,12.420653343200684,60.0,2834298.0,1.0
1136167.7222176,286346.34375,282179.25,309691.84375,286759.40625,293367.90625,273359.0,273294.34375,285441.4375,-0.108154296875,0.908447265625,-0.35107421875,-4.791259288787842,-12.176512718200684,12.420653343200684,60.0,2834299.0,1.0
1136167.724167,286904.3125,281983.71875,310086.46875,287554.65625,293385.96875,273057.78125,273136.28125,285083.8125,-0.110595703125,0.90771484375,-0.349853515625,-4.791259288787842,-11.993407249450684,12.390135765075684,60.0,2834300.0,1.0
1136167.7292849,286912.625,282038.625,310180.8125,287702.5625,293423.25,273039.4375,273141.71875,285082.03125,-0.111572265625,0.9072265625,-0.350341796875,-4.821776866912842,-11.901854515075684,12.268065452575684,60.0,2834301.0,1.0
1136167.7315708,286398.375,282287.0,309916.15625,287103.0,293485.9375,273356.40625,273347.71875,285533.8125,-0.112548828125,0.908447265625,-0.350830078125,-4.760741710662842,-11.840819358825684,12.054442405700684,60.0,2834302.0,1.0
1136167.7341632,286032.15625,282362.90625,309587.21875,286481.78125,293433.71875,273539.15625,273424.96875,285734.78125,-0.109375,0.907470703125,-0.350341796875,-4.669188976287842,-11.810301780700684,11.871336936950684,60.0,2834303.0,1.0
1136167.7365771,286348.375,282175.40625,309697.90625,286769.125,293377.46875,273355.59375,273300.96875,285474.15625,-0.108154296875,0.9072265625,-0.346435546875,-4.608153820037842,-11.749266624450684,11.779784202575684,60.0,2834304.0,1.0
1136167.7510242,286902.90625,281978.0,310088.53125,287553.34375,293387.75,273050.09375,273132.34375,285098.125,-0.105712890625,0.908203125,-0.343994140625,-4.547118663787842,-11.657713890075684,11.566161155700684,60.0,2834305.0,1.0
1136167.7510683,286929.28125,282053.90625,310205.40625,287710.875,293439.34375,273048.75,273151.5625,285099.03125,-0.1015625,0.90673828125,-0.34521484375,-4.669188976287842,-11.566161155700684,11.444090843200684,60.0,2834306.0,1.0
1136167.7527979,286427.15625,282315.34375,309956.21875,287128.46875,293517.21875,273377.9375,273367.9375,285565.0,-0.096923828125,0.907470703125,-0.345947265625,-4.638671398162842,-11.383055686950684,11.322020530700684,60.0,2834307.0,1.0
1136167.7553401,286026.53125,282360.5625,309600.65625,286479.0,293445.25,273543.25,273424.625,285747.9375,-0.094970703125,0.908203125,-0.34619140625,-4.760741710662842,-11.260985374450684,11.199950218200684,60.0,2834308.0,1.0
1136167.7578438,286329.34375,282163.78125,309696.75,286753.03125,293379.625,273354.4375,273291.75,285475.96875,-0.092041015625,0.908935546875,-0.343994140625,-4.882812023162842,-11.047362327575684,11.169432640075684,60.0,2834309.0,1.0
1136167.7642793,286896.8125,281972.71875,310099.90625,287555.21875,293400.09375,273056.0625,273136.8125,285112.15625,-0.088623046875,0.905029296875,-0.34228515625,-5.035399913787842,-10.711668968200684,11.138915061950684,60.0,2834310.0,1.0
1136167.7684322,286913.8125,282032.34375,310203.4375,287709.4375,293433.1875,273035.96875,273140.84375,285099.90625,-0.0859375,0.90185546875,-0.338134765625,-5.065917491912842,-10.192870140075684,11.291502952575684,60.0,2834311.0,1.0
1136167.7684756,286391.21875,282276.96875,309937.25,287112.28125,293493.53125,273347.71875,273344.59375,285556.4375,-0.084228515625,0.89990234375,-0.3388671875,-5.279540538787842,-10.009764671325684,11.230467796325684,60.0,2834312.0,1.0
1136167.7816046,285999.625,282335.09375,309585.34375,286470.625,293428.875,273517.3125,273409.9375,285756.6875,-0.08154296875,0.896728515625,-0.33740234375,-5.249022960662842,-9.643553733825684,11.352538108825684,60.0,2834313.0,1.0
1136167.7846698,286308.5,282147.6875,309679.5,286740.1875,293363.96875,273332.4375,273280.40625,285481.6875,-0.08154296875,0.892333984375,-0.335693359375,-5.218505382537842,-9.307860374450684,11.260985374450684,60.0,2834314.0,1.0
1136167.7847121,286895.28125,281971.46875,310091.3125,287553.78125,293400.09375,273050.8125,273139.125,285123.25,-0.08251953125,0.8896484375,-0.336181640625,-5.126952648162842,-8.972167015075684,11.413573265075684,60.0,2834315.0,1.0
1136167.7866794,286951.0,282061.15625,310228.28125,287752.4375,293469.65625,273063.75,273175.6875,285138.625,-0.081298828125,0.88916015625,-0.333984375,-5.157470226287842,-8.636473655700684,11.627196311950684,60.0,2834316.0,1.0
1136167.7929594,286419.375,282297.53125,309949.25,287144.28125,293521.0625,273368.65625,273371.59375,285572.6875,-0.0751953125,0.885986328125,-0.3310546875,-5.004882335662842,-8.300780296325684,11.627196311950684,60.0,2834317.0,1.0
1136167.8184392,286007.46875,282343.84375,309582.03125,286479.625,293439.875,273529.65625,273425.6875,285754.375,-0.07421875,0.887451171875,-0.331787109375,-5.035399913787842,-7.904052257537842,11.749266624450684,60.0,2834318.0,1.0
1136167.8184824,286313.0,282159.0625,309677.53125,286746.78125,293372.84375,273345.21875,273294.15625,285482.21875,-0.07177734375,0.885986328125,-0.3310546875,-4.852294445037842,-7.598876476287842,11.871336936950684,60.0,2834319.0,1.0
1136167.8253166,286894.40625,281974.25,310076.28125,287551.09375,293392.59375,273050.1875,273135.90625,285106.25,-0.0703125,0.883544921875,-0.329345703125,-4.699706554412842,-7.202147960662842,11.993407249450684,60.0,2834320.0,1.0
1136167.8329347,286926.125,282036.90625,310180.71875,287719.625,293427.71875,273033.1875,273141.1875,285084.96875,-0.068115234375,0.884521484375,-0.32861328125,-4.547118663787842,-6.774901866912842,12.176512718200684,60.0,2834321.0,1.0
1136167.8378721,286408.28125,282287.34375,309918.03125,287129.1875,293492.8125,273348.625,273350.125,285531.75,-0.06640625,0.886962890625,-0.324462890625,-4.669188976287842,-6.347655773162842,12.390135765075684,60.0,2834322.0,1.0
1136167.8403641,286006.59375,282343.84375,309562.1875,286476.59375,293425.59375,273518.03125,273415.03125,285728.09375,-0.06591796875,0.8896484375,-0.32373046875,-4.577636241912842,-6.011962413787842,12.664793968200684,60.0,2834323.0,1.0
1136167.8428457,286313.625,282158.0625,309656.0,286743.3125,293357.53125,273331.90625,273282.625,285457.4375,-0.064453125,0.891357421875,-0.3232421875,-4.608153820037842,-5.523681163787842,12.817381858825684,60.0,2834324.0,1.0
1136167.8454094,286911.5625,281984.0,310073.4375,287569.6875,293392.15625,273049.90625,273138.25,285105.90625,-0.065673828125,0.894775390625,-0.32177734375,-4.730224132537842,-5.126952648162842,12.847899436950684,60.0,2834325.0,1.0
1136167.8478343,286948.9375,282050.96875,310191.4375,287751.1875,293437.1875,273036.21875,273148.0625,285097.0625,-0.06591796875,0.899658203125,-0.31689453125,-4.791259288787842,-4.821776866912842,12.878417015075684,60.0,2834326.0,1.0
1136167.8503289,286416.4375,282287.71875,309915.8125,287141.6875,293488.6875,273340.75,273343.34375,285526.5625,-0.066650390625,0.904296875,-0.3134765625,-5.065917491912842,-4.425048351287842,12.878417015075684,60.0,2834327.0,1.0
1136167.8528502,286004.96875,282344.3125,309556.84375,286475.71875,293417.34375,273514.09375,273406.71875,285717.34375,-0.06689453125,0.907958984375,-0.310791015625,-5.432128429412842,-4.119872570037842,12.847899436950684,60.0,2834328.0,1.0
1136167.8554149,286310.40625,282163.15625,309652.40625,286736.0625,293352.25,273332.875,273277.625,285448.25,-0.0693359375,0.910888671875,-0.306396484375,-5.767821788787842,-3.845214605331421,12.847899436950684,60.0,2834329.0,1.0
1136167.8578332,286907.0,281988.625,310070.3125,287557.1875,293384.8125,273047.21875,273131.1875,285089.09375,-0.067626953125,0.91064453125,-0.304443359375,-6.286620616912842,-3.570556402206421,12.847899436950684,60.0,2834330.0,1.0
1136167.8652954,286965.46875,282071.0625,310211.21875,287762.71875,293449.4375,273051.0625,273159.4375,285093.375,-0.0712890625,0.908203125,-0.303955078125,-6.652831554412842,-3.295898199081421,12.725829124450684,60.0,2834331.0,1.0
1136167.8653376,286421.09375,282297.4375,309925.1875,287144.65625,293488.875,273343.59375,273344.6875,285514.40625,-0.072998046875,0.907958984375,-0.30322265625,-7.171630382537842,-3.143310308456421,12.603758811950684,60.0,2834332.0,1.0
1136167.8653499,286003.0,282345.0,309552.71875,286466.6875,293407.34375,273502.5,273396.09375,285693.84375,-0.07373046875,0.906005859375,-0.297607421875,-7.568358898162842,-2.868652105331421,12.298583030700684,60.0,2834333.0,1.0
1136167.8678476,286327.65625,282181.125,309663.3125,286743.46875,293358.875,273336.8125,273283.875,285441.90625,-0.07373046875,0.90576171875,-0.296142578125,-8.026122093200684,-2.746581792831421,12.115477561950684,60.0,2834334.0,1.0
1136167.8704584,286928.90625,282002.5,310081.125,287571.5625,293392.40625,273051.53125,273136.1875,285082.46875,-0.075439453125,0.901611328125,-0.294677734375,-8.392333030700684,-2.593993902206421,11.749266624450684,60.0,2834335.0,1.0
1136167.8728603,286967.09375,282057.75,310194.21875,287752.875,293433.34375,273027.28125,273139.125,285061.09375,-0.074462890625,0.899169921875,-0.29443359375,-8.941649436950684,-2.532958745956421,11.566161155700684,60.0,2834336.0,1.0
1136167.875353,286436.375,282295.9375,309916.6875,287142.15625,293483.6875,273332.34375,273336.1875,285492.40625,-0.07470703125,0.899169921875,-0.292236328125,-9.216307640075684,-2.441406011581421,11.138915061950684,60.0,2834337.0,1.0
1136167.8778587,286010.0,282343.5,309537.53125,286454.25,293398.9375,273493.90625,273388.21875,285670.875,-0.0732421875,0.8984375,-0.292724609375,-9.552000999450684,-2.380370855331421,10.833739280700684,60.0,2834338.0,1.0
1136167.8854502,286318.34375,282170.75,309637.125,286717.71875,293340.65625,273320.375,273267.25,285414.1875,-0.075927734375,0.9013671875,-0.2919921875,-9.887694358825684,-2.288818120956421,10.528563499450684,60.0,2834339.0,1.0
1136167.8884353,286923.8125,281993.5625,310067.875,287556.90625,293381.5,273035.0625,273119.65625,285066.28125,-0.074951171875,0.907958984375,-0.291748046875,-10.253905296325684,-2.197265386581421,10.162352561950684,60.0,2834340.0,1.0
1136167.8884783,286980.84375,282057.65625,310206.28125,287765.125,293440.15625,273024.4375,273133.78125,285060.46875,-0.07421875,0.9091796875,-0.291015625,-10.681151390075684,-2.105712652206421,9.735106468200684,60.0,2834341.0,1.0
1136167.8902756,286445.21875,282295.9375,309933.25,287155.03125,293494.25,273330.71875,273328.40625,285487.9375,-0.07275390625,0.9130859375,-0.288330078125,-11.138915061950684,-2.044677495956421,9.399413108825684,60.0,2834342.0,1.0
1136167.8964613,286012.03125,282347.96875,309558.96875,286463.90625,293410.8125,273496.75,273382.78125,285669.6875,-0.069091796875,0.9169921875,-0.284912109375,-11.596678733825684,-1.9531248807907104,9.216307640075684,60.0,2834343.0,1.0
1136167.9035015,286315.65625,282171.375,309655.625,286726.21875,293350.75,273322.6875,273258.40625,285413.1875,-0.066650390625,0.919189453125,-0.287353515625,-12.145995140075684,-1.8615721464157104,9.033202171325684,60.0,2834344.0,1.0
1136167.903545,286934.1875,282003.9375,310095.0625,287581.125,293403.59375,273050.1875,273123.125,285073.8125,-0.064453125,0.9228515625,-0.287841796875,-12.725829124450684,-1.7700194120407104,8.758543968200684,60.0,2834345.0,1.0
1136167.9053436,286990.5,282065.78125,310228.0,287783.90625,293457.5,273037.03125,273137.78125,285061.90625,-0.065673828125,0.926513671875,-0.288330078125,-13.305663108825684,-1.7395018339157104,8.422850608825684,60.0,2834346.0,1.0
1136167.9091711,286452.625,282302.1875,309952.625,287166.65625,293508.28125,273340.75,273335.65625,285489.90625,-0.0654296875,0.929443359375,-0.290283203125,-13.854979515075684,-1.5258787870407104,8.270262718200684,60.0,2834347.0,1.0
1136167.9239801,286011.25,282346.4375,309566.03125,286463.0,293415.9375,273494.09375,273384.5625,285668.1875,-0.066650390625,0.930419921875,-0.29443359375,-14.434813499450684,-1.4343260526657104,7.934569835662842,60.0,2834348.0,1.0
1136167.9240209,286332.65625,282181.65625,309673.6875,286739.1875,293367.03125,273332.875,273272.96875,285427.59375,-0.06640625,0.933349609375,-0.291748046875,-14.831542015075684,-1.2207030057907104,7.659911632537842,60.0,2834349.0,1.0
1136167.9240323,286973.0625,282029.6875,310131.71875,287614.9375,293431.5625,273074.21875,273152.71875,285100.90625,-0.06982421875,0.935546875,-0.29345703125,-15.167235374450684,-1.1291502714157104,7.263183116912842,60.0,2834350.0,1.0
1136167.9266501,287018.125,282079.75,310258.40625,287807.78125,293473.5,273045.4375,273151.375,285073.1875,-0.070068359375,0.938720703125,-0.296630859375,-15.716551780700684,-1.0681151151657104,6.896972179412842,60.0,2834351.0,1.0
1136167.9291613,286456.84375,282295.03125,309961.9375,287165.21875,293504.34375,273328.6875,273329.46875,285474.15625,-0.071533203125,0.942138671875,-0.29931640625,-16.174314498901367,-1.0070799589157104,6.591796398162842,60.0,2834352.0,1.0
1136167.9328647,286019.375,282349.03125,309586.34375,286469.90625,293423.6875,273496.21875,273389.03125,285666.46875,-0.07275390625,0.94677734375,-0.29736328125,-16.601560592651367,-1.0070799589157104,6.256103038787842,60.0,2834353.0,1.0
1136167.9472151,286319.875,282173.1875,309685.75,286731.15625,293363.4375,273323.5,273267.34375,285415.4375,-0.075927734375,0.94873046875,-0.296630859375,-17.120359420776367,-1.0375975370407104,5.859374523162842,60.0,2834354.0,1.0
1136167.9472589,286947.40625,282005.09375,310136.46875,287599.71875,293420.5625,273050.09375,273130.5625,285079.34375,-0.07861328125,0.9521484375,-0.29736328125,-17.547605514526367,-0.9460448622703552,5.676269054412842,60.0,2834355.0,1.0
1136167.949278,287011.25,282067.0625,310277.8125,287817.09375,293479.9375,273036.5,273144.0625,285070.21875,-0.0791015625,0.951171875,-0.301025390625,-18.005369186401367,-1.0986326932907104,5.493163585662842,60.0,2834356.0,1.0
1136167.9515132,286477.0625,282309.0625,310008.25,287207.40625,293538.0625,273347.53125,273347.90625,285508.84375,-0.082763671875,0.950927734375,-0.301513671875,-18.402097702026367,-1.1291502714157104,5.279540538787842,60.0,2834357.0,1.0
1136167.9541666,286019.46875,282352.96875,309610.84375,286489.125,293440.34375,273506.15625,273397.96875,285691.4375,-0.085205078125,0.95068359375,-0.30078125,-18.676755905151367,-1.3122557401657104,4.974364757537842,60.0,2834358.0,1.0
1136167.962846,286326.3125,282182.75,309710.4375,286751.4375,293388.125,273340.21875,273283.875,285449.125,-0.085693359375,0.94921875,-0.30126953125,-18.859861373901367,-1.4343260526657104,4.699706554412842,60.0,2834359.0,1.0
1136167.9773399,286952.34375,282003.84375,310158.0,287618.78125,293437.90625,273058.125,273143.78125,285107.5,-0.085693359375,0.94775390625,-0.30419921875,-18.951414108276367,-1.5869139432907104,4.302978038787842,60.0,2834360.0,1.0
1136167.9773854,287012.15625,282052.75,310296.78125,287829.59375,293484.59375,273030.40625,273147.1875,285085.96875,-0.08349609375,0.946533203125,-0.304931640625,-18.981931686401367,-1.8005369901657104,3.997802495956421,60.0,2834361.0,1.0
1136167.9816223,286459.15625,282280.09375,310013.96875,287203.9375,293526.78125,273324.84375,273339.75,285510.375,-0.08203125,0.947265625,-0.30615234375,-18.890378952026367,-1.9226073026657104,3.723144292831421,60.0,2834362.0,1.0
1136167.9865943,286023.3125,282349.40625,309639.0,286505.65625,293457.21875,273511.4375,273414.25,285721.125,-0.08056640625,0.94873046875,-0.30908203125,-18.707273483276367,-2.044677495956421,3.509521245956421,60.0,2834363.0,1.0
1136167.9958261,286338.90625,282188.1875,309745.21875,286772.8125,293408.0625,273354.0625,273299.8125,285485.53125,-0.0791015625,0.948486328125,-0.30712890625,-18.646238327026367,-2.105712652206421,3.295898199081421,60.0,2834364.0,1.0
1136167.9958754,286959.65625,282004.1875,310188.59375,287638.25,293454.90625,273065.28125,273147.8125,285131.375,-0.0751953125,0.94970703125,-0.3056640625,-18.493650436401367,-2.166747808456421,3.143310308456421,60.0,2834365.0,1.0
1136168.004527,287019.65625,282057.40625,310327.96875,287856.6875,293510.0625,273041.59375,273152.1875,285108.40625,-0.07421875,0.950439453125,-0.30810546875,-18.402097702026367,-2.166747808456421,2.960204839706421,60.0,2834366.0,1.0
1136168.0096865,286475.4375,282299.3125,310049.46875,287237.375,293564.78125,273351.84375,273354.78125,285544.96875,-0.072021484375,0.949462890625,-0.3115234375,-18.157957077026367,-2.075195074081421,2.868652105331421,60.0,2834367.0,1.0
1136168.0097295,286031.875,282367.625,309671.1875,286534.90625,293493.09375,273537.34375,273431.9375,285757.59375,-0.070556640625,0.946533203125,-0.31005859375,-17.913816452026367,-2.105712652206421,2.838134527206421,60.0,2834368.0,1.0
1136168.0116133,286322.8125,282179.96875,309756.125,286778.875,293423.96875,273353.625,273299.96875,285499.90625,-0.067626953125,0.9404296875,-0.31201171875,-17.517087936401367,-2.136230230331421,2.716064214706421,60.0,2834369.0,1.0
1136168.0141756,286971.28125,282012.78125,310220.78125,287667.0625,293484.15625,273076.90625,273163.53125,285165.28125,-0.06787109375,0.93017578125,-0.31396484375,-16.937253952026367,-2.044677495956421,2.685546636581421,60.0,2834370.0,1.0
1136168.0166764,287052.65625,282081.1875,310381.78125,287904.78125,293552.28125,273067.34375,273182.21875,285160.625,-0.07177734375,0.928466796875,-0.31689453125,-16.052244186401367,-2.105712652206421,2.532958745956421,60.0,2834371.0,1.0
1136168.0191627,286490.5625,282304.875,310092.375,287268.21875,293592.9375,273362.65625,273369.90625,285582.71875,-0.07275390625,0.93310546875,-0.31591796875,-15.136717796325684,-2.166747808456421,2.349853277206421,60.0,2834372.0,1.0
1136168.0215819,286019.46875,282351.90625,309688.1875,286531.5,293497.90625,273526.34375,273419.96875,285772.15625,-0.075439453125,0.94287109375,-0.314208984375,-14.312743186950684,-2.258300542831421,2.166747808456421,60.0,2834373.0,1.0
1136168.0241718,286317.28125,282175.84375,309771.3125,286774.15625,293431.75,273353.34375,273291.40625,285519.0625,-0.07763671875,0.946044921875,-0.3076171875,-13.610838890075684,-2.349853277206421,1.9531248807907104,60.0,2834374.0,1.0
1136168.0266615,286966.5625,282004.1875,310225.0625,287659.53125,293486.5625,273073.40625,273149.59375,285176.25,-0.08251953125,0.94384765625,-0.3037109375,-13.031004905700684,-2.532958745956421,1.9531248807907104,60.0,2834375.0,1.0
1136168.0291139,287039.875,282057.5625,310377.9375,287891.1875,293545.125,273051.25,273158.53125,285152.9375,-0.083740234375,0.940673828125,-0.304931640625,-12.664793968200684,-2.655029058456421,1.7395018339157104,60.0,2834376.0,1.0
1136168.0334398,286482.5,282287.53125,310090.15625,287250.40625,293583.21875,273347.8125,273349.6875,285568.03125,-0.083984375,0.935791015625,-0.306884765625,-12.207030296325684,-2.868652105331421,1.5563963651657104,60.0,2834377.0,1.0
1136168.033493,286024.90625,282350.03125,309697.1875,286520.21875,293494.15625,273524.03125,273414.96875,285768.0625,-0.0859375,0.930908203125,-0.309814453125,-11.413573265075684,-3.051757574081421,1.2512205839157104,60.0,2834378.0,1.0
1136168.0472221,286341.15625,282195.625,309807.34375,286786.3125,293447.46875,273368.09375,273303.5625,285534.78125,-0.088623046875,0.929443359375,-0.312255859375,-10.620116233825684,-3.295898199081421,0.9155272841453552,60.0,2834379.0,1.0
1136168.0472648,287012.78125,282044.59375,310297.46875,287706.21875,293526.15625,273109.375,273183.3125,285213.09375,-0.088134765625,0.929931640625,-0.30810546875,-9.674071311950684,-3.631591558456421,0.5798339247703552,60.0,2834380.0,1.0
1136168.0492415,287073.21875,282079.65625,310433.375,287922.3125,293563.71875,273067.15625,273167.84375,285162.75,-0.087890625,0.93115234375,-0.304443359375,-8.911131858825684,-3.875732183456421,0.2441406100988388,60.0,2834381.0,1.0
1136168.0515893,286493.5,282290.5625,310117.59375,287257.5625,293584.71875,273344.15625,273338.78125,285555.875,-0.089111328125,0.9345703125,-0.302734375,-8.148192405700684,-4.150390148162842,-0.1220703050494194,60.0,2834382.0,1.0
1136168.0541227,286029.3125,282354.75,309715.34375,286519.15625,293497.90625,273521.0,273405.125,285758.65625,-0.085205078125,0.939453125,-0.29931640625,-7.537841320037842,-4.364013195037842,-0.3051757514476776,60.0,2834383.0,1.0
1136168.0634446,286337.84375,282191.5,309815.40625,286778.09375,293445.4375,273358.0,273291.21875,285522.8125,-0.084228515625,0.941162109375,-0.297607421875,-6.896972179412842,-4.516601085662842,-0.5187987685203552,60.0,2834384.0,1.0
1136168.0634868,287019.03125,282044.6875,310311.875,287711.125,293533.84375,273106.40625,273180.53125,285206.3125,-0.07958984375,0.939453125,-0.302001953125,-6.408690929412842,-4.730224132537842,-0.7324218153953552,60.0,2834385.0,1.0
1136168.0660475,287098.875,282097.28125,310464.9375,287948.25,293589.90625,273080.40625,273185.4375,285179.75,-0.077392578125,0.93798828125,-0.302001953125,-5.859374523162842,-4.821776866912842,-0.8239745497703552,60.0,2834386.0,1.0
1136168.0660915,286492.25,282284.9375,310133.0625,287254.96875,293580.78125,273333.9375,273333.0625,285548.28125,-0.072021484375,0.9384765625,-0.3037109375,-5.157470226287842,-4.730224132537842,-1.0986326932907104,60.0,2834387.0,1.0
1136168.0715702,286016.0625,282340.53125,309732.6875,286509.875,293482.8125,273504.8125,273392.5,285741.40625,-0.0732421875,0.938232421875,-0.306640625,-4.577636241912842,-4.730224132537842,-1.0681151151657104,60.0,2834388.0,1.0
1136168.0803647,286321.03125,282178.375,309837.5625,286771.90625,293432.65625,273350.03125,273282.90625,285515.21875,-0.069091796875,0.93798828125,-0.30859375,-3.814697027206421,-4.699706554412842,-1.0375975370407104,60.0,2834389.0,1.0
1136168.0872187,286992.65625,282016.71875,310322.6875,287695.3125,293508.8125,273083.0,273157.1875,285195.21875,-0.0693359375,0.939453125,-0.312255859375,-3.112792730331421,-4.547118663787842,-1.1596678495407104,60.0,2834390.0,1.0
1136168.0872616,287079.90625,282069.5625,310477.8125,287938.3125,293567.46875,273057.875,273163.0,285167.0625,-0.068603515625,0.939453125,-0.31103515625,-2.563476324081421,-4.394530773162842,-1.1901854276657104,60.0,2834391.0,1.0
1136168.0892366,286504.125,282286.71875,310160.40625,287270.8125,293586.875,273341.5625,273338.78125,285559.28125,-0.069580078125,0.938232421875,-0.30908203125,-1.8920897245407104,-4.211425304412842,-1.2207030057907104,60.0,2834392.0,1.0
1136168.0996873,286030.09375,282350.5625,309744.21875,286513.875,293491.21875,273521.34375,273405.03125,285753.9375,-0.071044921875,0.938232421875,-0.31201171875,-1.2512205839157104,-4.089354991912842,-1.1596678495407104,60.0,2834393.0,1.0
1136168.0997306,286339.375,282199.1875,309846.78125,286774.0625,293442.46875,273373.375,273300.25,285521.03125,-0.0732421875,0.933837890625,-0.31298828125,-0.5798339247703552,-3.997802495956421,-1.1901854276657104,60.0,2834394.0,1.0
1136168.101577,286991.21875,282018.40625,310316.0625,287685.5625,293500.875,273086.375,273154.96875,285175.28125,-0.07763671875,0.92919921875,-0.3115234375,0.03051757626235485,-4.150390148162842,-1.3122557401657104,60.0,2834395.0,1.0
1136168.110945,287077.25,282066.78125,310466.71875,287921.40625,293551.46875,273050.875,273149.9375,285129.9375,-0.081787109375,0.924560546875,-0.3173828125,0.6713866591453552,-4.028319835662842,-1.5258787870407104,60.0,2834396.0,1.0
1136168.1109868,286498.3125,282286.375,310147.46875,287236.125,293561.03125,273332.875,273321.4375,285500.09375,-0.08447265625,0.92431640625,-0.31494140625,1.4648436307907104,-4.028319835662842,-1.5563963651657104,60.0,2834397.0,1.0
1136168.112917,286004.8125,282343.0625,309714.5625,286447.71875,293442.46875,273501.84375,273374.28125,285664.96875,-0.0888671875,0.92333984375,-0.31689453125,2.197265386581421,-4.119872570037842,-1.7089842557907104,60.0,2834398.0,1.0
1136168.1166156,286300.46875,282179.15625,309801.09375,286691.8125,293376.5,273338.78125,273258.84375,285422.9375,-0.09130859375,0.92578125,-0.315673828125,2.899169683456421,-4.302978038787842,-1.8310545682907104,60.0,2834399.0,1.0
1136168.125346,286982.03125,282018.5,310304.46875,287642.46875,293460.90625,273072.875,273138.25,285115.75,-0.09326171875,0.92626953125,-0.311279296875,3.540038824081421,-4.455565929412842,-1.8920897245407104,60.0,2834400.0,1.0
1136168.1284442,287055.96875,282049.34375,310453.5,287880.125,293504.53125,273028.625,273128.21875,285070.0625,-0.0966796875,0.927978515625,-0.309814453125,4.058837413787842,-4.730224132537842,-2.044677495956421,60.0,2834401.0,1.0
1136168.1284868,286455.59375,282247.375,310100.875,287158.40625,293488.96875,273290.9375,273282.09375,285410.4375,-0.095458984375,0.931640625,-0.312744140625,4.425048351287842,-4.821776866912842,-2.166747808456421,60.0,2834402.0,1.0
1136168.1366992,285958.9375,282305.9375,309648.65625,286349.1875,293360.5,273455.8125,273331.375,285561.96875,-0.0966796875,0.93359375,-0.30615234375,4.669188976287842,-5.035399913787842,-2.166747808456421,60.0,2834403.0,1.0
1136168.1409313,286265.875,282155.5625,309747.90625,286612.21875,293307.46875,273302.65625,273229.625,285341.21875,-0.09521484375,0.935791015625,-0.306884765625,4.943847179412842,-5.340575695037842,-2.105712652206421,60.0,2834404.0,1.0
1136168.1409748,286964.75,282006.96875,310278.625,287606.71875,293422.28125,273053.125,273129.125,285078.53125,-0.093505859375,0.93603515625,-0.305908203125,5.065917491912842,-5.340575695037842,-2.105712652206421,60.0,2834405.0,1.0
1136168.1491285,287056.84375,282051.125,310440.625,287866.6875,293486.09375,273022.28125,273131.09375,285055.84375,-0.089599609375,0.94189453125,-0.302734375,5.004882335662842,-5.493163585662842,-2.105712652206421,60.0,2834406.0,1.0
1136168.15333,286439.40625,282231.75,310060.90625,287116.84375,293447.5625,273264.03125,273263.15625,285365.4375,-0.085693359375,0.9462890625,-0.300048828125,4.943847179412842,-5.554198741912842,-2.136230230331421,60.0,2834407.0,1.0
1136168.1533704,285922.09375,282279.21875,309584.375,286280.1875,293299.0625,273416.28125,273299.8125,285494.28125,-0.08154296875,0.9521484375,-0.298828125,4.821776866912842,-5.676269054412842,-1.9531248807907104,60.0,2834408.0,1.0
1136168.162065,286248.78125,282151.8125,309703.90625,286572.71875,293271.625,273290.78125,273221.375,285301.96875,-0.078369140625,0.9580078125,-0.299072265625,4.364013195037842,-5.615233898162842,-1.7395018339157104,60.0,2834409.0,1.0
1136168.162104,286968.78125,282015.71875,310262.78125,287607.59375,293412.625,273059.84375,273140.375,285070.5,-0.07666015625,0.96142578125,-0.292236328125,3.875732183456421,-5.493163585662842,-1.4648436307907104,60.0,2834410.0,1.0
1136168.1640033,287063.5625,282051.59375,310431.9375,287876.53125,293481.625,273026.9375,273141.46875,285049.03125,-0.07421875,0.964599609375,-0.286865234375,3.326415777206421,-5.401610851287842,-1.2207030057907104,60.0,2834411.0,1.0
1136168.1676872,286443.96875,282233.6875,310042.9375,287104.25,293436.03125,273269.21875,273267.15625,285344.71875,-0.06884765625,0.97119140625,-0.2861328125,2.563476324081421,-5.218505382537842,-0.8239745497703552,60.0,2834412.0,1.0
1136168.1821272,285913.5,282273.65625,309548.0625,286238.59375,293268.84375,273409.5,273286.125,285450.65625,-0.063232421875,0.977294921875,-0.281982421875,1.8310545682907104,-5.004882335662842,-0.3967284858226776,60.0,2834413.0,1.0
1136168.1821767,286212.84375,282123.8125,309654.75,286514.5,293221.71875,273260.28125,273185.625,285240.1875,-0.05908203125,0.98388671875,-0.28173828125,0.8850097060203552,-4.699706554412842,-0.0610351525247097,60.0,2834414.0,1.0
1136168.1847954,286954.5625,282007.40625,310249.90625,287589.625,293391.15625,273049.90625,273121.625,285047.6875,-0.0556640625,0.989013671875,-0.2783203125,-0.1525878757238388,-4.272460460662842,0.4577636420726776,60.0,2834415.0,1.0
1136168.1848388,287070.0,282057.84375,310445.1875,287881.1875,293481.28125,273031.3125,273134.84375,285048.3125,-0.05126953125,0.9912109375,-0.276611328125,-1.2512205839157104,-3.784179449081421,1.0681151151657104,60.0,2834416.0,1.0
1136168.1865895,286438.0625,282230.21875,310045.53125,287092.15625,293424.40625,273261.09375,273245.34375,285321.1875,-0.04833984375,0.991455078125,-0.27490234375,-2.471923589706421,-3.326415777206421,1.6174315214157104,60.0,2834417.0,1.0
1136168.200345,285909.21875,282281.71875,309552.8125,286223.125,293265.90625,273413.875,273275.9375,285426.4375,-0.0458984375,0.98681640625,-0.271728515625,-3.601073980331421,-2.685546636581421,2.227782964706421,60.0,2834418.0,1.0
1136168.2033791,286240.3125,282161.5625,309686.75,286533.03125,293253.46875,273298.0,273210.84375,285263.78125,-0.045166015625,0.978759765625,-0.2724609375,-4.791259288787842,-2.136230230331421,2.593993902206421,60.0,2834419.0,1.0
1136168.2034213,286973.0625,282027.53125,310274.9375,287612.53125,293415.9375,273073.34375,273141.0,285075.3125,-0.0419921875,0.9677734375,-0.27392578125,-5.615233898162842,-1.5563963651657104,2.838134527206421,60.0,2834420.0,1.0
1136168.2054753,287084.125,282069.46875,310470.46875,287907.8125,293502.8125,273047.9375,273150.75,285073.34375,-0.039794921875,0.956787109375,-0.2734375,-6.195067882537842,-0.9460448622703552,3.204345464706421,60.0,2834421.0,1.0
1136168.2089381,286442.4375,282233.625,310056.625,287095.75,293432.09375,273268.3125,273252.875,285326.75,-0.038330078125,0.94775390625,-0.274169921875,-6.469726085662842,-0.2746581733226776,3.387450933456421,60.0,2834422.0,1.0
1136168.2159613,285895.46875,282265.96875,309538.15625,286196.125,293244.0,273397.53125,273260.375,285407.125,-0.0390625,0.941162109375,-0.273681640625,-6.835937023162842,0.3051757514476776,3.509521245956421,60.0,2834423.0,1.0
1136168.2160044,286227.78125,282147.78125,309675.75,286512.53125,293229.34375,273278.875,273194.75,285251.28125,-0.0419921875,0.9345703125,-0.27392578125,-6.835937023162842,0.8239745497703552,3.479003667831421,60.0,2834424.0,1.0
1136168.2178609,286978.875,282025.46875,310288.1875,287623.6875,293414.40625,273066.1875,273142.0,285092.3125,-0.045166015625,0.9267578125,-0.27783203125,-6.958007335662842,1.3122557401657104,3.387450933456421,60.0,2834425.0,1.0
1136168.2267308,287069.90625,282039.6875,310462.4375,287904.78125,293481.0,273015.75,273129.5625,285063.0625,-0.048583984375,0.924072265625,-0.271240234375,-6.896972179412842,1.8005369901657104,3.234863042831421,60.0,2834426.0,1.0
1136168.2309572,286432.78125,282207.6875,310046.96875,287088.59375,293410.125,273237.21875,273234.1875,285302.5,-0.05322265625,0.922119140625,-0.266845703125,-6.774901866912842,2.258300542831421,3.112792730331421,60.0,2834427.0,1.0
1136168.2310001,285884.71875,282252.5625,309525.09375,286177.625,293222.28125,273373.75,273245.09375,285370.8125,-0.0546875,0.919677734375,-0.266357421875,-6.561278820037842,2.593993902206421,2.990722417831421,60.0,2834428.0,1.0
1136168.2327596,286217.9375,282141.78125,309660.28125,286490.28125,293208.5,273259.3125,273181.875,285210.875,-0.06005859375,0.912841796875,-0.26513671875,-6.378173351287842,2.807616949081421,2.838134527206421,60.0,2834429.0,1.0
1136168.2465522,286988.90625,282035.5,310293.28125,287633.53125,293413.78125,273068.25,273147.53125,285075.78125,-0.06201171875,0.90576171875,-0.2646484375,-6.103515148162842,2.960204839706421,2.685546636581421,60.0,2834430.0,1.0
1136168.2492754,287096.5625,282063.65625,310486.40625,287936.71875,293498.625,273034.53125,273144.40625,285067.90625,-0.06494140625,0.902099609375,-0.267333984375,-5.767821788787842,3.051757574081421,2.319335699081421,60.0,2834431.0,1.0
1136168.2515879,286440.375,282219.125,310048.65625,287094.03125,293407.59375,273242.40625,273228.90625,285286.40625,-0.06787109375,0.89990234375,-0.267822265625,-5.249022960662842,3.112792730331421,2.105712652206421,60.0,2834432.0,1.0
1136168.254163,285888.5625,282267.15625,309513.03125,286162.5,293212.0625,273379.28125,273236.78125,285340.0625,-0.070556640625,0.898681640625,-0.265625,-4.791259288787842,3.204345464706421,1.8005369901657104,60.0,2834433.0,1.0
1136168.2633707,286217.84375,282154.75,309646.15625,286470.625,293196.25,273263.78125,273172.21875,285178.6875,-0.076416015625,0.89990234375,-0.26611328125,-4.333495616912842,3.082275152206421,1.4343260526657104,60.0,2834434.0,1.0
1136168.2634087,286994.09375,282045.59375,310289.96875,287627.96875,293411.4375,273072.0,273141.09375,285057.09375,-0.08154296875,0.89892578125,-0.26953125,-3.784179449081421,2.929687261581421,1.2207030057907104,60.0,2834435.0,1.0
1136168.2651818,287103.625,282061.59375,310484.6875,287939.3125,293495.5,273029.0625,273139.40625,285053.34375,-0.084228515625,0.89892578125,-0.267333984375,-3.265380620956421,2.716064214706421,0.9155272841453552,60.0,2834436.0,1.0
1136168.2690569,286476.34375,282240.6875,310066.8125,287111.03125,293426.21875,273261.53125,273250.53125,285289.28125,-0.084716796875,0.90380859375,-0.26904296875,-2.777099370956421,2.532958745956421,0.5493163466453552,60.0,2834437.0,1.0
1136168.278309,285910.9375,282278.75,309515.71875,286161.25,293217.0,273390.28125,273250.4375,285332.0,-0.085693359375,0.904541015625,-0.26806640625,-2.319335699081421,2.288818120956421,0.1220703050494194,60.0,2834438.0,1.0
1136168.2783433,286218.46875,282146.34375,309632.28125,286457.8125,293191.5,273258.9375,273172.5625,285166.0625,-0.08447265625,0.90966796875,-0.267822265625,-1.8615721464157104,2.136230230331421,-0.2136230319738388,60.0,2834439.0,1.0
1136168.2840634,286997.40625,282038.71875,310288.625,287635.125,293415.3125,273068.59375,273145.125,285061.09375,-0.083251953125,0.914794921875,-0.269287109375,-1.5869139432907104,1.8920897245407104,-0.4272460639476776,60.0,2834440.0,1.0
1136168.2908066,287106.03125,282052.28125,310487.65625,287948.5,293500.78125,273025.84375,273140.125,285058.875,-0.08154296875,0.919189453125,-0.267333984375,-1.1596678495407104,1.7395018339157104,-0.6103515028953552,60.0,2834441.0,1.0
1136168.2908412,286431.8125,282188.65625,310028.375,287066.6875,293385.25,273214.15625,273201.375,285243.9375,-0.080322265625,0.924072265625,-0.269287109375,-1.0070799589157104,1.5258787870407104,-0.6713866591453552,60.0,2834442.0,1.0
1136168.2932702,285859.4375,282228.15625,309474.21875,286099.65625,293171.65625,273340.125,273194.46875,285274.875,-0.08056640625,0.92919921875,-0.26513671875,-0.9155272841453552,1.4038084745407104,-0.6103515028953552,60.0,2834443.0,1.0
1136168.2933037,286202.125,282136.34375,309624.78125,286429.21875,293176.59375,273244.375,273150.75,285145.15625,-0.07861328125,0.93408203125,-0.26416015625,-0.7324218153953552,1.3732908964157104,-0.7019042372703552,60.0,2834444.0,1.0
1136168.3064346,287002.03125,282043.8125,310305.96875,287639.34375,293423.0,273073.15625,273144.21875,285072.28125,-0.078857421875,0.93603515625,-0.264404296875,-0.7324218153953552,1.2512205839157104,-0.4577636420726776,60.0,2834445.0,1.0
1136168.3142295,287120.59375,282059.90625,310512.9375,287969.59375,293519.0,273035.25,273148.25,285083.0,-0.079833984375,0.93994140625,-0.26416015625,-0.7324218153953552,1.1596678495407104,-0.2746581733226776,60.0,2834446.0,1.0
1136168.3142499,286444.6875,282191.78125,310042.84375,287079.84375,293400.0,273219.59375,273211.09375,285253.5,-0.07958984375,0.943115234375,-0.261962890625,-0.9460448622703552,1.0986326932907104,-0.1220703050494194,60.0,2834447.0,1.0
1136168.3142564,285869.25,282233.53125,309476.09375,286097.875,293177.90625,273342.71875,273205.65625,285277.21875,-0.081298828125,0.9453125,-0.263916015625,-0.9765624403953552,0.9765624403953552,0.03051757626235485,60.0,2834448.0,1.0
1136168.3189757,286197.03125,282130.25,309618.0625,286414.0,293168.71875,273238.375,273154.34375,285139.25,-0.083984375,0.9482421875,-0.264892578125,-1.1901854276657104,0.8239745497703552,0.1831054538488388,60.0,2834449.0,1.0
1136168.3227028,286991.5,282032.53125,310302.5625,287626.65625,293410.28125,273060.90625,273147.1875,285065.5,-0.08642578125,0.94970703125,-0.265625,-1.3122557401657104,0.7324218153953552,0.2441406100988388,60.0,2834450.0,1.0
1136168.332021,287136.25,282070.0,310541.03125,287989.0,293530.71875,273043.46875,273168.1875,285097.0625,-0.08642578125,0.9521484375,-0.261962890625,-1.5563963651657104,0.5798339247703552,0.4272460639476776,60.0,2834451.0,1.0
1136168.332041,286475.78125,282220.125,310085.40625,287110.84375,293426.65625,273247.21875,273239.09375,285284.34375,-0.0859375,0.951904296875,-0.2607421875,-1.7089842557907104,0.4272460639476776,0.4272460639476776,60.0,2834452.0,1.0
1136168.3457527,285872.3125,282241.3125,309489.5,286095.1875,293178.625,273353.1875,273211.09375,285278.09375,-0.08349609375,0.957763671875,-0.260986328125,-2.014159917831421,0.1525878757238388,0.4577636420726776,60.0,2834453.0,1.0
1136168.3457738,286203.65625,282147.6875,309628.4375,286413.3125,293176.03125,273255.53125,273167.375,285146.75,-0.08203125,0.9599609375,-0.25830078125,-2.258300542831421,0.1525878757238388,0.7019042372703552,60.0,2834454.0,1.0
1136168.3482413,287009.65625,282053.1875,310318.3125,287648.90625,293431.46875,273084.96875,273168.0,285090.4375,-0.08251953125,0.96044921875,-0.257568359375,-2.716064214706421,0.0610351525247097,0.7629393935203552,60.0,2834455.0,1.0
1136168.3482608,287109.4375,282044.0625,310506.0625,287971.03125,293509.875,273026.21875,273148.96875,285080.6875,-0.081787109375,0.9609375,-0.258056640625,-3.173827886581421,-0.0915527269244194,0.8850097060203552,60.0,2834456.0,1.0
1136168.3507399,286427.6875,282179.34375,310022.28125,287067.03125,293386.59375,273215.75,273210.21875,285247.96875,-0.08447265625,0.95947265625,-0.25732421875,-3.662109136581421,-0.1831054538488388,0.9155272841453552,60.0,2834457.0,1.0
1136168.3507597,285843.0625,282226.0,309436.03125,286059.78125,293156.28125,273342.625,273200.28125,285258.875,-0.087890625,0.95703125,-0.255859375,-4.058837413787842,-0.3356933295726776,0.8544921278953552,60.0,2834458.0,1.0
1136168.3639808,286191.21875,282150.28125,309591.0,286401.21875,293173.0,273263.3125,273171.40625,285150.53125,-0.088134765625,0.953125,-0.256591796875,-4.455565929412842,-0.3662109076976776,0.8239745497703552,60.0,2834459.0,1.0
1136168.3724834,286990.6875,282044.875,310285.6875,287645.78125,293426.90625,273087.0,273167.21875,285101.53125,-0.087890625,0.9521484375,-0.254150390625,-4.760741710662842,-0.4577636420726776,0.6713866591453552,60.0,2834460.0,1.0
1136168.3725056,287111.125,282045.6875,310500.15625,287987.84375,293522.59375,273037.125,273159.4375,285104.75,-0.090087890625,0.9482421875,-0.2509765625,-5.065917491912842,-0.6408690810203552,0.5493163466453552,60.0,2834461.0,1.0
1136168.3725122,286424.75,282172.375,310008.59375,287061.3125,293380.78125,273210.5625,273203.0625,285242.4375,-0.091552734375,0.945068359375,-0.24755859375,-5.371093273162842,-0.8544921278953552,0.4272460639476776,60.0,2834462.0,1.0
1136168.3745813,285838.3125,282219.9375,309418.0,286040.28125,293139.21875,273334.3125,273186.875,285239.375,-0.09375,0.943603515625,-0.24609375,-5.554198741912842,-1.0986326932907104,0.1525878757238388,60.0,2834463.0,1.0
1136168.3746153,286197.03125,282151.09375,309589.1875,286390.59375,293160.65625,273261.1875,273165.5,285140.21875,-0.0927734375,0.942138671875,-0.245361328125,-5.859374523162842,-1.2817381620407104,-0.1525878757238388,60.0,2834464.0,1.0
1136168.3851532,287024.84375,282066.34375,310311.6875,287673.21875,293442.3125,273103.09375,273181.5,285117.15625,-0.0908203125,0.938232421875,-0.242919921875,-5.889892101287842,-1.4953612089157104,-0.4882812201976776,60.0,2834465.0,1.0
1136168.3919993,287132.9375,282054.8125,310514.125,288012.875,293530.8125,273041.5,273163.09375,285115.8125,-0.094970703125,0.937744140625,-0.242431640625,-6.011962413787842,-1.7089842557907104,-0.7324218153953552,60.0,2834466.0,1.0
1136168.3920203,286423.03125,282165.65625,310001.09375,287057.3125,293367.46875,273198.6875,273190.28125,285233.125,-0.093505859375,0.937255859375,-0.241943359375,-6.134032726287842,-1.8615721464157104,-1.0681151151657104,60.0,2834467.0,1.0
1136168.4058367,285816.875,282207.59375,309393.65625,286003.0,293111.03125,273317.40625,273169.25,285211.40625,-0.091796875,0.937255859375,-0.240966796875,-6.256103038787842,-1.9531248807907104,-1.4343260526657104,60.0,2834468.0,1.0
1136168.4058697,286159.28125,282132.21875,309553.15625,286338.65625,293123.75,273239.90625,273144.0625,285104.90625,-0.090576171875,0.936767578125,-0.24072265625,-6.317138195037842,-2.075195074081421,-1.7395018339157104,60.0,2834469.0,1.0
1136168.4076568,287002.59375,282058.09375,310302.65625,287647.28125,293421.03125,273093.71875,273171.5,285106.4375,-0.08642578125,0.939697265625,-0.2373046875,-6.256103038787842,-2.075195074081421,-2.014159917831421,60.0,2834470.0,1.0
1136168.4107813,287147.875,282073.75,310547.46875,288028.53125,293541.4375,273059.28125,273178.46875,285137.8125,-0.0869140625,0.938720703125,-0.23291015625,-6.469726085662842,-2.227782964706421,-2.197265386581421,60.0,2834471.0,1.0
1136168.4108127,286429.65625,282174.25,310020.40625,287057.9375,293375.15625,273212.4375,273198.21875,285244.40625,-0.087646484375,0.938720703125,-0.230712890625,-6.500243663787842,-2.288818120956421,-2.410888433456421,60.0,2834472.0,1.0
1136168.4127695,285795.5,282192.9375,309375.78125,285964.46875,293091.8125,273310.78125,273156.03125,285188.96875,-0.09033203125,0.938720703125,-0.2294921875,-6.774901866912842,-2.227782964706421,-2.777099370956421,60.0,2834473.0,1.0
1136168.4295844,286154.8125,282138.125,309547.8125,286317.71875,293121.9375,273253.5625,273150.59375,285107.34375,-0.0927734375,0.93603515625,-0.225341796875,-7.019042491912842,-2.380370855331421,-3.051757574081421,60.0,2834474.0,1.0
1136168.4296212,287016.15625,282076.78125,310322.0625,287663.3125,293443.28125,273124.28125,273200.375,285135.3125,-0.09619140625,0.933837890625,-0.226318359375,-7.202147960662842,-2.593993902206421,-3.173827886581421,60.0,2834475.0,1.0
1136168.43149,287163.6875,282084.75,310573.84375,288060.28125,293569.0625,273086.375,273209.3125,285168.40625,-0.099609375,0.935791015625,-0.225830078125,-7.202147960662842,-2.746581792831421,-3.356933355331421,60.0,2834476.0,1.0
1136168.4340644,286428.59375,282172.71875,310028.28125,287065.0625,293383.65625,273221.84375,273212.4375,285247.4375,-0.09912109375,0.933349609375,-0.222412109375,-7.354735851287842,-2.807616949081421,-3.540038824081421,60.0,2834477.0,1.0
1136168.4590245,285783.4375,282189.8125,309369.34375,285950.25,293089.3125,273313.3125,273160.9375,285182.875,-0.09765625,0.934814453125,-0.220947265625,-7.476806163787842,-3.021239995956421,-3.631591558456421,60.0,2834478.0,1.0
1136168.4614235,286137.5625,282127.84375,309535.5625,286295.71875,293109.4375,273246.875,273146.8125,285091.59375,-0.098876953125,0.937255859375,-0.220703125,-7.507323741912842,-3.112792730331421,-3.723144292831421,60.0,2834479.0,1.0
1136168.4640416,287011.875,282069.09375,310327.0,287664.8125,293440.34375,273119.46875,273202.15625,285137.71875,-0.098876953125,0.938720703125,-0.21875,-7.629394054412842,-3.326415777206421,-3.845214605331421,60.0,2834480.0,1.0
