Time,FZ,C3,CZ,C4,PZ,PO7,OZ,PO8,AccX,AccY,AccZ,Gyro1,Gyro2,Gyro3,Battery,Counter,Validation
1167633.21614,288134.46875,316183.15625,321533.78125,306348.8125,290392.96875,296920.9375,294053.40625,327690.34375,-0.03564453125,0.951904296875,-0.257080078125,-0.5187987685203552,-1.8920897245407104,-0.4272460639476776,80.0,1263182.0,1.0
1167633.2193286,287298.25,312056.21875,318969.0625,303895.9375,288094.0625,294514.75,290497.78125,324537.40625,-0.0341796875,0.950439453125,-0.255126953125,-0.8239745497703552,-2.136230230331421,-0.5493163466453552,80.0,1263183.0,1.0
1167633.2193646,286487.34375,307081.25,315683.53125,301038.75,284930.9375,292004.53125,285350.25,319923.46875,-0.03173828125,0.9482421875,-0.2568359375,-1.1901854276657104,-2.288818120956421,-0.5187987685203552,80.0,1263184.0,1.0
1167633.2212594,286854.78125,308151.53125,316269.96875,301802.46875,285307.5,292882.34375,285758.21875,320261.875,-0.0283203125,0.943359375,-0.260986328125,-1.2817381620407104,-2.349853277206421,-0.6103515028953552,80.0,1263185.0,1.0
1167633.2249896,287898.8125,313814.125,319956.5625,305147.8125,288734.5625,295951.6875,291189.5,325118.3125,-0.0244140625,0.939208984375,-0.258056640625,-1.3122557401657104,-2.471923589706421,-0.6408690810203552,80.0,1263186.0,1.0
1167633.2393249,288194.8125,316253.78125,321663.53125,306490.34375,290484.0,296971.8125,294120.1875,327772.6875,-0.02392578125,0.941162109375,-0.26025390625,-1.1901854276657104,-2.532958745956421,-0.7019042372703552,80.0,1263187.0,1.0
1167633.2393587,287360.3125,312160.09375,319132.78125,304061.0,288218.34375,294575.875,290617.5625,324666.34375,-0.027099609375,0.9443359375,-0.255859375,-1.1291502714157104,-2.410888433456421,-0.6408690810203552,80.0,1263188.0,1.0
1167633.2412339,286558.5,307178.53125,315852.15625,301228.40625,285059.3125,292057.84375,285478.1875,320059.375,-0.02783203125,0.947998046875,-0.255859375,-1.1596678495407104,-2.441406011581421,-0.6713866591453552,80.0,1263189.0,1.0
1167633.2437572,286885.375,308194.53125,316376.53125,301901.09375,285394.78125,292901.65625,285833.21875,320345.21875,-0.026611328125,0.94921875,-0.252685546875,-1.3732908964157104,-2.532958745956421,-0.6103515028953552,80.0,1263190.0,1.0
1167633.2474436,287905.3125,313817.25,320001.8125,305195.46875,288780.625,295944.1875,291207.84375,325146.90625,-0.02880859375,0.948486328125,-0.25537109375,-1.6479490995407104,-2.532958745956421,-0.4577636420726776,80.0,1263191.0,1.0
1167633.2537325,288164.78125,316244.21875,321656.71875,306463.4375,290496.78125,296947.78125,294102.21875,327763.40625,-0.027587890625,0.947509765625,-0.25244140625,-1.7089842557907104,-2.716064214706421,-0.3356933295726776,80.0,1263192.0,1.0
1167633.2581554,287325.6875,312147.75,319107.03125,304004.5625,288214.75,294548.34375,290586.1875,324640.59375,-0.029052734375,0.946533203125,-0.2509765625,-1.7700194120407104,-2.655029058456421,-0.3967284858226776,80.0,1263193.0,1.0
1167633.2581908,286538.75,307164.46875,315828.1875,301172.875,285053.6875,292034.3125,285441.28125,320030.40625,-0.032470703125,0.946044921875,-0.25341796875,-1.7089842557907104,-2.624511480331421,-0.3356933295726776,80.0,1263194.0,1.0
1167633.2637398,286908.15625,308193.65625,316391.5625,301923.4375,285412.375,292902.5625,285819.28125,320343.59375,-0.03662109375,0.948486328125,-0.24853515625,-1.6479490995407104,-2.746581792831421,-0.4577636420726776,80.0,1263195.0,1.0
1167633.2731502,287962.8125,313849.625,320065.8125,305282.8125,288832.28125,295975.09375,291240.65625,325190.28125,-0.03857421875,0.950439453125,-0.252685546875,-1.7700194120407104,-2.929687261581421,-0.5187987685203552,80.0,1263196.0,1.0
1167633.2731834,288220.65625,316301.25,321757.40625,306603.0,290572.34375,296989.875,294177.5,327843.4375,-0.03759765625,0.95068359375,-0.254150390625,-1.9226073026657104,-3.082275152206421,-0.6103515028953552,80.0,1263197.0,1.0
1167633.2755739,287388.46875,312247.28125,319252.5,304161.75,288329.5625,294610.40625,290722.28125,324773.625,-0.03564453125,0.95166015625,-0.251953125,-1.9836424589157104,-3.204345464706421,-0.6408690810203552,80.0,1263198.0,1.0
1167633.2756085,286604.8125,307272.5625,315998.96875,301329.4375,285194.40625,292102.34375,285608.1875,320193.3125,-0.032470703125,0.951171875,-0.25244140625,-1.9836424589157104,-3.326415777206421,-0.6103515028953552,80.0,1263199.0,1.0
1167633.2835635,286959.84375,308274.46875,316544.4375,302052.8125,285542.125,292946.96875,285969.65625,320490.59375,-0.028076171875,0.94970703125,-0.255126953125,-2.014159917831421,-3.448486089706421,-0.5187987685203552,80.0,1263200.0,1.0
1167633.2900073,287984.4375,313895.5,320185.28125,305361.40625,288937.09375,295997.71875,291369.40625,325316.34375,-0.02685546875,0.94970703125,-0.256591796875,-1.9836424589157104,-3.417968511581421,-0.4577636420726776,80.0,1263201.0,1.0
1167633.2924372,288260.90625,316373.40625,321895.34375,306691.34375,290697.9375,297034.65625,294342.0,328005.6875,-0.026611328125,0.9482421875,-0.25830078125,-1.9531248807907104,-3.326415777206421,-0.2746581733226776,80.0,1263202.0,1.0
1167633.2950073,287453.375,312358.5,319418.875,304295.6875,288483.25,294674.875,290926.28125,324974.34375,-0.02734375,0.946044921875,-0.256103515625,-1.8005369901657104,-3.204345464706421,-0.1831054538488388,80.0,1263203.0,1.0
1167633.2987566,286659.15625,307369.9375,316156.59375,301462.8125,285340.0625,292152.34375,285810.4375,320386.875,-0.025634765625,0.944580078125,-0.256591796875,-1.5563963651657104,-3.143310308456421,0.0,80.0,1263204.0,1.0
1167633.3055418,286988.1875,308331.25,316669.53125,302155.90625,285661.125,292978.09375,286142.03125,320652.59375,-0.02587890625,0.943359375,-0.259033203125,-1.3732908964157104,-3.021239995956421,0.1525878757238388,80.0,1263205.0,1.0
1167633.305579,288002.40625,313933.9375,320289.875,305451.71875,289042.59375,296020.875,291527.5625,325460.46875,-0.0234375,0.9443359375,-0.259033203125,-1.2207030057907104,-2.929687261581421,0.3051757514476776,80.0,1263206.0,1.0
1167633.313757,288278.5,316439.5625,322010.6875,306791.375,290815.4375,297066.21875,294526.09375,328163.21875,-0.02392578125,0.94189453125,-0.26025390625,-0.9155272841453552,-2.868652105331421,0.4882812201976776,80.0,1263207.0,1.0
1167633.3168275,287488.25,312442.8125,319557.1875,304420.40625,288615.21875,294715.0,291138.09375,325153.78125,-0.022216796875,0.942138671875,-0.257568359375,-0.7324218153953552,-2.655029058456421,0.6713866591453552,80.0,1263208.0,1.0
1167633.3168606,286700.5625,307439.84375,316291.59375,301606.5,285467.1875,292183.1875,286013.125,320563.46875,-0.02294921875,0.93994140625,-0.2578125,-0.3662109076976776,-2.532958745956421,0.8544921278953552,80.0,1263209.0,1.0
1167633.318705,287013.3125,308359.59375,316770.09375,302251.84375,285761.4375,292986.5,286307.875,320797.15625,-0.02490234375,0.938232421875,-0.256103515625,-0.1831054538488388,-2.380370855331421,1.0070799589157104,80.0,1263210.0,1.0
1167633.3299406,288022.8125,313956.71875,320374.625,305515.625,289132.15625,296031.4375,291684.03125,325592.34375,-0.024658203125,0.936767578125,-0.255615234375,0.03051757626235485,-2.227782964706421,1.0375975370407104,80.0,1263211.0,1.0
1167633.3331478,288316.78125,316481.59375,322114.3125,306877.21875,290922.90625,297103.25,294709.03125,328323.90625,-0.027099609375,0.937255859375,-0.261474609375,0.3662109076976776,-2.136230230331421,1.0070799589157104,80.0,1263212.0,1.0
1167633.333181,287503.09375,312493.6875,319660.1875,304494.34375,288724.84375,294750.0625,291329.15625,325323.75,-0.02734375,0.9375,-0.2568359375,0.5493163466453552,-1.8615721464157104,0.9765624403953552,80.0,1263213.0,1.0
1167633.3412336,286700.21875,307471.25,316369.375,301626.625,285555.4375,292196.21875,286182.0,320706.96875,-0.027099609375,0.938232421875,-0.259033203125,0.6713866591453552,-1.8615721464157104,0.9765624403953552,80.0,1263214.0,1.0
1167633.3443278,287028.5,308374.875,316836.875,302279.90625,285839.75,292996.6875,286456.9375,320919.46875,-0.031005859375,0.939697265625,-0.2578125,0.7629393935203552,-1.8615721464157104,0.8850097060203552,80.0,1263215.0,1.0
1167633.3443636,288021.1875,313948.59375,320419.34375,305541.46875,289193.5,296028.9375,291810.0,325694.25,-0.030517578125,0.939453125,-0.255615234375,0.8239745497703552,-1.7700194120407104,0.8239745497703552,80.0,1263216.0,1.0
1167633.3499878,288318.5625,316510.90625,322169.9375,306901.1875,291000.3125,297112.1875,294856.09375,328443.15625,-0.0302734375,0.94140625,-0.257080078125,0.9765624403953552,-1.8005369901657104,0.8239745497703552,80.0,1263217.0,1.0
1167633.3587125,287544.125,312565.5625,319756.75,304579.5625,288833.8125,294785.8125,291514.0625,325476.1875,-0.0322265625,0.943359375,-0.255615234375,1.0375975370407104,-1.7395018339157104,0.5493163466453552,80.0,1263218.0,1.0
1167633.3618244,286743.84375,307536.25,316479.09375,301744.1875,285668.625,292231.09375,286371.375,320863.15625,-0.035400390625,0.944580078125,-0.258056640625,1.0070799589157104,-1.9226073026657104,0.4882812201976776,80.0,1263219.0,1.0
1167633.3618573,287068.90625,308421.28125,316938.1875,302390.6875,285943.1875,293017.34375,286630.375,321063.25,-0.036376953125,0.943359375,-0.258544921875,1.0375975370407104,-1.9836424589157104,0.3967284858226776,80.0,1263220.0,1.0
1167633.3637582,288069.03125,314013.3125,320536.1875,305657.625,289308.75,296059.40625,291998.71875,325854.46875,-0.037109375,0.94189453125,-0.258544921875,1.0681151151657104,-2.044677495956421,0.4577636420726776,80.0,1263221.0,1.0
1167633.3950928,288365.9375,316594.875,322301.8125,307029.75,291123.34375,297149.75,295068.15625,328619.28125,-0.0380859375,0.93994140625,-0.256591796875,0.9460448622703552,-2.105712652206421,0.3356933295726776,80.0,1263222.0,1.0
1167633.4006388,287562.1875,312644.5,319879.84375,304673.0625,288956.46875,294816.03125,291740.625,325661.0,-0.03955078125,0.940673828125,-0.256591796875,1.0375975370407104,-2.227782964706421,0.1525878757238388,80.0,1263223.0,1.0
1167633.4006897,286764.65625,307604.8125,316591.5625,301806.5,285788.0,292259.1875,286592.375,321043.5,-0.038818359375,0.94287109375,-0.25634765625,0.9765624403953552,-2.349853277206421,0.03051757626235485,80.0,1263224.0,1.0
1167633.4025727,287080.71875,308463.5625,317027.21875,302434.40625,286041.46875,293031.375,286819.65625,321213.625,-0.038330078125,0.945068359375,-0.255126953125,0.9460448622703552,-2.441406011581421,-0.03051757626235485,80.0,1263225.0,1.0
1167633.4050464,288078.15625,314050.15625,320614.6875,305704.71875,289400.65625,296074.15625,292177.90625,325992.53125,-0.037841796875,0.943359375,-0.25390625,0.8850097060203552,-2.532958745956421,-0.0610351525247097,80.0,1263226.0,1.0
1167633.4075031,288379.90625,316647.15625,322385.9375,307089.1875,291226.78125,297181.9375,295261.46875,328772.375,-0.0419921875,0.945068359375,-0.255126953125,0.7019042372703552,-2.624511480331421,-0.1525878757238388,80.0,1263227.0,1.0
1167633.410068,287603.5,312728.0,319989.03125,304774.1875,289079.875,294869.5,291959.46875,325840.96875,-0.041015625,0.943359375,-0.256591796875,0.6103515028953552,-2.777099370956421,-0.1220703050494194,80.0,1263228.0,1.0
1167633.4125397,286798.65625,307665.4375,316684.8125,301905.75,285893.5,292294.03125,286781.75,321200.9375,-0.0419921875,0.943603515625,-0.25830078125,0.3967284858226776,-2.899169683456421,-0.2136230319738388,80.0,1263229.0,1.0
1167633.4150681,287102.53125,308486.8125,317095.625,302511.21875,286121.21875,293048.28125,286973.875,321341.3125,-0.044921875,0.945556640625,-0.2587890625,0.2136230319738388,-3.021239995956421,-0.2441406100988388,80.0,1263230.0,1.0
1167633.417526,288099.6875,314075.03125,320683.625,305776.625,289479.875,296099.03125,292334.8125,326123.21875,-0.0458984375,0.943359375,-0.2578125,-0.0610351525247097,-3.173827886581421,-0.3051757514476776,80.0,1263231.0,1.0
1167633.4200707,288367.375,316671.5625,322445.65625,307130.5,291296.53125,297194.8125,295424.09375,328905.40625,-0.046630859375,0.94482421875,-0.2578125,-0.1220703050494194,-3.356933355331421,-0.3051757514476776,80.0,1263232.0,1.0
1167633.4225704,287591.78125,312764.9375,320058.9375,304812.625,289157.03125,294883.09375,292138.3125,325987.78125,-0.047119140625,0.94384765625,-0.258056640625,-0.3051757514476776,-3.479003667831421,-0.3967284858226776,80.0,1263233.0,1.0
1167633.4256261,286803.5625,307699.59375,316757.6875,301949.8125,285972.53125,292305.3125,286957.78125,321343.8125,-0.049560546875,0.9453125,-0.2578125,-0.5798339247703552,-3.692626714706421,-0.5187987685203552,80.0,1263234.0,1.0
1167633.4256832,287100.46875,308497.71875,317148.28125,302536.6875,286182.4375,293043.71875,287125.0625,321460.375,-0.050537109375,0.947265625,-0.260986328125,-0.7629393935203552,-3.723144292831421,-0.7019042372703552,80.0,1263235.0,1.0
1167633.4275691,288092.1875,314087.25,320730.46875,305793.875,289537.625,296089.8125,292486.34375,326242.40625,-0.05029296875,0.947509765625,-0.2607421875,-1.0375975370407104,-3.845214605331421,-0.5798339247703552,80.0,1263236.0,1.0
1167633.4368327,288407.875,316752.03125,322540.15625,307212.40625,291404.53125,297233.78125,295639.21875,329082.59375,-0.050537109375,0.94970703125,-0.259033203125,-1.1901854276657104,-4.119872570037842,-0.6103515028953552,80.0,1263237.0,1.0
1167633.4368843,287637.09375,312850.125,320146.375,304911.34375,289262.96875,294925.125,292349.46875,326161.0625,-0.04931640625,0.9482421875,-0.258056640625,-1.3427733182907104,-4.302978038787842,-0.4272460639476776,80.0,1263238.0,1.0
1167633.4387806,286818.03125,307741.15625,316805.6875,302008.125,286043.25,292320.25,287125.4375,321473.875,-0.05029296875,0.9501953125,-0.25927734375,-1.5869139432907104,-4.425048351287842,-0.3356933295726776,80.0,1263239.0,1.0
1167633.4450791,287099.59375,308508.53125,317176.09375,302554.03125,286238.5,293049.25,287265.0,321562.40625,-0.0517578125,0.951904296875,-0.25732421875,-1.9531248807907104,-4.638671398162842,-0.2441406100988388,80.0,1263240.0,1.0
1167633.4518637,288108.90625,314119.0,320772.9375,305829.71875,289606.46875,296113.875,292638.71875,326353.28125,-0.0498046875,0.951416015625,-0.259521484375,-2.197265386581421,-4.821776866912842,-0.0915527269244194,80.0,1263241.0,1.0
1167633.4519156,288426.375,316804.34375,322594.96875,307258.4375,291479.28125,297266.875,295810.15625,329207.5,-0.04931640625,0.95068359375,-0.26220703125,-2.349853277206421,-4.974364757537842,-0.0915527269244194,80.0,1263242.0,1.0
1167633.4606429,287637.8125,312919.4375,320207.4375,304944.0625,289342.8125,294958.375,292537.3125,326299.625,-0.0517578125,0.95166015625,-0.26025390625,-2.502441167831421,-5.157470226287842,0.0915527269244194,80.0,1263243.0,1.0
1167633.4606929,286832.15625,307813.84375,316877.46875,302053.1875,286130.9375,292354.03125,287316.03125,321619.8125,-0.051025390625,0.94873046875,-0.2607421875,-2.655029058456421,-5.187987804412842,0.2441406100988388,80.0,1263244.0,1.0
1167633.4625077,287131.6875,308571.9375,317247.96875,302614.84375,286320.84375,293075.8125,287445.40625,321703.84375,-0.052734375,0.950927734375,-0.2578125,-2.777099370956421,-5.279540538787842,0.3967284858226776,80.0,1263245.0,1.0
1167633.4690217,288133.03125,314173.71875,320837.84375,305880.34375,289679.78125,296135.6875,292820.28125,326495.0625,-0.05224609375,0.9482421875,-0.260009765625,-2.990722417831421,-5.401610851287842,0.5493163466453552,80.0,1263246.0,1.0
1167633.4731764,288477.78125,316901.15625,322692.34375,307353.84375,291576.09375,297312.28125,296027.40625,329384.625,-0.0517578125,0.9453125,-0.26025390625,-3.112792730331421,-5.554198741912842,0.6713866591453552,80.0,1263247.0,1.0
1167633.4732258,287687.0,313033.34375,320328.78125,305056.8125,289462.34375,295011.46875,292780.6875,326504.71875,-0.049560546875,0.943359375,-0.26318359375,-3.173827886581421,-5.676269054412842,0.8850097060203552,80.0,1263248.0,1.0
1167633.4812777,286866.25,307894.5,316982.4375,302126.84375,286237.71875,292383.71875,287538.5,321803.53125,-0.0517578125,0.941650390625,-0.26123046875,-3.295898199081421,-5.798339366912842,0.9765624403953552,80.0,1263249.0,1.0
1167633.4882132,287142.0625,308608.59375,317318.625,302650.78125,286399.53125,293082.71875,287627.96875,321847.78125,-0.0517578125,0.942626953125,-0.2607421875,-3.356933355331421,-5.859374523162842,1.0375975370407104,80.0,1263250.0,1.0
1167633.4882642,288150.03125,314218.4375,320915.53125,305927.53125,289770.25,296162.25,293014.40625,326648.9375,-0.051513671875,0.942626953125,-0.260498046875,-3.448486089706421,-6.103515148162842,1.1291502714157104,80.0,1263251.0,1.0
1167633.4900117,288463.125,316951.15625,322762.78125,307375.46875,291668.90625,297338.21875,296235.5625,329549.65625,-0.051025390625,0.945068359375,-0.260986328125,-3.540038824081421,-6.164550304412842,1.2817381620407104,80.0,1263252.0,1.0
1167633.5049915,287694.9375,313098.875,320403.40625,305087.125,289557.5625,295033.84375,292994.5625,326671.75,-0.04931640625,0.9443359375,-0.262451171875,-3.509521245956421,-6.378173351287842,1.2817381620407104,80.0,1263253.0,1.0
1167633.5080991,286890.65625,307960.03125,317062.09375,302195.96875,286334.71875,292406.15625,287749.5625,321967.15625,-0.052734375,0.9453125,-0.26123046875,-3.631591558456421,-6.561278820037842,1.5258787870407104,80.0,1263254.0,1.0
1167633.5081346,287180.21875,308666.6875,317405.4375,302743.125,286501.53125,293113.5625,287837.5625,322013.46875,-0.0537109375,0.9443359375,-0.26123046875,-3.662109136581421,-6.622313976287842,1.5563963651657104,80.0,1263255.0,1.0
1167633.5099474,288184.09375,314283.34375,321007.53125,306025.875,289873.09375,296195.21875,293233.34375,326827.125,-0.05615234375,0.945068359375,-0.2626953125,-3.753661870956421,-6.835937023162842,1.6479490995407104,80.0,1263256.0,1.0
1167633.5124557,288517.3125,317068.1875,322899.75,307521.5625,291808.375,297403.03125,296512.34375,329782.40625,-0.05517578125,0.945556640625,-0.259033203125,-3.784179449081421,-7.019042491912842,1.7395018339157104,80.0,1263257.0,1.0
1167633.529256,287748.25,313256.6875,320573.65625,305255.03125,289724.65625,295119.75,293318.46875,326948.1875,-0.056396484375,0.945068359375,-0.258056640625,-3.936767339706421,-7.324218273162842,1.7089842557907104,80.0,1263258.0,1.0
1167633.5292888,286975.21875,308171.375,317289.8125,302399.8125,286545.4375,292511.9375,288128.125,322296.625,-0.056884765625,0.94580078125,-0.257080078125,-4.028319835662842,-7.568358898162842,1.7700194120407104,80.0,1263259.0,1.0
1167633.5312283,287300.9375,308955.3125,317709.59375,303009.125,286782.09375,293253.5625,288311.0625,322429.28125,-0.056884765625,0.94921875,-0.256103515625,-4.028319835662842,-7.843017101287842,1.8310545682907104,80.0,1263260.0,1.0
1167633.5343259,288312.03125,314658.3125,321381.53125,306334.15625,290230.0,296374.84375,293828.8125,327347.40625,-0.0576171875,0.94775390625,-0.2568359375,-4.272460460662842,-8.026122093200684,1.8920897245407104,80.0,1263261.0,1.0
1167633.5343602,288653.75,317528.28125,323335.78125,307872.9375,292237.0,297620.03125,297227.15625,330407.625,-0.060302734375,0.947021484375,-0.25732421875,-4.364013195037842,-8.270262718200684,2.136230230331421,80.0,1263262.0,1.0
1167633.5362577,287909.875,313742.6875,321042.875,305636.34375,290193.34375,295346.9375,294092.71875,327627.25,-0.061279296875,0.947998046875,-0.255859375,-4.455565929412842,-8.392333030700684,2.075195074081421,80.0,1263263.0,1.0
1167633.5481482,287114.0625,308564.3125,317689.65625,302731.5,286967.1875,292690.65625,288828.625,322909.21875,-0.061279296875,0.94970703125,-0.255859375,-4.486083507537842,-8.789061546325684,2.166747808456421,80.0,1263264.0,1.0
1167633.5481826,287344.5625,309189.28125,317970.75,303202.21875,287087.4375,293337.25,288868.5,322904.21875,-0.061279296875,0.951171875,-0.255126953125,-4.669188976287842,-9.094237327575684,2.288818120956421,80.0,1263265.0,1.0
1167633.5573793,288324.03125,314828.1875,321587.4375,306465.5,290488.125,296431.875,294339.6875,327771.4375,-0.059814453125,0.949951171875,-0.254150390625,-4.882812023162842,-9.399413108825684,2.441406011581421,80.0,1263266.0,1.0
1167633.5574112,288661.875,317679.0,323526.40625,307982.90625,292483.5,297674.46875,297732.59375,330822.65625,-0.05908203125,0.94775390625,-0.2548828125,-5.126952648162842,-9.552000999450684,2.532958745956421,80.0,1263267.0,1.0
1167633.5574198,287900.6875,313826.03125,321174.8125,305695.53125,290391.09375,295366.5,294525.46875,327971.53125,-0.057373046875,0.947509765625,-0.252197265625,-5.157470226287842,-9.918211936950684,2.746581792831421,80.0,1263268.0,1.0
1167633.5600068,287060.59375,308519.34375,317723.625,302696.625,287074.65625,292646.5625,289126.8125,323127.21875,-0.05859375,0.94482421875,-0.25048828125,-5.096435070037842,-10.192870140075684,2.838134527206421,80.0,1263269.0,1.0
1167633.5625077,287312.09375,309089.59375,317969.5,303155.46875,287154.75,293286.8125,289090.6875,323055.40625,-0.05615234375,0.947998046875,-0.25,-5.187987804412842,-10.345458030700684,3.051757574081421,80.0,1263270.0,1.0
1167633.5737369,288320.8125,314762.5625,321603.09375,306459.5,290559.625,296413.5625,294566.78125,327930.3125,-0.054931640625,0.947021484375,-0.253173828125,-5.218505382537842,-10.498045921325684,3.143310308456421,80.0,1263271.0,1.0
1167633.5812054,288656.25,317634.40625,323544.65625,307989.25,292552.96875,297672.84375,297965.84375,330985.4375,-0.0546875,0.947021484375,-0.253173828125,-5.401610851287842,-10.742186546325684,3.265380620956421,80.0,1263272.0,1.0
1167633.5812346,287865.28125,313719.53125,321133.6875,305654.75,290408.09375,295331.28125,294675.125,328062.90625,-0.053466796875,0.947021484375,-0.250732421875,-5.432128429412842,-10.833739280700684,3.387450933456421,80.0,1263273.0,1.0
1167633.5812416,286990.59375,308317.125,317591.125,302567.0,287005.0,292550.65625,289140.40625,323099.65625,-0.0556640625,0.94384765625,-0.251220703125,-5.371093273162842,-10.864256858825684,3.692626714706421,80.0,1263274.0,1.0
1167633.5843268,287245.78125,308879.40625,317821.96875,303014.21875,287061.78125,293185.34375,289056.25,322986.65625,-0.0546875,0.943115234375,-0.252197265625,-5.401610851287842,-11.016844749450684,3.875732183456421,80.0,1263275.0,1.0
1167633.5843641,288277.71875,314609.03125,321499.375,306366.96875,290501.96875,296350.34375,294574.375,327902.78125,-0.054931640625,0.944091796875,-0.25146484375,-5.310058116912842,-11.169432640075684,4.058837413787842,80.0,1263276.0,1.0
1167633.5924579,288615.9375,317523.875,323463.90625,307918.375,292512.65625,297629.3125,298003.40625,330984.03125,-0.0537109375,0.943603515625,-0.256591796875,-5.310058116912842,-11.260985374450684,4.089354991912842,80.0,1263277.0,1.0
1167633.5993267,287807.4375,313590.34375,321030.53125,305556.6875,290340.6875,295273.875,294678.625,328028.3125,-0.055419921875,0.945556640625,-0.254638671875,-5.279540538787842,-11.260985374450684,4.211425304412842,80.0,1263278.0,1.0
1167633.5993588,286943.03125,308169.6875,317478.125,302469.4375,286925.4375,292494.59375,289105.0,323032.25,-0.055908203125,0.944580078125,-0.25048828125,-5.279540538787842,-11.413573265075684,4.394530773162842,80.0,1263279.0,1.0
1167633.6130944,287199.90625,308709.625,317689.75,302900.9375,286960.28125,293117.40625,288981.34375,322886.625,-0.056884765625,0.943359375,-0.24609375,-5.218505382537842,-11.535643577575684,4.516601085662842,80.0,1263280.0,1.0
1167633.6131265,288242.46875,314477.34375,321394.75,306293.375,290421.25,296310.03125,294530.75,327835.65625,-0.055908203125,0.941650390625,-0.248291015625,-5.279540538787842,-11.688231468200684,4.791259288787842,80.0,1263281.0,1.0
1167633.615576,288598.5,317443.25,323401.25,307882.96875,292470.53125,297621.4375,298010.375,330969.8125,-0.052001953125,0.939208984375,-0.24755859375,-5.187987804412842,-11.718749046325684,4.821776866912842,80.0,1263282.0,1.0
1167633.6156088,287800.53125,313512.5625,320976.6875,305536.65625,290303.84375,295260.84375,294681.46875,328017.125,-0.04833984375,0.939697265625,-0.2451171875,-5.157470226287842,-11.596678733825684,4.760741710662842,80.0,1263283.0,1.0
1167633.6243376,286903.96875,308032.96875,317379.59375,302396.21875,286840.5,292429.125,289037.21875,322961.625,-0.04833984375,0.938232421875,-0.248046875,-4.913329601287842,-11.596678733825684,4.913329601287842,80.0,1263284.0,1.0
1167633.6243728,287168.34375,308562.71875,317586.375,302825.125,286861.75,293049.34375,288889.59375,322793.1875,-0.04736328125,0.942138671875,-0.246337890625,-4.760741710662842,-11.413573265075684,5.096435070037842,80.0,1263285.0,1.0
1167633.6306353,288224.78125,314375.34375,321324.59375,306241.0,290352.03125,296272.9375,294477.71875,327773.5,-0.05078125,0.944580078125,-0.247802734375,-4.577636241912842,-11.260985374450684,5.126952648162842,80.0,1263286.0,1.0
1167633.6306622,288577.65625,317381.1875,323354.46875,307843.71875,292425.90625,297603.65625,298003.21875,330947.8125,-0.053955078125,0.9482421875,-0.24365234375,-4.791259288787842,-11.260985374450684,5.187987804412842,80.0,1263287.0,1.0
1167633.6437043,287794.375,313488.59375,320952.65625,305508.84375,290277.8125,295253.5,294695.59375,328015.96875,-0.052978515625,0.948486328125,-0.24365234375,-4.791259288787842,-11.138915061950684,5.218505382537842,80.0,1263288.0,1.0
1167633.6512446,286922.28125,308008.75,317373.6875,302400.53125,286826.28125,292425.5625,289052.15625,322961.0,-0.051513671875,0.943359375,-0.243896484375,-4.882812023162842,-11.016844749450684,5.249022960662842,80.0,1263289.0,1.0
1167633.6512783,287195.0625,308539.90625,317599.15625,302862.5,286862.46875,293052.40625,288913.125,322804.1875,-0.047607421875,0.940673828125,-0.24462890625,-4.974364757537842,-10.986327171325684,5.401610851287842,80.0,1263290.0,1.0
1167633.6512864,288232.375,314355.5,321342.90625,306275.96875,290356.40625,296277.84375,294522.78125,327805.0625,-0.046630859375,0.94091796875,-0.24072265625,-4.882812023162842,-10.864256858825684,5.554198741912842,80.0,1263291.0,1.0
1167633.6581006,288606.625,317411.3125,323418.5,307929.09375,292469.1875,297634.5,298108.4375,331033.28125,-0.046630859375,0.938720703125,-0.241943359375,-4.791259288787842,-10.681151390075684,5.554198741912842,80.0,1263292.0,1.0
1167633.6581367,287818.40625,313518.28125,321034.90625,305612.5625,290339.15625,295281.59375,294823.53125,328125.5,-0.0439453125,0.93994140625,-0.242431640625,-4.638671398162842,-10.375975608825684,5.645751476287842,80.0,1263293.0,1.0
1167633.6600078,286943.40625,308019.21875,317441.625,302484.5625,286875.96875,292440.5,289151.9375,323047.625,-0.04296875,0.94384765625,-0.238037109375,-4.638671398162842,-10.223387718200684,5.493163585662842,80.0,1263294.0,1.0
1167633.662507,287204.09375,308528.65625,317637.96875,302904.5,286886.875,293053.5625,288979.1875,322854.5,-0.04150390625,0.947509765625,-0.237548828125,-4.547118663787842,-9.948729515075684,5.493163585662842,80.0,1263295.0,1.0
1167633.6712569,288241.21875,314351.375,321382.875,306321.375,290389.59375,296290.09375,294599.84375,327865.0625,-0.03857421875,0.950439453125,-0.23583984375,-4.577636241912842,-9.613036155700684,5.706786632537842,80.0,1263296.0,1.0
1167633.6755249,288596.71875,317412.9375,323445.9375,307955.28125,292498.15625,297650.25,298189.71875,331097.03125,-0.038330078125,0.95361328125,-0.237548828125,-4.638671398162842,-9.338377952575684,5.645751476287842,80.0,1263297.0,1.0
1167633.6755591,287820.84375,313534.46875,321060.125,305638.3125,290360.09375,295291.875,294902.84375,328183.34375,-0.03857421875,0.95263671875,-0.23779296875,-4.638671398162842,-9.216307640075684,5.767821788787842,80.0,1263298.0,1.0
1167633.689326,286948.21875,308023.9375,317457.90625,302508.34375,286885.1875,292434.5,289207.53125,323085.71875,-0.041015625,0.954345703125,-0.23681640625,-4.669188976287842,-8.728026390075684,5.798339366912842,80.0,1263299.0,1.0
1167633.6893617,287190.25,308492.625,317623.125,302890.8125,286873.375,293028.0625,288995.03125,322860.3125,-0.039306640625,0.951416015625,-0.237060546875,-4.730224132537842,-8.605956077575684,5.798339366912842,80.0,1263300.0,1.0
1167633.694325,288217.8125,314306.125,321343.8125,306280.6875,290357.21875,296262.1875,294596.8125,327855.75,-0.043212890625,0.9521484375,-0.23779296875,-4.913329601287842,-8.361815452575684,5.798339366912842,80.0,1263301.0,1.0
1167633.6943585,288559.5,317371.1875,323403.75,307909.5,292462.5625,297623.9375,298194.90625,331095.875,-0.041748046875,0.95263671875,-0.236328125,-5.035399913787842,-8.148192405700684,5.706786632537842,80.0,1263302.0,1.0
1167633.6961712,287806.71875,313521.5,321050.46875,305620.96875,290351.5,295286.59375,294932.0,328205.625,-0.042724609375,0.95556640625,-0.235107421875,-5.004882335662842,-7.781981945037842,5.615233898162842,80.0,1263303.0,1.0
1167633.6987602,286965.75,308019.46875,317483.03125,302524.78125,286897.875,292433.6875,289250.0,323118.625,-0.04248046875,0.958740234375,-0.23388671875,-4.974364757537842,-7.537841320037842,5.462646007537842,80.0,1263304.0,1.0
1167633.7012045,287210.0,308467.40625,317662.03125,302938.75,286890.65625,293018.78125,289041.25,322896.28125,-0.041259765625,0.96044921875,-0.23388671875,-5.187987804412842,-7.324218273162842,5.432128429412842,80.0,1263305.0,1.0
1167633.7125077,288232.46875,314283.96875,321387.96875,306330.5,290378.40625,296259.0625,294658.9375,327899.21875,-0.038330078125,0.95849609375,-0.23193359375,-5.310058116912842,-7.049560070037842,5.401610851287842,80.0,1263306.0,1.0
1167633.7155419,288592.25,317402.03125,323485.8125,307989.4375,292523.8125,297657.21875,298313.1875,331188.40625,-0.037109375,0.95947265625,-0.22900390625,-5.493163585662842,-6.805419445037842,5.371093273162842,80.0,1263307.0,1.0
1167633.7155749,287834.875,313570.75,321154.71875,305724.59375,290433.75,295328.59375,295083.375,328332.3125,-0.03662109375,0.9599609375,-0.2333984375,-5.615233898162842,-6.408690929412842,5.310058116912842,80.0,1263308.0,1.0
1167633.7175518,287001.40625,308064.1875,317595.875,302637.90625,286981.9375,292463.46875,289395.65625,323249.0625,-0.03466796875,0.95849609375,-0.23291015625,-5.706786632537842,-6.195067882537842,5.249022960662842,80.0,1263309.0,1.0
1167633.7287575,287243.53125,308488.875,317758.6875,303030.65625,286958.6875,293028.6875,289158.90625,323006.3125,-0.034423828125,0.957275390625,-0.23046875,-5.737304210662842,-5.859374523162842,5.157470226287842,80.0,1263310.0,1.0
1167633.7317882,288251.0625,314283.6875,321475.3125,306413.65625,290438.21875,296262.65625,294779.5625,328012.21875,-0.03173828125,0.956787109375,-0.23193359375,-5.859374523162842,-5.493163585662842,5.157470226287842,80.0,1263311.0,1.0
1167633.7318172,288619.6875,317435.8125,323607.0625,308101.90625,292612.875,297686.0,298489.3125,331350.5,-0.02880859375,0.95556640625,-0.231201171875,-5.828856945037842,-5.218505382537842,5.096435070037842,80.0,1263312.0,1.0
1167633.7337606,287880.46875,313632.625,321302.125,305859.3125,290544.78125,295365.34375,295292.84375,328520.21875,-0.02685546875,0.953857421875,-0.229248046875,-5.828856945037842,-4.760741710662842,5.096435070037842,80.0,1263313.0,1.0
1167633.7425091,287036.28125,308107.8125,317738.375,302771.8125,287081.875,292484.75,289597.34375,323421.875,-0.0263671875,0.95263671875,-0.231201171875,-5.737304210662842,-4.241942882537842,4.913329601287842,80.0,1263314.0,1.0
1167633.7468503,287276.0,308520.6875,317914.0625,303178.1875,287070.71875,293048.28125,289378.5625,323194.0,-0.024658203125,0.95458984375,-0.23046875,-5.676269054412842,-3.723144292831421,4.730224132537842,80.0,1263315.0,1.0
1167633.7468822,288295.3125,314344.40625,321660.65625,306584.0625,290579.3125,296300.46875,295047.15625,328239.0625,-0.023681640625,0.952392578125,-0.228271484375,-5.554198741912842,-3.204345464706421,4.577636241912842,80.0,1263316.0,1.0
1167633.7487139,288660.625,317518.78125,323784.71875,308260.875,292761.1875,297730.78125,298774.53125,331589.40625,-0.021240234375,0.95166015625,-0.229248046875,-5.493163585662842,-2.807616949081421,4.486083507537842,80.0,1263317.0,1.0
1167633.762468,287909.15625,313720.6875,321464.5,305999.0625,290698.125,295412.125,295575.28125,328758.6875,-0.021728515625,0.951904296875,-0.225830078125,-5.371093273162842,-2.227782964706421,4.486083507537842,80.0,1263318.0,1.0
1167633.7655535,287064.71875,308161.90625,317867.5625,302884.5625,287221.4375,292518.375,289841.0,323630.5625,-0.02392578125,0.95068359375,-0.222412109375,-5.279540538787842,-1.7700194120407104,4.333495616912842,80.0,1263319.0,1.0
1167633.7655884,287298.0625,308537.3125,317986.3125,303232.1875,287163.78125,293067.3125,289546.375,323332.125,-0.0263671875,0.952392578125,-0.2236328125,-5.157470226287842,-1.4648436307907104,4.302978038787842,80.0,1263320.0,1.0
1167633.767506,288273.3125,314330.53125,321667.53125,306562.5,290623.5625,296298.75,295145.5,328314.59375,-0.025146484375,0.951904296875,-0.224609375,-5.187987804412842,-1.0681151151657104,4.180907726287842,80.0,1263321.0,1.0
1167633.7711664,288626.40625,317505.65625,323773.78125,308216.53125,292788.28125,297726.15625,298857.40625,331647.5,-0.026123046875,0.951904296875,-0.2216796875,-4.974364757537842,-0.5798339247703552,3.997802495956421,80.0,1263322.0,1.0
1167633.7799677,287908.625,313731.15625,321469.78125,305980.65625,290721.71875,295407.65625,295654.75,328811.78125,-0.026123046875,0.95166015625,-0.22021484375,-4.791259288787842,-0.2441406100988388,4.058837413787842,80.0,1263323.0,1.0
1167633.7830937,287063.1875,308172.46875,317884.375,302876.78125,287245.5,292502.8125,289915.46875,323681.875,-0.026611328125,0.9521484375,-0.22021484375,-4.821776866912842,0.0915527269244194,4.058837413787842,80.0,1263324.0,1.0
1167633.7831273,287293.59375,308533.03125,318010.8125,303243.4375,287193.90625,293046.21875,289627.21875,323392.46875,-0.026123046875,0.951171875,-0.222900390625,-4.760741710662842,0.3051757514476776,3.875732183456421,80.0,1263325.0,1.0
1167633.7850071,288269.375,314324.8125,321678.375,306567.96875,290649.9375,296281.96875,295225.53125,328373.78125,-0.025634765625,0.9501953125,-0.221435546875,-4.669188976287842,0.6713866591453552,3.814697027206421,80.0,1263326.0,1.0
1167633.7993273,288612.25,317513.0625,323761.5625,308202.3125,292806.4375,297715.9375,298927.5,331695.6875,-0.025634765625,0.950439453125,-0.220947265625,-4.516601085662842,0.8850097060203552,3.662109136581421,80.0,1263327.0,1.0
1167633.7993593,287874.9375,313728.90625,321429.53125,305935.84375,290725.03125,295395.03125,295705.90625,328840.5,-0.027099609375,0.947998046875,-0.21923828125,-4.302978038787842,1.1291502714157104,3.540038824081421,80.0,1263328.0,1.0
1167633.8018512,287044.15625,308146.78125,317808.75,302800.34375,287210.0,292476.625,289903.3125,323651.125,-0.028564453125,0.947998046875,-0.2197265625,-4.241942882537842,1.4343260526657104,3.356933355331421,80.0,1263329.0,1.0
1167633.8018832,287254.71875,308465.8125,317860.875,303086.8125,287091.4375,292988.125,289506.5,323264.0,-0.0283203125,0.9501953125,-0.21923828125,-3.997802495956421,1.6479490995407104,3.326415777206421,80.0,1263330.0,1.0
1167633.8037566,288205.71875,314236.3125,321487.65625,306369.84375,290520.84375,296218.90625,295052.6875,328203.09375,-0.02978515625,0.94970703125,-0.219970703125,-3.845214605331421,1.8005369901657104,3.295898199081421,80.0,1263331.0,1.0
1167633.8098472,288559.5,317446.46875,323586.5,308024.3125,292689.75,297677.25,298766.75,331540.84375,-0.02880859375,0.947998046875,-0.218017578125,-3.631591558456421,2.014159917831421,3.173827886581421,80.0,1263332.0,1.0
1167633.8181501,287848.375,313689.3125,321295.25,305807.46875,290629.375,295373.3125,295573.84375,328714.875,-0.028076171875,0.947021484375,-0.21923828125,-3.448486089706421,2.105712652206421,3.051757574081421,80.0,1263333.0,1.0
1167633.8181825,287022.59375,308103.625,317698.6875,302707.53125,287124.8125,292454.0,289782.25,323539.375,-0.028564453125,0.945556640625,-0.216064453125,-3.265380620956421,2.319335699081421,2.960204839706421,80.0,1263334.0,1.0
1167633.820008,287211.25,308386.59375,317728.90625,302969.40625,286981.5625,292942.96875,289351.9375,323121.5625,-0.025634765625,0.9443359375,-0.220703125,-2.868652105331421,2.502441167831421,2.807616949081421,80.0,1263335.0,1.0
1167633.8287614,288151.1875,314135.375,321323.59375,306220.625,290378.78125,296157.0625,294860.125,328021.53125,-0.026123046875,0.94482421875,-0.22265625,-2.716064214706421,2.807616949081421,2.685546636581421,80.0,1263336.0,1.0
1167633.831824,288503.53125,317370.03125,323422.4375,307871.6875,292540.0,297620.09375,298573.53125,331353.4375,-0.02392578125,0.94580078125,-0.220947265625,-2.532958745956421,2.899169683456421,2.685546636581421,80.0,1263337.0,1.0
1167633.8318554,287803.125,313644.96875,321170.8125,305689.28125,290507.96875,295333.4375,295416.125,328561.71875,-0.02587890625,0.94580078125,-0.2216796875,-2.258300542831421,2.929687261581421,2.685546636581421,80.0,1263338.0,1.0
1167633.8350204,286996.78125,308073.03125,317606.9375,302619.03125,287028.6875,292421.1875,289645.375,323406.6875,-0.023681640625,0.948486328125,-0.220703125,-2.075195074081421,3.051757574081421,2.746581792831421,80.0,1263339.0,1.0
1167633.848757,287193.375,308336.96875,317632.4375,302884.3125,286883.125,292907.28125,289199.84375,322976.1875,-0.023681640625,0.94970703125,-0.223388671875,-1.8615721464157104,3.173827886581421,2.777099370956421,80.0,1263340.0,1.0
1167633.8518524,288124.5625,314084.03125,321214.53125,306118.59375,290273.28125,296129.875,294695.0625,327865.3125,-0.02392578125,0.951171875,-0.221923828125,-1.6174315214157104,3.265380620956421,2.777099370956421,80.0,1263341.0,1.0
1167633.8518879,288489.78125,317352.3125,323333.28125,307785.9375,292457.5625,297617.875,298432.71875,331223.09375,-0.023193359375,0.95263671875,-0.222900390625,-1.4953612089157104,3.356933355331421,2.746581792831421,80.0,1263342.0,1.0
1167633.853731,287804.90625,313667.21875,321120.1875,305651.96875,290465.9375,295354.09375,295319.125,328477.3125,-0.02294921875,0.9541015625,-0.22314453125,-1.4038084745407104,3.448486089706421,2.807616949081421,80.0,1263343.0,1.0
1167633.8575123,286995.4375,308068.375,317557.15625,302589.96875,286984.0,292425.03125,289541.03125,323321.5625,-0.022705078125,0.95458984375,-0.219970703125,-1.3427733182907104,3.448486089706421,2.868652105331421,80.0,1263344.0,1.0
1167633.8718508,287176.65625,308291.625,317554.1875,302822.0,286808.9375,292881.09375,289051.0625,322854.34375,-0.0234375,0.95654296875,-0.2236328125,-1.3732908964157104,3.509521245956421,2.929687261581421,80.0,1263345.0,1.0
1167633.8718995,288085.75,314020.21875,321097.125,306010.40625,290166.25,296089.28125,294500.6875,327700.8125,-0.022216796875,0.95751953125,-0.224365234375,-1.3122557401657104,3.509521245956421,2.990722417831421,80.0,1263346.0,1.0
1167633.8737574,288430.40625,317284.28125,323204.53125,307669.4375,292351.96875,297574.0625,298243.71875,331064.75,-0.02197265625,0.95947265625,-0.224853515625,-1.2817381620407104,3.417968511581421,3.051757574081421,80.0,1263347.0,1.0
1167633.8762439,287764.6875,313606.34375,321001.8125,305552.21875,290358.46875,295314.21875,295136.84375,328322.03125,-0.022705078125,0.959716796875,-0.22509765625,-1.2512205839157104,3.417968511581421,3.234863042831421,80.0,1263348.0,1.0
1167633.8805645,286971.03125,308001.96875,317454.59375,302511.46875,286875.96875,292383.8125,289358.8125,323166.71875,-0.025634765625,0.962890625,-0.22265625,-1.3122557401657104,3.417968511581421,3.356933355331421,80.0,1263349.0,1.0
1167633.8805958,287157.6875,308208.3125,317437.96875,302729.28125,286682.25,292833.25,288839.625,322674.09375,-0.02685546875,0.962646484375,-0.22314453125,-1.3732908964157104,3.417968511581421,3.295898199081421,80.0,1263350.0,1.0
1167633.8887579,288056.25,313918.71875,320951.5,305886.9375,290020.59375,296032.59375,294257.34375,327493.03125,-0.02685546875,0.9609375,-0.223876953125,-1.4648436307907104,3.295898199081421,3.265380620956421,80.0,1263351.0,1.0
1167633.891816,288406.1875,317202.125,323052.5625,307537.5,292199.90625,297531.5,297992.5625,330844.625,-0.0263671875,0.959228515625,-0.225341796875,-1.4648436307907104,3.173827886581421,3.265380620956421,80.0,1263352.0,1.0
1167633.8918514,287762.28125,313564.0625,320880.6875,305449.84375,290227.5,295293.46875,294912.96875,328125.3125,-0.024658203125,0.957275390625,-0.2255859375,-1.4953612089157104,3.051757574081421,3.234863042831421,80.0,1263353.0,1.0
1167633.9025082,286964.5,307966.65625,317351.59375,302433.59375,286758.9375,292365.3125,289146.90625,322984.59375,-0.023681640625,0.958251953125,-0.223388671875,-1.4038084745407104,2.838134527206421,3.234863042831421,80.0,1263354.0,1.0
1167633.9068525,287090.28125,308097.25,317300.375,302627.96875,286547.84375,292773.0,288596.4375,322472.65625,-0.02392578125,0.961181640625,-0.223388671875,-1.3427733182907104,2.899169683456421,3.387450933456421,80.0,1263355.0,1.0
1167633.9068874,287991.34375,313768.96875,320762.125,305733.34375,289832.75,295947.3125,293950.40625,327226.6875,-0.02490234375,0.9599609375,-0.22216796875,-1.4038084745407104,2.746581792831421,3.295898199081421,80.0,1263356.0,1.0
1167633.9131493,288368.90625,317116.71875,322878.375,307390.5,292020.46875,297475.09375,297687.78125,330583.84375,-0.026611328125,0.959716796875,-0.224609375,-1.6479490995407104,2.624511480331421,3.295898199081421,80.0,1263357.0,1.0
1167633.9131831,287716.125,313505.59375,320760.0625,305361.84375,290106.4375,295262.09375,294676.90625,327937.75,-0.026123046875,0.953857421875,-0.226318359375,-1.6784666776657104,2.380370855331421,3.295898199081421,80.0,1263358.0,1.0
1167633.9237221,286909.5,307862.5625,317225.71875,302348.5625,286629.65625,292311.03125,288903.5625,322788.34375,-0.023193359375,0.94970703125,-0.225830078125,-1.8310545682907104,2.197265386581421,3.265380620956421,80.0,1263359.0,1.0
1167633.9268346,287056.40625,307979.6875,317144.1875,302504.9375,286380.03125,292708.09375,288300.5,322220.0,-0.02001953125,0.94775390625,-0.225341796875,-1.5563963651657104,2.258300542831421,3.265380620956421,80.0,1263360.0,1.0
1167633.9268708,287930.1875,313653.8125,320582.5,305582.78125,289665.125,295882.75,293634.6875,326961.25,-0.0185546875,0.949951171875,-0.222412109375,-1.4648436307907104,2.258300542831421,3.234863042831421,80.0,1263361.0,1.0
1167633.9287828,288289.15625,316979.5,322663.625,307207.5,291828.78125,297397.65625,297345.375,330288.875,-0.016845703125,0.955078125,-0.223876953125,-1.2817381620407104,2.227782964706421,3.143310308456421,80.0,1263362.0,1.0
1167633.9431173,287671.0625,313416.96875,320548.96875,305179.46875,289900.875,295202.71875,294317.875,327620.53125,-0.01416015625,0.956787109375,-0.22705078125,-1.3122557401657104,2.227782964706421,3.143310308456421,80.0,1263363.0,1.0
1167633.9431496,286897.09375,307824.03125,317053.0625,302199.90625,286448.34375,292277.5,288562.90625,322491.34375,-0.01123046875,0.955078125,-0.226318359375,-1.4648436307907104,2.319335699081421,3.326415777206421,80.0,1263364.0,1.0
1167633.949862,287013.84375,307899.6875,316964.125,302354.375,286203.71875,292662.65625,287944.03125,321917.09375,-0.010986328125,0.95263671875,-0.225341796875,-1.5258787870407104,2.319335699081421,3.356933355331421,80.0,1263365.0,1.0
1167633.9498856,287878.5,313541.625,320378.375,305404.5,289468.25,295821.25,293241.84375,326627.5625,-0.010986328125,0.949462890625,-0.22802734375,-1.4953612089157104,2.410888433456421,3.326415777206421,80.0,1263366.0,1.0
1167633.9498922,288221.65625,316872.46875,322473.46875,307045.21875,291650.3125,297342.21875,296977.4375,329982.5,-0.012939453125,0.947998046875,-0.22802734375,-1.3427733182907104,2.441406011581421,3.356933355331421,80.0,1263367.0,1.0
1167633.9524044,287612.4375,313306.5625,320383.46875,305052.25,289735.3125,295145.15625,293983.46875,327341.3125,-0.014892578125,0.951171875,-0.228515625,-1.2512205839157104,2.410888433456421,3.143310308456421,80.0,1263368.0,1.0
1167633.9612579,286874.46875,307749.75,316931.5625,302120.21875,286311.28125,292245.125,288268.125,322247.0,-0.01904296875,0.95556640625,-0.2294921875,-1.1596678495407104,2.380370855331421,2.960204839706421,80.0,1263369.0,1.0
1167633.9681291,287017.34375,307851.3125,316855.65625,302282.59375,286070.15625,292631.1875,287649.1875,321674.53125,-0.019775390625,0.95751953125,-0.2265625,-1.0375975370407104,2.380370855331421,2.929687261581421,80.0,1263370.0,1.0
1167633.9681614,287835.40625,313447.375,320240.25,305303.03125,289312.78125,295762.59375,292923.125,326365.09375,-0.0205078125,0.958740234375,-0.227783203125,-1.1596678495407104,2.380370855331421,2.807616949081421,80.0,1263371.0,1.0
1167633.974262,288220.46875,316822.21875,322345.59375,306943.1875,291493.3125,297312.28125,296659.78125,329715.34375,-0.023193359375,0.962158203125,-0.22607421875,-1.1901854276657104,2.258300542831421,2.685546636581421,80.0,1263372.0,1.0
1167633.9742959,287644.0,313340.4375,320317.5,305005.03125,289631.5,295162.5625,293725.90625,327131.125,-0.02587890625,0.963623046875,-0.2255859375,-1.2817381620407104,1.9836424589157104,2.471923589706421,80.0,1263373.0,1.0
1167633.9856016,286877.40625,307767.8125,316889.90625,302100.90625,286234.9375,292241.125,288045.25,322073.8125,-0.02587890625,0.95947265625,-0.228271484375,-1.3427733182907104,1.8310545682907104,2.380370855331421,80.0,1263374.0,1.0
1167633.9856347,286999.53125,307816.53125,316776.625,302222.5,285963.84375,292600.96875,287390.875,321467.53125,-0.02490234375,0.9560546875,-0.229248046875,-1.4953612089157104,1.6784666776657104,2.319335699081421,80.0,1263375.0,1.0
1167633.9918541,287806.34375,313385.40625,320101.6875,305181.4375,289158.09375,295707.5,292601.4375,326102.40625,-0.023681640625,0.953857421875,-0.232666015625,-1.5258787870407104,1.5258787870407104,2.075195074081421,80.0,1263376.0,1.0
1167633.9918873,288121.34375,316710.90625,322173.6875,306799.875,291329.78125,297232.09375,296327.09375,329449.625,-0.02294921875,0.95361328125,-0.231201171875,-1.3427733182907104,1.3427733182907104,2.014159917831421,80.0,1263377.0,1.0
1167634.0350152,287555.75,313233.34375,320169.4375,304892.90625,289489.4375,295094.375,293434.53125,326903.5,-0.023193359375,0.95361328125,-0.2314453125,-1.1901854276657104,1.2817381620407104,1.8615721464157104,80.0,1263378.0,1.0
1167634.0350681,286828.25,307690.46875,316780.1875,302025.625,286116.1875,292205.1875,287791.40625,321877.03125,-0.02392578125,0.95263671875,-0.2294921875,-1.1901854276657104,1.2207030057907104,1.8005369901657104,80.0,1263379.0,1.0
1167634.0350847,286945.8125,307693.15625,316627.9375,302112.0,285802.75,292536.34375,287081.71875,321217.1875,-0.025390625,0.953369140625,-0.228515625,-0.9765624403953552,1.2817381620407104,1.6174315214157104,80.0,1263380.0,1.0
1167634.037565,287755.9375,313242.375,319903.8125,305019.96875,288956.65625,295646.90625,292217.25,325778.9375,-0.024169921875,0.954345703125,-0.2294921875,-0.9765624403953552,1.2207030057907104,1.6784666776657104,80.0,1263381.0,1.0
1167634.0406615,288055.78125,316557.3125,321939.6875,306601.84375,291101.8125,297173.0625,295897.25,329083.78125,-0.02294921875,0.95458984375,-0.23095703125,-0.9460448622703552,1.1291502714157104,1.5869139432907104,80.0,1263382.0,1.0
1167634.0407115,287497.1875,313113.4375,319969.0,304729.21875,289291.75,295047.96875,293046.9375,326578.125,-0.024658203125,0.953125,-0.22802734375,-0.9155272841453552,1.1901854276657104,1.6174315214157104,80.0,1263383.0,1.0
1167634.0425944,286803.125,307621.1875,316631.25,301916.03125,285956.875,292175.59375,287454.4375,321602.625,-0.02392578125,0.953369140625,-0.229248046875,-0.8850097060203552,1.1901854276657104,1.7089842557907104,80.0,1263384.0,1.0
1167634.0450765,286917.8125,307616.6875,316480.5,301997.84375,285641.8125,292492.09375,286734.375,320937.1875,-0.023681640625,0.95263671875,-0.2314453125,-0.8850097060203552,1.2207030057907104,1.7395018339157104,80.0,1263385.0,1.0
1167634.0475533,287672.6875,313085.1875,319675.1875,304815.9375,288725.0,295549.09375,291776.65625,325413.15625,-0.02392578125,0.95166015625,-0.232421875,-0.7934569716453552,1.1901854276657104,1.7700194120407104,80.0,1263386.0,1.0
1167634.0500965,287971.125,316392.09375,321688.03125,306374.5625,290852.09375,297075.09375,295431.875,328695.90625,-0.02490234375,0.9541015625,-0.232421875,-0.7019042372703552,1.2512205839157104,1.7395018339157104,80.0,1263387.0,1.0
1167634.0525915,287452.46875,313008.375,319767.03125,304563.28125,289075.125,294983.59375,292629.40625,326233.84375,-0.025390625,0.95458984375,-0.2333984375,-0.7019042372703552,1.3427733182907104,1.8615721464157104,80.0,1263388.0,1.0
1167634.0550737,286793.8125,307572.71875,316485.53125,301803.1875,285782.09375,292140.34375,287089.5,321302.59375,-0.02685546875,0.954833984375,-0.234130859375,-0.7019042372703552,1.2512205839157104,1.8310545682907104,80.0,1263389.0,1.0
1167634.0575682,286869.8125,307523.71875,316291.15625,301841.375,285441.1875,292429.125,286322.90625,320596.53125,-0.026611328125,0.958984375,-0.2373046875,-0.6713866591453552,1.2512205839157104,1.9836424589157104,80.0,1263390.0,1.0
1167634.0600942,287589.0,312920.3125,319403.84375,304580.4375,288464.84375,295448.59375,291273.1875,324990.625,-0.025390625,0.95947265625,-0.236083984375,-0.6103515028953552,1.3427733182907104,2.105712652206421,80.0,1263391.0,1.0
1167634.0631792,287909.78125,316229.71875,321398.6875,306125.40625,290572.78125,296978.96875,294888.1875,328237.625,-0.0224609375,0.958984375,-0.236328125,-0.5187987685203552,1.3732908964157104,2.166747808456421,80.0,1263392.0,1.0
1167634.0632285,287417.15625,312906.09375,319526.78125,304366.40625,288833.0,294929.75,292131.78125,325817.375,-0.020263671875,0.959716796875,-0.238525390625,-0.5493163466453552,1.5258787870407104,2.288818120956421,80.0,1263393.0,1.0
1167634.065064,286775.3125,307519.875,316310.1875,301680.96875,285582.71875,292113.96875,286657.90625,320949.0625,-0.019287109375,0.957763671875,-0.23583984375,-0.4882812201976776,1.5869139432907104,2.441406011581421,80.0,1263394.0,1.0
1167634.0681745,286872.75,307493.0625,316169.1875,301772.15625,285281.5,292416.8125,285942.5625,320294.53125,-0.0166015625,0.957275390625,-0.2373046875,-0.5493163466453552,1.7089842557907104,2.532958745956421,80.0,1263395.0,1.0
1167634.0682306,287567.375,312851.3125,319282.09375,304509.90625,288312.40625,295418.46875,290901.625,324699.78125,-0.016357421875,0.95556640625,-0.239013671875,-0.5798339247703552,2.014159917831421,2.777099370956421,80.0,1263396.0,1.0
1167634.0700972,287882.15625,316156.15625,321282.75,306063.25,290424.8125,296946.15625,294541.28125,327964.84375,-0.017822265625,0.94775390625,-0.240478515625,-0.4272460639476776,2.197265386581421,2.990722417831421,80.0,1263397.0,1.0
1167634.079387,287456.6875,312935.0625,319517.03125,304406.8125,288760.0625,294954.625,291902.96875,325649.1875,-0.01806640625,0.942138671875,-0.23974609375,-0.3051757514476776,2.288818120956421,2.990722417831421,80.0,1263398.0,1.0
1167634.0794447,286844.78125,307618.125,316401.75,301813.375,285590.40625,292172.53125,286553.3125,320895.875,-0.0146484375,0.942138671875,-0.24072265625,-0.1220703050494194,2.563476324081421,3.021239995956421,80.0,1263399.0,1.0
1167634.0812666,286926.3125,307563.15625,316267.0,301902.15625,285297.0625,292455.6875,285861.03125,320261.875,-0.01025390625,0.942138671875,-0.241943359375,0.0610351525247097,2.899169683456421,3.265380620956421,80.0,1263400.0,1.0
1167634.090028,287601.25,312880.09375,319345.03125,304591.25,288303.90625,295428.46875,290788.4375,324637.375,-0.013427734375,0.942138671875,-0.2421875,0.2746581733226776,3.112792730331421,3.509521245956421,80.0,1263401.0,1.0
1167634.0943642,287903.09375,316190.90625,321349.15625,306132.09375,290429.5625,296958.5,294440.53125,327915.84375,-0.017822265625,0.944091796875,-0.241943359375,0.4577636420726776,3.356933355331421,3.662109136581421,80.0,1263402.0,1.0
1167634.0944124,287494.3125,313029.125,319652.125,304541.28125,288836.6875,295006.65625,291902.0,325692.8125,-0.022216796875,0.945556640625,-0.244384765625,0.7324218153953552,3.417968511581421,3.723144292831421,80.0,1263403.0,1.0
1167634.1025669,286922.75,307772.09375,316610.0625,302015.8125,285732.46875,292252.46875,286653.28125,321026.5,-0.022705078125,0.947265625,-0.244140625,0.8850097060203552,3.509521245956421,3.814697027206421,80.0,1263404.0,1.0
1167634.1069149,287020.03125,307729.8125,316493.375,302111.75,285454.40625,292536.15625,285988.96875,320414.25,-0.022705078125,0.947021484375,-0.24462890625,0.9460448622703552,3.570556402206421,3.967284917831421,80.0,1263405.0,1.0
1167634.1069663,287661.5,312991.65625,319531.78125,304761.9375,288440.25,295488.5625,290885.4375,324766.9375,-0.02294921875,0.94775390625,-0.243896484375,1.0986326932907104,3.631591558456421,4.119872570037842,80.0,1263406.0,1.0
1167634.1132157,287933.03125,316254.03125,321488.09375,306258.0,290536.03125,296999.53125,294510.0,328016.6875,-0.0244140625,0.950439453125,-0.24169921875,1.1596678495407104,3.540038824081421,4.180907726287842,80.0,1263407.0,1.0
1167634.1132703,287524.28125,313114.4375,319800.09375,304669.75,288948.4375,295051.34375,292001.875,325813.4375,-0.025634765625,0.951416015625,-0.2431640625,1.2512205839157104,3.509521245956421,4.333495616912842,80.0,1263408.0,1.0
1167634.1150093,286992.3125,307928.375,316816.40625,302197.46875,285896.09375,292340.8125,286835.125,321217.65625,-0.02734375,0.953125,-0.2451171875,1.2817381620407104,3.509521245956421,4.425048351287842,80.0,1263409.0,1.0
1167634.1300755,287064.1875,307854.34375,316671.75,302259.53125,285604.4375,292604.8125,286153.9375,320588.3125,-0.02880859375,0.95458984375,-0.243408203125,1.2207030057907104,3.356933355331421,4.394530773162842,80.0,1263410.0,1.0
1167634.1331742,287663.5625,313018.84375,319602.6875,304801.53125,288507.03125,295493.75,290934.53125,324827.09375,-0.029296875,0.955078125,-0.2421875,1.1291502714157104,3.204345464706421,4.547118663787842,80.0,1263411.0,1.0
1167634.1332247,287931.0625,316254.21875,321509.5625,306253.25,290559.5625,296994.78125,294502.03125,328021.0,-0.02978515625,0.9580078125,-0.242431640625,1.0681151151657104,2.990722417831421,4.791259288787842,80.0,1263412.0,1.0
1167634.1349878,287555.5625,313201.0625,319899.0,304748.875,289045.4375,295100.96875,292093.3125,325911.875,-0.027587890625,0.958740234375,-0.244140625,0.9155272841453552,2.899169683456421,4.943847179412842,80.0,1263413.0,1.0
1167634.1375056,287059.25,308087.4375,316996.75,302356.8125,286058.96875,292421.71875,287030.65625,321411.5,-0.029052734375,0.95751953125,-0.243408203125,0.8544921278953552,2.746581792831421,5.126952648162842,80.0,1263414.0,1.0
1167634.1412108,287122.125,308004.0,316850.21875,302407.59375,285765.375,292674.03125,286354.5625,320787.6875,-0.026123046875,0.9560546875,-0.24462890625,0.6713866591453552,2.563476324081421,5.401610851287842,80.0,1263415.0,1.0
1167634.1556665,287670.90625,313080.1875,319724.65625,304885.84375,288630.40625,295525.9375,291086.25,324985.625,-0.025634765625,0.9560546875,-0.243896484375,0.5798339247703552,2.441406011581421,5.554198741912842,80.0,1263416.0,1.0
1167634.1557274,287930.8125,316280.59375,321606.21875,306309.5625,290663.15625,297012.0625,294630.25,328152.0625,-0.024658203125,0.957275390625,-0.242919921875,0.3662109076976776,2.441406011581421,5.828856945037842,80.0,1263417.0,1.0
1167634.1575708,287596.34375,313292.625,320051.59375,304864.21875,289189.125,295158.28125,292289.40625,326095.6875,-0.022705078125,0.95751953125,-0.241455078125,0.2441406100988388,2.258300542831421,6.011962413787842,80.0,1263418.0,1.0
1167634.1600955,287128.5625,308255.96875,317223.40625,302543.9375,286262.5625,292516.75,287321.9375,321679.09375,-0.021240234375,0.959228515625,-0.24169921875,0.0610351525247097,2.105712652206421,6.256103038787842,80.0,1263419.0,1.0
1167634.1638181,287186.75,308156.71875,317072.84375,302591.9375,285974.125,292757.4375,286656.03125,321062.8125,-0.01708984375,0.958984375,-0.237548828125,-0.1831054538488388,2.014159917831421,6.561278820037842,80.0,1263420.0,1.0
1167634.172513,287699.0625,313132.65625,319851.5,304975.96875,288758.71875,295549.0,291277.5625,325157.0,-0.01318359375,0.957763671875,-0.239501953125,-0.3662109076976776,1.8920897245407104,6.805419445037842,80.0,1263421.0,1.0
1167634.1755413,287936.96875,316295.96875,321680.78125,306348.5625,290749.625,297019.03125,294767.03125,328271.40625,-0.008544921875,0.956787109375,-0.23876953125,-0.6103515028953552,1.8920897245407104,7.080077648162842,80.0,1263422.0,1.0
1167634.1755762,287634.96875,313393.09375,320196.34375,304978.3125,289339.59375,295221.0625,292523.1875,326301.15625,-0.00439453125,0.954345703125,-0.239013671875,-0.9155272841453552,1.8920897245407104,7.415771007537842,80.0,1263423.0,1.0
1167634.1775922,287219.65625,308466.25,317468.0,302755.71875,286501.46875,292638.71875,287688.34375,322003.1875,-0.00146484375,0.95361328125,-0.23583984375,-1.1901854276657104,1.9836424589157104,7.720946788787842,80.0,1263424.0,1.0
1167634.1919181,287256.6875,308330.09375,317290.09375,302768.0625,286187.09375,292845.0625,287003.28125,321366.15625,0.002197265625,0.9541015625,-0.2353515625,-1.3427733182907104,2.044677495956421,8.087157249450684,80.0,1263425.0,1.0
1167634.1919695,287727.84375,313211.0625,319976.6875,305054.03125,288900.15625,295588.6875,291522.71875,325368.09375,0.002685546875,0.95361328125,-0.234619140625,-1.4038084745407104,2.075195074081421,8.178709983825684,80.0,1263426.0,1.0
1167634.1944182,287941.25,316319.65625,321759.09375,306390.5,290858.25,297040.5625,294958.625,328439.0625,0.006591796875,0.95263671875,-0.230712890625,-1.6174315214157104,2.288818120956421,8.483885765075684,80.0,1263427.0,1.0
1167634.1944687,287676.4375,313482.59375,320321.4375,305068.875,289480.21875,295275.15625,292766.375,326517.53125,0.00830078125,0.953125,-0.23095703125,-1.8310545682907104,2.502441167831421,8.819579124450684,80.0,1263428.0,1.0
1167634.1963216,287281.96875,308630.03125,317657.46875,302903.0625,286687.4375,292718.375,288009.40625,322289.8125,0.010498046875,0.953369140625,-0.23193359375,-2.075195074081421,2.655029058456421,9.124754905700684,80.0,1263429.0,1.0
1167634.2025863,287297.1875,308457.3125,317458.96875,302888.78125,286357.25,292899.78125,287306.03125,321634.71875,0.0126953125,0.952880859375,-0.229736328125,-2.227782964706421,2.777099370956421,9.399413108825684,80.0,1263430.0,1.0
1167634.2063194,287706.9375,313211.34375,320038.90625,305074.3125,288983.84375,295575.09375,291704.21875,325523.03125,0.015869140625,0.955322265625,-0.23046875,-2.563476324081421,2.929687261581421,9.613036155700684,80.0,1263431.0,1.0
1167634.2156652,287901.75,316269.34375,321765.53125,306360.96875,290901.1875,297009.8125,295080.5,328536.78125,0.01611328125,0.95556640625,-0.2314453125,-2.746581792831421,3.051757574081421,9.887694358825684,80.0,1263432.0,1.0
1167634.2157143,287674.84375,313522.21875,320387.0625,305100.15625,289570.71875,295296.78125,292957.4375,326673.4375,0.016845703125,0.9580078125,-0.228515625,-2.899169683456421,3.204345464706421,10.101317405700684,80.0,1263433.0,1.0
1167634.2182161,287317.03125,308752.25,317802.125,303012.40625,286844.96875,292783.1875,288294.875,322530.15625,0.019775390625,0.959228515625,-0.22705078125,-3.112792730331421,3.295898199081421,10.223387718200684,80.0,1263434.0,1.0
1167634.2182726,287325.15625,308552.625,317589.0625,302984.25,286503.15625,292945.46875,287573.4375,321858.25,0.018310546875,0.963134765625,-0.2275390625,-3.326415777206421,3.509521245956421,10.437010765075684,80.0,1263435.0,1.0
1167634.2286812,287691.90625,313201.0625,320073.0625,305075.03125,289050.4375,295559.90625,291857.03125,325640.96875,0.01953125,0.96435546875,-0.224853515625,-3.631591558456421,3.631591558456421,10.650633811950684,80.0,1263436.0,1.0
1167634.2369177,287886.46875,316226.25,321767.875,306338.625,290935.9375,296982.1875,295179.3125,328603.75,0.021484375,0.962890625,-0.224609375,-3.936767339706421,3.509521245956421,10.650633811950684,80.0,1263437.0,1.0
1167634.2369667,287687.15625,313536.78125,320439.0,305136.09375,289642.5,295302.3125,293116.21875,326790.375,0.0224609375,0.96337890625,-0.223876953125,-4.211425304412842,3.601073980331421,10.711668968200684,80.0,1263438.0,1.0
1167634.2388198,287361.71875,308854.1875,317916.46875,303110.78125,286963.59375,292828.96875,288533.9375,322714.875,0.023193359375,0.96484375,-0.22216796875,-4.425048351287842,3.662109136581421,10.650633811950684,80.0,1263439.0,1.0
1167634.2413182,287356.09375,308631.46875,317696.0,303072.0625,286617.15625,292980.96875,287802.78125,322037.15625,0.0244140625,0.96484375,-0.2236328125,-4.669188976287842,3.631591558456421,10.681151390075684,80.0,1263440.0,1.0
1167634.2450928,287686.09375,313165.125,320100.6875,305091.59375,289100.15625,295545.40625,291984.34375,325734.9375,0.02734375,0.96240234375,-0.2197265625,-4.852294445037842,3.601073980331421,10.650633811950684,80.0,1263441.0,1.0
1167634.2588547,287860.4375,316143.625,321734.0625,306298.03125,290930.5,296942.3125,295235.28125,328633.5,0.029296875,0.963623046875,-0.215576171875,-5.096435070037842,3.692626714706421,10.589598655700684,80.0,1263442.0,1.0
1167634.2637552,287680.90625,313517.03125,320447.0625,305137.71875,289671.8125,295299.28125,293222.4375,326872.375,0.031982421875,0.965087890625,-0.215576171875,-5.187987804412842,3.692626714706421,10.620116233825684,80.0,1263443.0,1.0
1167634.2638115,287395.78125,308916.84375,318002.40625,303187.84375,287055.96875,292869.1875,288727.59375,322879.28125,0.02880859375,0.966796875,-0.210693359375,-5.432128429412842,3.631591558456421,10.559081077575684,80.0,1263444.0,1.0
1167634.2638413,287380.6875,308672.5,317764.65625,303134.71875,286696.09375,293000.90625,287975.875,322184.125,0.027099609375,0.966552734375,-0.20947265625,-5.676269054412842,3.631591558456421,10.314940452575684,80.0,1263445.0,1.0
1167634.2669162,287658.90625,313114.0625,320080.21875,305062.34375,289107.9375,295511.0,292054.96875,325788.125,0.02587890625,0.966796875,-0.209228515625,-5.828856945037842,3.356933355331421,10.101317405700684,80.0,1263446.0,1.0
1167634.2669707,287821.625,316063.4375,321684.625,306240.375,290916.375,296903.0625,295263.6875,328651.46875,0.025146484375,0.970703125,-0.207763671875,-5.981444835662842,3.204345464706421,9.857176780700684,80.0,1263447.0,1.0
1167634.2775975,287688.78125,313531.0625,320474.40625,305154.875,289716.25,295316.1875,293330.53125,326958.46875,0.025634765625,0.970458984375,-0.20849609375,-6.195067882537842,2.960204839706421,9.552000999450684,80.0,1263448.0,1.0
1167634.2819164,287434.15625,309011.90625,318108.25,303281.90625,287163.0625,292923.1875,288928.3125,323048.34375,0.0234375,0.970947265625,-0.2060546875,-6.347655773162842,2.716064214706421,9.338377952575684,80.0,1263449.0,1.0
1167634.2819656,287407.875,308741.625,317857.65625,303212.96875,286791.3125,293030.84375,288159.96875,322338.71875,0.023193359375,0.968994140625,-0.205322265625,-6.591796398162842,2.441406011581421,8.911131858825684,80.0,1263450.0,1.0
1167634.2956215,287669.28125,313101.03125,320102.5625,305071.46875,289142.625,295497.3125,292149.03125,325855.375,0.0224609375,0.966064453125,-0.200439453125,-6.683349132537842,2.014159917831421,8.483885765075684,80.0,1263451.0,1.0
1167634.2956713,287821.09375,316025.78125,321675.6875,306224.625,290927.90625,296879.8125,295324.125,328683.5,0.019775390625,0.964111328125,-0.196044921875,-6.774901866912842,1.6479490995407104,7.995604991912842,80.0,1263452.0,1.0
1167634.298211,287708.8125,313554.21875,320513.40625,305189.3125,289768.125,295325.3125,293449.28125,327042.96875,0.018310546875,0.961669921875,-0.196044921875,-6.927489757537842,1.2207030057907104,7.415771007537842,80.0,1263453.0,1.0
1167634.2982664,287491.09375,309122.0625,318222.59375,303387.21875,287274.65625,292977.90625,289135.46875,323211.0625,0.0166015625,0.961669921875,-0.19287109375,-6.896972179412842,0.7934569716453552,6.866454601287842,80.0,1263454.0,1.0
1167634.3044103,287454.34375,308838.53125,317968.6875,303305.21875,286903.34375,293075.09375,288368.625,322502.0625,0.013671875,0.95947265625,-0.1904296875,-6.805419445037842,0.2441406100988388,6.225585460662842,80.0,1263455.0,1.0
1167634.3044607,287654.1875,313085.28125,320128.59375,305083.09375,289191.71875,295484.875,292265.25,325941.28125,0.012939453125,0.958984375,-0.18994140625,-6.713866710662842,-0.2441406100988388,5.584716320037842,80.0,1263456.0,1.0
1167634.3100739,287783.375,315961.9375,321651.625,306190.84375,290934.25,296848.53125,295383.5,328716.65625,0.0126953125,0.956298828125,-0.190673828125,-6.591796398162842,-0.7324218153953552,4.852294445037842,80.0,1263457.0,1.0
1167634.3194155,287717.3125,313580.9375,320553.4375,305226.125,289825.15625,295342.90625,293584.09375,327144.4375,0.01171875,0.953857421875,-0.19140625,-6.530761241912842,-1.2207030057907104,4.180907726287842,80.0,1263458.0,1.0
1167634.3194649,287529.375,309221.75,318330.96875,303494.40625,287387.84375,293027.4375,289351.125,323390.875,0.009521484375,0.954345703125,-0.19140625,-6.439208507537842,-1.8005369901657104,3.448486089706421,80.0,1263459.0,1.0
1167634.3219215,287474.84375,308896.90625,318055.5,303387.3125,286995.34375,293099.34375,288557.90625,322658.1875,0.008544921875,0.954345703125,-0.18994140625,-6.225585460662842,-2.258300542831421,2.655029058456421,80.0,1263460.0,1.0
1167634.3219748,287627.96875,313040.3125,320123.75,305067.875,289205.125,295455.5625,292347.78125,325997.34375,0.010009765625,0.952880859375,-0.192138671875,-6.072997570037842,-2.746581792831421,1.8615721464157104,80.0,1263461.0,1.0
1167634.336277,287746.34375,315885.0625,321604.59375,306136.125,290912.34375,296807.75,295415.875,328725.25,0.01025390625,0.953369140625,-0.1904296875,-5.889892101287842,-3.082275152206421,1.0986326932907104,80.0,1263462.0,1.0
1167634.3437418,287703.53125,313554.40625,320542.0,305209.875,289828.65625,295329.59375,293653.21875,327183.78125,0.01171875,0.953369140625,-0.19140625,-5.615233898162842,-3.601073980331421,0.2441406100988388,80.0,1263463.0,1.0
1167634.343791,287552.34375,309267.5,318385.59375,303545.90625,287441.40625,293043.1875,289490.15625,323490.1875,0.01220703125,0.95263671875,-0.19287109375,-5.371093273162842,-4.028319835662842,-0.5187987685203552,80.0,1263464.0,1.0
1167634.3438064,287479.5625,308906.03125,318081.0625,303411.09375,287024.03125,293085.9375,288663.3125,322727.09375,0.010498046875,0.949951171875,-0.19140625,-5.157470226287842,-4.364013195037842,-1.1596678495407104,80.0,1263465.0,1.0
1167634.3469358,287589.09375,312948.40625,320050.71875,304997.96875,289157.03125,295398.15625,292345.46875,325965.15625,0.012451171875,0.94873046875,-0.1923828125,-5.065917491912842,-4.821776866912842,-2.014159917831421,80.0,1263466.0,1.0
1167634.346991,287690.3125,315748.09375,321487.75,306031.15625,290831.34375,296745.34375,295357.9375,328644.5,0.012451171875,0.950439453125,-0.19384765625,-4.669188976287842,-5.035399913787842,-2.716064214706421,80.0,1263467.0,1.0
1167634.3600708,287692.71875,313502.375,320493.0,305176.6875,289799.59375,295316.90625,293659.375,327165.09375,0.009765625,0.951904296875,-0.1923828125,-4.394530773162842,-5.187987804412842,-3.356933355331421,80.0,1263468.0,1.0
1167634.3632106,287590.15625,309307.84375,318424.9375,303598.9375,287482.15625,293078.21875,289582.15625,323556.09375,0.01171875,0.952880859375,-0.1953125,-4.180907726287842,-5.401610851287842,-3.997802495956421,80.0,1263469.0,1.0
1167634.3632605,287505.0625,308927.3125,318116.84375,303457.65625,287062.40625,293113.5625,288743.78125,322787.8125,0.011474609375,0.9541015625,-0.192626953125,-4.028319835662842,-5.493163585662842,-4.516601085662842,80.0,1263470.0,1.0
1167634.3668879,287560.5625,312872.65625,319997.59375,304955.40625,289123.3125,295373.75,292323.8125,325935.21875,0.013916015625,0.950927734375,-0.19287109375,-3.723144292831421,-5.523681163787842,-4.974364757537842,80.0,1263471.0,1.0
1167634.3669366,287624.5,315617.09375,321361.6875,305919.75,290737.125,296686.4375,295262.34375,328542.9375,0.01513671875,0.951416015625,-0.191162109375,-3.570556402206421,-5.645751476287842,-5.340575695037842,80.0,1263472.0,1.0
1167634.3750049,287672.34375,313451.75,320426.75,305129.84375,289751.75,295301.15625,293627.5625,327118.34375,0.013427734375,0.952880859375,-0.192138671875,-3.234863042831421,-5.615233898162842,-5.828856945037842,80.0,1263473.0,1.0
1167634.377594,287615.65625,309346.71875,318442.09375,303630.75,287494.5,293098.09375,289632.9375,323582.5625,0.01123046875,0.95263671875,-0.19384765625,-3.021239995956421,-5.554198741912842,-6.164550304412842,80.0,1263474.0,1.0
1167634.3813004,287518.375,308943.0625,318123.90625,303473.3125,287068.21875,293114.4375,288780.71875,322800.25,0.008544921875,0.9560546875,-0.19384765625,-2.899169683456421,-5.371093273162842,-6.347655773162842,80.0,1263475.0,1.0
1167634.3956674,287509.0625,312775.5,319901.03125,304867.34375,289052.15625,295317.25,292251.40625,325850.8125,0.008544921875,0.95947265625,-0.192626953125,-2.624511480331421,-5.340575695037842,-6.439208507537842,80.0,1263476.0,1.0
1167634.3957183,287558.15625,315475.21875,321220.96875,305795.21875,290632.0625,296622.5,295133.4375,328412.78125,0.004638671875,0.962646484375,-0.19140625,-2.624511480331421,-5.310058116912842,-6.561278820037842,80.0,1263477.0,1.0
1167634.3975456,287649.71875,313380.78125,320347.09375,305068.5,289690.15625,295281.125,293548.875,327034.46875,-0.00341796875,0.963623046875,-0.19189453125,-2.502441167831421,-5.340575695037842,-6.408690929412842,80.0,1263478.0,1.0
1167634.4006932,287640.21875,309362.8125,318449.6875,303653.5625,287494.78125,293114.71875,289635.15625,323572.28125,-0.006103515625,0.96435546875,-0.1904296875,-2.563476324081421,-5.401610851287842,-6.347655773162842,80.0,1263479.0,1.0
1167634.4007488,287539.46875,308948.34375,318128.8125,303489.125,287060.96875,293116.40625,288771.40625,322783.625,-0.010009765625,0.96435546875,-0.1923828125,-2.624511480331421,-5.401610851287842,-6.225585460662842,80.0,1263480.0,1.0
1167634.4025906,287478.125,312680.1875,319818.78125,304796.71875,288975.09375,295271.84375,292145.375,325749.96875,-0.01220703125,0.9638671875,-0.194091796875,-2.532958745956421,-5.554198741912842,-6.042479991912842,80.0,1263481.0,1.0
1167634.4113507,287504.34375,315343.0625,321087.90625,305675.0625,290515.84375,296564.03125,294977.25,328267.21875,-0.016845703125,0.96337890625,-0.1953125,-2.502441167831421,-5.645751476287842,-6.011962413787842,80.0,1263482.0,1.0
1167634.4156761,287639.78125,313327.21875,320275.75,305014.0625,289619.4375,295261.8125,293456.78125,326946.9375,-0.014892578125,0.963134765625,-0.19677734375,-2.441406011581421,-5.859374523162842,-5.798339366912842,80.0,1263483.0,1.0
1167634.4157263,287674.21875,309393.5625,318459.34375,303679.84375,287486.28125,293134.75,289623.0,323558.25,-0.015380859375,0.962646484375,-0.19775390625,-2.471923589706421,-5.981444835662842,-5.584716320037842,80.0,1263484.0,1.0
1167634.4175959,287557.875,308955.3125,318123.71875,303495.21875,287041.21875,293117.3125,288738.6875,322749.28125,-0.016357421875,0.963623046875,-0.19921875,-2.349853277206421,-6.011962413787842,-5.432128429412842,80.0,1263485.0,1.0
1167634.4286708,287446.03125,312599.71875,319737.78125,304723.65625,288897.125,295233.03125,292032.4375,325641.15625,-0.016845703125,0.967041015625,-0.197021484375,-2.319335699081421,-6.042479991912842,-5.249022960662842,80.0,1263486.0,1.0
1167634.4369177,287449.96875,315233.1875,320972.0625,305567.21875,290411.75,296518.25,294830.96875,328126.125,-0.01953125,0.970703125,-0.197998046875,-2.502441167831421,-6.072997570037842,-5.035399913787842,80.0,1263487.0,1.0
1167634.43697,287619.40625,313292.625,320217.1875,304966.6875,289559.53125,295253.9375,293377.03125,326867.71875,-0.01611328125,0.97412109375,-0.199951171875,-2.593993902206421,-6.164550304412842,-4.791259288787842,80.0,1263488.0,1.0
1167634.4388436,287708.0,309446.0625,318490.03125,303723.9375,287493.6875,293165.40625,289633.375,323566.0,-0.012939453125,0.97509765625,-0.198974609375,-2.838134527206421,-6.164550304412842,-4.394530773162842,80.0,1263489.0,1.0
1167634.4413435,287579.96875,308984.1875,318151.71875,303536.25,287047.90625,293132.59375,288743.0625,322755.4375,-0.00830078125,0.97509765625,-0.196533203125,-3.021239995956421,-6.164550304412842,-4.089354991912842,80.0,1263490.0,1.0
1167634.4450983,287415.65625,312547.6875,319686.71875,304684.96875,288849.1875,295208.96875,291963.875,325578.9375,-0.00537109375,0.974853515625,-0.19384765625,-3.204345464706421,-6.042479991912842,-3.662109136581421,80.0,1263491.0,1.0
1167634.4538467,287395.15625,315154.15625,320876.375,305485.875,290331.84375,296479.71875,294724.9375,328030.0,-0.004150390625,0.972900390625,-0.1953125,-3.448486089706421,-5.828856945037842,-3.143310308456421,80.0,1263492.0,1.0
1167634.4582109,287602.40625,313269.90625,320171.15625,304936.46875,289516.875,295243.65625,293320.34375,326815.96875,-0.005126953125,0.97021484375,-0.19384765625,-3.631591558456421,-5.615233898162842,-2.685546636581421,80.0,1263493.0,1.0
1167634.4582622,287743.3125,309500.5,318521.5,303768.1875,287507.03125,293188.65625,289649.375,323580.6875,-0.00732421875,0.967529296875,-0.19580078125,-3.692626714706421,-5.371093273162842,-2.349853277206421,80.0,1263494.0,1.0
1167634.4613452,287602.21875,309018.78125,318179.96875,303566.125,287049.875,293136.78125,288751.03125,322763.5,-0.01025390625,0.96484375,-0.191650390625,-3.814697027206421,-5.187987804412842,-2.075195074081421,80.0,1263495.0,1.0
1167634.4782195,287390.78125,312508.0625,319649.28125,304642.65625,288797.0625,295174.46875,291907.4375,325529.03125,-0.01123046875,0.965576171875,-0.19091796875,-3.845214605331421,-5.096435070037842,-1.8615721464157104,80.0,1263496.0,1.0
1167634.4782696,287353.59375,315089.15625,320807.375,305417.1875,290259.78125,296446.375,294647.3125,327955.8125,-0.011962890625,0.96435546875,-0.18994140625,-3.967284917831421,-5.065917491912842,-1.6479490995407104,80.0,1263497.0,1.0
1167634.4850014,287598.65625,313275.90625,320152.09375,304925.09375,289488.90625,295254.03125,293300.40625,326795.46875,-0.01025390625,0.962646484375,-0.186279296875,-3.997802495956421,-4.913329601287842,-1.4648436307907104,80.0,1263498.0,1.0
1167634.4850515,287779.4375,309565.96875,318564.125,303822.625,287528.46875,293227.0,289689.0,323619.46875,-0.002685546875,0.95947265625,-0.183837890625,-4.089354991912842,-4.882812023162842,-1.1596678495407104,80.0,1263499.0,1.0
1167634.4850651,287634.0625,309068.21875,318219.5625,303619.9375,287069.46875,293158.875,288780.25,322798.8125,-0.000244140625,0.9560546875,-0.18505859375,-4.180907726287842,-4.699706554412842,-0.9460448622703552,80.0,1263500.0,1.0
1167634.4875924,287384.09375,312495.1875,319635.0625,304641.96875,288774.53125,295168.5625,291880.71875,325516.59375,0.00048828125,0.952392578125,-0.185546875,-4.119872570037842,-4.455565929412842,-0.7324218153953552,80.0,1263501.0,1.0
1167634.4900564,287350.90625,315080.125,320789.84375,305408.71875,290239.75,296451.46875,294621.03125,327947.59375,-0.000244140625,0.949462890625,-0.18505859375,-4.119872570037842,-4.211425304412842,-0.6408690810203552,80.0,1263502.0,1.0
1167634.4925932,287626.65625,313306.125,320177.84375,304955.5,289496.21875,295275.15625,293315.0625,326823.125,-0.00390625,0.94873046875,-0.180908203125,-3.997802495956421,-4.028319835662842,-0.5798339247703552,80.0,1263503.0,1.0
1167634.496233,287844.34375,309647.125,318649.6875,303908.09375,287576.5,293269.5625,289759.8125,323692.25,-0.00244140625,0.9521484375,-0.1796875,-3.967284917831421,-3.784179449081421,-0.5493163466453552,80.0,1263504.0,1.0
1167634.5049811,287695.03125,309144.21875,318306.8125,303702.8125,287123.09375,293199.1875,288854.1875,322868.09375,-0.003173828125,0.95361328125,-0.179443359375,-3.875732183456421,-3.631591558456421,-0.5187987685203552,80.0,1263505.0,1.0
1167634.5092969,287401.875,312510.46875,319665.8125,304659.9375,288790.625,295182.15625,291902.71875,325532.4375,-0.00244140625,0.95361328125,-0.177978515625,-3.967284917831421,-3.448486089706421,-0.2746581733226776,80.0,1263506.0,1.0
1167634.5093323,287335.71875,315059.5625,320773.3125,305377.59375,290225.71875,296447.0,294604.15625,327922.71875,-0.00341796875,0.953369140625,-0.17822265625,-4.058837413787842,-3.295898199081421,-0.3967284858226776,80.0,1263507.0,1.0
1167634.5200963,287632.625,313335.96875,320184.5625,304953.4375,289505.875,295292.5,293327.6875,326824.8125,-0.00537109375,0.953125,-0.177978515625,-4.028319835662842,-3.173827886581421,-0.3662109076976776,80.0,1263508.0,1.0
1167634.5232122,287850.59375,309697.125,318671.0625,303922.40625,287591.78125,293274.46875,289783.6875,323705.5,-0.004638671875,0.954345703125,-0.17626953125,-4.058837413787842,-3.112792730331421,-0.4882812201976776,80.0,1263509.0,1.0
1167634.5232627,287691.28125,309164.78125,318318.71875,303704.53125,287128.75,293187.03125,288859.28125,322868.0,-0.0068359375,0.956787109375,-0.177490234375,-4.150390148162842,-2.960204839706421,-0.5798339247703552,80.0,1263510.0,1.0
1167634.5250939,287369.0625,312478.125,319634.53125,304621.125,288767.9375,295149.0625,291862.3125,325494.0625,-0.010009765625,0.9580078125,-0.1767578125,-4.272460460662842,-3.021239995956421,-0.6408690810203552,80.0,1263511.0,1.0
1167634.5413171,287284.40625,315009.9375,320717.40625,305312.9375,290181.1875,296411.0625,294548.0,327864.78125,-0.009033203125,0.959228515625,-0.1767578125,-4.272460460662842,-3.021239995956421,-0.7019042372703552,80.0,1263512.0,1.0
1167634.5413709,287613.78125,313337.40625,320175.0,304932.71875,289496.84375,295288.03125,293322.84375,326808.53125,-0.008056640625,0.96533203125,-0.17724609375,-4.425048351287842,-2.960204839706421,-0.7019042372703552,80.0,1263513.0,1.0
1167634.5413882,287889.21875,309769.1875,318745.46875,303987.3125,287650.0625,293314.4375,289860.3125,323764.6875,-0.0078125,0.9677734375,-0.1748046875,-4.547118663787842,-2.929687261581421,-0.7629393935203552,80.0,1263514.0,1.0
1167634.543836,287732.9375,309241.59375,318406.0625,303778.625,287195.4375,293221.65625,288947.8125,322938.5625,-0.009765625,0.970458984375,-0.17529296875,-4.669188976287842,-2.899169683456421,-0.7629393935203552,80.0,1263515.0,1.0
1167634.5463652,287379.34375,312508.78125,319678.25,304645.71875,288801.625,295156.5,291911.65625,325529.46875,-0.009521484375,0.971923828125,-0.173095703125,-4.882812023162842,-2.899169683456421,-0.8239745497703552,80.0,1263516.0,1.0
1167634.548849,287270.53125,315011.28125,320726.8125,305305.34375,290192.96875,296400.40625,294568.5625,327875.78125,-0.011962890625,0.972412109375,-0.1708984375,-5.004882335662842,-2.960204839706421,-0.8239745497703552,80.0,1263517.0,1.0
1167634.5582154,287627.0,313386.75,320225.9375,304969.71875,289546.21875,295310.46875,293391.25,326864.59375,-0.0166015625,0.9736328125,-0.169921875,-5.187987804412842,-3.112792730331421,-0.7629393935203552,80.0,1263518.0,1.0
1167634.5582701,287931.53125,309855.8125,318839.15625,304070.5625,287727.5,293356.125,289970.625,323858.28125,-0.02001953125,0.97265625,-0.167724609375,-5.432128429412842,-3.204345464706421,-0.7019042372703552,80.0,1263519.0,1.0
1167634.5600929,287764.875,309308.46875,318498.34375,303863.84375,287268.9375,293249.90625,289050.4375,323024.5625,-0.025146484375,0.97021484375,-0.16650390625,-5.615233898162842,-3.356933355331421,-0.7934569716453552,80.0,1263520.0,1.0
1167634.5744243,287375.125,312529.71875,319730.09375,304689.34375,288846.6875,295162.3125,291981.125,325580.4375,-0.027587890625,0.968994140625,-0.164306640625,-5.584716320037842,-3.662109136581421,-0.8850097060203552,80.0,1263521.0,1.0
1167634.5744741,287249.78125,315022.90625,320759.53125,305326.625,290222.65625,296406.3125,294631.5,327917.71875,-0.029296875,0.9677734375,-0.166259765625,-5.584716320037842,-3.967284917831421,-1.0070799589157104,80.0,1263522.0,1.0
1167634.5763447,287640.0625,313445.5,320299.71875,305032.65625,289613.71875,295348.625,293503.53125,326957.03125,-0.02978515625,0.9697265625,-0.166748046875,-5.554198741912842,-4.211425304412842,-0.9460448622703552,80.0,1263523.0,1.0
1167634.5788485,287989.625,309976.6875,318969.875,304184.375,287846.40625,293427.53125,290138.4375,324008.75,-0.030029296875,0.968505859375,-0.164794921875,-5.615233898162842,-4.608153820037842,-0.9765624403953552,80.0,1263524.0,1.0
1167634.5813415,287818.40625,309411.46875,318612.59375,303957.0,287374.25,293306.40625,289203.0625,323163.875,-0.029052734375,0.96728515625,-0.161865234375,-5.584716320037842,-5.096435070037842,-1.0681151151657104,80.0,1263525.0,1.0
1167634.5850822,287399.71875,312575.5625,319795.625,304733.15625,288912.9375,295193.0625,292089.3125,325678.25,-0.029052734375,0.964111328125,-0.163818359375,-5.584716320037842,-5.493163585662842,-1.1596678495407104,80.0,1263526.0,1.0
1167634.601919,287270.8125,315056.4375,320809.34375,305355.78125,290285.0625,296441.28125,294735.125,328011.875,-0.030517578125,0.96044921875,-0.165283203125,-5.554198741912842,-6.011962413787842,-1.2207030057907104,80.0,1263527.0,1.0
1167634.6019683,287647.46875,313485.8125,320341.28125,305053.6875,289663.6875,295370.28125,293605.46875,327042.875,-0.02783203125,0.956298828125,-0.16943359375,-5.401610851287842,-6.469726085662842,-1.2817381620407104,80.0,1263528.0,1.0
1167634.6037992,287997.59375,310025.3125,319019.21875,304215.46875,287897.53125,293439.96875,290247.0625,324095.03125,-0.024169921875,0.95556640625,-0.171142578125,-4.974364757537842,-6.866454601287842,-1.3427733182907104,80.0,1263529.0,1.0
1167634.6063457,287821.0,309454.71875,318662.3125,303988.125,287430.125,293315.34375,289313.125,323252.09375,-0.022216796875,0.95458984375,-0.16943359375,-4.608153820037842,-7.232665538787842,-1.3122557401657104,80.0,1263530.0,1.0
1167634.6088037,287405.28125,312620.71875,319845.34375,304765.96875,288979.09375,295214.34375,292206.4375,325780.09375,-0.020751953125,0.954833984375,-0.167724609375,-4.394530773162842,-7.598876476287842,-1.2207030057907104,80.0,1263531.0,1.0
1167634.6118692,287269.0,315093.0,320845.09375,305381.78125,290342.90625,296461.46875,294846.34375,328110.21875,-0.016845703125,0.95556640625,-0.165771484375,-3.906249761581421,-7.904052257537842,-0.9765624403953552,80.0,1263532.0,1.0
1167634.6119186,287646.75,313538.5,320387.96875,305094.25,289730.125,295399.96875,293737.34375,327158.75,-0.016357421875,0.95703125,-0.1689453125,-3.631591558456421,-8.056639671325684,-0.7019042372703552,80.0,1263533.0,1.0
1167634.6200496,288007.6875,310087.375,319084.65625,304274.84375,287975.15625,293473.84375,290398.34375,324227.96875,-0.017333984375,0.959228515625,-0.1708984375,-3.173827886581421,-8.270262718200684,-0.3967284858226776,80.0,1263534.0,1.0
1167634.6225946,287834.875,309495.3125,318725.0625,304046.6875,287501.5625,293341.4375,289451.625,323369.75,-0.017578125,0.9619140625,-0.170654296875,-2.777099370956421,-8.483885765075684,0.2746581733226776,80.0,1263535.0,1.0
1167634.6262428,287388.90625,312604.53125,319866.0,304784.375,289015.125,295209.875,292300.3125,325852.5,-0.01611328125,0.96484375,-0.17138671875,-2.319335699081421,-8.697508811950684,1.1596678495407104,80.0,1263536.0,1.0
1167634.6354954,287248.4375,315084.34375,320861.625,305388.3125,290381.8125,296468.1875,294947.09375,328184.875,-0.012939453125,0.964599609375,-0.175537109375,-2.105712652206421,-8.911131858825684,2.227782964706421,80.0,1263537.0,1.0
1167634.6355513,287640.9375,313557.53125,320419.4375,305106.78125,289783.125,295419.4375,293856.96875,327248.875,-0.011962890625,0.964599609375,-0.176025390625,-1.8310545682907104,-9.094237327575684,3.417968511581421,80.0,1263538.0,1.0
1167634.6413039,288015.90625,310113.75,319123.28125,304294.0625,288032.46875,293491.46875,290514.65625,324320.6875,-0.01171875,0.96240234375,-0.177490234375,-1.3732908964157104,-9.033202171325684,4.760741710662842,80.0,1263539.0,1.0
1167634.6438445,287843.90625,309501.84375,318752.25,304054.1875,287546.53125,293346.53125,289544.96875,323447.28125,-0.01220703125,0.963134765625,-0.1796875,-0.9155272841453552,-9.094237327575684,6.042479991912842,80.0,1263540.0,1.0
1167634.6475424,287381.75,312585.21875,319867.15625,304765.875,289033.46875,295201.8125,292364.75,325904.8125,-0.017822265625,0.964599609375,-0.181640625,-0.3356933295726776,-9.155272483825684,7.324218273162842,80.0,1263541.0,1.0
1167634.6769385,287234.3125,315059.65625,320860.03125,305369.46875,290395.3125,296461.65625,295012.375,328238.25,-0.01953125,0.96630859375,-0.18115234375,0.1831054538488388,-9.185790061950684,8.331297874450684,80.0,1263542.0,1.0
1167634.67699,287629.25,313551.90625,320425.59375,305095.15625,289804.78125,295420.6875,293935.8125,327316.375,-0.024169921875,0.970703125,-0.18115234375,0.5187987685203552,-9.490965843200684,9.368895530700684,80.0,1263543.0,1.0
1167634.6794164,288009.03125,310122.6875,319137.5,304288.4375,288064.90625,293494.15625,290603.1875,324393.84375,-0.02734375,0.971923828125,-0.180419921875,0.9765624403953552,-9.735106468200684,10.345458030700684,80.0,1263544.0,1.0
1167634.6794715,287837.5625,309494.875,318761.71875,304049.28125,287571.84375,293340.09375,289622.21875,323504.5,-0.025634765625,0.97900390625,-0.181396484375,1.1901854276657104,-9.857176780700684,11.260985374450684,80.0,1263545.0,1.0
1167634.6813425,287382.28125,312579.25,319889.59375,304780.34375,289068.6875,295202.09375,292455.5,325969.53125,-0.02490234375,0.9833984375,-0.18212890625,1.3427733182907104,-10.131834983825684,12.237547874450684,80.0,1263546.0,1.0
1167634.6844383,287235.5,315074.84375,320895.34375,305397.96875,290445.5625,296476.78125,295126.625,328324.625,-0.02490234375,0.98681640625,-0.1806640625,1.4038084745407104,-10.498045921325684,13.153075218200684,80.0,1263547.0,1.0
1167634.6844887,287629.3125,313585.15625,320472.875,305134.6875,289867.90625,295451.09375,294074.5,327423.46875,-0.021728515625,0.98876953125,-0.1806640625,1.3732908964157104,-10.803221702575684,14.038084983825684,80.0,1263548.0,1.0
1167634.6862495,288003.84375,310144.25,319174.6875,304318.375,288111.75,293514.90625,290730.125,324488.59375,-0.0205078125,0.990966796875,-0.180419921875,1.2207030057907104,-11.169432640075684,14.953612327575684,80.0,1263549.0,1.0
1167634.6888514,287844.4375,309511.40625,318806.0,304090.21875,287619.84375,293358.96875,289748.90625,323604.1875,-0.016357421875,0.99365234375,-0.183837890625,0.9155272841453552,-11.444090843200684,15.655516624450684,80.0,1263550.0,1.0
1167634.6912985,287398.75,312597.21875,319956.75,304845.09375,289131.375,295226.25,292602.3125,326092.375,-0.0107421875,0.98974609375,-0.18017578125,0.7629393935203552,-11.688231468200684,16.296384811401367,80.0,1263551.0,1.0
1167634.6943938,287252.5625,315108.28125,320985.09375,305480.5,290526.65625,296511.1875,295309.375,328482.3125,-0.00537109375,0.9873046875,-0.18359375,0.6408690810203552,-11.871336936950684,17.059324264526367,80.0,1263552.0,1.0
1167634.694443,287633.78125,313611.25,320537.25,305187.25,289939.25,295475.875,294244.5625,327574.65625,0.000244140625,0.984619140625,-0.18212890625,0.4882812201976776,-11.932372093200684,17.395017623901367,80.0,1263553.0,1.0
1167634.7025967,288000.71875,310156.84375,319201.4375,304329.75,288161.21875,293526.6875,290858.4375,324606.875,0.002685546875,0.988525390625,-0.184814453125,0.3967284858226776,-12.084959983825684,17.669675827026367,80.0,1263554.0,1.0
1167634.7099838,287826.65625,309490.9375,318791.59375,304058.3125,287631.125,293343.875,289817.5625,323669.375,0.009033203125,0.992919921875,-0.186279296875,0.2136230319738388,-12.115477561950684,17.822263717651367,80.0,1263555.0,1.0
1167634.7100416,287386.5,312572.09375,319933.6875,304810.84375,289130.1875,295208.71875,292649.25,326139.0625,0.0146484375,0.993896484375,-0.189208984375,-0.0915527269244194,-12.207030296325684,18.157957077026367,80.0,1263556.0,1.0
1167634.7100603,287246.65625,315108.125,320968.75,305454.84375,290535.5,296510.5625,295366.96875,328537.65625,0.017333984375,0.992431640625,-0.1845703125,-0.4577636420726776,-12.237547874450684,18.371580123901367,80.0,1263557.0,1.0
1167634.7132309,287622.875,313627.71875,320522.5,305159.34375,289942.90625,295474.25,294301.78125,327623.9375,0.024658203125,0.9853515625,-0.1875,-0.7324218153953552,-12.084959983825684,18.402097702026367,80.0,1263558.0,1.0
1167634.7132861,287981.78125,310157.125,319175.59375,304290.40625,288147.15625,293509.25,290896.96875,324636.84375,0.029296875,0.980224609375,-0.187255859375,-1.0375975370407104,-12.023924827575684,18.371580123901367,80.0,1263559.0,1.0
1167634.7263429,287818.15625,309478.5,318767.28125,304030.0625,287613.15625,293320.96875,289844.28125,323690.03125,0.034912109375,0.972900390625,-0.185791015625,-1.0375975370407104,-11.749266624450684,18.249509811401367,80.0,1263560.0,1.0
1167634.7312664,287382.21875,312551.875,319924.03125,304800.125,289120.53125,295189.03125,292683.6875,326167.03125,0.036865234375,0.9677734375,-0.1865234375,-1.0986326932907104,-11.505125999450684,17.944334030151367,80.0,1263561.0,1.0
1167634.7313135,287237.09375,315095.59375,320968.28125,305452.34375,290529.875,296493.59375,295420.15625,328579.5,0.039306640625,0.966064453125,-0.1875,-0.9765624403953552,-11.230467796325684,17.761228561401367,80.0,1263562.0,1.0
1167634.7313254,287616.09375,313637.0,320525.90625,305154.96875,289947.375,295465.84375,294370.0625,327680.53125,0.042724609375,0.96240234375,-0.188232421875,-0.9460448622703552,-10.894774436950684,17.242429733276367,80.0,1263563.0,1.0
1167634.7338433,287985.53125,310173.75,319178.375,304278.96875,288154.59375,293505.78125,290958.40625,324688.34375,0.04248046875,0.960205078125,-0.188232421875,-0.9155272841453552,-10.620116233825684,16.784666061401367,80.0,1263564.0,1.0
1167634.7401014,287832.625,309486.1875,318771.21875,304018.59375,287619.65625,293320.34375,289892.21875,323725.34375,0.04638671875,0.956298828125,-0.1865234375,-0.7629393935203552,-10.284422874450684,16.265867233276367,80.0,1263565.0,1.0
1167634.7506679,287402.21875,312557.96875,319927.0625,304794.125,289125.46875,295192.8125,292723.65625,326192.0625,0.0498046875,0.95166015625,-0.1884765625,-0.7019042372703552,-10.131834983825684,15.777586936950684,80.0,1263566.0,1.0
1167634.7507204,287253.71875,315112.9375,320975.4375,305450.5625,290542.65625,296507.78125,295462.71875,328610.34375,0.05078125,0.9462890625,-0.188720703125,-0.5187987685203552,-9.765624046325684,15.167235374450684,80.0,1263567.0,1.0
1167634.7594159,287620.375,313648.0,320516.53125,305136.1875,289951.125,295482.75,294394.21875,327699.65625,0.05078125,0.9404296875,-0.188720703125,-0.3051757514476776,-9.368895530700684,14.526366233825684,80.0,1263568.0,1.0
1167634.7594667,287967.71875,310142.0,319117.5625,304216.28125,288114.34375,293492.53125,290917.8125,324653.84375,0.055908203125,0.935791015625,-0.192626953125,0.1220703050494194,-8.911131858825684,13.824461936950684,80.0,1263569.0,1.0
1167634.7656634,287806.53125,309418.625,318672.84375,303927.5,287541.96875,293278.6875,289792.96875,323643.71875,0.057861328125,0.9345703125,-0.19287109375,0.3356933295726776,-8.544920921325684,12.939452171325684,80.0,1263570.0,1.0
1167634.7657189,287376.84375,312479.0,319824.875,304704.4375,289037.5,295145.6875,292605.71875,326095.0625,0.058349609375,0.932861328125,-0.197021484375,0.7019042372703552,-8.056639671325684,12.023924827575684,80.0,1263571.0,1.0
1167634.7719173,287223.59375,315037.03125,320869.0625,305359.09375,290447.34375,296458.625,295339.15625,328502.34375,0.057373046875,0.93359375,-0.197509765625,1.1901854276657104,-7.690429210662842,11.199950218200684,80.0,1263572.0,1.0
1167634.7719677,287581.21875,313578.625,320403.15625,305034.71875,289852.25,295433.125,294265.46875,327579.40625,0.05859375,0.9326171875,-0.2001953125,1.4953612089157104,-7.202147960662842,10.223387718200684,80.0,1263573.0,1.0
1167634.7738409,287933.5625,310074.40625,319005.28125,304115.875,288017.53125,293444.25,290780.21875,324518.03125,0.0595703125,0.93603515625,-0.20068359375,1.8615721464157104,-6.652831554412842,9.277342796325684,80.0,1263574.0,1.0
1167634.7875507,287767.1875,309329.21875,318555.28125,303827.09375,287436.84375,293219.40625,289632.03125,323484.5625,0.06005859375,0.9404296875,-0.202880859375,2.166747808456421,-6.072997570037842,8.361815452575684,80.0,1263575.0,1.0
1167634.7925298,287350.28125,312404.0,319728.75,304628.625,288948.96875,295099.28125,292455.15625,325949.96875,0.060791015625,0.942626953125,-0.20947265625,2.410888433456421,-5.584716320037842,7.354735851287842,80.0,1263576.0,1.0
1167634.7925849,287210.625,314990.625,320803.6875,305313.9375,290387.4375,296437.34375,295221.6875,328393.46875,0.0595703125,0.9462890625,-0.2109375,2.685546636581421,-5.096435070037842,6.439208507537842,80.0,1263577.0,1.0
1167634.7926023,287571.125,313547.5,320346.5625,304997.875,289798.78125,295417.75,294157.46875,327483.8125,0.059814453125,0.948974609375,-0.2138671875,2.807616949081421,-4.638671398162842,5.340575695037842,80.0,1263578.0,1.0
1167634.7950935,287915.15625,310027.03125,318936.875,304065.46875,287952.25,293421.03125,290652.1875,324408.59375,0.05908203125,0.953125,-0.216796875,2.868652105331421,-4.119872570037842,4.333495616912842,80.0,1263579.0,1.0
1167634.7988535,287750.03125,309256.78125,318471.0625,303759.3125,287352.625,293187.03125,289470.84375,323346.4375,0.058349609375,0.95703125,-0.22119140625,2.960204839706421,-3.662109136581421,3.326415777206421,80.0,1263580.0,1.0
1167634.813223,287340.90625,312324.4375,319642.125,304562.65625,288857.6875,295065.03125,292276.4375,325795.90625,0.059326171875,0.961669921875,-0.22119140625,2.868652105331421,-3.112792730331421,2.410888433456421,80.0,1263581.0,1.0
1167634.8132727,287196.3125,314919.1875,320718.3125,305250.8125,290295.53125,296403.1875,295040.71875,328237.71875,0.0595703125,0.968017578125,-0.222900390625,2.777099370956421,-2.655029058456421,1.4953612089157104,80.0,1263582.0,1.0
1167634.8194231,287547.53125,313481.8125,320259.75,304934.21875,289707.78125,295384.5,293981.5,327332.46875,0.059326171875,0.972412109375,-0.224853515625,2.593993902206421,-2.136230230331421,0.7629393935203552,80.0,1263583.0,1.0
1167634.8194764,287882.4375,309950.21875,318839.78125,303992.84375,287850.875,293376.59375,290464.59375,324242.8125,0.059814453125,0.9736328125,-0.22509765625,2.227782964706421,-1.6479490995407104,0.0,80.0,1263584.0,1.0
1167634.8306935,287728.46875,309176.125,318380.21875,303699.5,287250.875,293136.875,289277.90625,323173.875,0.061279296875,0.97705078125,-0.226806640625,1.9226073026657104,-1.0681151151657104,-0.6408690810203552,80.0,1263585.0,1.0
1167634.8307364,287322.5625,312251.84375,319563.4375,304518.46875,288762.1875,295014.0625,292090.03125,325630.34375,0.0625,0.978515625,-0.226318359375,1.4953612089157104,-0.5187987685203552,-1.1901854276657104,80.0,1263586.0,1.0
1167634.8332644,287187.03125,314873.0625,320655.09375,305223.71875,290219.625,296369.75,294879.34375,328095.8125,0.0634765625,0.980712890625,-0.230224609375,1.1291502714157104,0.0915527269244194,-1.6784666776657104,80.0,1263587.0,1.0
1167634.8333158,287524.1875,313430.3125,320183.375,304893.0,289623.09375,295348.28125,293818.4375,327188.34375,0.06298828125,0.98193359375,-0.2275390625,0.6713866591453552,0.8239745497703552,-1.9226073026657104,80.0,1263588.0,1.0
1167634.8388538,287863.3125,309888.4375,318765.03125,303952.34375,287763.4375,293339.9375,290299.03125,324101.03125,0.064453125,0.984619140625,-0.22998046875,0.2746581733226776,1.5563963651657104,-2.166747808456421,80.0,1263589.0,1.0
1167634.8430473,287718.65625,309111.0625,318313.53125,303665.71875,287168.53125,293102.0,289110.53125,323033.15625,0.064697265625,0.986328125,-0.226806640625,-0.2441406100988388,2.288818120956421,-2.532958745956421,80.0,1263590.0,1.0
1167634.8431037,287321.84375,312195.21875,319509.0,304495.40625,288688.0,294986.1875,291931.59375,325495.40625,0.06201171875,0.9873046875,-0.228271484375,-0.7934569716453552,2.960204839706421,-2.716064214706421,80.0,1263591.0,1.0
1167634.850119,287190.34375,314855.0,320636.875,305229.0,290170.375,296362.0625,294762.03125,327998.0,0.05908203125,0.987548828125,-0.225341796875,-1.3732908964157104,3.692626714706421,-2.838134527206421,80.0,1263592.0,1.0
1167634.8525565,287549.3125,313465.0,320219.875,304944.0625,289620.875,295373.21875,293767.84375,327151.6875,0.056640625,0.9853515625,-0.225341796875,-1.9226073026657104,4.302978038787842,-3.112792730331421,80.0,1263593.0,1.0
1167634.8563423,287886.71875,309915.4375,318810.1875,304011.625,287770.21875,293360.5,290268.625,324079.9375,0.052734375,0.98291015625,-0.22509765625,-2.410888433456421,4.821776866912842,-3.326415777206421,80.0,1263594.0,1.0
1167634.8706203,287736.875,309107.03125,318341.0625,303705.6875,287158.96875,293099.78125,289057.59375,322993.71875,0.049560546875,0.98046875,-0.223876953125,-3.051757574081421,5.371093273162842,-3.417968511581421,80.0,1263595.0,1.0
1167634.8706713,287325.59375,312174.65625,319509.4375,304504.1875,288662.34375,294968.03125,291849.5,325432.84375,0.047119140625,0.977783203125,-0.221923828125,-3.540038824081421,5.859374523162842,-3.692626714706421,80.0,1263596.0,1.0
1167634.8725965,287176.03125,314827.71875,320608.0625,305202.0,290129.40625,296338.46875,294659.40625,327917.1875,0.0458984375,0.975341796875,-0.21923828125,-3.875732183456421,6.225585460662842,-3.967284917831421,80.0,1263597.0,1.0
1167634.8750766,287528.125,313434.9375,320179.09375,304904.0,289577.21875,295352.21875,293663.9375,327069.59375,0.042236328125,0.975830078125,-0.216796875,-4.333495616912842,6.652831554412842,-4.211425304412842,80.0,1263598.0,1.0
1167634.8775503,287879.21875,309888.09375,318775.21875,303982.21875,287731.15625,293343.40625,290167.6875,324002.21875,0.0400390625,0.97705078125,-0.217041015625,-4.669188976287842,7.049560070037842,-4.364013195037842,80.0,1263599.0,1.0
1167634.886899,287725.875,309061.53125,318298.59375,303673.125,287108.09375,293077.78125,288944.15625,322902.0625,0.036865234375,0.973388671875,-0.210693359375,-5.157470226287842,7.232665538787842,-4.638671398162842,80.0,1263600.0,1.0
1167634.886955,287318.28125,312133.0,319467.25,304470.5625,288608.5,294953.375,291735.78125,325339.21875,0.031982421875,0.968994140625,-0.209716796875,-5.706786632537842,7.446288585662842,-4.791259288787842,80.0,1263601.0,1.0
1167634.8888419,287180.5,314811.46875,320580.96875,305184.375,290088.03125,296339.71875,294564.625,327840.84375,0.0263671875,0.9658203125,-0.207275390625,-6.042479991912842,7.568358898162842,-5.004882335662842,80.0,1263602.0,1.0
1167634.8926038,287545.90625,313446.21875,320183.65625,304923.21875,289559.96875,295366.6875,293607.6875,327030.8125,0.024169921875,0.962646484375,-0.202880859375,-6.347655773162842,7.598876476287842,-5.249022960662842,80.0,1263603.0,1.0
1167634.9069504,287913.625,309923.21875,318821.09375,304042.375,287745.90625,293367.65625,290158.65625,324005.4375,0.01953125,0.960693359375,-0.20263671875,-6.622313976287842,7.598876476287842,-5.462646007537842,80.0,1263604.0,1.0
1167634.9070045,287761.65625,309091.8125,318343.125,303731.96875,287123.90625,293097.1875,288937.71875,322907.34375,0.01416015625,0.958740234375,-0.203857421875,-6.835937023162842,7.537841320037842,-5.859374523162842,80.0,1263605.0,1.0
1167634.9088456,287330.875,312135.78125,319464.65625,304479.3125,288588.75,294950.15625,291684.8125,325301.59375,0.011474609375,0.9580078125,-0.19873046875,-6.958007335662842,7.415771007537842,-6.134032726287842,80.0,1263606.0,1.0
1167634.9113014,287173.78125,314801.90625,320545.75,305160.875,290048.9375,296324.34375,294486.40625,327775.75,0.010498046875,0.958740234375,-0.19775390625,-7.110595226287842,7.232665538787842,-6.347655773162842,80.0,1263607.0,1.0
1167634.9138258,287527.5,313434.15625,320128.6875,304874.15625,289510.34375,295349.96875,293515.4375,326946.125,0.00732421875,0.958984375,-0.194091796875,-7.263183116912842,7.080077648162842,-6.652831554412842,80.0,1263608.0,1.0
1167634.9232644,287888.15625,309891.9375,318746.96875,303970.875,287678.5,293341.96875,290037.9375,323894.59375,0.005615234375,0.958984375,-0.19091796875,-7.385253429412842,6.866454601287842,-7.019042491912842,80.0,1263609.0,1.0
1167634.9233141,287741.53125,309043.1875,318267.03125,303660.0,287052.125,293066.78125,288794.5625,322780.03125,0.003662109375,0.957763671875,-0.186767578125,-7.476806163787842,6.622313976287842,-7.202147960662842,80.0,1263610.0,1.0
1167634.9250254,287305.84375,312071.5,319379.0,304400.1875,288505.96875,294916.625,291519.59375,325157.09375,-0.00244140625,0.95703125,-0.18603515625,-7.629394054412842,6.408690929412842,-7.507323741912842,80.0,1263611.0,1.0
1167634.9312895,287134.8125,314732.34375,320444.1875,305063.40625,289950.59375,296288.40625,294310.4375,327619.28125,-0.00830078125,0.953369140625,-0.185791015625,-7.629394054412842,6.042479991912842,-7.904052257537842,80.0,1263612.0,1.0
1167634.9406878,287502.90625,313398.21875,320057.59375,304808.4375,289435.0,295334.59375,293376.9375,326823.375,-0.012451171875,0.954345703125,-0.187255859375,-7.629394054412842,5.676269054412842,-8.209227561950684,80.0,1263613.0,1.0
1167634.940738,287892.1875,309888.09375,318727.65625,303961.3125,287645.34375,293349.40625,289956.0625,323823.875,-0.014892578125,0.95556640625,-0.18603515625,-7.598876476287842,5.187987804412842,-8.575438499450684,80.0,1263614.0,1.0
1167634.9429516,287744.125,309025.03125,318251.5625,303654.4375,287015.53125,293057.5,288709.90625,322708.0625,-0.013916015625,0.957275390625,-0.18359375,-7.537841320037842,4.760741710662842,-8.911131858825684,80.0,1263615.0,1.0
1167634.9429929,287300.5625,312044.125,319350.375,304379.09375,288464.28125,294904.71875,291426.0,325076.09375,-0.01513671875,0.95947265625,-0.183837890625,-7.690429210662842,4.241942882537842,-9.155272483825684,80.0,1263616.0,1.0
1167634.9501078,287110.125,314700.3125,320395.65625,305017.0,289900.25,296273.375,294205.84375,327529.34375,-0.01416015625,0.96142578125,-0.18359375,-7.751464366912842,3.845214605331421,-9.338377952575684,80.0,1263617.0,1.0
1167634.9563771,287477.96875,313380.3125,320021.65625,304775.96875,289396.625,295323.15625,293292.09375,326754.625,-0.012451171875,0.962646484375,-0.184814453125,-7.781981945037842,3.570556402206421,-9.643553733825684,80.0,1263618.0,1.0
1167634.9706466,287880.46875,309883.09375,318713.625,303955.40625,287622.8125,293343.78125,289894.28125,323779.25,-0.01220703125,0.95947265625,-0.18212890625,-7.904052257537842,3.234863042831421,-10.009764671325684,80.0,1263619.0,1.0
1167634.9706985,287737.5,309016.0,318231.625,303644.8125,286992.375,293045.15625,288642.3125,322658.09375,-0.009033203125,0.95947265625,-0.18359375,-7.812499523162842,2.990722417831421,-10.162352561950684,80.0,1263620.0,1.0
1167634.972611,287260.53125,311982.71875,319277.15625,304315.4375,288400.90625,294859.5,291302.15625,324975.5,-0.005859375,0.959716796875,-0.18017578125,-7.812499523162842,2.746581792831421,-10.375975608825684,80.0,1263621.0,1.0
1167634.975643,287074.03125,314634.25,320311.0625,304941.8125,289829.0,296238.3125,294070.5625,327418.28125,-0.003662109375,0.960205078125,-0.181884765625,-7.720946788787842,2.685546636581421,-10.559081077575684,80.0,1263622.0,1.0
1167634.9756904,287475.90625,313367.8125,319981.6875,304744.25,289360.4375,295327.90625,293206.4375,326687.65625,-0.000732421875,0.963134765625,-0.1845703125,-7.629394054412842,2.685546636581421,-10.650633811950684,80.0,1263623.0,1.0
1167634.9775282,287912.46875,309924.5625,318738.03125,303982.03125,287630.65625,293373.625,289866.65625,323762.96875,0.001220703125,0.96630859375,-0.18701171875,-7.629394054412842,2.624511480331421,-10.711668968200684,80.0,1263624.0,1.0
1167634.9812337,287768.1875,309044.4375,318274.5625,303690.125,287007.9375,293070.1875,288626.75,322652.09375,0.002685546875,0.97265625,-0.185791015625,-7.659911632537842,2.655029058456421,-10.772704124450684,80.0,1263625.0,1.0
1167634.9906901,287279.21875,311989.15625,319306.03125,304345.75,288405.8125,294875.3125,291272.3125,324959.25,0.002197265625,0.974853515625,-0.183837890625,-7.690429210662842,2.777099370956421,-10.711668968200684,80.0,1263626.0,1.0
1167634.9907398,287085.1875,314645.875,320333.78125,304968.375,289836.96875,296259.875,294050.53125,327410.4375,0.001953125,0.9775390625,-0.18603515625,-7.568358898162842,2.899169683456421,-10.650633811950684,80.0,1263627.0,1.0
1167634.9932498,287495.75,313409.1875,320032.84375,304796.34375,289397.71875,295361.15625,293228.625,326718.6875,0.002685546875,0.978759765625,-0.183837890625,-7.690429210662842,3.051757574081421,-10.650633811950684,80.0,1263628.0,1.0
1167634.993307,287947.15625,309993.125,318822.71875,304067.875,287697.625,293413.34375,289933.0,323835.03125,0.00341796875,0.97802734375,-0.1826171875,-7.812499523162842,3.326415777206421,-10.559081077575684,80.0,1263629.0,1.0
1167635.0038017,287812.15625,309121.15625,318367.09375,303779.25,287089.75,293112.21875,288704.875,322735.96875,0.002685546875,0.979736328125,-0.18115234375,-7.873534679412842,3.448486089706421,-10.467528343200684,80.0,1263630.0,1.0
1167635.0068631,287294.5,312023.46875,319351.71875,304383.9375,288455.28125,294888.0,291307.96875,325003.5,0.001953125,0.980224609375,-0.180908203125,-7.965087413787842,3.814697027206421,-10.375975608825684,80.0,1263631.0,1.0
1167635.0069139,287074.5625,314658.03125,320341.71875,304965.4375,289858.59375,296256.65625,294057.0625,327425.0,0.0009765625,0.982177734375,-0.1787109375,-7.934569835662842,3.997802495956421,-10.345458030700684,80.0,1263632.0,1.0
1167635.0151023,287497.8125,313457.21875,320062.59375,304816.03125,289438.46875,295379.3125,293267.34375,326758.65625,0.0,0.98291015625,-0.17529296875,-8.117674827575684,4.272460460662842,-10.192870140075684,80.0,1263633.0,1.0
1167635.0175276,287959.5,310053.84375,318878.3125,304111.21875,287754.21875,293436.75,289997.4375,323896.28125,-0.00341796875,0.982666015625,-0.175048828125,-8.300780296325684,4.486083507537842,-10.009764671325684,80.0,1263634.0,1.0
1167635.0244372,287814.5625,309139.75,318407.3125,303808.78125,287123.375,293106.75,288742.0,322770.65625,-0.0087890625,0.984130859375,-0.172607421875,-8.270262718200684,4.669188976287842,-9.979247093200684,80.0,1263635.0,1.0
1167635.0244878,287282.6875,312011.40625,319357.625,304379.625,288458.125,294867.90625,291306.8125,324999.5625,-0.010986328125,0.98095703125,-0.169189453125,-8.331297874450684,4.791259288787842,-9.643553733825684,80.0,1263636.0,1.0
1167635.0325485,287051.40625,314644.1875,320328.3125,304944.3125,289852.25,296239.5,294045.34375,327412.5625,-0.0126953125,0.978515625,-0.166748046875,-8.361815452575684,4.974364757537842,-9.521483421325684,80.0,1263637.0,1.0
1167635.0369389,287490.125,313466.5,320071.0,304821.5625,289451.25,295376.625,293283.6875,326772.0625,-0.01708984375,0.976318359375,-0.16650390625,-8.392333030700684,5.035399913787842,-9.429930686950684,80.0,1263638.0,1.0
1167635.0369895,287989.53125,310111.15625,318951.0,304181.6875,287817.09375,293460.53125,290075.84375,323968.25,-0.01806640625,0.974853515625,-0.164306640625,-8.239745140075684,5.065917491912842,-9.307860374450684,80.0,1263639.0,1.0
1167635.0525347,287858.75,309212.15625,318513.8125,303908.71875,287214.9375,293140.09375,288855.53125,322876.59375,-0.02294921875,0.974609375,-0.16259765625,-8.178709983825684,5.126952648162842,-9.155272483825684,80.0,1263640.0,1.0
1167635.05259,287304.78125,312050.46875,319434.53125,304446.78125,288530.53125,294878.09375,291393.34375,325082.34375,-0.02392578125,0.974609375,-0.16162109375,-8.087157249450684,5.157470226287842,-8.880614280700684,80.0,1263641.0,1.0
1167635.0526077,287052.5625,314658.125,320370.4375,304971.6875,289898.90625,296235.8125,294104.28125,327469.0625,-0.02587890625,0.9716796875,-0.15771484375,-8.026122093200684,4.974364757537842,-8.605956077575684,80.0,1263642.0,1.0
1167635.0556889,287485.65625,313494.75,320113.90625,304846.15625,289498.03125,295387.34375,293352.71875,326839.375,-0.031005859375,0.970947265625,-0.157470703125,-7.812499523162842,4.882812023162842,-8.453368186950684,80.0,1263643.0,1.0
1167635.0557384,287985.34375,310139.15625,318990.875,304205.5625,287859.09375,293471.53125,290140.0625,324032.625,-0.030517578125,0.970458984375,-0.15869140625,-7.720946788787842,4.730224132537842,-8.209227561950684,80.0,1263644.0,1.0
1167635.0575756,287840.0625,309194.28125,318507.375,303895.0625,287217.59375,293124.375,288859.21875,322886.53125,-0.0283203125,0.9697265625,-0.155517578125,-7.507323741912842,4.669188976287842,-7.934569835662842,80.0,1263645.0,1.0
1167635.0663417,287270.0,311993.0,319370.875,304383.375,288488.96875,294850.46875,291336.0625,325035.0625,-0.026123046875,0.9677734375,-0.1552734375,-7.202147960662842,4.547118663787842,-7.751464366912842,80.0,1263646.0,1.0
1167635.0706873,287013.65625,314597.5,320274.84375,304884.5,289834.28125,296212.40625,294016.5625,327391.46875,-0.023681640625,0.97021484375,-0.154052734375,-7.080077648162842,4.425048351287842,-7.385253429412842,80.0,1263647.0,1.0
1167635.0707421,287447.75,313442.5625,320016.5625,304762.5625,289435.25,295363.375,293264.1875,326757.40625,-0.021728515625,0.970947265625,-0.152587890625,-6.958007335662842,4.425048351287842,-6.958007335662842,80.0,1263648.0,1.0
1167635.0813093,287963.78125,310095.59375,318911.5625,304148.25,287807.25,293452.84375,290065.5625,323963.0625,-0.0205078125,0.97265625,-0.1474609375,-6.744384288787842,4.486083507537842,-6.500243663787842,80.0,1263649.0,1.0
1167635.0843999,287817.0,309139.03125,318422.6875,303830.6875,287157.625,293097.625,288773.28125,322806.40625,-0.017333984375,0.97314453125,-0.148193359375,-6.561278820037842,4.486083507537842,-6.164550304412842,80.0,1263650.0,1.0
1167635.0844497,287235.40625,311921.375,319269.90625,304300.78125,288411.09375,294810.5,291219.0,324929.375,-0.015869140625,0.97314453125,-0.148681640625,-6.469726085662842,4.577636241912842,-5.676269054412842,80.0,1263651.0,1.0
1167635.0862857,286973.0,314535.46875,320169.4375,304792.4375,289752.21875,296172.59375,293890.125,327279.96875,-0.01123046875,0.970703125,-0.14794921875,-6.286620616912842,4.638671398162842,-5.096435070037842,80.0,1263652.0,1.0
1167635.0975452,287422.625,313409.125,319930.46875,304686.75,289365.6875,295341.46875,293159.59375,326665.5,-0.0048828125,0.971923828125,-0.1494140625,-6.072997570037842,4.730224132537842,-4.608153820037842,80.0,1263653.0,1.0
1167635.1006904,287944.65625,310060.65625,318839.6875,304085.5625,287746.1875,293436.5,289971.78125,323879.375,-0.00146484375,0.968017578125,-0.14892578125,-5.859374523162842,4.974364757537842,-4.089354991912842,80.0,1263654.0,1.0
1167635.1007401,287796.875,309078.40625,318346.96875,303766.5625,287084.84375,293067.875,288656.96875,322705.21875,0.0,0.96923828125,-0.14697265625,-5.554198741912842,5.187987804412842,-3.387450933456421,80.0,1263655.0,1.0
1167635.1051022,287209.8125,311857.1875,319184.28125,304225.40625,288328.03125,294774.0,291089.28125,324814.59375,0.003662109375,0.97021484375,-0.1484375,-5.249022960662842,5.523681163787842,-2.838134527206421,80.0,1263656.0,1.0
1167635.1088465,286942.9375,314490.5,320092.09375,304722.59375,289678.34375,296149.53125,293777.3125,327175.8125,0.00341796875,0.9677734375,-0.14990234375,-4.974364757537842,5.828856945037842,-2.227782964706421,80.0,1263657.0,1.0
1167635.1150381,287392.5625,313375.59375,319869.125,304635.59375,289303.65625,295329.84375,293066.96875,326579.21875,0.007080078125,0.96826171875,-0.15185546875,-4.669188976287842,6.164550304412842,-1.6174315214157104,80.0,1263658.0,1.0
1167635.121946,287925.25,310030.6875,318797.40625,304054.8125,287695.125,293423.96875,289891.0625,323807.3125,0.0087890625,0.96875,-0.150146484375,-4.333495616912842,6.439208507537842,-0.9765624403953552,80.0,1263659.0,1.0
1167635.1219962,287790.0,309055.625,318317.75,303746.28125,287043.1875,293052.40625,288580.78125,322642.34375,0.00927734375,0.968505859375,-0.14794921875,-4.058837413787842,6.774901866912842,-0.2746581733226776,80.0,1263660.0,1.0
1167635.1276006,287204.65625,311831.78125,319155.125,304202.0625,288282.34375,294750.59375,291003.8125,324746.8125,0.0087890625,0.9658203125,-0.147705078125,-3.814697027206421,7.110595226287842,0.1831054538488388,80.0,1263661.0,1.0
1167635.1319392,286947.96875,314492.90625,320077.71875,304710.09375,289643.65625,296135.40625,293707.65625,327124.5,0.003662109375,0.961669921875,-0.149169921875,-3.540038824081421,7.415771007537842,0.6103515028953552,80.0,1263662.0,1.0
1167635.131989,287401.34375,313402.5,319870.375,304634.34375,289286.40625,295327.53125,293022.71875,326554.1875,0.003662109375,0.959716796875,-0.150146484375,-3.173827886581421,7.537841320037842,1.0681151151657104,80.0,1263663.0,1.0
1167635.1400507,287924.375,310035.96875,318784.4375,304044.1875,287669.28125,293410.125,289837.9375,323776.03125,0.00146484375,0.957763671875,-0.146728515625,-2.777099370956421,7.598876476287842,1.3732908964157104,80.0,1263664.0,1.0
1167635.1432477,287780.4375,309021.03125,318273.03125,303708.1875,286985.40625,293015.1875,288482.71875,322569.84375,0.0,0.95263671875,-0.147705078125,-2.227782964706421,7.598876476287842,1.6479490995407104,80.0,1263665.0,1.0
1167635.1433012,287189.4375,311790.40625,319087.09375,304140.125,288209.5,294711.0625,290875.0625,324646.9375,-0.00439453125,0.950439453125,-0.146728515625,-1.7700194120407104,7.690429210662842,1.8005369901657104,80.0,1263666.0,1.0
1167635.1451253,286917.46875,314442.65625,319965.875,304606.46875,289545.6875,296088.46875,293532.40625,326982.0625,-0.00732421875,0.9521484375,-0.146728515625,-1.2817381620407104,7.598876476287842,1.8310545682907104,80.0,1263667.0,1.0
1167635.157595,287348.9375,313333.90625,319714.28125,304487.71875,289158.09375,295269.5,292805.4375,326371.0625,-0.010498046875,0.953125,-0.147216796875,-0.9460448622703552,7.446288585662842,1.7395018339157104,80.0,1263668.0,1.0
1167635.1606896,287853.90625,309922.40625,318578.625,303850.34375,287499.59375,293331.0,289558.0,323535.53125,-0.011474609375,0.9521484375,-0.1474609375,-0.6103515028953552,7.141112804412842,1.7089842557907104,80.0,1263669.0,1.0
1167635.1607443,287701.3125,308866.96875,318015.09375,303469.46875,286768.6875,292917.65625,288126.0625,322259.25,-0.012939453125,0.95263671875,-0.1494140625,-0.2746581733226776,6.927489757537842,1.6784666776657104,80.0,1263670.0,1.0
1167635.1625686,287115.0625,311630.0,318799.0,303878.59375,287960.3125,294608.875,290459.9375,324286.375,-0.013671875,0.953857421875,-0.14990234375,0.1525878757238388,6.530761241912842,1.4648436307907104,80.0,1263671.0,1.0
1167635.1713432,286826.8125,314274.84375,319649.53125,304317.9375,289267.0,295977.0,293066.15625,326579.5625,-0.013671875,0.951904296875,-0.151123046875,0.5187987685203552,6.164550304412842,1.2512205839157104,80.0,1263672.0,1.0
1167635.1756887,287267.84375,313190.78125,319419.0625,304223.34375,288893.09375,295180.46875,292353.15625,325982.59375,-0.014892578125,0.95703125,-0.150146484375,0.8239745497703552,5.920409679412842,1.0681151151657104,80.0,1263673.0,1.0
1167635.1757392,287796.4375,309810.75,318335.0,303642.90625,287268.75,293266.625,289151.375,323187.65625,-0.0166015625,0.960205078125,-0.152587890625,1.0375975370407104,5.493163585662842,0.8850097060203552,80.0,1263674.0,1.0
1167635.1838513,287670.375,308778.46875,317829.40625,303324.0,286575.84375,292867.15625,287763.4375,321952.03125,-0.01708984375,0.964599609375,-0.15234375,1.1291502714157104,5.187987804412842,0.5798339247703552,80.0,1263675.0,1.0
1167635.1869369,287094.59375,311555.875,318655.0625,303773.8125,287794.90625,294567.5625,290138.09375,324012.0625,-0.015380859375,0.97021484375,-0.155029296875,1.0681151151657104,4.760741710662842,0.3662109076976776,80.0,1263676.0,1.0
1167635.1869858,286818.75,314235.59375,319550.9375,304253.9375,289136.28125,295960.1875,292799.46875,326352.125,-0.0126953125,0.9765625,-0.154541015625,1.0375975370407104,4.516601085662842,0.2746581733226776,80.0,1263677.0,1.0
1167635.1925985,287273.5,313193.46875,319376.125,304209.84375,288806.09375,295189.9375,292155.65625,325818.34375,-0.010009765625,0.976806640625,-0.157470703125,0.9155272841453552,4.211425304412842,0.2746581733226776,80.0,1263678.0,1.0
1167635.1987859,287816.09375,309838.09375,318338.75,303672.6875,287215.0,293287.28125,289009.78125,323076.59375,-0.00634765625,0.977294921875,-0.15576171875,0.6408690810203552,3.906249761581421,0.2136230319738388,80.0,1263679.0,1.0
1167635.2031756,287697.90625,308808.9375,317862.46875,303377.03125,286548.9375,292892.28125,287658.46875,321876.5,-0.00732421875,0.9775390625,-0.156982421875,0.4882812201976776,3.570556402206421,0.2441406100988388,80.0,1263680.0,1.0
1167635.2032123,287121.84375,311579.84375,318687.78125,303818.96875,287774.6875,294582.0625,290032.75,323939.1875,-0.004150390625,0.978515625,-0.15625,0.3662109076976776,3.387450933456421,0.1220703050494194,80.0,1263681.0,1.0
1167635.2088141,286849.59375,314280.21875,319590.71875,304301.84375,289130.8125,295982.625,292716.9375,326301.40625,-0.00048828125,0.981689453125,-0.15625,0.0915527269244194,3.204345464706421,0.1831054538488388,80.0,1263682.0,1.0
1167635.2182664,287297.96875,313249.78125,319417.34375,304259.65625,288812.53125,295217.375,292098.5,325792.0625,0.003662109375,0.98291015625,-0.154052734375,-0.03051757626235485,3.082275152206421,0.1831054538488388,80.0,1263683.0,1.0
1167635.2183239,287828.4375,309881.125,318372.8125,303713.1875,287225.28125,293314.4375,288965.6875,323059.96875,0.00537109375,0.98583984375,-0.157958984375,-0.3662109076976776,3.021239995956421,0.3051757514476776,80.0,1263684.0,1.0
1167635.2200912,287684.5,308798.65625,317842.96875,303365.84375,286516.3125,292882.78125,287558.34375,321807.03125,0.006591796875,0.98681640625,-0.157958984375,-0.6713866591453552,3.082275152206421,0.3662109076976776,80.0,1263685.0,1.0
1167635.2238013,287083.3125,311514.40625,318590.875,303735.8125,287682.4375,294536.625,289846.53125,323790.4375,0.01025390625,0.9892578125,-0.15673828125,-0.9460448622703552,3.143310308456421,0.6103515028953552,80.0,1263686.0,1.0
1167635.2356889,286798.65625,314199.03125,319457.0625,304183.03125,289009.0625,295927.53125,292485.90625,326111.15625,0.0107421875,0.989990234375,-0.157470703125,-1.2512205839157104,3.143310308456421,0.7019042372703552,80.0,1263687.0,1.0
1167635.2357395,287248.0,313183.625,319297.71875,304151.90625,288698.625,295173.40625,291880.53125,325613.34375,0.008544921875,0.991455078125,-0.158447265625,-1.5869139432907104,3.234863042831421,0.9155272841453552,80.0,1263688.0,1.0
1167635.2375413,287815.5625,309854.5625,318307.28125,303662.21875,287148.6875,293296.03125,288798.0625,322928.09375,0.005126953125,0.991943359375,-0.154296875,-1.8615721464157104,3.265380620956421,0.8850097060203552,80.0,1263689.0,1.0
1167635.2413009,287707.1875,308812.15625,317846.8125,303382.75,286486.71875,292889.9375,287457.40625,321735.6875,0.000244140625,0.98974609375,-0.15478515625,-2.197265386581421,3.112792730331421,1.0986326932907104,80.0,1263690.0,1.0
1167635.2506537,287125.875,311560.90625,318661.25,303814.59375,287702.1875,294563.71875,289815.0625,323783.71875,-0.00146484375,0.9912109375,-0.155517578125,-2.441406011581421,2.929687261581421,1.1291502714157104,80.0,1263691.0,1.0
1167635.2507058,286850.21875,314274.5625,319574.4375,304302.75,289072.25,295972.25,292527.03125,326168.84375,-0.005859375,0.987060546875,-0.15478515625,-2.685546636581421,2.807616949081421,1.1291502714157104,80.0,1263692.0,1.0
1167635.2523987,287311.65625,313285.375,319446.9375,304300.96875,288795.71875,295238.5,291984.0625,325721.34375,-0.00732421875,0.9892578125,-0.154296875,-2.899169683456421,2.655029058456421,1.0375975370407104,80.0,1263693.0,1.0
1167635.2600993,287875.71875,309969.625,318479.65625,303828.0,287269.46875,293365.84375,288950.3125,323077.9375,-0.008056640625,0.9892578125,-0.15673828125,-3.112792730331421,2.441406011581421,0.8544921278953552,80.0,1263694.0,1.0
1167635.2625997,287757.625,308905.40625,318009.8125,303538.03125,286607.59375,292942.6875,287612.59375,321889.09375,-0.008056640625,0.987060546875,-0.1494140625,-3.387450933456421,2.197265386581421,0.7324218153953552,80.0,1263695.0,1.0
1167635.2651995,287163.25,311626.78125,318803.125,303946.90625,287813.5,294605.46875,289957.21875,323923.71875,-0.0078125,0.984375,-0.149169921875,-3.662109136581421,1.8920897245407104,0.6713866591453552,80.0,1263696.0,1.0
1167635.2763631,286875.1875,314335.8125,319704.25,304417.71875,289178.75,296011.40625,292666.6875,326307.6875,-0.00537109375,0.982177734375,-0.148681640625,-3.875732183456421,1.6174315214157104,0.6408690810203552,80.0,1263697.0,1.0
1167635.287531,287340.53125,313373.96875,319593.5625,304423.4375,288918.46875,295285.15625,292150.90625,325887.03125,-0.00146484375,0.980224609375,-0.15087890625,-3.906249761581421,1.5563963651657104,0.5187987685203552,80.0,1263698.0,1.0
