Time,FZ,C3,CZ,C4,PZ,PO7,OZ,PO8,AccX,AccY,AccZ,Gyro1,Gyro2,Gyro3,Battery,Counter,Validation
1208630.8568296,309032.1875,319987.21875,351729.03125,343635.65625,333020.96875,319124.71875,305333.15625,326734.0625,-0.036376953125,0.9375,-0.220458984375,1.0681151151657104,-4.455565929412842,-4.180907726287842,100.0,77564.0,1.0
1208630.856859,309543.34375,319918.375,352048.125,343662.1875,333003.46875,319698.71875,305794.78125,326752.46875,-0.034423828125,0.937744140625,-0.22021484375,1.3427733182907104,-4.638671398162842,-4.150390148162842,100.0,77565.0,1.0
1208630.8705685,315510.34375,324958.71875,357069.75,349577.1875,336608.15625,321885.15625,308671.0,331474.25,-0.035400390625,0.94140625,-0.22021484375,1.3732908964157104,-4.791259288787842,-4.302978038787842,100.0,77566.0,1.0
1208630.8705943,318567.53125,327971.625,359705.125,353057.53125,338730.96875,322580.46875,309876.71875,334194.71875,-0.035888671875,0.94189453125,-0.22021484375,1.5258787870407104,-4.943847179412842,-4.425048351287842,100.0,77567.0,1.0
1208630.8731828,314587.9375,324931.71875,356438.71875,349424.3125,336537.1875,320901.15625,307851.3125,331316.71875,-0.035400390625,0.945556640625,-0.22119140625,1.5258787870407104,-5.065917491912842,-4.577636241912842,100.0,77568.0,1.0
1208630.8732111,309035.5,319984.90625,351724.75,343647.71875,333014.28125,319117.9375,305336.5625,326746.3125,-0.0322265625,0.947265625,-0.226318359375,1.5869139432907104,-5.126952648162842,-5.004882335662842,100.0,77569.0,1.0
1208630.8868322,309529.125,319900.25,352033.375,343662.1875,332989.0625,319676.28125,305784.9375,326752.46875,-0.029541015625,0.94580078125,-0.22314453125,1.5258787870407104,-5.065917491912842,-5.187987804412842,100.0,77570.0,1.0
1208630.8868609,315509.90625,324954.6875,357069.40625,349592.46875,336602.0,321873.90625,308669.5625,331484.96875,-0.02880859375,0.947998046875,-0.224365234375,1.3732908964157104,-5.096435070037842,-5.645751476287842,100.0,77571.0,1.0
1208630.8898798,318584.71875,327981.65625,359721.75,353094.625,338736.78125,322579.21875,309884.40625,334219.3125,-0.027587890625,0.945556640625,-0.222412109375,1.3122557401657104,-5.065917491912842,-5.920409679412842,100.0,77572.0,1.0
1208630.8899087,314604.21875,324934.75,356451.40625,349461.21875,336538.96875,320892.03125,307853.8125,331337.28125,-0.027099609375,0.94677734375,-0.22607421875,1.2512205839157104,-4.974364757537842,-6.286620616912842,100.0,77573.0,1.0
1208630.8899157,309037.5625,319970.6875,351721.6875,343669.96875,333000.6875,319104.53125,305335.75,326753.8125,-0.025146484375,0.94677734375,-0.227783203125,1.0375975370407104,-4.913329601287842,-6.561278820037842,100.0,77574.0,1.0
1208630.8925155,309520.96875,319872.0,352018.4375,343666.9375,332959.75,319670.09375,305783.84375,326743.1875,-0.024658203125,0.946044921875,-0.230224609375,0.9765624403953552,-4.760741710662842,-6.988524913787842,100.0,77575.0,1.0
1208630.896172,315513.75,324932.5,357064.5,349600.34375,336576.875,321881.125,308679.40625,331477.90625,-0.025390625,0.946044921875,-0.2314453125,0.8544921278953552,-4.516601085662842,-7.232665538787842,100.0,77576.0,1.0
1208630.9049932,318612.875,327977.90625,359737.125,353122.96875,338725.78125,322597.5625,309906.875,334232.28125,-0.02587890625,0.94580078125,-0.231201171875,0.7629393935203552,-4.364013195037842,-7.507323741912842,100.0,77577.0,1.0
1208630.9093007,314631.21875,324924.5625,356464.03125,349494.9375,336524.75,320900.15625,307868.46875,331348.8125,-0.027587890625,0.94482421875,-0.230712890625,0.7324218153953552,-4.150390148162842,-7.812499523162842,100.0,77578.0,1.0
1208630.9093303,309043.71875,319936.09375,351713.65625,343682.3125,332970.09375,319093.875,305331.46875,326743.71875,-0.029052734375,0.944091796875,-0.228271484375,0.5798339247703552,-3.906249761581421,-7.995604991912842,100.0,77579.0,1.0
1208630.9150174,309513.84375,319821.84375,351999.21875,343662.90625,332923.0,319651.96875,305772.6875,326722.4375,-0.034912109375,0.9462890625,-0.23046875,0.4272460639476776,-3.692626714706421,-8.331297874450684,100.0,77580.0,1.0
1208630.9193576,315520.1875,324895.6875,357053.84375,349604.375,336545.3125,321863.875,308669.03125,331461.0,-0.03662109375,0.94873046875,-0.22802734375,0.3662109076976776,-3.540038824081421,-8.575438499450684,100.0,77581.0,1.0
1208630.9193852,318637.1875,327965.03125,359743.65625,353144.96875,338706.5625,322582.0,309903.09375,334228.0625,-0.0390625,0.94921875,-0.22802734375,0.0,-3.570556402206421,-8.758543968200684,100.0,77582.0,1.0
1208630.9275205,314658.21875,324921.78125,356476.1875,349520.15625,336514.65625,320892.21875,307871.5,331353.09375,-0.043701171875,0.948486328125,-0.225830078125,-0.1831054538488388,-3.479003667831421,-8.941649436950684,100.0,77583.0,1.0
1208630.9318423,309041.125,319904.71875,351701.21875,343678.5625,332943.1875,319084.21875,305325.125,326732.375,-0.04638671875,0.9482421875,-0.22705078125,-0.2136230319738388,-3.417968511581421,-9.094237327575684,100.0,77584.0,1.0
1208630.9318732,309497.5625,319779.28125,351979.65625,343644.84375,332891.25,319649.53125,305765.09375,326705.4375,-0.05126953125,0.94873046875,-0.2255859375,-0.3662109076976776,-3.326415777206421,-9.277342796325684,100.0,77585.0,1.0
1208630.9400149,315520.1875,324881.1875,357057.34375,349605.53125,336533.6875,321876.84375,308681.4375,331466.90625,-0.05712890625,0.9521484375,-0.226318359375,-0.5493163466453552,-3.479003667831421,-9.460448265075684,100.0,77586.0,1.0
1208630.9431816,318666.25,327990.0625,359772.25,353174.75,338716.75,322609.0,309931.4375,334260.6875,-0.0595703125,0.956298828125,-0.22607421875,-0.7324218153953552,-3.540038824081421,-9.704588890075684,100.0,77587.0,1.0
1208630.9432086,314675.75,324938.84375,356493.53125,349539.71875,336516.09375,320910.09375,307887.6875,331378.40625,-0.064208984375,0.9638671875,-0.2255859375,-0.8850097060203552,-3.753661870956421,-9.826659202575684,100.0,77588.0,1.0
1208630.94499,309030.40625,319897.375,351694.34375,343671.40625,332926.5625,319086.90625,305322.15625,326734.59375,-0.069580078125,0.969482421875,-0.224365234375,-1.0986326932907104,-3.875732183456421,-10.009764671325684,100.0,77589.0,1.0
1208630.9587745,309470.09375,319765.6875,351955.9375,343619.5625,332861.21875,319641.75,305752.21875,326693.03125,-0.070556640625,0.9736328125,-0.22216796875,-1.3732908964157104,-4.089354991912842,-10.070799827575684,100.0,77590.0,1.0
1208630.9618308,315512.40625,324895.0625,357053.40625,349599.71875,336521.4375,321881.3125,308678.9375,331474.40625,-0.07373046875,0.975830078125,-0.220703125,-1.6174315214157104,-4.302978038787842,-10.070799827575684,100.0,77591.0,1.0
1208630.9618631,318689.65625,328042.25,359796.125,353197.46875,338732.5625,322629.03125,309944.15625,334294.9375,-0.07177734375,0.97607421875,-0.21875,-1.8920897245407104,-4.547118663787842,-9.979247093200684,100.0,77592.0,1.0
1208630.9637392,314706.21875,325004.03125,356516.40625,349567.25,336538.25,320934.6875,307902.34375,331419.34375,-0.0732421875,0.978759765625,-0.22021484375,-2.166747808456421,-4.638671398162842,-10.009764671325684,100.0,77593.0,1.0
1208630.9725126,309027.53125,319931.34375,351684.875,343667.84375,332923.875,319102.1875,305318.3125,326751.75,-0.07763671875,0.979736328125,-0.221923828125,-2.502441167831421,-4.913329601287842,-10.040282249450684,100.0,77594.0,1.0
1208630.9755804,309447.21875,319783.90625,351932.71875,343597.90625,332843.96875,319656.96875,305743.09375,326698.5625,-0.079833984375,0.978271484375,-0.220947265625,-2.807616949081421,-5.157470226287842,-10.192870140075684,100.0,77595.0,1.0
1208630.9756092,315515.8125,324946.625,357055.90625,349601.25,336517.59375,321916.90625,308689.40625,331503.03125,-0.07666015625,0.977783203125,-0.22119140625,-2.990722417831421,-5.249022960662842,-10.040282249450684,100.0,77596.0,1.0
1208630.9812398,318726.0625,328133.90625,359823.40625,353230.28125,338742.65625,322675.6875,309968.71875,334350.375,-0.07666015625,0.976806640625,-0.219482421875,-3.234863042831421,-5.371093273162842,-10.070799827575684,100.0,77597.0,1.0
1208630.9850902,314732.0625,325082.1875,356527.59375,349587.90625,336530.46875,320962.75,307913.0,331464.6875,-0.07568359375,0.973388671875,-0.218505859375,-3.356933355331421,-5.340575695037842,-9.979247093200684,100.0,77598.0,1.0
1208630.9888491,309028.53125,319976.78125,351674.0625,343663.625,332897.15625,319116.0625,305317.875,326781.4375,-0.075927734375,0.970458984375,-0.219482421875,-3.417968511581421,-5.493163585662842,-9.857176780700684,100.0,77599.0,1.0
1208631.0032642,309448.03125,319829.875,351916.25,343581.90625,332811.84375,319675.90625,305744.34375,326724.5,-0.07275390625,0.96923828125,-0.21923828125,-3.448486089706421,-5.554198741912842,-9.552000999450684,100.0,77600.0,1.0
1208631.0033082,315546.75,325028.53125,357062.0625,349606.25,336500.625,321952.40625,308707.90625,331548.09375,-0.071044921875,0.96826171875,-0.216552734375,-3.448486089706421,-5.401610851287842,-9.216307640075684,100.0,77601.0,1.0
1208631.0051852,318778.28125,328235.03125,359853.1875,353261.46875,338740.78125,322715.84375,309999.40625,334416.1875,-0.070556640625,0.96826171875,-0.216796875,-3.509521245956421,-5.249022960662842,-8.789061546325684,100.0,77602.0,1.0
1208631.0075573,314782.125,325179.1875,356561.21875,349625.46875,336533.78125,320994.21875,307939.625,331534.84375,-0.068603515625,0.966064453125,-0.216796875,-3.448486089706421,-5.126952648162842,-8.300780296325684,100.0,77603.0,1.0
1208631.0101207,309052.59375,320056.0625,351679.40625,343674.375,332884.375,319131.4375,305328.34375,326829.5625,-0.064453125,0.962646484375,-0.21435546875,-3.417968511581421,-4.943847179412842,-7.812499523162842,100.0,77604.0,1.0
1208631.0194567,309460.1875,319894.0625,351908.21875,343579.5,332793.625,319691.46875,305753.625,326763.125,-0.063232421875,0.959228515625,-0.214599609375,-3.234863042831421,-4.699706554412842,-7.263183116912842,100.0,77605.0,1.0
1208631.0195003,315570.71875,325104.15625,357070.125,349615.46875,336494.1875,321976.71875,308726.5,331601.28125,-0.0625,0.95654296875,-0.212646484375,-3.265380620956421,-4.333495616912842,-6.774901866912842,100.0,77606.0,1.0
1208631.0214427,318828.875,328337.3125,359887.0625,353295.1875,338753.9375,322755.0,310033.8125,334492.34375,-0.065673828125,0.953857421875,-0.208740234375,-3.112792730331421,-4.119872570037842,-6.225585460662842,100.0,77607.0,1.0
1208631.025135,314839.0,325285.59375,356598.0625,349666.5,336555.5,321040.28125,307980.5,331616.5,-0.06640625,0.952880859375,-0.212158203125,-2.868652105331421,-3.784179449081421,-5.828856945037842,100.0,77608.0,1.0
1208631.0344109,309085.03125,320136.1875,351693.625,343693.5,332894.75,319167.625,305357.84375,326895.71875,-0.064453125,0.947998046875,-0.21337890625,-2.593993902206421,-3.631591558456421,-5.432128429412842,100.0,77609.0,1.0
1208631.0344538,309465.71875,319944.59375,351901.9375,343573.875,332783.875,319709.71875,305762.84375,326805.59375,-0.06640625,0.947021484375,-0.212646484375,-2.288818120956421,-3.295898199081421,-4.943847179412842,100.0,77610.0,1.0
1208631.0406354,315589.40625,325162.28125,357075.75,349620.90625,336490.15625,321992.0,308736.78125,331643.65625,-0.06591796875,0.9482421875,-0.210205078125,-2.014159917831421,-3.112792730331421,-4.638671398162842,100.0,77611.0,1.0
1208631.0406783,318871.34375,328414.71875,359909.875,353318.59375,338764.40625,322766.34375,310049.46875,334540.4375,-0.06494140625,0.947265625,-0.211181640625,-1.6784666776657104,-2.807616949081421,-4.302978038787842,100.0,77612.0,1.0
1208631.0427631,314879.15625,325355.84375,356618.15625,349687.96875,336563.71875,321044.03125,307992.46875,331658.96875,-0.0654296875,0.948974609375,-0.208740234375,-1.3122557401657104,-2.532958745956421,-4.028319835662842,100.0,77613.0,1.0
1208631.0538946,309096.75,320169.25,351695.5,343694.03125,332884.1875,319154.6875,305355.0625,326913.84375,-0.0673828125,0.949462890625,-0.20849609375,-1.0681151151657104,-2.288818120956421,-3.540038824081421,100.0,77614.0,1.0
1208631.0569529,309473.25,319976.6875,351903.90625,343567.25,332775.8125,319701.125,305765.71875,326816.40625,-0.069580078125,0.947998046875,-0.2099609375,-0.8544921278953552,-2.136230230331421,-3.234863042831421,100.0,77615.0,1.0
1208631.0570047,315603.34375,325206.375,357084.4375,349616.71875,336490.40625,321991.75,308744.3125,331654.3125,-0.068603515625,0.946044921875,-0.212890625,-0.5798339247703552,-1.8310545682907104,-2.868652105331421,100.0,77616.0,1.0
1208631.0626347,318899.3125,328477.5,359933.1875,353334.25,338776.5625,322771.1875,310061.0,334565.75,-0.069580078125,0.947998046875,-0.214599609375,-0.2441406100988388,-1.6784666776657104,-2.563476324081421,100.0,77617.0,1.0
1208631.0671191,314906.6875,325418.0,356645.875,349713.8125,336576.96875,321045.09375,307999.1875,331687.9375,-0.070556640625,0.94775390625,-0.21240234375,0.1525878757238388,-1.4953612089157104,-2.319335699081421,100.0,77618.0,1.0
1208631.0671625,309114.53125,320221.5625,351716.6875,343715.5,332893.125,319152.25,305358.5625,326936.75,-0.072021484375,0.950927734375,-0.211669921875,0.3356933295726776,-1.2207030057907104,-2.136230230331421,100.0,77619.0,1.0
1208631.0776349,309472.53125,320009.6875,351910.25,343575.03125,332772.6875,319691.46875,305762.59375,326826.40625,-0.07275390625,0.9501953125,-0.213623046875,0.4577636420726776,-1.1596678495407104,-1.8005369901657104,100.0,77620.0,1.0
1208631.0807065,315611.375,325250.8125,357100.6875,349630.90625,336495.6875,321989.0625,308753.25,331672.71875,-0.072021484375,0.950927734375,-0.212646484375,0.7324218153953552,-0.9765624403953552,-1.5258787870407104,100.0,77621.0,1.0
1208631.0807527,318925.25,328535.875,359969.75,353365.71875,338798.28125,322783.6875,310087.8125,334599.46875,-0.0732421875,0.950927734375,-0.214599609375,1.0681151151657104,-0.8544921278953552,-1.2512205839157104,100.0,77622.0,1.0
1208631.0825911,314941.8125,325482.625,356685.3125,349750.8125,336601.09375,321057.625,308025.28125,331724.3125,-0.07421875,0.95068359375,-0.211669921875,1.3427733182907104,-0.7324218153953552,-1.0681151151657104,100.0,77623.0,1.0
1208631.0890077,309149.3125,320289.59375,351755.0625,343750.09375,332922.71875,319174.15625,305384.21875,326973.65625,-0.0732421875,0.948974609375,-0.211669921875,1.6174315214157104,-0.5798339247703552,-1.0070799589157104,100.0,77624.0,1.0
1208631.0926529,309483.96875,320054.65625,351931.1875,343585.3125,332793.4375,319704.53125,305773.84375,326842.15625,-0.071533203125,0.949951171875,-0.2119140625,1.9226073026657104,-0.4577636420726776,-0.7934569716453552,100.0,77625.0,1.0
1208631.101336,315610.03125,325280.46875,357112.21875,349630.21875,336512.3125,321998.625,308760.5,331680.3125,-0.07080078125,0.94775390625,-0.21484375,2.136230230331421,-0.3051757514476776,-0.6103515028953552,100.0,77626.0,1.0
1208631.1044696,318932.0625,328573.96875,359985.21875,353372.96875,338816.96875,322792.28125,310094.71875,334611.1875,-0.07080078125,0.94873046875,-0.21435546875,2.441406011581421,-0.2136230319738388,-0.5187987685203552,100.0,77627.0,1.0
1208631.1045135,314963.09375,325530.65625,356716.96875,349775.9375,336631.9375,321073.25,308044.15625,331748.1875,-0.06689453125,0.947509765625,-0.2158203125,2.746581792831421,-0.03051757626235485,-0.5187987685203552,100.0,77628.0,1.0
1208631.1064218,309159.96875,320324.5625,351776.96875,343765.03125,332941.78125,319177.84375,305396.46875,326983.3125,-0.065185546875,0.947021484375,-0.217529296875,2.929687261581421,0.2136230319738388,-0.4272460639476776,100.0,77629.0,1.0
1208631.1175817,309478.4375,320073.96875,351933.59375,343579.0625,332796.40625,319697.09375,305772.25,326831.6875,-0.06298828125,0.946533203125,-0.216552734375,3.204345464706421,0.3051757514476776,-0.3662109076976776,100.0,77630.0,1.0
1208631.1207017,315602.0,325288.8125,357110.53125,349619.375,336509.65625,321987.90625,308756.71875,331663.96875,-0.06201171875,0.9443359375,-0.21875,3.479003667831421,0.5798339247703552,-0.1831054538488388,100.0,77631.0,1.0
1208631.1207455,318942.40625,328588.90625,360004.1875,353383.34375,338830.1875,322793.90625,310106.25,334612.59375,-0.059814453125,0.9462890625,-0.219970703125,3.753661870956421,0.7019042372703552,-0.1525878757238388,100.0,77632.0,1.0
1208631.1263847,314994.03125,325563.1875,356748.25,349801.96875,336656.09375,321077.375,308057.5625,331758.71875,-0.057373046875,0.946533203125,-0.221923828125,4.028319835662842,0.9460448622703552,-0.1220703050494194,100.0,77633.0,1.0
1208631.1357819,309192.0625,320356.03125,351801.8125,343786.46875,332961.71875,319174.0,305397.8125,326988.34375,-0.056396484375,0.9482421875,-0.2197265625,4.150390148162842,1.2207030057907104,-0.1525878757238388,100.0,77634.0,1.0
1208631.1358271,309493.90625,320088.71875,351946.65625,343587.8125,332809.09375,319694.0625,305771.25,326827.65625,-0.05419921875,0.9482421875,-0.22265625,4.272460460662842,1.4648436307907104,0.0,100.0,77635.0,1.0
1208631.1375747,315606.28125,325297.8125,357118.84375,349618.5,336518.9375,321989.40625,308754.84375,331657.0625,-0.052490234375,0.94921875,-0.223388671875,4.455565929412842,1.7395018339157104,-0.0610351525247097,100.0,77636.0,1.0
1208631.1400834,318957.875,328612.0625,360018.75,353390.5625,338846.125,322795.9375,310108.375,334616.4375,-0.05078125,0.94970703125,-0.224853515625,4.638671398162842,2.014159917831421,0.0,100.0,77637.0,1.0
1208631.1488843,315023.625,325594.84375,356771.3125,349822.0625,336676.03125,321080.0625,308062.84375,331770.0,-0.05078125,0.949462890625,-0.22314453125,4.821776866912842,2.319335699081421,0.03051757626235485,100.0,77638.0,1.0
1208631.1534016,309220.9375,320382.15625,351823.28125,343805.875,332977.71875,319173.625,305399.59375,326991.5625,-0.050048828125,0.948486328125,-0.2265625,4.913329601287842,2.655029058456421,-0.03051757626235485,100.0,77639.0,1.0
1208631.1534491,309507.125,320098.53125,351955.3125,343591.21875,332814.09375,319687.53125,305766.5,326815.34375,-0.051025390625,0.94970703125,-0.226806640625,5.065917491912842,2.960204839706421,0.0610351525247097,100.0,77640.0,1.0
1208631.1644645,315607.625,325298.71875,357116.625,349610.1875,336515.1875,321982.4375,308748.3125,331634.71875,-0.050048828125,0.948486328125,-0.22802734375,5.065917491912842,3.265380620956421,-0.03051757626235485,100.0,77641.0,1.0
1208631.164508,318959.78125,328609.46875,360020.46875,353387.625,338838.25,322795.25,310104.625,334596.78125,-0.048828125,0.951416015625,-0.230224609375,5.035399913787842,3.448486089706421,-0.03051757626235485,100.0,77642.0,1.0
1208631.1663185,315043.75,325604.125,356794.75,349842.1875,336682.65625,321090.96875,308073.46875,331768.84375,-0.04736328125,0.9521484375,-0.2333984375,5.035399913787842,3.753661870956421,-0.03051757626235485,100.0,77643.0,1.0
1208631.1757344,309250.15625,320402.78125,351857.15625,343834.03125,332993.4375,319188.90625,305416.5625,326995.5625,-0.04345703125,0.960205078125,-0.234130859375,5.004882335662842,4.241942882537842,-0.0610351525247097,100.0,77644.0,1.0
1208631.1757782,309525.53125,320119.09375,351981.0625,343605.78125,332825.34375,319697.71875,305776.0,326807.8125,-0.039794921875,0.96533203125,-0.23291015625,4.852294445037842,4.669188976287842,0.03051757626235485,100.0,77645.0,1.0
1208631.1776909,315599.75,325295.3125,357125.375,349610.0,336514.125,321972.0625,308740.46875,331614.4375,-0.037109375,0.967529296875,-0.230224609375,4.547118663787842,5.065917491912842,0.0610351525247097,100.0,77646.0,1.0
1208631.1813344,318956.5625,328605.15625,360038.59375,353403.53125,338846.125,322780.3125,310101.9375,334588.375,-0.03564453125,0.96728515625,-0.235107421875,4.364013195037842,5.615233898162842,0.2136230319738388,100.0,77647.0,1.0
1208631.1857456,315063.84375,325623.71875,356825.78125,349876.0625,336700.25,321079.59375,308078.75,331772.3125,-0.036376953125,0.96826171875,-0.231689453125,3.967284917831421,6.103515148162842,0.3051757514476776,100.0,77648.0,1.0
1208631.1857893,309274.3125,320424.625,351885.40625,343866.84375,333011.875,319174.875,305419.4375,326996.90625,-0.0361328125,0.968505859375,-0.232421875,3.692626714706421,6.652831554412842,0.4272460639476776,100.0,77649.0,1.0
1208631.1938459,309516.34375,320102.46875,351982.40625,343611.0625,332820.96875,319660.625,305756.9375,326784.125,-0.037109375,0.965576171875,-0.233642578125,3.356933355331421,7.110595226287842,0.5798339247703552,100.0,77650.0,1.0
1208631.1964214,315577.21875,325265.71875,357120.1875,349605.96875,336505.875,321942.28125,308726.15625,331587.6875,-0.041015625,0.962158203125,-0.23388671875,3.204345464706421,7.537841320037842,0.4882812201976776,100.0,77651.0,1.0
1208631.2001278,318939.65625,328581.75,360040.40625,353403.71875,338843.875,322761.71875,310096.125,334571.5625,-0.04443359375,0.95947265625,-0.23486328125,3.234863042831421,7.934569835662842,0.5187987685203552,100.0,77652.0,1.0
1208631.2149482,315076.65625,325625.40625,356851.34375,349898.59375,336718.75,321074.0625,308084.03125,331775.1875,-0.0478515625,0.957763671875,-0.234375,3.143310308456421,8.392333030700684,0.3356933295726776,100.0,77653.0,1.0
1208631.2149991,309309.09375,320447.0625,351926.8125,343901.28125,333045.5625,319182.375,305434.625,327012.84375,-0.05126953125,0.958251953125,-0.23095703125,3.112792730331421,8.758543968200684,0.2136230319738388,100.0,77654.0,1.0
1208631.2150138,309534.125,320115.1875,352005.46875,343625.90625,332843.6875,319669.46875,305767.21875,326787.25,-0.0537109375,0.95654296875,-0.230712890625,2.990722417831421,8.911131858825684,0.1220703050494194,100.0,77655.0,1.0
1208631.2207315,315566.15625,325255.71875,357120.71875,349599.53125,336513.65625,321941.21875,308726.15625,331578.65625,-0.053466796875,0.956298828125,-0.232666015625,2.960204839706421,9.033202171325684,-0.0915527269244194,100.0,77656.0,1.0
1208631.2207762,318943.59375,328587.5625,360052.46875,353410.96875,338862.21875,322768.5,310105.78125,334577.125,-0.056396484375,0.956787109375,-0.231201171875,2.838134527206421,9.185790061950684,-0.1831054538488388,100.0,77657.0,1.0
1208631.2227377,315098.0,325644.28125,356874.59375,349920.25,336744.15625,321087.03125,308099.40625,331787.6875,-0.058837890625,0.957763671875,-0.235107421875,2.746581792831421,9.155272483825684,-0.3967284858226776,100.0,77658.0,1.0
1208631.2288659,309321.5,320458.125,351935.21875,343910.65625,333060.5,319186.6875,305436.34375,327004.6875,-0.059326171875,0.957275390625,-0.23388671875,2.624511480331421,9.216307640075684,-0.4882812201976776,100.0,77659.0,1.0
1208631.2383265,309530.0,320113.5625,351998.5,343617.9375,332850.65625,319671.28125,305762.65625,326765.1875,-0.05908203125,0.95849609375,-0.235595703125,2.655029058456421,9.246825218200684,-0.6408690810203552,100.0,77660.0,1.0
1208631.238372,315556.5,325251.96875,357114.28125,349590.5,336521.0,321946.0625,308725.34375,331562.3125,-0.057861328125,0.9599609375,-0.235595703125,2.563476324081421,9.368895530700684,-0.6713866591453552,100.0,77661.0,1.0
1208631.240133,318947.875,328596.5,360060.0625,353423.46875,338880.1875,322779.78125,310113.40625,334578.71875,-0.060302734375,0.958984375,-0.23486328125,2.532958745956421,9.307860374450684,-0.6713866591453552,100.0,77662.0,1.0
1208631.2540169,315106.9375,325653.40625,356883.09375,349934.8125,336759.53125,321090.25,308100.75,331784.5625,-0.05908203125,0.957275390625,-0.236083984375,2.471923589706421,9.155272483825684,-0.7019042372703552,100.0,77663.0,1.0
1208631.2575163,309338.40625,320475.9375,351947.28125,343919.34375,333071.84375,319188.03125,305438.65625,326992.0,-0.0576171875,0.95654296875,-0.2333984375,2.410888433456421,9.185790061950684,-0.6103515028953552,100.0,77664.0,1.0
1208631.2575595,309532.4375,320120.34375,352002.25,343612.03125,332853.6875,319671.1875,305761.6875,326740.40625,-0.060546875,0.955322265625,-0.236572265625,2.288818120956421,9.216307640075684,-0.4272460639476776,100.0,77665.0,1.0
1208631.2575714,315541.125,325243.03125,357107.125,349576.46875,336517.59375,321946.9375,308728.65625,331539.96875,-0.061767578125,0.955322265625,-0.234619140625,2.288818120956421,9.246825218200684,-0.2441406100988388,100.0,77666.0,1.0
1208631.260153,318927.40625,328582.1875,360050.21875,353405.6875,338874.625,322772.53125,310111.34375,334561.65625,-0.06005859375,0.954345703125,-0.23388671875,2.227782964706421,9.124754905700684,-0.1220703050494194,100.0,77667.0,1.0
1208631.2626323,315108.90625,325655.46875,356888.625,349930.78125,336764.90625,321087.125,308100.65625,331778.03125,-0.060791015625,0.955322265625,-0.235107421875,2.105712652206421,8.941649436950684,0.0915527269244194,100.0,77668.0,1.0
1208631.2763636,309345.65625,320482.0,351954.34375,343918.25,333080.4375,319188.65625,305437.3125,326982.875,-0.062744140625,0.955078125,-0.233642578125,2.075195074081421,8.850096702575684,0.1831054538488388,100.0,77669.0,1.0
1208631.2868792,309519.625,320109.375,351989.5625,343593.0,332848.6875,319659.71875,305748.375,326713.84375,-0.064453125,0.95458984375,-0.234375,2.014159917831421,8.605956077575684,0.3967284858226776,100.0,77670.0,1.0
1208631.2869229,315509.46875,325216.1875,357081.75,349546.53125,336501.40625,321924.78125,308704.78125,331508.75,-0.0625,0.95556640625,-0.235107421875,1.9531248807907104,8.392333030700684,0.5493163466453552,100.0,77671.0,1.0
1208631.2869339,318903.25,328562.25,360031.71875,353387.96875,338862.375,322758.5,310099.28125,334544.75,-0.062744140625,0.954345703125,-0.2333984375,1.9836424589157104,8.239745140075684,0.6713866591453552,100.0,77672.0,1.0
1208631.2869449,315116.0625,325667.53125,356893.90625,349943.21875,336773.5625,321090.4375,308108.34375,331783.59375,-0.063232421875,0.953369140625,-0.2333984375,1.9226073026657104,8.026122093200684,0.8544921278953552,100.0,77673.0,1.0
1208631.2894946,309363.53125,320499.96875,351964.09375,343932.75,333092.0625,319189.09375,305441.25,326987.96875,-0.062255859375,0.954345703125,-0.22900390625,1.7700194120407104,7.934569835662842,1.0681151151657104,100.0,77674.0,1.0
1208631.2895375,309514.0,320104.1875,351979.90625,343582.09375,332842.15625,319647.5,305738.1875,326700.53125,-0.06201171875,0.95166015625,-0.2294921875,1.7089842557907104,7.690429210662842,1.3732908964157104,100.0,77675.0,1.0
1208631.2950951,315486.3125,325197.25,357065.375,349524.78125,336489.96875,321915.84375,308696.28125,331493.46875,-0.062255859375,0.94873046875,-0.2333984375,1.6479490995407104,7.446288585662842,1.4343260526657104,100.0,77676.0,1.0
1208631.3089685,318890.46875,328549.75,360037.28125,353388.78125,338870.6875,322766.71875,310107.84375,334555.03125,-0.064208984375,0.948974609375,-0.234375,1.7089842557907104,7.141112804412842,1.4343260526657104,100.0,77677.0,1.0
1208631.3119327,315123.9375,325669.9375,356918.3125,349961.8125,336795.03125,321108.5625,308129.90625,331813.0,-0.064697265625,0.948974609375,-0.23681640625,1.8615721464157104,6.958007335662842,1.5563963651657104,100.0,77678.0,1.0
1208631.3119768,309375.96875,320509.46875,351986.25,343946.5,333109.75,319201.96875,305457.96875,327006.3125,-0.065185546875,0.949951171875,-0.234619140625,1.9226073026657104,6.835937023162842,1.5869139432907104,100.0,77679.0,1.0
1208631.3207285,309517.5,320108.375,351991.96875,343582.8125,332857.375,319655.625,305748.8125,326705.90625,-0.06298828125,0.94873046875,-0.235107421875,1.9836424589157104,6.408690929412842,1.6174315214157104,100.0,77680.0,1.0
1208631.3207726,315479.96875,325195.0,357070.84375,349519.96875,336508.3125,321923.15625,308706.5625,331497.40625,-0.0634765625,0.948974609375,-0.23388671875,2.136230230331421,6.134032726287842,1.7089842557907104,100.0,77681.0,1.0
1208631.3350815,318894.84375,328558.40625,360048.1875,353393.0625,338891.53125,322776.625,310122.25,334565.65625,-0.063720703125,0.947509765625,-0.232421875,2.136230230331421,5.828856945037842,1.9226073026657104,100.0,77682.0,1.0
1208631.3351255,315135.90625,325679.59375,356930.09375,349969.875,336811.375,321110.90625,308138.46875,331819.09375,-0.06103515625,0.94677734375,-0.23486328125,2.105712652206421,5.554198741912842,2.014159917831421,100.0,77683.0,1.0
1208631.3351386,309383.90625,320510.8125,351991.96875,343950.28125,333119.34375,319200.4375,305463.25,327005.9375,-0.061767578125,0.945556640625,-0.233154296875,2.197265386581421,5.249022960662842,2.136230230331421,100.0,77684.0,1.0
1208631.3382495,309514.71875,320102.3125,351988.5,343575.03125,332856.21875,319657.0625,305752.46875,326698.03125,-0.062744140625,0.944580078125,-0.236572265625,2.197265386581421,4.882812023162842,2.258300542831421,100.0,77685.0,1.0
1208631.3382897,315457.15625,325168.375,357055.1875,349497.625,336492.5625,321917.4375,308701.84375,331481.65625,-0.061767578125,0.943603515625,-0.23681640625,2.380370855331421,4.577636241912842,2.288818120956421,100.0,77686.0,1.0
1208631.3399626,318881.4375,328538.375,360039.59375,353381.09375,338882.15625,322769.9375,310122.25,334560.84375,-0.060546875,0.941650390625,-0.236572265625,2.471923589706421,4.333495616912842,2.349853277206421,100.0,77687.0,1.0
1208631.3687796,315148.4375,325684.6875,356942.71875,349983.53125,336819.4375,321114.90625,308151.71875,331833.9375,-0.05908203125,0.94140625,-0.237060546875,2.624511480331421,4.028319835662842,2.441406011581421,100.0,77688.0,1.0
1208631.371863,309401.34375,320524.75,352009.6875,343969.40625,333136.0625,319212.53125,305479.25,327023.1875,-0.058349609375,0.94287109375,-0.23779296875,2.716064214706421,3.692626714706421,2.410888433456421,100.0,77689.0,1.0
1208631.3718927,309508.1875,320091.84375,351986.625,343572.71875,332859.875,319656.25,305752.125,326695.625,-0.057861328125,0.943603515625,-0.2392578125,2.838134527206421,3.417968511581421,2.502441167831421,100.0,77690.0,1.0
1208631.373761,315435.78125,325145.5625,357036.3125,349478.40625,336486.125,321910.5625,308692.90625,331468.25,-0.05712890625,0.943603515625,-0.23828125,2.777099370956421,3.204345464706421,2.532958745956421,100.0,77691.0,1.0
1208631.3762395,318865.875,328522.65625,360025.03125,353366.53125,338880.09375,322766.4375,310118.40625,334555.46875,-0.0556640625,0.945556640625,-0.23974609375,2.899169683456421,2.868652105331421,2.563476324081421,100.0,77692.0,1.0
1208631.3785938,315154.0625,325691.5625,356947.1875,349987.03125,336835.25,321120.8125,308159.84375,331844.21875,-0.05712890625,0.9462890625,-0.241455078125,2.960204839706421,2.532958745956421,2.532958745956421,100.0,77693.0,1.0
1208631.3850144,309417.53125,320542.4375,352021.40625,343978.96875,333156.0,319217.96875,305482.28125,327033.65625,-0.054931640625,0.94775390625,-0.239990234375,2.899169683456421,2.288818120956421,2.685546636581421,100.0,77694.0,1.0
1208631.3875153,309512.5625,320102.125,351990.46875,343569.75,332874.34375,319658.65625,305752.125,326699.46875,-0.053466796875,0.94921875,-0.240234375,2.746581792831421,2.014159917831421,2.685546636581421,100.0,77695.0,1.0
1208631.3900111,315419.25,325134.84375,357028.8125,349460.875,336488.1875,321902.40625,308692.09375,331465.03125,-0.05322265625,0.949462890625,-0.240478515625,2.716064214706421,1.7700194120407104,2.685546636581421,100.0,77696.0,1.0
1208631.3925403,318847.28125,328504.0625,360021.09375,353354.8125,338882.78125,322761.71875,310120.09375,334557.09375,-0.0517578125,0.947998046875,-0.23779296875,2.563476324081421,1.5258787870407104,2.716064214706421,100.0,77697.0,1.0
1208631.3956059,315156.65625,325684.5,356961.21875,349999.1875,336848.21875,321132.8125,308175.40625,331862.96875,-0.050048828125,0.947021484375,-0.23974609375,2.532958745956421,1.1901854276657104,2.624511480331421,100.0,77698.0,1.0
1208631.3956352,309427.5625,320540.84375,352041.59375,343997.21875,333173.875,319233.71875,305507.40625,327060.21875,-0.0478515625,0.947265625,-0.24169921875,2.471923589706421,1.1291502714157104,2.563476324081421,100.0,77699.0,1.0
1208631.3975427,309495.15625,320077.34375,351985.71875,343562.5,332876.9375,319653.21875,305756.78125,326699.625,-0.04443359375,0.951416015625,-0.238525390625,2.349853277206421,0.9765624403953552,2.441406011581421,100.0,77700.0,1.0
1208631.4001128,315394.40625,325103.90625,357017.375,349446.65625,336489.0,321899.8125,308693.15625,331455.90625,-0.0419921875,0.95166015625,-0.238525390625,2.258300542831421,0.8239745497703552,2.532958745956421,100.0,77701.0,1.0
1208631.4025696,318831.1875,328478.75,360016.4375,353346.59375,338886.71875,322760.53125,310125.65625,334552.78125,-0.0390625,0.951416015625,-0.23828125,2.136230230331421,0.7629393935203552,2.471923589706421,100.0,77702.0,1.0
1208631.4093872,315155.9375,325669.75,356962.90625,349999.1875,336856.28125,321123.78125,308174.15625,331862.09375,-0.03955078125,0.951416015625,-0.240966796875,2.014159917831421,0.8239745497703552,2.258300542831421,100.0,77703.0,1.0
1208631.4094238,309438.375,320535.375,352049.125,344006.6875,333187.46875,319226.8125,305506.59375,327060.5,-0.03857421875,0.94921875,-0.242431640625,1.8005369901657104,0.7934569716453552,2.136230230331421,100.0,77704.0,1.0
1208631.411404,309502.46875,320065.28125,351988.6875,343566.09375,332884.625,319654.375,305759.625,326697.59375,-0.038818359375,0.94921875,-0.2431640625,1.6479490995407104,0.6713866591453552,2.136230230331421,100.0,77705.0,1.0
1208631.4231836,315387.96875,325077.0,357006.375,349433.59375,336486.75,321896.25,308690.75,331447.59375,-0.0400390625,0.948974609375,-0.24169921875,1.6479490995407104,0.7629393935203552,1.9836424589157104,100.0,77706.0,1.0
1208631.4232206,318834.59375,328463.71875,360014.125,353344.53125,338893.15625,322762.4375,310129.84375,334558.5,-0.0390625,0.94775390625,-0.242919921875,1.5869139432907104,0.7934569716453552,1.8920897245407104,100.0,77707.0,1.0
1208631.425672,315175.09375,325672.625,356977.40625,350016.96875,336876.46875,321134.0625,308191.59375,331885.4375,-0.036865234375,0.94482421875,-0.24267578125,1.5869139432907104,0.7934569716453552,1.5869139432907104,100.0,77708.0,1.0
1208631.4257041,309456.875,320541.375,352064.03125,344020.90625,333207.46875,319235.75,305521.0,327082.21875,-0.03662109375,0.944091796875,-0.24267578125,1.6174315214157104,0.7324218153953552,1.3427733182907104,100.0,77709.0,1.0
1208631.4337698,309500.6875,320056.34375,351986.0,343558.3125,332888.21875,319653.125,305760.0625,326700.1875,-0.03759765625,0.943603515625,-0.2451171875,1.5563963651657104,0.7019042372703552,1.0986326932907104,100.0,77710.0,1.0
1208631.43627,315371.15625,325051.0625,356992.15625,349415.09375,336478.15625,321890.09375,308684.40625,331438.65625,-0.037841796875,0.943115234375,-0.243896484375,1.5869139432907104,0.7629393935203552,0.8239745497703552,100.0,77711.0,1.0
1208631.4425527,318822.875,328431.28125,360005.34375,353334.4375,338883.03125,322756.0,310127.25,334554.84375,-0.03564453125,0.94384765625,-0.239990234375,1.5563963651657104,0.7324218153953552,0.5798339247703552,100.0,77712.0,1.0
1208631.4518396,315186.6875,325662.15625,356986.0625,350024.40625,336876.21875,321132.71875,308196.96875,331897.125,-0.037109375,0.94287109375,-0.242431640625,1.5258787870407104,0.7324218153953552,0.3967284858226776,100.0,77713.0,1.0
1208631.4518771,309465.1875,320528.9375,352071.90625,344029.125,333202.46875,319228.78125,305524.125,327095.25,-0.03955078125,0.94384765625,-0.2470703125,1.5258787870407104,0.7934569716453552,0.1525878757238388,100.0,77714.0,1.0
1208631.4544231,309492.46875,320027.65625,351981.53125,343555.4375,332879.375,319645.78125,305763.65625,326706.4375,-0.040771484375,0.94287109375,-0.247314453125,1.5258787870407104,0.7629393935203552,-0.0610351525247097,100.0,77715.0,1.0
1208631.4544556,315350.5,325014.0625,356976.875,349398.0,336464.3125,321881.6875,308685.03125,331434.90625,-0.04296875,0.943115234375,-0.245361328125,1.4953612089157104,0.7324218153953552,-0.2136230319738388,100.0,77716.0,1.0
1208631.4625496,318816.96875,328411.78125,359999.4375,353328.4375,338879.5625,322753.9375,310134.125,334559.21875,-0.04248046875,0.943603515625,-0.24609375,1.5258787870407104,0.6408690810203552,-0.4882812201976776,100.0,77717.0,1.0
1208631.4650963,315206.1875,325664.125,357004.40625,350049.0,336896.0625,321145.78125,308218.9375,331922.4375,-0.044677734375,0.947021484375,-0.24267578125,1.4343260526657104,0.5798339247703552,-0.5798339247703552,100.0,77718.0,1.0
1208631.4688009,309475.5625,320519.03125,352079.875,344046.84375,333219.46875,319237.5625,305538.0,327110.28125,-0.045166015625,0.947998046875,-0.24462890625,1.3427733182907104,0.5493163466453552,-0.7019042372703552,100.0,77719.0,1.0
1208631.4782103,309483.96875,320002.4375,351966.78125,343543.90625,332879.09375,319642.5625,305757.9375,326697.9375,-0.046630859375,0.949462890625,-0.242431640625,1.1901854276657104,0.4882812201976776,-0.8239745497703552,100.0,77720.0,1.0
1208631.478246,315339.3125,324985.53125,356961.21875,349380.5,336461.625,321878.46875,308677.25,331424.34375,-0.049560546875,0.9482421875,-0.24365234375,1.2207030057907104,0.3051757514476776,-0.8850097060203552,100.0,77721.0,1.0
1208631.4801561,318822.4375,328393.71875,360002.5,353326.8125,338886.09375,322759.03125,310134.65625,334565.9375,-0.050048828125,0.947265625,-0.244140625,1.1291502714157104,0.1220703050494194,-0.9460448622703552,100.0,77722.0,1.0
1208631.490664,315214.15625,325645.34375,357003.6875,350043.34375,336893.90625,321141.75,308212.78125,331926.46875,-0.050537109375,0.947021484375,-0.242919921875,1.0070799589157104,0.03051757626235485,-1.0986326932907104,100.0,77723.0,1.0
1208631.4907001,309482.625,320503.375,352072.4375,344031.8125,333210.0,319222.625,305525.03125,327108.125,-0.051025390625,0.947021484375,-0.24072265625,1.0070799589157104,-0.0610351525247097,-1.1291502714157104,100.0,77724.0,1.0
1208631.492586,309465.5625,319962.8125,351943.4375,343510.125,332856.5625,319615.9375,305736.46875,326679.625,-0.05029296875,0.947265625,-0.240478515625,1.0375975370407104,-0.1525878757238388,-1.1901854276657104,100.0,77725.0,1.0
1208631.4963611,315313.40625,324941.09375,356938.0625,349345.1875,336436.78125,321856.28125,308663.65625,331405.5625,-0.05029296875,0.947021484375,-0.242431640625,0.9155272841453552,-0.2746581733226776,-1.1291502714157104,100.0,77726.0,1.0
1208631.5056391,318816.0,328373.34375,359994.53125,353310.375,338874.71875,322750.8125,310135.9375,334562.34375,-0.050048828125,0.945068359375,-0.24462890625,0.8850097060203552,-0.4882812201976776,-1.1291502714157104,100.0,77727.0,1.0
1208631.5056783,315220.21875,325634.8125,357008.4375,350047.90625,336893.8125,321142.90625,308222.25,331936.5625,-0.05224609375,0.945556640625,-0.244384765625,0.8850097060203552,-0.6408690810203552,-1.0070799589157104,100.0,77728.0,1.0
1208631.5082431,309481.71875,320484.78125,352074.6875,344034.5,333206.9375,319230.125,305533.875,327116.28125,-0.05126953125,0.947021484375,-0.244140625,1.0986326932907104,-0.7629393935203552,-0.7629393935203552,100.0,77729.0,1.0
1208631.5082748,309458.84375,319944.6875,351939.3125,343504.21875,332851.90625,319627.09375,305744.0625,326683.53125,-0.05322265625,0.945556640625,-0.243896484375,1.0986326932907104,-0.8850097060203552,-0.7324218153953552,100.0,77730.0,1.0
1208631.5162049,315293.375,324910.25,356914.46875,349322.65625,336417.8125,321855.5625,308656.9375,331396.0,-0.054443359375,0.94482421875,-0.243408203125,1.1901854276657104,-0.9460448622703552,-0.7019042372703552,100.0,77731.0,1.0
1208631.523248,318794.375,328339.0,359973.4375,353292.5,338858.1875,322752.15625,310132.0,334557.15625,-0.0556640625,0.9443359375,-0.2431640625,1.3732908964157104,-1.1291502714157104,-0.4272460639476776,100.0,77732.0,1.0
1208631.5232801,315211.75,325618.34375,357004.21875,350043.96875,336889.0,321152.375,308227.8125,331943.90625,-0.055419921875,0.946533203125,-0.244140625,1.4343260526657104,-1.3427733182907104,-0.3356933295726776,100.0,77733.0,1.0
1208631.5289074,309481.5625,320480.21875,352072.71875,344031.28125,333206.5,319238.53125,305538.34375,327121.5625,-0.052978515625,0.947021484375,-0.244384765625,1.4648436307907104,-1.4648436307907104,-0.2746581733226776,100.0,77734.0,1.0
1208631.5406152,309441.78125,319923.75,351923.6875,343482.3125,332841.0,319630.5,305739.4375,326671.84375,-0.05322265625,0.949951171875,-0.24462890625,1.5563963651657104,-1.6479490995407104,-0.1220703050494194,100.0,77735.0,1.0
1208631.5406515,315271.0,324887.0,356900.78125,349297.78125,336409.25,321864.15625,308651.78125,331381.4375,-0.052001953125,0.949951171875,-0.2431640625,1.5563963651657104,-1.7089842557907104,-0.03051757626235485,100.0,77736.0,1.0
1208631.543211,318788.65625,328328.90625,359972.0,353281.59375,338857.8125,322763.59375,310132.78125,334551.71875,-0.051513671875,0.94970703125,-0.24609375,1.5869139432907104,-1.9226073026657104,0.0610351525247097,100.0,77737.0,1.0
1208631.5432361,315226.40625,325625.5,357013.0625,350048.4375,336900.09375,321164.71875,308235.40625,331951.9375,-0.051513671875,0.949462890625,-0.245849609375,1.4953612089157104,-1.9836424589157104,0.0610351525247097,100.0,77738.0,1.0
1208631.5562959,309489.5,320484.59375,352082.375,344040.21875,333220.53125,319249.28125,305548.53125,327133.625,-0.0517578125,0.949462890625,-0.24658203125,1.5563963651657104,-2.075195074081421,0.1525878757238388,100.0,77739.0,1.0
1208631.5637328,309429.96875,319910.875,351918.21875,343475.15625,332842.0,319633.0,305741.5625,326671.46875,-0.053466796875,0.94775390625,-0.24658203125,1.5869139432907104,-2.105712652206421,0.2136230319738388,100.0,77740.0,1.0
1208631.5637725,315244.5625,324854.8125,356883.25,349272.9375,336399.125,321858.875,308650.0625,331371.25,-0.0537109375,0.9462890625,-0.246337890625,1.5258787870407104,-2.227782964706421,0.3356933295726776,100.0,77741.0,1.0
1208631.5637837,318780.25,328314.0625,359969.40625,353270.21875,338857.28125,322764.46875,310141.09375,334558.96875,-0.0537109375,0.9453125,-0.2431640625,1.5869139432907104,-2.319335699081421,0.3356933295726776,100.0,77742.0,1.0
1208631.5668609,315230.34375,325622.8125,357022.8125,350050.40625,336907.9375,321162.65625,308243.8125,331969.46875,-0.052490234375,0.94482421875,-0.246826171875,1.4648436307907104,-2.380370855331421,0.3662109076976776,100.0,77743.0,1.0
1208631.5668907,309484.25,320470.5625,352083.625,344031.8125,333222.59375,319243.53125,305547.28125,327142.75,-0.053466796875,0.946044921875,-0.24755859375,1.4343260526657104,-2.532958745956421,0.4577636420726776,100.0,77744.0,1.0
1208631.568859,309404.9375,319877.0,351902.125,343449.78125,332829.84375,319616.8125,305728.53125,326664.78125,-0.05517578125,0.945556640625,-0.246826171875,1.5258787870407104,-2.685546636581421,0.5493163466453552,100.0,77745.0,1.0
1208631.5831093,315224.6875,324827.375,356867.96875,349249.34375,336386.53125,321847.34375,308639.6875,331362.3125,-0.054443359375,0.946044921875,-0.24609375,1.5258787870407104,-2.624511480331421,0.6103515028953552,100.0,77746.0,1.0
1208631.5831458,318777.28125,328299.03125,359969.75,353264.40625,338858.28125,322770.65625,310143.34375,334560.46875,-0.054443359375,0.947265625,-0.247802734375,1.5258787870407104,-2.716064214706421,0.7324218153953552,100.0,77747.0,1.0
1208631.5944975,315244.1875,325623.90625,357037.125,350064.46875,336920.03125,321186.71875,308260.6875,331987.15625,-0.053466796875,0.946533203125,-0.244873046875,1.5258787870407104,-2.838134527206421,0.8239745497703552,100.0,77748.0,1.0
1208631.5945309,309499.96875,320481.21875,352098.375,344052.0,333237.25,319267.25,305568.84375,327167.6875,-0.053466796875,0.9462890625,-0.244140625,1.4648436307907104,-2.929687261581421,0.7629393935203552,100.0,77749.0,1.0
1208631.6062217,309398.0625,319868.0625,351895.25,343444.59375,332830.375,319629.15625,305734.78125,326668.71875,-0.0537109375,0.946044921875,-0.2451171875,1.2817381620407104,-2.990722417831421,0.8239745497703552,100.0,77750.0,1.0
1208631.6062507,315204.9375,324806.625,356853.5625,349236.375,336384.84375,321861.125,308641.9375,331360.34375,-0.050537109375,0.946044921875,-0.244873046875,1.2207030057907104,-3.143310308456421,0.8544921278953552,100.0,77751.0,1.0
1208631.6062582,318765.03125,328284.375,359957.53125,353257.09375,338860.78125,322783.34375,310148.875,334566.1875,-0.05224609375,0.9462890625,-0.242431640625,1.2512205839157104,-3.173827886581421,0.9155272841453552,100.0,77752.0,1.0
1208631.609353,315251.625,325626.9375,357038.1875,350072.5,336938.25,321200.46875,308273.21875,332008.8125,-0.050537109375,0.94921875,-0.2431640625,1.1901854276657104,-3.295898199081421,0.9155272841453552,100.0,77753.0,1.0
1208631.6093896,309500.875,320475.84375,352096.6875,344056.75,333255.5,319273.125,305574.75,327186.09375,-0.050537109375,0.9501953125,-0.2421875,1.1291502714157104,-3.326415777206421,0.9460448622703552,100.0,77754.0,1.0
1208631.6113355,309393.5,319857.3125,351887.8125,343442.96875,332846.1875,319637.46875,305743.53125,326682.28125,-0.050048828125,0.9501953125,-0.24462890625,1.1596678495407104,-3.356933355331421,0.9155272841453552,100.0,77755.0,1.0
1208631.6201999,315203.34375,324797.59375,356842.5625,349224.375,336395.90625,321870.59375,308651.6875,331366.3125,-0.048095703125,0.948974609375,-0.246337890625,1.0070799589157104,-3.295898199081421,0.7934569716453552,100.0,77756.0,1.0
1208631.6244147,318777.71875,328287.15625,359962.15625,353259.40625,338878.375,322798.0,310165.6875,334581.125,-0.04736328125,0.947265625,-0.245361328125,0.8850097060203552,-3.356933355331421,0.8544921278953552,100.0,77757.0,1.0
1208631.6244499,315259.9375,325625.875,357045.71875,350082.6875,336950.6875,321210.0625,308288.78125,332026.59375,-0.046630859375,0.945556640625,-0.248046875,0.9155272841453552,-3.326415777206421,0.8544921278953552,100.0,77758.0,1.0
1208631.6306644,309501.84375,320470.21875,352095.96875,344058.28125,333259.0625,319277.6875,305587.875,327199.96875,-0.04736328125,0.9453125,-0.2490234375,0.9765624403953552,-3.295898199081421,0.7324218153953552,100.0,77759.0,1.0
1208631.6306965,309374.90625,319836.9375,351869.59375,343423.3125,332837.0625,319630.9375,305743.0,326679.875,-0.048828125,0.94677734375,-0.251220703125,1.0070799589157104,-3.265380620956421,0.7019042372703552,100.0,77760.0,1.0
1208631.6388241,315171.59375,324760.5,356813.96875,349191.75,336373.84375,321856.71875,308640.0625,331350.84375,-0.048828125,0.946533203125,-0.24609375,1.0375975370407104,-3.143310308456421,0.6713866591453552,100.0,77761.0,1.0
1208631.6431855,318752.6875,328255.3125,359937.65625,353230.71875,338855.0625,322783.25,310152.28125,334564.6875,-0.0478515625,0.947998046875,-0.244384765625,1.0070799589157104,-3.143310308456421,0.6713866591453552,100.0,77762.0,1.0
1208631.6432208,315261.90625,325617.53125,357045.25,350078.9375,336944.78125,321207.8125,308289.75,332031.96875,-0.0458984375,0.94775390625,-0.2470703125,0.9765624403953552,-3.204345464706421,0.6103515028953552,100.0,77763.0,1.0
1208631.6538191,309505.34375,320465.5625,352101.78125,344064.53125,333261.21875,319283.96875,305594.125,327214.28125,-0.048095703125,0.948486328125,-0.24951171875,0.8544921278953552,-3.204345464706421,0.5493163466453552,100.0,77764.0,1.0
1208631.6568886,309361.21875,319817.53125,351860.71875,343412.40625,332827.25,319633.4375,305743.8125,326682.375,-0.0458984375,0.947265625,-0.2509765625,0.7324218153953552,-3.021239995956421,0.6103515028953552,100.0,77765.0,1.0
1208631.656925,315156.65625,324742.34375,356804.125,349178.0,336366.84375,321863.875,308646.3125,331354.15625,-0.044189453125,0.947265625,-0.249755859375,0.6713866591453552,-2.960204839706421,0.5493163466453552,100.0,77766.0,1.0
1208631.6588276,318753.3125,328252.5625,359939.09375,353229.1875,338857.75,322798.28125,310165.15625,334577.46875,-0.04541015625,0.9443359375,-0.2509765625,0.5187987685203552,-2.929687261581421,0.5493163466453552,100.0,77767.0,1.0
1208631.6681573,315272.4375,325626.125,357053.21875,350086.375,336953.5625,321224.34375,308301.125,332048.21875,-0.04541015625,0.945556640625,-0.2490234375,0.5187987685203552,-2.899169683456421,0.4882812201976776,100.0,77768.0,1.0
1208631.6681965,309517.5,320476.8125,352110.53125,344074.1875,333272.40625,319295.21875,305604.59375,327228.9375,-0.04541015625,0.94482421875,-0.251953125,0.5493163466453552,-2.899169683456421,0.6103515028953552,100.0,77769.0,1.0
1208631.670099,309345.125,319799.3125,351846.25,343399.875,332819.5625,319623.625,305736.75,326671.9375,-0.04345703125,0.947265625,-0.25341796875,0.6408690810203552,-2.746581792831421,0.5493163466453552,100.0,77770.0,1.0
1208631.6787937,315137.625,324722.40625,356788.84375,349159.125,336354.78125,321850.65625,308640.15625,331337.96875,-0.0419921875,0.94775390625,-0.2509765625,0.7019042372703552,-2.655029058456421,0.6408690810203552,100.0,77771.0,1.0
1208631.6818879,318751.625,328247.1875,359939.375,353226.875,338857.375,322791.84375,310170.78125,334578.4375,-0.042724609375,0.946533203125,-0.24755859375,0.5798339247703552,-2.593993902206421,0.6408690810203552,100.0,77772.0,1.0
1208631.6819239,315277.90625,325618.53125,357059.84375,350095.21875,336956.40625,321215.9375,308309.59375,332059.21875,-0.041259765625,0.948974609375,-0.24560546875,0.4882812201976776,-2.471923589706421,0.6103515028953552,100.0,77773.0,1.0
1208631.7006584,309509.53125,320460.375,352104.625,344069.90625,333263.4375,319276.4375,305599.3125,327230.34375,-0.041259765625,0.950439453125,-0.246826171875,0.3662109076976776,-2.380370855331421,0.7019042372703552,100.0,77774.0,1.0
1208631.7006893,309333.0625,319784.90625,351836.21875,343385.3125,332810.15625,319613.34375,305729.21875,326669.6875,-0.04248046875,0.951416015625,-0.24658203125,0.2746581733226776,-2.227782964706421,0.7629393935203552,100.0,77775.0,1.0
1208631.7025986,315116.0625,324696.125,356769.53125,349133.90625,336343.625,321840.625,308627.8125,331327.25,-0.040771484375,0.952392578125,-0.248291015625,0.1831054538488388,-2.014159917831421,0.7019042372703552,100.0,77776.0,1.0
1208631.7050714,318741.25,328234.84375,359931.3125,353212.9375,338855.9375,322790.125,310163.1875,334573.8125,-0.038330078125,0.950439453125,-0.245361328125,0.0610351525247097,-1.7700194120407104,0.6408690810203552,100.0,77777.0,1.0
1208631.7112962,315293.8125,325639.09375,357074.78125,350108.875,336977.15625,321232.5,308320.78125,332078.09375,-0.037353515625,0.94873046875,-0.246826171875,0.0,-1.7089842557907104,0.7324218153953552,100.0,77778.0,1.0
1208631.7138236,309517.9375,320472.8125,352114.5625,344081.78125,333281.59375,319288.96875,305610.40625,327247.625,-0.036376953125,0.94384765625,-0.2451171875,0.0,-1.4648436307907104,0.7629393935203552,100.0,77779.0,1.0
1208631.7163214,309312.9375,319765.9375,351822.375,343371.4375,332805.875,319606.53125,305723.96875,326662.8125,-0.03662109375,0.9404296875,-0.2470703125,-0.03051757626235485,-1.2512205839157104,0.8239745497703552,100.0,77780.0,1.0
1208631.7194125,315098.0,324673.0625,356757.90625,349119.96875,336336.1875,321839.03125,308622.71875,331319.375,-0.0380859375,0.9404296875,-0.251708984375,0.03051757626235485,-1.0375975370407104,0.8544921278953552,100.0,77781.0,1.0
1208631.7194478,318740.90625,328221.0625,359934.0,353213.375,338857.03125,322794.4375,310164.4375,334580.34375,-0.03955078125,0.937744140625,-0.249267578125,0.0915527269244194,-0.9155272841453552,0.7629393935203552,100.0,77782.0,1.0
1208631.7275792,315305.4375,325631.75,357087.8125,350116.75,336982.25,321235.8125,308324.8125,332091.59375,-0.03955078125,0.937255859375,-0.24609375,0.2441406100988388,-0.7324218153953552,0.7934569716453552,100.0,77783.0,1.0
1208631.7318901,309532.0625,320464.5,352130.03125,344088.3125,333288.5,319296.28125,305615.3125,327260.59375,-0.041259765625,0.936279296875,-0.24853515625,0.4272460639476776,-0.7019042372703552,0.6713866591453552,100.0,77784.0,1.0
1208631.7319305,309323.125,319755.21875,351835.78125,343372.96875,332815.96875,319620.46875,305729.5,326672.8125,-0.0400390625,0.93701171875,-0.247802734375,0.4882812201976776,-0.4577636420726776,0.5187987685203552,100.0,77785.0,1.0
1208631.7425099,315091.46875,324648.1875,356752.09375,349100.125,336331.09375,321841.53125,308615.8125,331308.46875,-0.041015625,0.937255859375,-0.24658203125,0.4882812201976776,-0.3356933295726776,0.5493163466453552,100.0,77786.0,1.0
1208631.7456267,318748.3125,328209.09375,359938.03125,353204.96875,338859.09375,322801.6875,310166.3125,334576.21875,-0.0419921875,0.935791015625,-0.246826171875,0.5798339247703552,-0.1831054538488388,0.5187987685203552,100.0,77787.0,1.0
1208631.7456586,315317.25,325621.3125,357094.53125,350117.75,336985.09375,321238.9375,308325.4375,332092.3125,-0.041259765625,0.935546875,-0.247802734375,0.8544921278953552,-0.03051757626235485,0.6103515028953552,100.0,77788.0,1.0
1208631.7475893,309535.5625,320449.28125,352128.40625,344085.375,333286.0625,319293.96875,305610.59375,327257.53125,-0.0439453125,0.9365234375,-0.245849609375,0.9460448622703552,0.03051757626235485,0.5493163466453552,100.0,77789.0,1.0
1208631.7568906,309311.59375,319726.78125,351816.375,343350.71875,332799.4375,319611.09375,305719.75,326653.0625,-0.044921875,0.938232421875,-0.24755859375,1.0681151151657104,0.1525878757238388,0.5798339247703552,100.0,77790.0,1.0
1208631.7569301,315081.65625,324619.21875,356733.3125,349079.8125,336317.40625,321833.9375,308608.5,331288.09375,-0.045654296875,0.940673828125,-0.24755859375,1.1291502714157104,0.1831054538488388,0.5493163466453552,100.0,77791.0,1.0
1208631.7588077,318741.34375,328180.5,359923.90625,353192.09375,338849.6875,322795.3125,310164.625,334562.09375,-0.04638671875,0.943115234375,-0.248046875,1.1901854276657104,0.2441406100988388,0.4882812201976776,100.0,77792.0,1.0
1208631.762559,315335.21875,325622.71875,357102.03125,350132.5,336996.71875,321250.65625,308343.59375,332102.25,-0.05029296875,0.9462890625,-0.246826171875,1.2817381620407104,0.1220703050494194,0.3967284858226776,100.0,77793.0,1.0
1208631.7768904,309557.90625,320463.5,352140.65625,344106.28125,333304.65625,319308.375,305630.34375,327273.09375,-0.052734375,0.94873046875,-0.246826171875,1.2207030057907104,0.0915527269244194,0.3356933295726776,100.0,77794.0,1.0
1208631.7769266,309302.90625,319720.0,351808.78125,343348.1875,332803.90625,319612.34375,305719.9375,326648.0625,-0.0546875,0.9521484375,-0.244873046875,0.9460448622703552,-0.0610351525247097,0.3051757514476776,100.0,77795.0,1.0
1208631.7795076,315059.375,324608.9375,356718.125,349067.125,336314.65625,321835.8125,308605.53125,331274.40625,-0.056396484375,0.95263671875,-0.24560546875,0.7019042372703552,-0.2441406100988388,0.1831054538488388,100.0,77796.0,1.0
1208631.7795409,318733.3125,328188.96875,359917.65625,353191.90625,338849.4375,322795.9375,310163.8125,334556.375,-0.056396484375,0.951171875,-0.242431640625,0.7019042372703552,-0.4882812201976776,0.0915527269244194,100.0,77797.0,1.0
1208631.7813515,315346.5625,325650.71875,357111.6875,350150.03125,337008.09375,321255.5625,308348.78125,332109.5625,-0.056640625,0.952880859375,-0.246826171875,0.5493163466453552,-0.6713866591453552,-0.1220703050494194,100.0,77798.0,1.0
1208631.7950472,309562.46875,320489.4375,352145.75,344120.40625,333313.53125,319313.09375,305631.59375,327277.65625,-0.05810546875,0.953369140625,-0.25,0.4272460639476776,-0.7629393935203552,-0.3051757514476776,100.0,77799.0,1.0
1208631.7981611,309287.8125,319728.125,351792.34375,343341.75,332796.5625,319605.65625,305706.875,326638.21875,-0.05615234375,0.955810546875,-0.248779296875,0.3356933295726776,-0.9460448622703552,-0.3356933295726776,100.0,77800.0,1.0
1208631.798197,315036.78125,324612.875,356693.96875,349053.25,336298.90625,321823.75,308585.15625,331264.21875,-0.0556640625,0.95556640625,-0.24951171875,0.2441406100988388,-1.1291502714157104,-0.2746581733226776,100.0,77801.0,1.0
1208631.8000792,318741.96875,328230.03125,359921.03125,353209.71875,338856.84375,322811.875,310166.6875,334578.4375,-0.0556640625,0.95556640625,-0.24755859375,0.1220703050494194,-1.2512205839157104,-0.3356933295726776,100.0,77802.0,1.0
1208631.8063373,315368.65625,325711.5,357121.96875,350182.03125,337020.15625,321274.4375,308356.53125,332145.40625,-0.052978515625,0.956298828125,-0.245849609375,-0.1220703050494194,-1.3732908964157104,-0.2441406100988388,100.0,77803.0,1.0
1208631.8087828,309578.90625,320551.5625,352147.375,344143.46875,333318.78125,319326.6875,305633.9375,327310.125,-0.05029296875,0.956298828125,-0.243896484375,-0.2441406100988388,-1.4038084745407104,-0.0610351525247097,100.0,77804.0,1.0
1208631.8182152,309296.125,319791.59375,351787.3125,343354.90625,332797.8125,319623.875,305708.40625,326666.1875,-0.049072265625,0.95458984375,-0.245849609375,-0.3662109076976776,-1.5258787870407104,0.1525878757238388,100.0,77805.0,1.0
1208631.8182514,315043.5625,324676.28125,356684.6875,349057.65625,336293.53125,321843.6875,308587.21875,331290.0625,-0.045166015625,0.95166015625,-0.24609375,-0.4882812201976776,-1.4953612089157104,0.3051757514476776,100.0,77806.0,1.0
1208631.8199696,318758.875,328304.3125,359919.15625,353222.5,338856.21875,322829.75,310173.03125,334615.28125,-0.04638671875,0.949462890625,-0.24609375,-0.4577636420726776,-1.4343260526657104,0.4882812201976776,100.0,77807.0,1.0
1208631.8238499,315400.03125,325797.96875,357133.40625,350211.25,337033.5625,321298.375,308366.46875,332198.25,-0.04541015625,0.948486328125,-0.244873046875,-0.3051757514476776,-1.4038084745407104,0.7324218153953552,100.0,77808.0,1.0
1208631.8332659,309608.0625,320637.65625,352151.84375,344166.09375,333329.15625,319346.1875,305639.65625,327359.03125,-0.046875,0.947509765625,-0.248779296875,-0.2746581733226776,-1.4038084745407104,0.9155272841453552,100.0,77809.0,1.0
1208631.833307,309314.28125,319868.59375,351783.03125,343361.53125,332801.03125,319645.96875,305716.09375,326706.34375,-0.04931640625,0.94775390625,-0.243896484375,-0.2746581733226776,-1.3122557401657104,1.0375975370407104,100.0,77810.0,1.0
1208631.8394227,315058.9375,324751.5625,356679.84375,349060.875,336298.8125,321873.53125,308596.96875,331327.15625,-0.048828125,0.945556640625,-0.243408203125,-0.2746581733226776,-1.4038084745407104,1.1291502714157104,100.0,77811.0,1.0
1208631.839455,318787.84375,328386.3125,359921.5,353234.5625,338867.46875,322864.71875,310182.25,334655.875,-0.049560546875,0.945068359375,-0.244384765625,-0.1831054538488388,-1.4648436307907104,1.1901854276657104,100.0,77812.0,1.0
1208631.8414295,315439.625,325889.875,357143.34375,350230.21875,337046.53125,321330.21875,308377.75,332239.90625,-0.0517578125,0.94580078125,-0.244384765625,-0.1220703050494194,-1.4648436307907104,1.2512205839157104,100.0,77813.0,1.0
1208631.8525271,309638.71875,320717.96875,352160.0625,344184.5,333341.3125,319374.4375,305651.0,327395.75,-0.052734375,0.94482421875,-0.243408203125,-0.03051757626235485,-1.4343260526657104,1.2512205839157104,100.0,77814.0,1.0
1208631.8581825,309321.15625,319923.75,351766.5,343355.53125,332797.71875,319655.71875,305710.0,326716.8125,-0.052001953125,0.94580078125,-0.24267578125,0.0,-1.4953612089157104,1.2512205839157104,100.0,77815.0,1.0
1208631.8582186,315061.34375,324798.21875,356661.96875,349049.875,336295.15625,321877.75,308591.78125,331329.65625,-0.0517578125,0.94677734375,-0.24169921875,-0.03051757626235485,-1.6174315214157104,1.2207030057907104,100.0,77816.0,1.0
1208631.8600829,318803.65625,328442.625,359923.375,353241.53125,338871.6875,322871.15625,310189.125,334671.875,-0.052978515625,0.94775390625,-0.2412109375,-0.0915527269244194,-1.6479490995407104,1.2512205839157104,100.0,77817.0,1.0
1208631.8625727,315467.25,325952.71875,357160.59375,350255.4375,337061.5625,321339.5,308390.34375,332271.03125,-0.05322265625,0.94775390625,-0.239990234375,-0.0610351525247097,-1.5258787870407104,1.2512205839157104,100.0,77818.0,1.0
1208631.8738199,309663.59375,320777.59375,352179.90625,344209.09375,333358.9375,319382.65625,305663.25,327427.6875,-0.051513671875,0.949462890625,-0.244384765625,-0.0915527269244194,-1.7089842557907104,1.1901854276657104,100.0,77819.0,1.0
1208631.8769308,309330.53125,319963.09375,351778.84375,343367.15625,332806.21875,319657.3125,305715.65625,326735.3125,-0.050048828125,0.947265625,-0.24462890625,-0.03051757626235485,-1.8005369901657104,1.1901854276657104,100.0,77820.0,1.0
1208631.8769811,315069.40625,324830.3125,356668.5,349053.0,336296.9375,321879.96875,308594.09375,331340.3125,-0.04833984375,0.947509765625,-0.24560546875,-0.0610351525247097,-1.8005369901657104,1.1291502714157104,100.0,77821.0,1.0
1208631.8822387,318823.40625,328483.21875,359936.0625,353248.6875,338880.53125,322879.625,310190.90625,334683.78125,-0.04638671875,0.94775390625,-0.24267578125,-0.1220703050494194,-1.8615721464157104,1.0986326932907104,100.0,77822.0,1.0
1208631.8976763,315506.34375,326013.34375,357196.1875,350286.53125,337087.46875,321359.28125,308405.1875,332300.90625,-0.04833984375,0.946044921875,-0.242431640625,-0.1220703050494194,-1.9226073026657104,1.0375975370407104,100.0,77823.0,1.0
1208631.8977299,309693.0,320827.03125,352210.84375,344234.125,333376.71875,319398.21875,305675.40625,327453.875,-0.0458984375,0.946044921875,-0.243896484375,-0.2441406100988388,-1.9531248807907104,0.9765624403953552,100.0,77824.0,1.0
1208631.8977431,309328.5625,319982.5,351783.65625,343362.25,332804.625,319657.6875,305710.0,326741.03125,-0.045654296875,0.944091796875,-0.245849609375,-0.1831054538488388,-1.8615721464157104,1.0070799589157104,100.0,77825.0,1.0
1208631.9000983,315054.375,324837.75,356661.78125,349036.625,336287.28125,321862.1875,308577.5625,331334.5,-0.044921875,0.943359375,-0.241943359375,-0.1220703050494194,-1.8310545682907104,1.0681151151657104,100.0,77826.0,1.0
1208631.9026062,318823.40625,328499.03125,359939.0,353247.96875,338878.125,322856.3125,310179.03125,334688.0625,-0.04345703125,0.941162109375,-0.241943359375,-0.0915527269244194,-1.8920897245407104,1.0070799589157104,100.0,77827.0,1.0
1208631.9051368,315520.1875,326034.4375,357205.5625,350296.375,337090.15625,321333.4375,308393.65625,332311.09375,-0.04443359375,0.93896484375,-0.24267578125,0.03051757626235485,-1.8920897245407104,0.9460448622703552,100.0,77828.0,1.0
1208631.9076254,309711.15625,320852.4375,352225.6875,344251.84375,333387.90625,319375.6875,305668.4375,327468.53125,-0.044189453125,0.942138671875,-0.242919921875,0.1525878757238388,-1.8005369901657104,0.9155272841453552,100.0,77829.0,1.0
1208631.9151517,309341.375,320002.34375,351793.9375,343375.65625,332815.0625,319643.1875,305708.59375,326748.375,-0.04248046875,0.940673828125,-0.2431640625,0.2746581733226776,-1.7395018339157104,0.9460448622703552,100.0,77830.0,1.0
1208631.9175739,315062.25,324849.0,356669.21875,349043.53125,336296.40625,321861.28125,308579.78125,331335.46875,-0.043701171875,0.940185546875,-0.247314453125,0.3967284858226776,-1.6479490995407104,0.9460448622703552,100.0,77831.0,1.0
1208631.920156,318847.65625,328524.15625,359964.21875,353272.5625,338903.59375,322877.03125,310198.96875,334705.6875,-0.04345703125,0.94140625,-0.2490234375,0.4272460639476776,-1.6174315214157104,1.0375975370407104,100.0,77832.0,1.0
1208631.9295851,315554.34375,326067.96875,357240.34375,350332.59375,337121.1875,321360.15625,308422.875,332335.6875,-0.044189453125,0.942138671875,-0.24609375,0.4882812201976776,-1.5563963651657104,0.9460448622703552,100.0,77833.0,1.0
1208631.9296303,309729.9375,320874.15625,352243.75,344270.875,333402.03125,319387.3125,305680.3125,327474.8125,-0.046142578125,0.94189453125,-0.24462890625,0.6408690810203552,-1.4953612089157104,0.8239745497703552,100.0,77834.0,1.0
1208631.9319993,309335.09375,320003.59375,351793.125,343370.09375,332811.78125,319639.0,305702.15625,326735.3125,-0.045166015625,0.941650390625,-0.24560546875,0.6103515028953552,-1.4648436307907104,0.8239745497703552,100.0,77835.0,1.0
1208631.9320429,315053.5,324846.84375,356666.4375,349032.6875,336287.28125,321852.71875,308570.75,331319.125,-0.0458984375,0.941162109375,-0.248046875,0.7019042372703552,-1.5258787870407104,0.6713866591453552,100.0,77836.0,1.0
1208631.9401579,318857.125,328538.03125,359975.9375,353278.8125,338902.34375,322875.53125,310200.28125,334702.0,-0.0458984375,0.940673828125,-0.246826171875,0.8544921278953552,-1.4648436307907104,0.4882812201976776,100.0,77837.0,1.0
1208631.9439542,315576.59375,326095.4375,357266.8125,350358.0625,337136.375,321366.0625,308433.25,332351.59375,-0.046630859375,0.941162109375,-0.250244140625,0.8850097060203552,-1.3732908964157104,0.4577636420726776,100.0,77838.0,1.0
1208631.9507737,309745.3125,320894.96875,352265.375,344294.125,333420.0,319391.96875,305689.4375,327489.8125,-0.044921875,0.944091796875,-0.247314453125,0.8850097060203552,-1.4343260526657104,0.4577636420726776,100.0,77839.0,1.0
1208631.9508157,309340.03125,320018.15625,351800.1875,343376.0,332819.5625,319638.53125,305703.84375,326733.53125,-0.045654296875,0.9453125,-0.2470703125,0.8544921278953552,-1.3122557401657104,0.3356933295726776,100.0,77840.0,1.0
1208631.9562913,315036.3125,324840.59375,356655.1875,349017.15625,336278.96875,321842.875,308561.1875,331298.65625,-0.044677734375,0.948486328125,-0.244384765625,0.7629393935203552,-1.3732908964157104,0.3051757514476776,100.0,77841.0,1.0
1208631.9657293,318844.875,328534.0,359975.125,353271.21875,338901.71875,322867.84375,310195.8125,334688.6875,-0.046630859375,0.9501953125,-0.24755859375,0.7629393935203552,-1.3427733182907104,0.3967284858226776,100.0,77842.0,1.0
1208631.9657734,315578.75,326104.1875,357276.65625,350363.625,337143.4375,321359.625,308433.0625,332345.875,-0.046875,0.953125,-0.24658203125,0.7629393935203552,-1.3732908964157104,0.3051757514476776,100.0,77843.0,1.0
1208631.9676266,309739.21875,320891.125,352265.375,344291.0,333417.0625,319375.6875,305682.65625,327473.375,-0.04931640625,0.955810546875,-0.24755859375,0.6408690810203552,-1.1901854276657104,0.1220703050494194,100.0,77844.0,1.0
1208631.9740185,309322.0625,319999.75,351787.96875,343361.4375,332808.90625,319620.5625,305693.75,326708.59375,-0.048828125,0.955810546875,-0.246826171875,0.3662109076976776,-1.2512205839157104,0.0610351525247097,100.0,77845.0,1.0
1208631.9769227,315033.09375,324841.125,356654.5625,349015.34375,336284.0625,321843.15625,308563.96875,331284.4375,-0.046142578125,0.954833984375,-0.246826171875,0.1525878757238388,-1.1901854276657104,0.03051757626235485,100.0,77846.0,1.0
1208631.9769662,318846.5625,328538.84375,359976.46875,353275.96875,338908.6875,322863.71875,310194.65625,334680.375,-0.045166015625,0.954345703125,-0.249267578125,-0.0915527269244194,-1.3427733182907104,0.0,100.0,77847.0,1.0
1208632.0075816,315589.3125,326112.40625,357285.0625,350377.46875,337154.71875,321350.96875,308431.8125,332344.53125,-0.0458984375,0.954345703125,-0.248046875,-0.2746581733226776,-1.2817381620407104,-0.0915527269244194,100.0,77848.0,1.0
1208632.0107374,309755.125,320913.5,352280.40625,344311.28125,333437.625,319374.0625,305686.5,327480.4375,-0.046875,0.95361328125,-0.25048828125,-0.4882812201976776,-1.2207030057907104,-0.2136230319738388,100.0,77849.0,1.0
1208632.0107809,309309.28125,319993.9375,351781.59375,343355.34375,332814.625,319611.53125,305682.84375,326694.53125,-0.0458984375,0.9521484375,-0.2509765625,-0.5493163466453552,-1.1901854276657104,-0.1831054538488388,100.0,77850.0,1.0
1208632.0125488,315009.78125,324817.96875,356638.0,348993.09375,336276.90625,321826.5,308544.9375,331259.5,-0.04443359375,0.955078125,-0.25048828125,-0.6713866591453552,-1.1291502714157104,-0.1831054538488388,100.0,77851.0,1.0
1208632.0202266,318846.9375,328533.71875,359981.03125,353272.8125,338914.25,322862.1875,310193.40625,334671.625,-0.044677734375,0.952392578125,-0.247314453125,-0.7629393935203552,-1.0986326932907104,-0.03051757626235485,100.0,77852.0,1.0
1208632.0226289,315613.25,326128.5,357311.0625,350398.3125,337175.71875,321367.9375,308449.53125,332357.59375,-0.045654296875,0.9501953125,-0.2529296875,-0.7934569716453552,-1.0986326932907104,0.0610351525247097,100.0,77853.0,1.0
1208632.0256984,309767.3125,320913.75,352298.75,344322.46875,333449.78125,319380.59375,305695.0625,327485.34375,-0.04541015625,0.9453125,-0.2490234375,-0.8850097060203552,-0.9765624403953552,0.0610351525247097,100.0,77854.0,1.0
1208632.0257425,309306.0625,319980.625,351787.25,343352.3125,332816.5,319606.625,305684.0,326686.6875,-0.04541015625,0.942626953125,-0.247802734375,-1.0070799589157104,-0.8850097060203552,0.1831054538488388,100.0,77855.0,1.0
1208632.0277757,314996.09375,324792.21875,356636.75,348982.09375,336271.5625,321815.875,308544.3125,331246.4375,-0.0458984375,0.94091796875,-0.246337890625,-1.0070799589157104,-0.7324218153953552,0.2441406100988388,100.0,77856.0,1.0
1208632.030746,318851.84375,328522.1875,359994.71875,353279.625,338918.625,322858.8125,310200.125,334672.875,-0.050048828125,0.939697265625,-0.24951171875,-0.9155272841453552,-0.7324218153953552,0.1220703050494194,100.0,77857.0,1.0
1208632.0307896,315621.9375,326119.46875,357325.8125,350408.59375,337178.6875,321357.84375,308450.59375,332364.03125,-0.05126953125,0.938720703125,-0.248291015625,-0.8544921278953552,-0.7019042372703552,0.0610351525247097,100.0,77858.0,1.0
1208632.0333761,309773.65625,320902.03125,352312.0625,344331.15625,333452.5625,319373.0,305699.09375,327496.0,-0.05419921875,0.939453125,-0.24658203125,-0.7629393935203552,-0.7629393935203552,-0.1220703050494194,100.0,77859.0,1.0
1208632.033422,309297.46875,319957.28125,351789.03125,343343.28125,332809.09375,319598.03125,305682.375,326686.21875,-0.05517578125,0.939208984375,-0.24853515625,-0.6408690810203552,-0.7934569716453552,-0.1831054538488388,100.0,77860.0,1.0
1208632.0389084,314977.9375,324761.84375,356630.40625,348961.1875,336256.4375,321806.40625,308534.8125,331235.96875,-0.05517578125,0.939697265625,-0.246826171875,-0.7324218153953552,-0.9765624403953552,-0.3051757514476776,100.0,77861.0,1.0
1208632.0458452,318847.375,328507.28125,360002.03125,353273.0,338914.59375,322858.71875,310200.90625,334676.0,-0.056884765625,0.939697265625,-0.2470703125,-0.6103515028953552,-1.0375975370407104,-0.5187987685203552,100.0,77862.0,1.0
1208632.0458893,315638.21875,326125.75,357352.46875,350425.75,337189.40625,321369.1875,308465.09375,332382.09375,-0.056396484375,0.941650390625,-0.246826171875,-0.4272460639476776,-1.1901854276657104,-0.4577636420726776,100.0,77863.0,1.0
1208632.0519982,309784.46875,320910.8125,352332.53125,344343.3125,333461.84375,319379.0,305706.4375,327505.28125,-0.055419921875,0.943115234375,-0.248046875,-0.3662109076976776,-1.3122557401657104,-0.4882812201976776,100.0,77864.0,1.0
1208632.0520419,309297.28125,319960.78125,351796.09375,343339.625,332812.40625,319597.96875,305682.90625,326681.3125,-0.05322265625,0.944091796875,-0.248046875,-0.3051757514476776,-1.4343260526657104,-0.5798339247703552,100.0,77865.0,1.0
1208632.060756,314985.4375,324772.375,356643.8125,348961.09375,336267.09375,321816.5,308547.4375,331235.34375,-0.051513671875,0.94482421875,-0.24853515625,-0.3662109076976776,-1.4038084745407104,-0.6408690810203552,100.0,77866.0,1.0
1208632.0608004,318870.09375,328528.90625,360027.25,353284.1875,338934.90625,322874.375,310220.59375,334685.46875,-0.05224609375,0.94384765625,-0.249267578125,-0.3356933295726776,-1.4038084745407104,-0.5798339247703552,100.0,77867.0,1.0
1208632.0694801,315660.5625,326148.09375,357374.5625,350436.375,337210.78125,321375.90625,308475.0,332390.125,-0.05078125,0.9443359375,-0.2490234375,-0.2441406100988388,-1.4343260526657104,-0.5798339247703552,100.0,77868.0,1.0
1208632.06953,309797.25,320921.09375,352342.90625,344345.8125,333479.28125,319381.15625,305707.5,327508.59375,-0.0498046875,0.947021484375,-0.25048828125,-0.2441406100988388,-1.4343260526657104,-0.4577636420726776,100.0,77869.0,1.0
1208632.0720746,309285.46875,319948.34375,351784.65625,343320.5,332813.90625,319590.53125,305674.0625,326667.90625,-0.049072265625,0.94677734375,-0.24462890625,-0.2136230319738388,-1.4648436307907104,-0.2746581733226776,100.0,77870.0,1.0
1208632.0721113,314953.09375,324748.96875,356618.25,348929.34375,336257.5,321800.21875,308530.4375,331208.15625,-0.04931640625,0.94677734375,-0.247314453125,-0.1831054538488388,-1.4648436307907104,-0.3051757514476776,100.0,77871.0,1.0
1208632.0825962,318848.90625,328522.75,360014.5625,353266.03125,338932.5625,322863.625,310207.28125,334669.46875,-0.04931640625,0.947998046875,-0.24658203125,-0.2746581733226776,-1.4343260526657104,-0.2441406100988388,100.0,77872.0,1.0
1208632.0919405,315665.125,326164.28125,357385.71875,350445.6875,337225.625,321379.65625,308476.71875,332398.625,-0.04931640625,0.949951171875,-0.248046875,-0.2441406100988388,-1.3732908964157104,-0.0610351525247097,100.0,77873.0,1.0
1208632.0919907,309798.15625,320932.625,352353.4375,344352.96875,333488.125,319384.09375,305708.75,327515.5625,-0.049072265625,0.950439453125,-0.246337890625,-0.3051757514476776,-1.4038084745407104,0.0,100.0,77874.0,1.0
1208632.1013086,309269.9375,319942.71875,351779.0,343309.125,332806.75,319586.78125,305661.46875,326658.0625,-0.0498046875,0.948486328125,-0.246826171875,-0.2441406100988388,-1.3427733182907104,0.0915527269244194,100.0,77875.0,1.0
1208632.1014066,314940.65625,324739.125,356612.53125,348914.875,336248.03125,321795.5,308515.40625,331197.4375,-0.050537109375,0.947998046875,-0.246826171875,-0.1831054538488388,-1.3122557401657104,0.2441406100988388,100.0,77876.0,1.0
1208632.1014215,318853.8125,328521.40625,360021.875,353271.3125,338931.21875,322863.0,310203.78125,334671.78125,-0.05126953125,0.945068359375,-0.2470703125,-0.1831054538488388,-1.3122557401657104,0.3662109076976776,100.0,77877.0,1.0
1208632.1046047,315686.3125,326181.15625,357405.40625,350470.53125,337235.0,321384.46875,308486.53125,332415.96875,-0.05078125,0.947021484375,-0.248291015625,-0.1220703050494194,-1.3122557401657104,0.3662109076976776,100.0,77878.0,1.0
1208632.1046517,309815.125,320950.78125,352369.46875,344378.625,333499.40625,319390.625,305723.0625,327535.15625,-0.0517578125,0.945068359375,-0.246826171875,-0.1525878757238388,-1.4038084745407104,0.3662109076976776,100.0,77879.0,1.0
1208632.1064002,309274.5625,319952.0,351786.0625,343323.4375,332814.53125,319597.5,305676.9375,326672.46875,-0.052001953125,0.945556640625,-0.245849609375,0.0610351525247097,-1.3732908964157104,0.3051757514476776,100.0,77880.0,1.0
1208632.1214174,314939.21875,324741.53125,356613.25,348919.59375,336253.75,321810.6875,308531.0625,331206.28125,-0.05224609375,0.94873046875,-0.244873046875,0.0610351525247097,-1.4038084745407104,0.3662109076976776,100.0,77881.0,1.0
1208632.1244795,318859.4375,328531.6875,360025.71875,353278.28125,338941.4375,322881.4375,310220.875,334680.8125,-0.053466796875,0.949462890625,-0.244384765625,0.1220703050494194,-1.4038084745407104,0.3356933295726776,100.0,77882.0,1.0
1208632.1245234,315695.6875,326194.65625,357408.53125,350478.84375,337245.46875,321394.6875,308496.125,332420.0,-0.052978515625,0.94970703125,-0.24560546875,0.1220703050494194,-1.5258787870407104,0.3967284858226776,100.0,77883.0,1.0
1208632.1265115,309826.3125,320968.46875,352374.1875,344388.8125,333512.71875,319400.09375,305732.09375,327539.0,-0.052734375,0.94921875,-0.246337890625,0.0,-1.4953612089157104,0.3051757514476776,100.0,77884.0,1.0
1208632.1376192,309267.96875,319953.78125,351779.28125,343319.0625,332821.59375,319600.375,305678.1875,326662.625,-0.05322265625,0.95166015625,-0.245361328125,-0.0610351525247097,-1.5258787870407104,0.2441406100988388,100.0,77885.0,1.0
1208632.1407352,314928.40625,324735.1875,356601.09375,348908.34375,336252.78125,321809.25,308529.28125,331187.96875,-0.051513671875,0.9501953125,-0.24365234375,-0.1831054538488388,-1.4953612089157104,0.4272460639476776,100.0,77886.0,1.0
1208632.1407825,318860.53125,328529.34375,360027.0,353285.53125,338946.875,322881.15625,310226.75,334680.65625,-0.05126953125,0.94775390625,-0.245849609375,-0.1220703050494194,-1.4648436307907104,0.4882812201976776,100.0,77887.0,1.0
1208632.1426562,315714.65625,326207.28125,357430.25,350506.3125,337263.625,321404.34375,308513.0,332441.53125,-0.050048828125,0.946044921875,-0.24755859375,-0.2746581733226776,-1.4648436307907104,0.5493163466453552,100.0,77888.0,1.0
1208632.1520913,309841.78125,320976.34375,352394.125,344408.75,333527.46875,319404.46875,305743.625,327557.78125,-0.0498046875,0.947265625,-0.248046875,-0.2441406100988388,-1.4038084745407104,0.3662109076976776,100.0,77889.0,1.0
1208632.152136,309266.96875,319945.46875,351785.1875,343321.28125,332823.40625,319595.4375,305679.96875,326668.78125,-0.050048828125,0.945068359375,-0.244873046875,-0.1831054538488388,-1.4343260526657104,0.3356933295726776,100.0,77890.0,1.0
1208632.1538563,314910.0625,324713.03125,356596.09375,348895.28125,336246.78125,321799.96875,308522.84375,331183.65625,-0.052978515625,0.944091796875,-0.246337890625,0.0,-1.4343260526657104,0.3662109076976776,100.0,77891.0,1.0
1208632.1626613,318856.0625,328527.75,360030.375,353281.21875,338951.625,322883.5625,310228.28125,334683.875,-0.051513671875,0.9443359375,-0.248046875,0.0610351525247097,-1.4343260526657104,0.3356933295726776,100.0,77892.0,1.0
1208632.17261,315724.5625,326220.25,357441.6875,350518.03125,337275.84375,321413.4375,308523.65625,332456.375,-0.051025390625,0.943603515625,-0.24609375,0.1220703050494194,-1.4343260526657104,0.2441406100988388,100.0,77893.0,1.0
1208632.1726558,309838.09375,320975.34375,352395.90625,344413.84375,333534.09375,319405.8125,305746.9375,327564.375,-0.0517578125,0.943359375,-0.249755859375,0.1220703050494194,-1.5563963651657104,0.2746581733226776,100.0,77894.0,1.0
1208632.1726693,309244.28125,319922.0625,351764.875,343299.65625,332813.46875,319582.21875,305666.75,326652.0,-0.049072265625,0.94140625,-0.249755859375,0.2136230319738388,-1.4648436307907104,0.2746581733226776,100.0,77895.0,1.0
1208632.1752662,314894.4375,324693.625,356574.28125,348870.6875,336235.25,321788.0625,308511.21875,331164.09375,-0.048583984375,0.941650390625,-0.2490234375,0.3051757514476776,-1.4343260526657104,0.3051757514476776,100.0,77896.0,1.0
1208632.1776805,318856.0625,328517.09375,360025.375,353269.59375,338951.34375,322880.1875,310224.875,334674.65625,-0.049560546875,0.941162109375,-0.24853515625,0.2746581733226776,-1.4038084745407104,0.2746581733226776,100.0,77897.0,1.0
1208632.1863676,315737.375,326219.78125,357452.96875,350519.90625,337288.1875,321415.875,308524.625,332458.0,-0.047607421875,0.939697265625,-0.246337890625,0.3967284858226776,-1.4343260526657104,0.1831054538488388,100.0,77898.0,1.0
1208632.1907236,309842.84375,320968.65625,352401.09375,344413.125,333542.40625,319403.03125,305743.90625,327563.125,-0.048583984375,0.939697265625,-0.244384765625,0.4577636420726776,-1.5258787870407104,0.2136230319738388,100.0,77899.0,1.0
1208632.19077,309237.84375,319906.6875,351764.875,343294.03125,332817.21875,319579.34375,305665.84375,326648.6875,-0.05029296875,0.9404296875,-0.24658203125,0.6103515028953552,-1.4648436307907104,0.2136230319738388,100.0,77900.0,1.0
1208632.1990237,314887.09375,324675.28125,356573.71875,348864.0625,336238.125,321786.09375,308510.78125,331159.34375,-0.04931640625,0.94189453125,-0.2451171875,0.6713866591453552,-1.3732908964157104,0.1525878757238388,100.0,77901.0,1.0
1208632.2020026,318865.71875,328513.25,360036.09375,353275.875,338958.78125,322884.46875,310233.5625,334679.03125,-0.05029296875,0.9404296875,-0.24755859375,0.8544921278953552,-1.3732908964157104,0.1220703050494194,100.0,77902.0,1.0
1208632.2020478,315758.90625,326226.0625,357472.53125,350541.0,337304.28125,321427.125,308546.53125,332476.65625,-0.05029296875,0.94189453125,-0.24560546875,0.7934569716453552,-1.4648436307907104,0.1525878757238388,100.0,77903.0,1.0
1208632.2101577,309866.71875,320983.40625,352423.8125,344436.8125,333558.84375,319418.59375,305769.03125,327583.6875,-0.051513671875,0.942626953125,-0.246826171875,0.9155272841453552,-1.4038084745407104,0.1831054538488388,100.0,77904.0,1.0
1208632.2145035,309241.21875,319907.75,351768.03125,343294.28125,332815.78125,319580.53125,305673.1875,326645.5625,-0.0498046875,0.94189453125,-0.2470703125,0.8850097060203552,-1.4343260526657104,0.0915527269244194,100.0,77905.0,1.0
1208632.2145471,314873.34375,324662.0625,356565.6875,348849.59375,336232.375,321786.09375,308511.84375,331145.65625,-0.04931640625,0.943359375,-0.245849609375,1.0681151151657104,-1.4343260526657104,0.0,100.0,77906.0,1.0
1208632.2269293,318862.03125,328506.46875,360036.28125,353269.875,338962.25,322891.34375,310239.375,334675.46875,-0.051025390625,0.94384765625,-0.244873046875,1.0986326932907104,-1.5563963651657104,-0.03051757626235485,100.0,77907.0,1.0
1208632.2269873,315771.6875,326233.65625,357485.875,350550.375,337312.6875,321431.15625,308552.25,332478.90625,-0.052978515625,0.943359375,-0.246826171875,1.1291502714157104,-1.5869139432907104,-0.1831054538488388,100.0,77908.0,1.0
1208632.228912,309869.125,320976.96875,352427.9375,344437.8125,333560.90625,319411.90625,305765.96875,327577.09375,-0.051025390625,0.94775390625,-0.24658203125,1.0375975370407104,-1.5258787870407104,-0.2136230319738388,100.0,77909.0,1.0
1208632.2314003,309224.34375,319879.125,351755.59375,343275.15625,332808.375,319575.78125,305662.71875,326624.8125,-0.05126953125,0.948486328125,-0.248291015625,0.9765624403953552,-1.5869139432907104,-0.2136230319738388,100.0,77910.0,1.0
1208632.2338847,314861.8125,324642.5625,356556.03125,348830.28125,336225.0625,321785.21875,308507.65625,331127.15625,-0.05126953125,0.948486328125,-0.2451171875,0.9460448622703552,-1.6479490995407104,-0.0610351525247097,100.0,77911.0,1.0
1208632.242726,318854.71875,328496.4375,360033.59375,353261.375,338959.3125,322889.84375,310238.28125,334665.34375,-0.052001953125,0.947021484375,-0.247802734375,0.7934569716453552,-1.7700194120407104,-0.03051757626235485,100.0,77912.0,1.0
1208632.2457076,315766.40625,326223.0,357489.25,350552.78125,337316.1875,321430.875,308552.34375,332479.875,-0.05322265625,0.94775390625,-0.250244140625,0.7629393935203552,-1.6784666776657104,-0.0610351525247097,100.0,77913.0,1.0
1208632.2457506,309872.8125,320977.3125,352436.96875,344448.4375,333570.46875,319417.09375,305771.34375,327586.65625,-0.052978515625,0.949462890625,-0.2509765625,0.8239745497703552,-1.6784666776657104,0.0610351525247097,100.0,77914.0,1.0
1208632.2476817,309220.40625,319873.59375,351755.5,343276.9375,332811.84375,319577.75,305667.8125,326627.5,-0.05126953125,0.948974609375,-0.25,0.7934569716453552,-1.7089842557907104,-0.03051757626235485,100.0,77915.0,1.0
1208632.26142,314843.8125,324619.84375,356542.4375,348816.25,336215.65625,321780.28125,308503.53125,331115.0,-0.05029296875,0.94580078125,-0.248046875,0.7019042372703552,-1.8005369901657104,-0.0610351525247097,100.0,77916.0,1.0
1208632.2646268,318851.9375,328478.84375,360030.90625,353257.34375,338957.34375,322888.125,310235.6875,334658.28125,-0.05126953125,0.947265625,-0.246337890625,0.7324218153953552,-1.6784666776657104,-0.03051757626235485,100.0,77917.0,1.0
1208632.2646707,315791.09375,326230.96875,357505.09375,350569.34375,337330.21875,321441.78125,308562.625,332488.28125,-0.050537109375,0.94677734375,-0.248779296875,0.6103515028953552,-1.8005369901657104,-0.0610351525247097,100.0,77918.0,1.0
1208632.2664253,309896.5,320990.5625,352448.84375,344460.15625,333585.84375,319424.40625,305779.5625,327591.75,-0.051025390625,0.947265625,-0.249267578125,0.4882812201976776,-1.7395018339157104,-0.0915527269244194,100.0,77919.0,1.0
1208632.2689238,309220.5625,319867.6875,351750.03125,343266.5625,332815.0,319573.0,305663.0625,326616.40625,-0.0498046875,0.947998046875,-0.24951171875,0.3967284858226776,-1.7395018339157104,0.0,100.0,77920.0,1.0
1208632.2776624,314834.25,324600.375,356529.84375,348794.96875,336214.875,321775.8125,308497.28125,331096.5,-0.05126953125,0.945068359375,-0.24951171875,0.3967284858226776,-1.7089842557907104,-0.03051757626235485,100.0,77921.0,1.0
1208632.2821249,318858.28125,328473.65625,360032.15625,353252.625,338965.65625,322896.0,310246.96875,334657.125,-0.05126953125,0.94580078125,-0.249755859375,0.3051757514476776,-1.6479490995407104,0.03051757626235485,100.0,77922.0,1.0
1208632.2821724,315813.0,326239.71875,357520.5625,350582.125,337344.4375,321451.90625,308580.40625,332507.53125,-0.053466796875,0.94482421875,-0.24951171875,0.3051757514476776,-1.7395018339157104,0.03051757626235485,100.0,77923.0,1.0
1208632.2926198,309907.5625,320989.46875,352457.6875,344466.6875,333591.125,319427.8125,305786.1875,327605.25,-0.051025390625,0.946044921875,-0.249755859375,0.3662109076976776,-1.7089842557907104,0.0,100.0,77924.0,1.0
1208632.2958065,309204.5625,319843.90625,351735.28125,343248.5,332806.125,319567.09375,305656.53125,326607.625,-0.051513671875,0.944580078125,-0.24951171875,0.3356933295726776,-1.6174315214157104,0.03051757626235485,100.0,77925.0,1.0
1208632.2958505,314809.0625,324567.09375,356508.46875,348770.375,336198.5,321766.4375,308484.84375,331078.34375,-0.05126953125,0.947998046875,-0.24951171875,0.4577636420726776,-1.5258787870407104,0.1525878757238388,100.0,77926.0,1.0
1208632.3014058,318851.84375,328457.375,360024.3125,353244.5625,338959.65625,322886.96875,310238.65625,334648.375,-0.052734375,0.94873046875,-0.249755859375,0.4577636420726776,-1.4648436307907104,0.1220703050494194,100.0,77927.0,1.0
1208632.3045578,315827.125,326244.1875,357529.9375,350592.40625,337354.71875,321447.59375,308578.1875,332510.1875,-0.05126953125,0.947998046875,-0.250732421875,0.4577636420726776,-1.4648436307907104,0.1831054538488388,100.0,77928.0,1.0
1208632.3046049,309923.125,320995.65625,352470.3125,344482.0625,333609.375,319428.25,305788.6875,327614.8125,-0.0498046875,0.947265625,-0.249755859375,0.3662109076976776,-1.3732908964157104,0.1220703050494194,100.0,77929.0,1.0
1208632.3064156,309206.71875,319841.21875,351740.84375,343255.40625,332820.875,319566.65625,305656.0,326611.65625,-0.04931640625,0.946044921875,-0.248291015625,0.3051757514476776,-1.4343260526657104,0.1831054538488388,100.0,77930.0,1.0
1208632.320165,314804.9375,324563.0,356505.59375,348767.25,336208.59375,321766.875,308483.6875,331076.03125,-0.048828125,0.9462890625,-0.24658203125,0.1525878757238388,-1.4343260526657104,0.2441406100988388,100.0,77931.0,1.0
1208632.3231062,318855.53125,328460.25,360032.96875,353253.5,338980.21875,322898.15625,310246.15625,334661.15625,-0.04833984375,0.94580078125,-0.2470703125,0.0915527269244194,-1.4038084745407104,0.2746581733226776,100.0,77932.0,1.0
1208632.3231507,315834.1875,326247.25,357541.75,350610.03125,337373.65625,321453.0625,308583.90625,332525.9375,-0.0478515625,0.947509765625,-0.248291015625,0.0610351525247097,-1.2817381620407104,0.3662109076976776,100.0,77933.0,1.0
1208632.3302647,309932.53125,321002.90625,352480.84375,344499.9375,333624.21875,319427.53125,305792.8125,327630.0,-0.048828125,0.9462890625,-0.247802734375,0.1220703050494194,-1.1901854276657104,0.2746581733226776,100.0,77934.0,1.0
1208632.3327799,309202.59375,319838.0,351741.0,343258.09375,332822.6875,319563.0,305654.5625,326616.125,-0.048828125,0.946044921875,-0.24560546875,0.1525878757238388,-1.1901854276657104,0.2136230319738388,100.0,77935.0,1.0
1208632.3351993,314790.71875,324546.53125,356501.65625,348758.3125,336204.125,321761.875,308478.84375,331072.8125,-0.048095703125,0.945556640625,-0.248291015625,0.1525878757238388,-0.9765624403953552,0.1220703050494194,100.0,77936.0,1.0
1208632.3387975,318853.375,328450.125,360032.0,353246.09375,338974.59375,322892.78125,310242.5,334655.34375,-0.0498046875,0.946044921875,-0.247802734375,0.1525878757238388,-1.0070799589157104,0.1525878757238388,100.0,77937.0,1.0
1208632.3481473,315870.125,326277.5625,357571.4375,350636.46875,337398.875,321475.40625,308609.375,332554.90625,-0.0498046875,0.94482421875,-0.248046875,0.2136230319738388,-0.9460448622703552,0.1525878757238388,100.0,77938.0,1.0
1208632.3481826,309962.46875,321031.9375,352510.90625,344528.71875,333655.0625,319450.0625,305821.6875,327665.15625,-0.050537109375,0.9423828125,-0.250732421875,0.2441406100988388,-0.8544921278953552,0.0915527269244194,100.0,77939.0,1.0
1208632.3500005,309211.53125,319846.875,351746.125,343259.78125,332840.65625,319569.875,305666.1875,326627.40625,-0.05029296875,0.943115234375,-0.24853515625,0.2136230319738388,-0.8544921278953552,-0.0610351525247097,100.0,77940.0,1.0
1208632.3588029,314793.65625,324550.75,356495.6875,348747.5,336214.5,321765.28125,308481.4375,331071.8125,-0.05126953125,0.945556640625,-0.248779296875,0.2136230319738388,-0.8544921278953552,-0.0610351525247097,100.0,77941.0,1.0
1208632.3632644,318877.0625,328477.5,360048.71875,353258.875,338997.40625,322907.4375,310256.875,334673.84375,-0.05078125,0.943115234375,-0.248779296875,0.4272460639476776,-0.7629393935203552,-0.0610351525247097,100.0,77942.0,1.0
1208632.3633084,315897.03125,326305.90625,357599.0625,350662.0625,337427.5,321488.03125,308623.34375,332580.03125,-0.0517578125,0.943115234375,-0.248291015625,0.4577636420726776,-0.7324218153953552,-0.0610351525247097,100.0,77943.0,1.0
1208632.369552,309987.78125,321063.96875,352536.8125,344552.4375,333684.90625,319466.53125,305832.9375,327687.59375,-0.05126953125,0.94580078125,-0.2470703125,0.4272460639476776,-0.6713866591453552,-0.1220703050494194,100.0,77944.0,1.0
1208632.3695939,309224.25,319874.3125,351764.875,343272.21875,332864.15625,319587.40625,305677.375,326643.9375,-0.051025390625,0.9453125,-0.251220703125,0.3051757514476776,-0.6408690810203552,-0.2441406100988388,100.0,77945.0,1.0
1208632.3751663,314794.21875,324567.1875,356510.4375,348754.09375,336235.34375,321779.125,308496.375,331086.84375,-0.050537109375,0.946044921875,-0.250244140625,0.3967284858226776,-0.6408690810203552,-0.1831054538488388,100.0,77946.0,1.0
1208632.3845053,318876.09375,328492.25,360063.46875,353269.6875,339022.5,322914.15625,310271.375,334695.125,-0.05126953125,0.946044921875,-0.252197265625,0.3662109076976776,-0.6713866591453552,-0.1220703050494194,100.0,77947.0,1.0
1208632.3845521,315917.0625,326344.5,357625.59375,350689.3125,337466.125,321502.84375,308646.03125,332618.375,-0.052978515625,0.942626953125,-0.251953125,0.4882812201976776,-0.5798339247703552,-0.1220703050494194,100.0,77948.0,1.0
1208632.3907919,310013.0,321109.90625,352569.1875,344584.53125,333726.40625,319481.625,305855.75,327732.28125,-0.052734375,0.942626953125,-0.249267578125,0.4882812201976776,-0.5493163466453552,-0.1525878757238388,100.0,77949.0,1.0
1208632.3908384,309219.59375,319894.0625,351770.96875,343277.3125,332881.0625,319584.4375,305679.53125,326665.65625,-0.0537109375,0.94140625,-0.2490234375,0.4882812201976776,-0.6408690810203552,0.03051757626235485,100.0,77950.0,1.0
1208632.4040135,314780.71875,324581.78125,356505.25,348745.625,336240.96875,321773.59375,308490.65625,331095.15625,-0.054931640625,0.94140625,-0.250244140625,0.6713866591453552,-0.6713866591453552,0.1525878757238388,100.0,77951.0,1.0
1208632.406954,318885.1875,328523.625,360073.21875,353276.3125,339039.15625,322926.3125,310278.09375,334712.5625,-0.0546875,0.9423828125,-0.249755859375,0.7019042372703552,-0.7019042372703552,0.0,100.0,77952.0,1.0
1208632.4069972,315941.03125,326386.28125,357647.34375,350708.625,337483.90625,321515.03125,308654.1875,332641.71875,-0.05810546875,0.9423828125,-0.248779296875,0.7019042372703552,-0.7019042372703552,0.03051757626235485,100.0,77953.0,1.0
1208632.4094702,310033.09375,321153.90625,352591.71875,344604.375,333739.625,319485.9375,305862.0,327755.8125,-0.05810546875,0.942138671875,-0.250732421875,0.7629393935203552,-0.7934569716453552,0.1831054538488388,100.0,77954.0,1.0
1208632.4095096,309239.34375,319941.71875,351794.03125,343296.15625,332899.3125,319592.78125,305690.59375,326687.5625,-0.057861328125,0.943603515625,-0.249755859375,0.8239745497703552,-0.8544921278953552,0.0610351525247097,100.0,77955.0,1.0
1208632.4226139,314789.28125,324611.90625,356514.28125,348749.90625,336254.03125,321777.25,308492.8125,331103.46875,-0.057373046875,0.942138671875,-0.2470703125,0.9155272841453552,-0.9155272841453552,0.0915527269244194,100.0,77956.0,1.0
1208632.4258786,318889.03125,328542.5,360078.75,353278.8125,339045.75,322923.09375,310276.375,334717.3125,-0.056396484375,0.942626953125,-0.25,0.8239745497703552,-1.0070799589157104,0.1220703050494194,100.0,77957.0,1.0
1208632.4259254,315957.9375,326418.28125,357671.46875,350734.28125,337507.59375,321521.71875,308669.65625,332669.0,-0.055419921875,0.942626953125,-0.251220703125,0.8850097060203552,-1.0375975370407104,0.0915527269244194,100.0,77958.0,1.0
1208632.428097,310054.46875,321194.5,352618.53125,344634.59375,333772.0,319498.625,305882.03125,327789.78125,-0.0576171875,0.94287109375,-0.251220703125,0.9765624403953552,-1.0986326932907104,0.0915527269244194,100.0,77959.0,1.0
1208632.4281411,309246.21875,319968.8125,351808.15625,343305.5625,332923.15625,319601.09375,305698.75,326709.21875,-0.058349609375,0.943359375,-0.250732421875,1.0375975370407104,-1.2512205839157104,0.1831054538488388,100.0,77960.0,1.0
1208632.4414096,314780.0,324623.0625,356518.375,348747.40625,336267.875,321784.5,308498.0,331116.53125,-0.05859375,0.943603515625,-0.251220703125,1.1596678495407104,-1.2817381620407104,0.1525878757238388,100.0,77961.0,1.0
1208632.4488495,318894.15625,328565.90625,360093.78125,353290.625,339073.21875,322941.0625,310290.78125,334740.90625,-0.056396484375,0.94384765625,-0.249755859375,1.1291502714157104,-1.3732908964157104,0.2441406100988388,100.0,77962.0,1.0
1208632.4488928,315979.28125,326451.96875,357691.0625,350755.3125,337541.75,321537.375,308680.1875,332696.78125,-0.057373046875,0.943603515625,-0.250732421875,1.0681151151657104,-1.4343260526657104,0.1831054538488388,100.0,77963.0,1.0
1208632.4489048,310077.90625,321232.84375,352637.9375,344653.90625,333804.625,319511.9375,305890.4375,327818.5625,-0.057373046875,0.946533203125,-0.247802734375,1.1291502714157104,-1.5869139432907104,0.3662109076976776,100.0,77964.0,1.0
1208632.452049,309246.5,319987.0625,351808.59375,343305.03125,332942.3125,319604.65625,305698.03125,326721.71875,-0.0546875,0.947265625,-0.24658203125,1.1291502714157104,-1.6479490995407104,0.4577636420726776,100.0,77965.0,1.0
1208632.4520852,314770.15625,324629.40625,356508.28125,348734.53125,336277.28125,321777.4375,308487.25,331113.21875,-0.054931640625,0.94775390625,-0.249267578125,1.1291502714157104,-1.6174315214157104,0.4272460639476776,100.0,77966.0,1.0
1208632.4626668,318889.84375,328570.9375,360089.5625,353281.3125,339078.125,322932.46875,310280.0625,334738.5,-0.052734375,0.947265625,-0.252197265625,1.0375975370407104,-1.7089842557907104,0.4272460639476776,100.0,77967.0,1.0
1208632.4700921,315986.96875,326468.53125,357704.71875,350762.1875,337554.8125,321538.0,308683.78125,332711.09375,-0.0517578125,0.945556640625,-0.25,0.9460448622703552,-1.8005369901657104,0.4882812201976776,100.0,77968.0,1.0
1208632.4701357,310081.21875,321243.40625,352651.0,344660.34375,333820.46875,319512.3125,305896.6875,327835.65625,-0.05322265625,0.947509765625,-0.250244140625,0.9460448622703552,-1.8615721464157104,0.4272460639476776,100.0,77969.0,1.0
1208632.4701475,309231.125,319984.46875,351804.5,343295.09375,332946.40625,319595.28125,305691.78125,326726.09375,-0.0537109375,0.947021484375,-0.2509765625,1.0375975370407104,-1.8920897245407104,0.5187987685203552,100.0,77970.0,1.0
1208632.4725952,314746.8125,324613.40625,356493.25,348712.53125,336272.8125,321762.84375,308475.71875,331107.03125,-0.052978515625,0.94580078125,-0.24951171875,0.9460448622703552,-1.8005369901657104,0.6103515028953552,100.0,77971.0,1.0
1208632.476517,318880.65625,328562.15625,360079.8125,353268.09375,339080.53125,322925.5,310276.125,334736.875,-0.053955078125,0.944580078125,-0.25048828125,0.9765624403953552,-1.8310545682907104,0.5798339247703552,100.0,77972.0,1.0
1208632.4801514,316004.40625,326482.375,357712.5,350773.0,337572.34375,321544.15625,308689.3125,332723.25,-0.052734375,0.9443359375,-0.249755859375,1.0986326932907104,-1.8615721464157104,0.5493163466453552,100.0,77973.0,1.0
1208632.4838459,310098.1875,321257.25,352659.5,344676.0,333837.28125,319516.40625,305898.03125,327848.0625,-0.052978515625,0.944091796875,-0.24951171875,1.0070799589157104,-1.7700194120407104,0.4882812201976776,100.0,77974.0,1.0
1208632.5033087,309238.8125,319986.59375,351803.34375,343296.96875,332956.15625,319599.46875,305693.8125,326729.3125,-0.054931640625,0.944091796875,-0.252685546875,0.9155272841453552,-1.7395018339157104,0.4882812201976776,100.0,77975.0,1.0
1208632.5033518,314736.625,324601.09375,356480.65625,348697.15625,336273.25,321767.6875,308474.90625,331100.0625,-0.0546875,0.943603515625,-0.252197265625,0.8544921278953552,-1.6479490995407104,0.5187987685203552,100.0,77976.0,1.0
1208632.5058383,318876.4375,328559.84375,360078.46875,353263.15625,339088.84375,322938.65625,310283.25,334740.0,-0.051025390625,0.945068359375,-0.25341796875,0.9460448622703552,-1.7395018339157104,0.3967284858226776,100.0,77977.0,1.0
1208632.5058856,316010.84375,326493.65625,357723.3125,350782.65625,337590.46875,321561.0625,308706.125,332741.125,-0.051025390625,0.94482421875,-0.254638671875,0.9155272841453552,-1.6174315214157104,0.4272460639476776,100.0,77978.0,1.0
1208632.5120101,310111.78125,321279.0625,352677.375,344694.59375,333864.71875,319539.03125,305923.34375,327873.5625,-0.05078125,0.945068359375,-0.25439453125,0.8850097060203552,-1.7089842557907104,0.3662109076976776,100.0,77979.0,1.0
1208632.5120539,309236.65625,319993.65625,351808.53125,343303.21875,332974.84375,319613.25,305708.03125,326742.5625,-0.0517578125,0.946044921875,-0.2529296875,0.8544921278953552,-1.6174315214157104,0.3356933295726776,100.0,77980.0,1.0
1208632.5176667,314717.40625,324583.1875,356464.84375,348680.875,336271.5625,321761.96875,308471.625,331088.0,-0.052978515625,0.944580078125,-0.252197265625,0.8239745497703552,-1.6174315214157104,0.2136230319738388,100.0,77981.0,1.0
1208632.522016,318858.03125,328533.03125,360063.1875,353247.34375,339085.90625,322925.21875,310278.96875,334727.125,-0.05224609375,0.946044921875,-0.25244140625,0.7934569716453552,-1.5563963651657104,0.2136230319738388,100.0,77982.0,1.0
1208632.5220609,316005.40625,326476.5625,357720.5625,350780.6875,337593.34375,321546.3125,308706.21875,332741.6875,-0.052001953125,0.9462890625,-0.25146484375,0.7629393935203552,-1.4953612089157104,0.1525878757238388,100.0,77983.0,1.0
1208632.5395983,310097.5625,321257.25,352664.40625,344682.96875,333856.9375,319514.53125,305912.15625,327868.46875,-0.052490234375,0.944580078125,-0.25048828125,0.6408690810203552,-1.4953612089157104,0.1220703050494194,100.0,77984.0,1.0
1208632.5396454,309199.65625,319950.5,351772.5,343266.40625,332952.59375,319573.46875,305680.78125,326714.3125,-0.05224609375,0.945556640625,-0.25244140625,0.5798339247703552,-1.3122557401657104,0.0610351525247097,100.0,77985.0,1.0
1208632.5414477,314678.25,324536.53125,356426.9375,348640.1875,336250.53125,321729.40625,308447.5625,331057.59375,-0.0517578125,0.945556640625,-0.25439453125,0.4882812201976776,-1.3427733182907104,0.03051757626235485,100.0,77986.0,1.0
1208632.5439248,318845.59375,328509.40625,360042.0,353224.46875,339076.34375,322906.1875,310262.4375,334708.71875,-0.052734375,0.944091796875,-0.252197265625,0.3967284858226776,-1.3122557401657104,0.1220703050494194,100.0,77987.0,1.0
1208632.5463928,316013.71875,326471.90625,357711.15625,350773.53125,337593.25,321538.09375,308694.6875,332729.96875,-0.052001953125,0.942138671875,-0.25341796875,0.4272460639476776,-1.2817381620407104,0.03051757626235485,100.0,77988.0,1.0
1208632.5490134,310103.5625,321256.71875,352659.65625,344679.5625,333862.3125,319511.21875,305906.34375,327859.96875,-0.052001953125,0.9423828125,-0.25634765625,0.3967284858226776,-1.3427733182907104,-0.03051757626235485,100.0,77989.0,1.0
1208632.5513944,309188.125,319939.125,351764.8125,343255.5625,332952.40625,319577.375,305676.5625,326702.84375,-0.05078125,0.94287109375,-0.25830078125,0.3967284858226776,-1.3427733182907104,-0.03051757626235485,100.0,77990.0,1.0
1208632.555711,314655.1875,324513.0,356411.8125,348620.53125,336242.3125,321735.6875,308439.78125,331037.65625,-0.05224609375,0.939697265625,-0.2587890625,0.4882812201976776,-1.2512205839157104,0.0,100.0,77991.0,1.0
1208632.5557548,318831.65625,328491.90625,360034.6875,353214.1875,339069.8125,322918.25,310263.875,334692.71875,-0.052978515625,0.942138671875,-0.253662109375,0.5187987685203552,-1.1291502714157104,0.0,100.0,77992.0,1.0
1208632.5639094,316015.0625,326463.875,357722.25,350783.46875,337597.0,321556.875,308708.90625,332733.28125,-0.05615234375,0.94384765625,-0.255615234375,0.4882812201976776,-1.1596678495407104,-0.03051757626235485,100.0,77993.0,1.0
1208632.5684192,310107.84375,321247.6875,352672.46875,344689.65625,333864.34375,319526.6875,305917.78125,327866.9375,-0.05810546875,0.944091796875,-0.251953125,0.4882812201976776,-1.3122557401657104,0.0610351525247097,100.0,77994.0,1.0
1208632.5684666,309177.21875,319915.0,351756.84375,343242.15625,332940.5,319578.46875,305675.84375,326692.75,-0.057861328125,0.94287109375,-0.25244140625,0.3662109076976776,-1.1901854276657104,0.0,100.0,77995.0,1.0
1208632.5739174,314641.40625,324486.375,356395.4375,348594.59375,336224.25,321726.90625,308432.90625,331020.40625,-0.05712890625,0.94580078125,-0.253662109375,0.4272460639476776,-1.2512205839157104,-0.0915527269244194,100.0,77996.0,1.0
1208632.5832538,318828.78125,328470.6875,360024.84375,353194.40625,339055.5,322906.0,310251.96875,334678.21875,-0.053466796875,0.947265625,-0.253173828125,0.4272460639476776,-1.2817381620407104,-0.0915527269244194,100.0,77997.0,1.0
1208632.5832962,316027.125,326457.0,357724.03125,350777.84375,337595.3125,321548.625,308701.84375,332728.53125,-0.04931640625,0.947509765625,-0.25,0.3662109076976776,-1.3122557401657104,-0.1525878757238388,100.0,77998.0,1.0
1208632.5851583,310123.6875,321249.03125,352678.90625,344691.09375,333871.34375,319526.34375,305919.75,327867.46875,-0.048828125,0.947021484375,-0.25390625,0.2746581733226776,-1.2817381620407104,-0.0915527269244194,100.0,77999.0,1.0
1208632.5940178,309175.5,319902.84375,351750.9375,343230.1875,332939.875,319575.0625,305671.125,326678.71875,-0.04931640625,0.947021484375,-0.255859375,0.1831054538488388,-1.1901854276657104,0.0610351525247097,100.0,78000.0,1.0
1208632.5969947,314625.21875,324461.78125,356379.625,348572.15625,336213.875,321722.8125,308423.875,330991.96875,-0.0517578125,0.944091796875,-0.2529296875,0.0610351525247097,-1.0375975370407104,0.2136230319738388,100.0,78001.0,1.0
1208632.5970386,318820.03125,328451.03125,360017.875,353184.3125,339051.9375,322910.9375,310257.78125,334663.65625,-0.0537109375,0.941162109375,-0.2509765625,-0.03051757626235485,-1.0070799589157104,0.2441406100988388,100.0,78002.0,1.0
1208632.6001201,316035.71875,326450.1875,357729.3125,350784.375,337599.78125,321555.59375,308717.75,332730.84375,-0.0546875,0.9384765625,-0.251708984375,0.0,-0.8544921278953552,0.2136230319738388,100.0,78003.0,1.0
1208632.6145034,310130.125,321242.3125,352679.78125,344693.6875,333872.21875,319522.75,305927.28125,327867.90625,-0.056884765625,0.9375,-0.25341796875,0.0,-0.9155272841453552,0.2441406100988388,100.0,78004.0,1.0
1208632.6145472,309156.03125,319872.4375,351732.0625,343206.5,332923.71875,319561.03125,305662.1875,326656.46875,-0.0556640625,0.9375,-0.25341796875,0.0915527269244194,-0.7934569716453552,0.2136230319738388,100.0,78005.0,1.0
1208632.6170487,314594.46875,324418.15625,356351.5625,348534.625,336191.96875,321709.03125,308408.3125,330960.0625,-0.053955078125,0.93505859375,-0.25341796875,0.2441406100988388,-0.7629393935203552,0.2746581733226776,100.0,78006.0,1.0
1208632.6170903,318813.40625,328430.5625,360003.03125,353160.625,339040.75,322903.6875,310245.8125,334643.4375,-0.0517578125,0.9345703125,-0.253173828125,0.3051757514476776,-0.8239745497703552,0.2136230319738388,100.0,78007.0,1.0
1208632.6188953,316051.53125,326449.9375,357729.21875,350779.71875,337600.9375,321559.8125,308712.21875,332723.15625,-0.05224609375,0.93359375,-0.255126953125,0.3662109076976776,-0.7629393935203552,0.1525878757238388,100.0,78008.0,1.0
1208632.6476574,310145.125,321241.625,352681.75,344693.78125,333876.59375,319534.46875,305928.78125,327864.625,-0.052734375,0.93310546875,-0.256103515625,0.5493163466453552,-0.7629393935203552,0.3662109076976776,100.0,78009.0,1.0
1208632.6506957,309153.96875,319856.4375,351719.28125,343195.0625,332921.375,319567.71875,305661.71875,326645.625,-0.053466796875,0.934814453125,-0.254150390625,0.6713866591453552,-0.7324218153953552,0.2441406100988388,100.0,78010.0,1.0
1208632.6507374,314582.65625,324392.03125,356325.90625,348512.53125,336181.96875,321714.03125,308403.21875,330938.0625,-0.056640625,0.93896484375,-0.2548828125,0.7934569716453552,-0.7934569716453552,0.1831054538488388,100.0,78011.0,1.0
1208632.6527648,318809.125,328410.875,359987.75,353147.84375,339033.40625,322912.4375,310244.90625,334627.8125,-0.058349609375,0.943115234375,-0.252685546875,0.9460448622703552,-0.7629393935203552,0.1220703050494194,100.0,78012.0,1.0
1208632.6553113,316067.71875,326454.75,357739.34375,350794.8125,337610.25,321575.8125,308722.84375,332730.6875,-0.058349609375,0.9453125,-0.25341796875,1.0375975370407104,-0.8850097060203552,0.0610351525247097,100.0,78013.0,1.0
1208632.6576295,310161.59375,321250.28125,352692.3125,344710.21875,333887.6875,319547.15625,305937.1875,327870.875,-0.058349609375,0.947998046875,-0.2490234375,0.8850097060203552,-0.8850097060203552,0.0,100.0,78014.0,1.0
1208632.6601557,309155.9375,319857.84375,351715.96875,343190.75,332919.15625,319572.5625,305662.625,326637.9375,-0.060546875,0.95068359375,-0.249755859375,0.7019042372703552,-1.0070799589157104,-0.1220703050494194,100.0,78015.0,1.0
1208632.6627894,314576.59375,324390.53125,356321.4375,348502.15625,336177.0625,321715.28125,308405.625,330931.53125,-0.06396484375,0.950927734375,-0.252197265625,0.5187987685203552,-1.0986326932907104,-0.2136230319738388,100.0,78016.0,1.0
1208632.6652688,318815.5625,328423.40625,360000.0,353160.09375,339044.96875,322924.875,310261.90625,334639.15625,-0.06298828125,0.94970703125,-0.253662109375,0.4272460639476776,-1.2207030057907104,-0.2136230319738388,100.0,78017.0,1.0
1208632.6676405,316082.1875,326475.9375,357758.5625,350819.3125,337629.65625,321590.375,308743.21875,332749.1875,-0.0654296875,0.948974609375,-0.252685546875,0.3356933295726776,-1.4953612089157104,-0.3356933295726776,100.0,78018.0,1.0
1208632.670736,310161.125,321261.5625,352700.09375,344724.53125,333896.0,319548.6875,305944.53125,327880.71875,-0.065673828125,0.9482421875,-0.251953125,0.2746581733226776,-1.6174315214157104,-0.5798339247703552,100.0,78019.0,1.0
1208632.67078,309145.5625,319865.0,351715.0,343196.375,332923.09375,319571.40625,305663.34375,326641.78125,-0.065673828125,0.95166015625,-0.2548828125,0.2441406100988388,-1.8615721464157104,-0.6713866591453552,100.0,78020.0,1.0
1208632.6727973,314566.21875,324403.21875,356320.25,348507.0625,336184.65625,321723.0625,308410.5625,330936.375,-0.061767578125,0.952392578125,-0.256591796875,0.2746581733226776,-1.9531248807907104,-0.6408690810203552,100.0,78021.0,1.0
1208632.6845048,318806.78125,328442.1875,359993.71875,353162.6875,339049.875,322929.34375,310260.5625,334642.1875,-0.057373046875,0.95166015625,-0.25732421875,0.2746581733226776,-1.9226073026657104,-0.6408690810203552,100.0,78022.0,1.0
1208632.684549,316088.0,326513.03125,357762.03125,350836.5,337642.6875,321598.875,308742.875,332766.34375,-0.055908203125,0.95458984375,-0.2529296875,0.1220703050494194,-2.105712652206421,-0.6713866591453552,100.0,78023.0,1.0
1208632.6863892,310180.53125,321322.0625,352715.28125,344752.78125,333922.84375,319570.59375,305952.5625,327915.9375,-0.054443359375,0.953369140625,-0.25537109375,-0.0915527269244194,-2.044677495956421,-0.4577636420726776,100.0,78024.0,1.0
1208632.6901684,309154.0625,319923.03125,351715.90625,343208.90625,332939.625,319593.5625,305666.28125,326670.65625,-0.053955078125,0.955078125,-0.255126953125,-0.3051757514476776,-1.9226073026657104,-0.3356933295726776,100.0,78025.0,1.0
1208632.6971188,314567.75,324458.21875,356308.625,348507.0,336184.90625,321738.28125,308405.90625,330957.375,-0.05419921875,0.95556640625,-0.2568359375,-0.3356933295726776,-1.8920897245407104,-0.2136230319738388,100.0,78026.0,1.0
1208632.697164,318829.40625,328521.75,360002.125,353184.21875,339060.96875,322958.03125,310268.4375,334684.84375,-0.052001953125,0.9541015625,-0.255615234375,-0.3967284858226776,-1.8005369901657104,-0.03051757626235485,100.0,78027.0,1.0
1208632.6988787,316127.53125,326615.59375,357785.65625,350878.875,337666.84375,321634.65625,308764.6875,332828.3125,-0.05126953125,0.9501953125,-0.252685546875,-0.4882812201976776,-1.6174315214157104,0.1220703050494194,100.0,78028.0,1.0
1208632.707617,310213.09375,321427.40625,352728.34375,344790.6875,333938.03125,319598.75,305970.71875,327974.84375,-0.05078125,0.9482421875,-0.250732421875,-0.5187987685203552,-1.4648436307907104,0.3662109076976776,100.0,78029.0,1.0
1208632.7119903,309163.0,320009.125,351710.875,343224.5625,332938.28125,319612.15625,305670.59375,326710.8125,-0.048095703125,0.945068359375,-0.25146484375,-0.5798339247703552,-1.3122557401657104,0.3967284858226776,100.0,78030.0,1.0
1208632.7120338,314566.5,324529.71875,356295.9375,348509.65625,336178.375,321752.40625,308402.0625,330986.96875,-0.051513671875,0.944580078125,-0.252197265625,-0.4577636420726776,-1.2207030057907104,0.5798339247703552,100.0,78031.0,1.0
1208632.7152529,318852.65625,328609.625,360002.84375,353201.21875,339066.5,322976.71875,310273.96875,334725.96875,-0.05224609375,0.9423828125,-0.2529296875,-0.3051757514476776,-1.1291502714157104,0.7629393935203552,100.0,78032.0,1.0
1208632.7264155,316166.5,326716.90625,357794.75,350905.3125,337678.28125,321655.21875,308773.09375,332876.59375,-0.054443359375,0.94189453125,-0.251953125,-0.0610351525247097,-1.0070799589157104,0.7629393935203552,100.0,78033.0,1.0
1208632.7295101,310249.5625,321521.625,352739.59375,344816.0,333953.40625,319619.15625,305976.53125,328019.375,-0.05419921875,0.94140625,-0.251708984375,0.03051757626235485,-1.0070799589157104,0.8544921278953552,100.0,78034.0,1.0
1208632.7295564,309186.34375,320091.5625,351711.5,343236.34375,332950.53125,319629.6875,305671.65625,326741.84375,-0.05615234375,0.94287109375,-0.2490234375,0.1220703050494194,-1.0070799589157104,0.8544921278953552,100.0,78035.0,1.0
1208632.7376558,314581.25,324607.25,356286.71875,348507.34375,336181.25,321766.25,308397.59375,331004.40625,-0.05615234375,0.94384765625,-0.249755859375,0.1525878757238388,-1.0070799589157104,0.7934569716453552,100.0,78036.0,1.0
1208632.7419623,318868.3125,328684.65625,359998.09375,353200.84375,339069.53125,322990.21875,310270.46875,334742.96875,-0.05712890625,0.944091796875,-0.249267578125,0.2441406100988388,-0.9765624403953552,0.8239745497703552,100.0,78037.0,1.0
1208632.7420067,316197.09375,326798.0625,357809.78125,350924.0,337693.5625,321675.40625,308780.78125,332909.03125,-0.059814453125,0.9443359375,-0.2490234375,0.1831054538488388,-1.0681151151657104,0.9155272841453552,100.0,78038.0,1.0
1208632.7476791,310281.9375,321603.875,352760.6875,344840.84375,333968.78125,319638.8125,305987.71875,328057.8125,-0.05908203125,0.941650390625,-0.24658203125,0.2441406100988388,-1.0681151151657104,0.8544921278953552,100.0,78039.0,1.0
1208632.7501295,309201.8125,320157.1875,351718.5625,343242.25,332954.5625,319637.84375,305672.0,326766.25,-0.0595703125,0.94189453125,-0.248291015625,0.2746581733226776,-1.1291502714157104,0.7934569716453552,100.0,78040.0,1.0
1208632.7563751,314579.71875,324646.75,356281.5625,348498.5,336177.5,321765.0,308388.8125,331014.5,-0.060546875,0.9404296875,-0.24853515625,0.2746581733226776,-1.2512205839157104,0.7934569716453552,100.0,78041.0,1.0
1208632.7608866,318877.96875,328725.59375,360004.28125,353203.34375,339072.5,322993.53125,310268.4375,334759.6875,-0.05908203125,0.9404296875,-0.250732421875,0.3051757514476776,-1.2207030057907104,0.5187987685203552,100.0,78042.0,1.0
1208632.760932,316228.5625,326858.5,357831.875,350947.25,337709.3125,321684.4375,308789.46875,332937.125,-0.056640625,0.938232421875,-0.251708984375,0.3967284858226776,-1.2817381620407104,0.4272460639476776,100.0,78043.0,1.0
1208632.7714357,310305.71875,321656.625,352774.1875,344859.625,333984.6875,319641.6875,305990.03125,328076.40625,-0.056396484375,0.9375,-0.24853515625,0.6408690810203552,-1.3427733182907104,0.3662109076976776,100.0,78044.0,1.0
1208632.7744454,309202.875,320184.28125,351715.71875,343243.59375,332955.96875,319628.875,305662.625,326762.03125,-0.0546875,0.93798828125,-0.250732421875,0.7629393935203552,-1.3122557401657104,0.2746581733226776,100.0,78045.0,1.0
1208632.7744893,314574.625,324664.75,356274.03125,348492.0625,336175.71875,321757.75,308383.09375,331001.53125,-0.055419921875,0.93505859375,-0.250732421875,0.8239745497703552,-1.4038084745407104,0.1831054538488388,100.0,78046.0,1.0
1208632.7832718,318881.625,328746.4375,360001.78125,353202.28125,339074.0,322988.90625,310269.40625,334750.8125,-0.056396484375,0.936279296875,-0.251220703125,0.8239745497703552,-1.3122557401657104,0.2136230319738388,100.0,78047.0,1.0
1208632.7833165,316239.8125,326882.03125,357836.96875,350954.5,337712.34375,321675.0625,308789.71875,332936.75,-0.054443359375,0.937744140625,-0.251708984375,0.9155272841453552,-1.3122557401657104,0.1525878757238388,100.0,78048.0,1.0
1208632.7850392,310322.96875,321681.5,352787.6875,344872.0625,333991.03125,319635.40625,305995.03125,328082.40625,-0.0517578125,0.937744140625,-0.254638671875,0.9460448622703552,-1.2817381620407104,0.2136230319738388,100.0,78049.0,1.0
1208632.7913184,309201.625,320187.9375,351714.09375,343237.34375,332951.875,319622.0,305662.90625,326757.40625,-0.05224609375,0.941650390625,-0.25439453125,0.9765624403953552,-1.1291502714157104,0.2746581733226776,100.0,78050.0,1.0
1208632.7976589,314557.71875,324657.59375,356258.65625,348468.4375,336159.0,321742.75,308370.84375,330982.0625,-0.0498046875,0.94287109375,-0.2548828125,1.0375975370407104,-1.0986326932907104,0.3051757514476776,100.0,78051.0,1.0
1208632.8125912,318870.71875,328742.21875,359996.125,353187.25,339062.9375,322966.90625,310251.71875,334735.28125,-0.0517578125,0.943115234375,-0.254150390625,1.0986326932907104,-0.9765624403953552,0.3051757514476776,100.0,78052.0,1.0
1208632.8126352,316256.09375,326898.21875,357857.875,350969.15625,337719.125,321664.25,308787.21875,332940.96875,-0.0537109375,0.941650390625,-0.2548828125,0.9765624403953552,-0.9155272841453552,0.3967284858226776,100.0,78053.0,1.0
1208632.8126472,310341.75,321703.21875,352810.5,344890.65625,334002.40625,319629.15625,305995.65625,328088.40625,-0.052978515625,0.94091796875,-0.255859375,0.8239745497703552,-0.8239745497703552,0.3356933295726776,100.0,78054.0,1.0
1208632.8158958,309206.09375,320199.40625,351723.5,343241.09375,332957.9375,319615.5625,305660.46875,326749.53125,-0.05419921875,0.939453125,-0.2568359375,0.8239745497703552,-0.7629393935203552,0.3967284858226776,100.0,78055.0,1.0
1208632.8159412,314555.75,324654.71875,356261.53125,348464.78125,336160.78125,321743.0,308368.625,330968.46875,-0.053466796875,0.9384765625,-0.25830078125,0.7934569716453552,-0.7324218153953552,0.5187987685203552,100.0,78056.0,1.0
1208632.8176106,318886.8125,328758.6875,360014.90625,353201.9375,339076.78125,322983.4375,310263.5,334736.34375,-0.054931640625,0.9384765625,-0.258544921875,0.7324218153953552,-0.6408690810203552,0.4577636420726776,100.0,78057.0,1.0
1208632.8263963,316287.84375,326931.65625,357891.84375,350999.84375,337748.46875,321686.9375,308808.84375,332955.625,-0.056884765625,0.9384765625,-0.256103515625,0.7324218153953552,-0.6103515028953552,0.4577636420726776,100.0,78058.0,1.0
1208632.8363477,310370.34375,321732.71875,352842.5,344920.15625,334031.5625,319643.0,306016.21875,328102.25,-0.056884765625,0.93896484375,-0.257568359375,0.8239745497703552,-0.6713866591453552,0.3967284858226776,100.0,78059.0,1.0
1208632.8363909,309204.5625,320204.21875,351730.09375,343241.625,332968.15625,319606.09375,305657.15625,326739.6875,-0.056640625,0.94189453125,-0.25830078125,0.8850097060203552,-0.6408690810203552,0.3967284858226776,100.0,78060.0,1.0
1208632.8364033,314538.78125,324649.34375,356254.71875,348449.5,336161.59375,321720.65625,308356.1875,330945.84375,-0.057861328125,0.94189453125,-0.25830078125,0.7934569716453552,-0.7019042372703552,0.2441406100988388,100.0,78061.0,1.0
1208632.8390227,318882.78125,328765.84375,360018.125,353198.875,339087.875,322972.09375,310264.21875,334728.03125,-0.05859375,0.944091796875,-0.25634765625,0.8239745497703552,-0.7324218153953552,0.2746581733226776,100.0,78062.0,1.0
1208632.8414071,316293.1875,326946.65625,357902.75,351008.15625,337767.34375,321684.625,308809.5625,332957.9375,-0.059814453125,0.946044921875,-0.252685546875,0.6713866591453552,-0.7019042372703552,0.1831054538488388,100.0,78063.0,1.0
1208632.850214,310369.71875,321744.09375,352845.0,344921.75,334041.125,319634.25,306003.625,328096.1875,-0.059326171875,0.947021484375,-0.25341796875,0.5187987685203552,-0.7324218153953552,0.0915527269244194,100.0,78064.0,1.0
1208632.8600324,309190.90625,320200.03125,351724.28125,343233.03125,332967.59375,319596.0,305643.03125,326727.53125,-0.05908203125,0.947021484375,-0.25390625,0.3662109076976776,-0.7934569716453552,0.0610351525247097,100.0,78065.0,1.0
1208632.8600708,314517.3125,324633.71875,356243.625,348429.8125,336154.0625,321715.125,308346.53125,330930.03125,-0.059326171875,0.945556640625,-0.253662109375,0.2441406100988388,-0.8239745497703552,0.0915527269244194,100.0,78066.0,1.0
1208632.860082,318877.59375,328760.28125,360019.375,353193.25,339087.25,322973.59375,310263.78125,334725.71875,-0.05810546875,0.94384765625,-0.258544921875,0.1525878757238388,-0.8239745497703552,0.03051757626235485,100.0,78067.0,1.0
1208632.8625317,316307.0625,326955.4375,357915.09375,351017.53125,337772.6875,321682.84375,308813.59375,332965.375,-0.054443359375,0.9423828125,-0.259521484375,0.1525878757238388,-0.8544921278953552,0.03051757626235485,100.0,78068.0,1.0
1208632.865145,310378.40625,321752.3125,352857.625,344929.0,334048.0,319630.5,306006.65625,328103.40625,-0.054931640625,0.94140625,-0.259521484375,0.1220703050494194,-0.8239745497703552,0.0,100.0,78069.0,1.0
1208632.8687612,309185.78125,320204.3125,351723.59375,343222.125,332967.53125,319589.28125,305640.0,326720.75,-0.0546875,0.94287109375,-0.2578125,0.03051757626235485,-0.8239745497703552,0.03051757626235485,100.0,78070.0,1.0
1208632.8832285,314498.0,324623.875,356235.78125,348410.5,336146.375,321702.3125,308337.9375,330914.28125,-0.052734375,0.945556640625,-0.2587890625,0.0610351525247097,-0.8239745497703552,0.0915527269244194,100.0,78071.0,1.0
1208632.8832718,318864.46875,328753.5,360021.4375,353185.65625,339085.1875,322967.15625,310262.0,334718.71875,-0.05078125,0.9462890625,-0.2548828125,0.1525878757238388,-0.6713866591453552,0.1220703050494194,100.0,78072.0,1.0
1208632.890209,316316.8125,326970.90625,357938.625,351036.5625,337789.59375,321692.65625,308830.125,332982.34375,-0.049560546875,0.946533203125,-0.256103515625,0.03051757626235485,-0.6713866591453552,0.2746581733226776,100.0,78073.0,1.0
1208632.8902548,310392.53125,321769.75,352883.46875,344955.28125,334070.0,319642.5625,306029.90625,328126.21875,-0.049560546875,0.944580078125,-0.25537109375,-0.03051757626235485,-0.5493163466453552,0.3662109076976776,100.0,78074.0,1.0
1208632.8902675,309179.28125,320194.9375,351729.75,343227.9375,332971.09375,319590.25,305646.34375,326722.25,-0.049072265625,0.942626953125,-0.252197265625,-0.1831054538488388,-0.3662109076976776,0.5798339247703552,100.0,78075.0,1.0
1208632.893378,314478.875,324602.40625,356224.59375,348399.53125,336138.875,321695.4375,308332.40625,330899.25,-0.05224609375,0.938232421875,-0.25341796875,-0.2441406100988388,-0.2441406100988388,0.6103515028953552,100.0,78076.0,1.0
1208632.8934229,318851.84375,328733.46875,360013.75,353177.875,339081.53125,322961.71875,310258.40625,334706.46875,-0.056640625,0.940673828125,-0.256103515625,-0.2746581733226776,-0.2746581733226776,0.6103515028953552,100.0,78077.0,1.0
1208632.9114368,316319.40625,326962.9375,357944.4375,351044.96875,337795.59375,321692.65625,308833.0,332983.15625,-0.057861328125,0.939697265625,-0.256103515625,-0.03051757626235485,-0.1220703050494194,0.7019042372703552,100.0,78078.0,1.0
1208632.9150409,310399.84375,321764.03125,352894.09375,344968.78125,334078.9375,319644.09375,306031.875,328131.3125,-0.06103515625,0.939453125,-0.255859375,0.0915527269244194,-0.1525878757238388,0.5798339247703552,100.0,78079.0,1.0
1208632.9150818,309173.90625,320180.09375,351727.5,343223.65625,332975.28125,319586.96875,305643.125,326715.65625,-0.06201171875,0.941650390625,-0.251708984375,0.0610351525247097,-0.2136230319738388,0.4272460639476776,100.0,78080.0,1.0
