Time,FZ,C3,CZ,C4,PZ,PO7,OZ,PO8,AccX,AccY,AccZ,Gyro1,Gyro2,Gyro3,Battery,Counter,Validation
515381.7695248,278340.375,310521.96875,317648.53125,289964.28125,297188.90625,302066.75,265278.65625,303822.625,-0.02099609375,0.956298828125,-0.28173828125,-1.2817381620407104,8.056639671325684,5.096435070037842,80.0,928873.0,1.0
515381.7770092,274322.875,309585.625,318311.46875,293011.4375,300870.84375,303225.03125,265844.78125,305365.4375,-0.01904296875,0.9560546875,-0.282470703125,-1.1901854276657104,7.965087413787842,5.187987804412842,80.0,928874.0,1.0
515381.7795254,277264.375,310991.5625,319351.71875,295549.71875,301810.625,303714.53125,266065.96875,306082.5625,-0.0166015625,0.95751953125,-0.282958984375,-1.0070799589157104,7.873534679412842,5.218505382537842,80.0,928875.0,1.0
515381.7820671,283032.03125,312776.65625,319339.3125,294176.59375,298782.65625,302871.53125,265672.21875,305016.46875,-0.016357421875,0.960205078125,-0.282470703125,-0.9460448622703552,7.720946788787842,5.187987804412842,80.0,928876.0,1.0
515381.7842996,283479.21875,312392.71875,318253.90625,290725.5,295943.71875,301839.75,265227.59375,303634.25,-0.01611328125,0.963623046875,-0.2841796875,-1.0070799589157104,7.720946788787842,5.157470226287842,80.0,928877.0,1.0
515381.7868161,278356.3125,310546.5625,317662.75,289972.0625,297175.5625,302072.65625,265370.65625,303836.65625,-0.012939453125,0.9638671875,-0.2841796875,-0.9460448622703552,7.720946788787842,5.157470226287842,80.0,928878.0,1.0
515381.789417,274297.59375,309602.875,318314.15625,292995.25,300853.40625,303231.375,265924.71875,305375.625,-0.010498046875,0.96435546875,-0.285400390625,-1.0070799589157104,7.751464366912842,5.187987804412842,80.0,928879.0,1.0
515381.792009,277187.9375,310980.5625,319350.65625,295535.125,301814.8125,303729.8125,266134.53125,306090.71875,-0.010009765625,0.963134765625,-0.28466796875,-1.0070799589157104,7.720946788787842,5.218505382537842,80.0,928880.0,1.0
515381.7943062,282979.71875,312765.65625,319343.5,294181.0625,298798.125,302880.28125,265707.09375,305023.90625,-0.0078125,0.96044921875,-0.2861328125,-1.1596678495407104,7.843017101287842,5.249022960662842,80.0,928881.0,1.0
515381.7968771,283483.0,312394.25,318253.625,290720.3125,295930.3125,301831.96875,265227.6875,303628.0625,-0.005859375,0.960205078125,-0.287841796875,-1.1596678495407104,7.812499523162842,5.249022960662842,80.0,928882.0,1.0
515381.796899,278383.46875,310549.96875,317655.3125,289931.90625,297136.3125,302065.25,265367.53125,303812.78125,-0.0068359375,0.957275390625,-0.286376953125,-1.1901854276657104,7.904052257537842,5.065917491912842,80.0,928883.0,1.0
515381.8006601,274282.75,309589.03125,318295.84375,292936.53125,300813.0,303221.46875,265912.5625,305344.59375,-0.005126953125,0.955810546875,-0.28759765625,-1.1596678495407104,7.934569835662842,5.035399913787842,80.0,928884.0,1.0
515381.8006743,277132.40625,310959.8125,319335.0,295506.71875,301802.125,303723.375,266130.0625,306073.71875,-0.00341796875,0.95703125,-0.288818359375,-1.1901854276657104,7.995604991912842,4.943847179412842,80.0,928885.0,1.0
515381.8006769,282933.03125,312750.375,319334.84375,294182.40625,298797.34375,302874.09375,265733.46875,305014.5,-0.004150390625,0.95947265625,-0.28857421875,-1.0375975370407104,8.026122093200684,4.943847179412842,80.0,928886.0,1.0
515381.8083159,283465.65625,312386.46875,318244.25,290715.46875,295912.15625,301819.71875,265274.625,303608.59375,-0.001953125,0.96044921875,-0.2900390625,-1.0681151151657104,8.117674827575684,4.943847179412842,80.0,928887.0,1.0
515381.8083321,278384.8125,310557.75,317647.0,289908.75,297099.5,302050.65625,265417.5,303788.5625,-0.002197265625,0.960205078125,-0.28955078125,-1.1596678495407104,8.270262718200684,4.943847179412842,80.0,928888.0,1.0
515381.808335,274249.21875,309597.34375,318286.25,292907.09375,300789.125,303215.65625,265974.5,305322.53125,-0.000732421875,0.960693359375,-0.288330078125,-1.1596678495407104,8.331297874450684,4.821776866912842,80.0,928889.0,1.0
515381.8132589,277053.71875,310955.59375,319329.46875,295500.1875,301809.71875,303726.34375,266204.90625,306069.0625,-0.003662109375,0.9599609375,-0.28955078125,-1.3427733182907104,8.422850608825684,4.882812023162842,80.0,928890.0,1.0
515381.8132748,282876.1875,312750.0,319346.28125,294211.46875,298819.5,302889.21875,265814.65625,305028.625,-0.00537109375,0.959228515625,-0.288818359375,-1.4038084745407104,8.422850608825684,4.730224132537842,80.0,928891.0,1.0
515381.8157839,283467.875,312410.25,318271.34375,290756.34375,295925.5625,301842.71875,265360.28125,303631.28125,-0.0068359375,0.96044921875,-0.289794921875,-1.4648436307907104,8.392333030700684,4.730224132537842,80.0,928892.0,1.0
515381.8158022,278416.5625,310591.71875,317666.40625,289922.6875,297097.0625,302065.0625,265493.75,303801.25,-0.00927734375,0.96142578125,-0.28662109375,-1.4648436307907104,8.300780296325684,4.577636241912842,80.0,928893.0,1.0
515381.8178987,274270.75,309626.46875,318298.0625,292909.96875,300793.15625,303231.75,266049.875,305339.5,-0.0107421875,0.96044921875,-0.286376953125,-1.5869139432907104,8.148192405700684,4.455565929412842,80.0,928894.0,1.0
515381.8179188,277038.96875,310965.875,319337.5,295517.625,301833.40625,303745.28125,266275.1875,306095.625,-0.01220703125,0.958740234375,-0.2841796875,-1.8005369901657104,8.056639671325684,4.211425304412842,80.0,928895.0,1.0
515381.8243611,282862.9375,312744.46875,319347.53125,294239.90625,298834.6875,302891.53125,265867.125,305047.59375,-0.01416015625,0.9580078125,-0.287109375,-1.8615721464157104,7.781981945037842,4.241942882537842,80.0,928896.0,1.0
515381.8320282,283500.5,312406.15625,318263.1875,290780.46875,295911.90625,301824.84375,265391.84375,303634.34375,-0.014404296875,0.956298828125,-0.287353515625,-1.8310545682907104,7.568358898162842,3.936767339706421,80.0,928897.0,1.0
515381.8344598,278473.34375,310593.6875,317647.71875,289918.0625,297055.6875,302042.625,265517.1875,303786.875,-0.01513671875,0.95458984375,-0.289306640625,-1.6479490995407104,7.385253429412842,3.784179449081421,80.0,928898.0,1.0
515381.8369139,274271.65625,309615.21875,318274.625,292883.5,300762.9375,303216.09375,266063.03125,305316.71875,-0.014892578125,0.95361328125,-0.289306640625,-1.6784666776657104,6.988524913787842,3.570556402206421,80.0,928899.0,1.0
515381.8420284,276959.125,310922.0,319305.59375,295488.65625,301819.09375,303720.25,266253.90625,306066.75,-0.013916015625,0.951904296875,-0.28857421875,-1.6784666776657104,6.774901866912842,3.540038824081421,80.0,928900.0,1.0
515381.844477,282788.125,312697.53125,319322.3125,294228.1875,298825.21875,302858.65625,265803.46875,305023.4375,-0.012939453125,0.951904296875,-0.285888671875,-1.4648436307907104,6.469726085662842,3.417968511581421,80.0,928901.0,1.0
515381.844509,283492.375,312390.3125,318253.90625,290781.53125,295893.3125,301793.1875,265305.84375,303617.4375,-0.013427734375,0.950927734375,-0.286865234375,-1.2817381620407104,6.286620616912842,3.265380620956421,80.0,928902.0,1.0
515381.8520726,278499.96875,310601.09375,317645.9375,289906.25,297022.15625,302018.9375,265437.71875,303765.5,-0.0126953125,0.949951171875,-0.286376953125,-1.1291502714157104,6.042479991912842,3.112792730331421,80.0,928903.0,1.0
515381.8544541,274276.75,309630.59375,318277.6875,292873.125,300747.125,303214.3125,266023.84375,305306.4375,-0.01220703125,0.948486328125,-0.290771484375,-1.0070799589157104,5.706786632537842,2.868652105331421,80.0,928904.0,1.0
515381.8569569,276925.0625,310945.6875,319320.875,295521.46875,301850.9375,303742.59375,266269.46875,306091.78125,-0.011474609375,0.948486328125,-0.289306640625,-0.8239745497703552,5.462646007537842,2.716064214706421,80.0,928905.0,1.0
515381.8594503,282736.0,312718.34375,319336.0,294277.1875,298858.5625,302878.40625,265867.40625,305058.0625,-0.00830078125,0.949951171875,-0.29150390625,-0.7629393935203552,5.340575695037842,2.593993902206421,80.0,928906.0,1.0
515381.8620749,283442.75,312383.0625,318247.46875,290783.15625,295872.5625,301788.15625,265379.0625,303612.78125,-0.00927734375,0.94921875,-0.290771484375,-0.5187987685203552,5.187987804412842,2.502441167831421,80.0,928907.0,1.0
515381.862115,278469.5,310586.96875,317633.59375,289871.75,296983.09375,302009.1875,265499.5,303736.34375,-0.007568359375,0.95361328125,-0.291748046875,-0.3967284858226776,4.913329601287842,2.349853277206421,80.0,928908.0,1.0
515381.8645607,274257.34375,309636.125,318276.59375,292853.09375,300738.96875,303220.46875,266068.375,305291.40625,-0.005615234375,0.954833984375,-0.294189453125,-0.3967284858226776,4.760741710662842,2.258300542831421,80.0,928909.0,1.0
515381.8670826,276863.75,310931.09375,319309.96875,295504.03125,301855.3125,303746.71875,266291.90625,306077.21875,-0.005615234375,0.956787109375,-0.29150390625,-0.3356933295726776,4.730224132537842,2.288818120956421,80.0,928910.0,1.0
515381.8946263,282665.1875,312688.84375,319321.875,294254.46875,298855.1875,302872.3125,265859.0,305044.09375,-0.004150390625,0.958740234375,-0.2900390625,-0.2136230319738388,4.730224132537842,2.166747808456421,80.0,928911.0,1.0
515381.8946664,283430.25,312387.625,318250.3125,290776.53125,295873.28125,301790.3125,265359.375,303617.53125,-0.00537109375,0.957763671875,-0.289306640625,-0.1525878757238388,4.669188976287842,2.136230230331421,80.0,928912.0,1.0
515381.8983268,278510.4375,310622.375,317647.4375,289865.84375,296985.9375,302025.1875,265479.5625,303753.25,-0.004638671875,0.9580078125,-0.2900390625,-0.3051757514476776,4.547118663787842,2.105712652206421,80.0,928913.0,1.0
515381.8983626,274277.46875,309664.03125,318281.15625,292836.3125,300751.3125,303236.125,266037.375,305299.4375,-0.003173828125,0.958984375,-0.28955078125,-0.3967284858226776,4.486083507537842,1.9836424589157104,80.0,928914.0,1.0
515381.8983724,276835.5,310943.90625,319312.65625,295503.3125,301888.21875,303758.0,266263.46875,306095.53125,-0.00341796875,0.95751953125,-0.28955078125,-0.4882812201976776,4.364013195037842,2.014159917831421,80.0,928915.0,1.0
515381.9022545,282641.5,312689.5625,319319.8125,294259.46875,298878.34375,302867.5,265848.8125,305062.6875,-0.002197265625,0.9560546875,-0.290283203125,-0.4882812201976776,4.180907726287842,1.9836424589157104,80.0,928916.0,1.0
515381.9022925,283451.875,312382.09375,318242.0,290759.71875,295863.625,301772.15625,265358.84375,303614.3125,-0.0029296875,0.957763671875,-0.290283203125,-0.5187987685203552,4.089354991912842,1.9531248807907104,80.0,928917.0,1.0
515381.9023031,278567.375,310630.34375,317639.75,289838.125,296965.125,302003.65625,265475.78125,303733.03125,-0.003173828125,0.956298828125,-0.291259765625,-0.4882812201976776,4.028319835662842,1.9531248807907104,80.0,928918.0,1.0
515381.9046194,274312.0625,309671.90625,318275.0,292813.6875,300741.65625,303218.3125,266039.15625,305276.375,-0.005859375,0.95556640625,-0.292236328125,-0.6713866591453552,4.089354991912842,1.8615721464157104,80.0,928919.0,1.0
515381.9046587,276791.6875,310916.34375,319293.875,295483.0,301889.375,303742.15625,266280.28125,306068.09375,-0.005126953125,0.95556640625,-0.2919921875,-0.6103515028953552,3.875732183456421,1.7089842557907104,80.0,928920.0,1.0
515381.9069507,282561.75,312646.03125,319294.25,294248.21875,298871.28125,302849.4375,265872.5,305036.3125,-0.003173828125,0.953369140625,-0.291259765625,-0.6408690810203552,3.814697027206421,1.7089842557907104,80.0,928921.0,1.0
515381.9193917,283402.0625,312348.46875,318220.5625,290750.6875,295833.21875,301747.21875,265388.96875,303588.65625,-0.003662109375,0.952880859375,-0.290771484375,-0.5187987685203552,3.814697027206421,1.6479490995407104,80.0,928922.0,1.0
515381.9245593,278556.03125,310610.5,317630.46875,289825.0625,296923.09375,301985.75,265523.09375,303706.40625,-0.0009765625,0.952392578125,-0.293701171875,-0.5187987685203552,3.692626714706421,1.6479490995407104,80.0,928923.0,1.0
515381.9245996,274287.9375,309665.8125,318273.375,292818.78125,300732.0,303221.90625,266097.96875,305263.96875,-0.00048828125,0.954345703125,-0.29150390625,-0.4577636420726776,3.662109136581421,1.5869139432907104,80.0,928924.0,1.0
515381.92461,276723.28125,310910.625,319296.75,295514.5625,301912.90625,303752.875,266333.65625,306078.09375,0.0,0.95166015625,-0.290771484375,-0.3356933295726776,3.601073980331421,1.4648436307907104,80.0,928925.0,1.0
515381.9320579,282488.96875,312635.46875,319303.90625,294285.6875,298893.1875,302856.5,265917.8125,305049.75,-0.002685546875,0.95458984375,-0.288330078125,-0.3356933295726776,3.692626714706421,1.3732908964157104,80.0,928926.0,1.0
515381.9446437,283361.03125,312351.25,318235.5625,290785.125,295839.375,301752.9375,265432.25,303600.53125,-0.003662109375,0.955078125,-0.292236328125,-0.2136230319738388,3.570556402206421,1.1901854276657104,80.0,928927.0,1.0
515381.9446812,278552.1875,310637.6875,317648.34375,289851.28125,296923.53125,301995.15625,265569.84375,303720.34375,-0.002685546875,0.957763671875,-0.2939453125,-0.1525878757238388,3.570556402206421,1.2512205839157104,80.0,928928.0,1.0
515381.9471349,274282.65625,309697.84375,318291.90625,292839.4375,300746.40625,303237.46875,266150.28125,305282.28125,-0.0029296875,0.95703125,-0.2919921875,-0.2441406100988388,3.540038824081421,1.2207030057907104,80.0,928929.0,1.0
515381.9471726,276664.625,310918.78125,319306.84375,295536.375,301949.5625,303770.15625,266372.625,306098.3125,-0.001953125,0.958740234375,-0.292236328125,-0.2441406100988388,3.509521245956421,1.1596678495407104,80.0,928930.0,1.0
515381.9495666,282402.0625,312621.71875,319303.53125,294297.84375,298922.0625,302863.125,265930.15625,305062.15625,-0.00146484375,0.957275390625,-0.29248046875,-0.2136230319738388,3.448486089706421,1.0986326932907104,80.0,928931.0,1.0
515381.9533049,283326.96875,312355.1875,318240.40625,290784.84375,295846.0,301757.875,265421.15625,303608.59375,-0.00341796875,0.957763671875,-0.292724609375,-0.2746581733226776,3.417968511581421,1.0986326932907104,80.0,928932.0,1.0
515381.9696016,278563.375,310662.25,317654.15625,289832.75,296914.40625,301999.625,265535.15625,303723.125,-0.00341796875,0.95947265625,-0.294677734375,-0.4577636420726776,3.417968511581421,0.9765624403953552,80.0,928933.0,1.0
515381.9696417,274277.71875,309711.0625,318294.65625,292812.4375,300743.0,303243.4375,266111.3125,305283.09375,-0.001953125,0.959716796875,-0.29345703125,-0.4882812201976776,3.448486089706421,0.9155272841453552,80.0,928934.0,1.0
515381.9720717,276629.6875,310916.28125,319309.71875,295521.1875,301965.28125,303782.40625,266343.84375,306105.71875,-0.00390625,0.96044921875,-0.2939453125,-0.4577636420726776,3.387450933456421,0.9155272841453552,80.0,928935.0,1.0
515381.9745123,282390.34375,312621.71875,319311.5,294299.875,298941.71875,302877.25,265916.03125,305075.84375,-0.002685546875,0.95947265625,-0.292724609375,-0.5493163466453552,3.326415777206421,0.7934569716453552,80.0,928936.0,1.0
515381.9745541,283368.46875,312366.1875,318249.96875,290784.40625,295846.1875,301762.34375,265423.59375,303620.125,-0.00341796875,0.958740234375,-0.293701171875,-0.7629393935203552,3.265380620956421,0.9765624403953552,80.0,928937.0,1.0
515381.9769633,278658.59375,310697.5625,317671.6875,289823.5625,296903.6875,302013.125,265560.8125,303733.59375,-0.0048828125,0.9580078125,-0.29345703125,-0.8239745497703552,3.265380620956421,0.9460448622703552,80.0,928938.0,1.0
515381.9806693,274364.0,309759.875,318309.34375,292808.03125,300745.0625,303259.8125,266131.59375,305298.8125,-0.00439453125,0.95751953125,-0.293701171875,-1.0375975370407104,3.112792730331421,1.0070799589157104,80.0,928939.0,1.0
515381.9945159,276639.78125,310936.5625,319313.1875,295527.90625,301980.03125,303784.0,266348.75,306123.15625,-0.005126953125,0.95703125,-0.29345703125,-1.0681151151657104,3.143310308456421,1.0070799589157104,80.0,928940.0,1.0
515381.9945555,282378.90625,312621.34375,319307.5625,294313.5625,298948.4375,302860.875,265898.0625,305081.21875,-0.00390625,0.95751953125,-0.29248046875,-1.0681151151657104,3.112792730331421,0.9460448622703552,80.0,928941.0,1.0
515381.9971467,283389.8125,312359.65625,318240.9375,290785.9375,295821.6875,301733.46875,265374.9375,303602.5,-0.003173828125,0.955322265625,-0.292236328125,-1.0681151151657104,3.082275152206421,1.0070799589157104,80.0,928942.0,1.0
515381.9995325,278692.03125,310678.25,317648.15625,289787.0625,296842.4375,301966.1875,265487.40625,303690.40625,-0.001953125,0.95556640625,-0.293701171875,-1.0375975370407104,3.021239995956421,0.8850097060203552,80.0,928943.0,1.0
515382.0020194,274363.5625,309724.65625,318281.53125,292751.8125,300687.21875,303220.84375,266062.03125,305244.65625,-0.00146484375,0.9521484375,-0.294189453125,-1.0375975370407104,2.960204839706421,0.9155272841453552,80.0,928944.0,1.0
515382.0195685,276609.46875,310900.1875,319294.6875,295499.1875,301960.09375,303770.875,266285.09375,306086.21875,-0.00048828125,0.95263671875,-0.29345703125,-0.9765624403953552,2.929687261581421,0.9460448622703552,80.0,928945.0,1.0
515382.0219941,282351.625,312592.1875,319299.875,294317.3125,298944.125,302862.03125,265819.84375,305065.21875,-0.00048828125,0.954833984375,-0.292724609375,-1.0681151151657104,2.899169683456421,0.9460448622703552,80.0,928946.0,1.0
515382.0220352,283417.8125,312353.65625,318243.34375,290801.40625,295807.84375,301737.9375,265293.75,303596.53125,-0.000732421875,0.954345703125,-0.293212890625,-1.0070799589157104,2.960204839706421,1.0070799589157104,80.0,928947.0,1.0
515382.0245107,278752.5625,310680.21875,317646.375,289779.65625,296807.3125,301968.875,265396.125,303676.53125,0.00048828125,0.95458984375,-0.295654296875,-1.0375975370407104,2.960204839706421,1.0681151151657104,80.0,928948.0,1.0
515382.027052,274413.8125,309732.0625,318286.53125,292741.625,300667.8125,303238.34375,265969.6875,305247.6875,0.000244140625,0.9560546875,-0.293701171875,-1.0681151151657104,2.838134527206421,0.9765624403953552,80.0,928949.0,1.0
515382.0284863,276636.1875,310914.65625,319308.28125,295519.65625,301985.03125,303801.25,266210.28125,306122.4375,0.001708984375,0.958984375,-0.29345703125,-1.0986326932907104,2.960204839706421,0.8850097060203552,80.0,928950.0,1.0
515382.0383294,282406.625,312618.3125,319322.3125,294361.84375,298992.0625,302894.75,265761.71875,305112.59375,0.0009765625,0.9599609375,-0.2939453125,-1.2817381620407104,3.051757574081421,0.8544921278953552,80.0,928951.0,1.0
515382.0383728,283495.5,312368.875,318254.96875,290818.28125,295823.5625,301749.28125,265235.5625,303615.65625,0.000244140625,0.962158203125,-0.291259765625,-1.2817381620407104,3.082275152206421,0.7934569716453552,80.0,928952.0,1.0
515382.0397628,278823.09375,310681.40625,317648.15625,289755.875,296787.28125,301962.875,265351.96875,303670.28125,-0.001708984375,0.961181640625,-0.28955078125,-1.3732908964157104,2.960204839706421,0.7629393935203552,80.0,928953.0,1.0
515382.0461102,274429.375,309712.84375,318273.5625,292693.78125,300643.3125,303224.0625,265935.71875,305226.75,-0.00341796875,0.9619140625,-0.29248046875,-1.4953612089157104,3.021239995956421,0.7019042372703552,80.0,928954.0,1.0
515382.0747034,276590.59375,310887.84375,319301.3125,295492.40625,301989.96875,303798.5625,266194.8125,306115.8125,-0.002685546875,0.96240234375,-0.29248046875,-1.5869139432907104,3.143310308456421,0.7324218153953552,80.0,928955.0,1.0
515382.0893863,282360.125,312610.15625,319328.40625,294375.0,299017.28125,302897.34375,265770.125,305127.0625,-0.002197265625,0.963134765625,-0.290771484375,-1.6784666776657104,3.082275152206421,0.6408690810203552,80.0,928956.0,1.0
515382.0920489,283485.75,312374.84375,318259.8125,290839.125,295829.65625,301741.5,265244.0625,303623.96875,-0.000244140625,0.9599609375,-0.2900390625,-1.7700194120407104,3.173827886581421,0.5187987685203552,80.0,928957.0,1.0
515382.0920611,278841.875,310698.90625,317640.46875,289745.59375,296761.71875,301942.03125,265352.875,303659.71875,-0.000244140625,0.961181640625,-0.290771484375,-1.8005369901657104,3.295898199081421,0.5187987685203552,80.0,928958.0,1.0
515382.0943193,274424.625,309721.6875,318259.4375,292662.84375,300609.78125,303201.6875,265945.4375,305215.21875,0.002197265625,0.959716796875,-0.291015625,-1.8310545682907104,3.479003667831421,0.6408690810203552,80.0,928959.0,1.0
515382.0968859,276526.75,310862.1875,319277.53125,295463.25,301968.9375,303773.90625,266196.25,306096.0625,0.00146484375,0.959716796875,-0.292236328125,-1.8310545682907104,3.662109136581421,0.5798339247703552,80.0,928960.0,1.0
515382.0994568,282344.84375,312626.53125,319342.78125,294414.59375,299045.78125,302912.90625,265800.53125,305145.84375,0.0048828125,0.957763671875,-0.289794921875,-2.014159917831421,3.814697027206421,0.4882812201976776,80.0,928961.0,1.0
515382.1020003,283561.21875,312456.46875,318302.4375,290924.40625,295869.78125,301781.5625,265297.6875,303675.5625,0.00439453125,0.954345703125,-0.291748046875,-2.075195074081421,3.997802495956421,0.5187987685203552,80.0,928962.0,1.0
515382.1043079,278917.0625,310769.09375,317661.125,289789.21875,296753.03125,301958.75,265386.21875,303686.90625,0.005615234375,0.953857421875,-0.29248046875,-1.8920897245407104,4.058837413787842,0.5187987685203552,80.0,928963.0,1.0
515382.1069906,274403.53125,309725.28125,318237.53125,292632.28125,300561.0625,303183.1875,265940.53125,305188.84375,0.007080078125,0.952880859375,-0.29296875,-1.8310545682907104,4.364013195037842,0.4272460639476776,80.0,928964.0,1.0
515382.1095117,276406.34375,310812.65625,319240.59375,295414.34375,301933.28125,303751.09375,266187.21875,306048.59375,0.0087890625,0.9541015625,-0.294189453125,-1.7089842557907104,4.516601085662842,0.4272460639476776,80.0,928965.0,1.0
515382.111837,282173.625,312523.4375,319288.5,294347.375,298993.5,302865.96875,265773.25,305060.75,0.012451171875,0.952392578125,-0.2919921875,-1.4953612089157104,4.791259288787842,0.3662109076976776,80.0,928966.0,1.0
515382.1143298,283437.03125,312364.84375,318257.90625,290858.71875,295806.40625,301733.625,265283.3125,303590.0,0.01416015625,0.953369140625,-0.291748046875,-1.3732908964157104,5.157470226287842,0.2441406100988388,80.0,928967.0,1.0
515382.1169875,278850.53125,310715.0,317631.1875,289717.15625,296689.28125,301928.1875,265403.8125,303624.21875,0.017822265625,0.952880859375,-0.292236328125,-1.1901854276657104,5.554198741912842,0.0915527269244194,80.0,928968.0,1.0
515382.1195166,274370.4375,309714.8125,318231.0,292587.84375,300532.71875,303186.3125,266005.71875,305179.125,0.01806640625,0.95458984375,-0.2900390625,-1.1901854276657104,6.103515148162842,0.1831054538488388,80.0,928969.0,1.0
515382.1219125,276369.84375,310820.5,319251.6875,295414.34375,301954.75,303780.875,266277.59375,306080.59375,0.01806640625,0.956298828125,-0.28857421875,-1.1596678495407104,6.622313976287842,0.0,80.0,928970.0,1.0
515382.121931,282184.15625,312565.75,319319.53125,294399.84375,299053.84375,302911.46875,265878.9375,305125.46875,0.018798828125,0.95654296875,-0.29052734375,-0.9765624403953552,7.080077648162842,-0.0915527269244194,80.0,928971.0,1.0
515382.1244268,283489.6875,312410.4375,318279.65625,290894.46875,295837.0625,301758.125,265371.46875,303632.8125,0.017822265625,0.958251953125,-0.290771484375,-0.9765624403953552,7.507323741912842,-0.3356933295726776,80.0,928972.0,1.0
515382.1270352,278868.15625,310721.71875,317618.84375,289668.15625,296653.875,301919.40625,265451.46875,303610.09375,0.0146484375,0.95849609375,-0.2890625,-0.9460448622703552,7.995604991912842,-0.4272460639476776,80.0,928973.0,1.0
515382.1270576,274326.71875,309713.9375,318211.34375,292503.78125,300499.625,303183.1875,266023.6875,305156.65625,0.015869140625,0.958740234375,-0.29150390625,-0.8544921278953552,8.514403343200684,-0.7019042372703552,80.0,928974.0,1.0
515382.1285968,276296.28125,310843.21875,319255.34375,295381.625,301982.375,303804.3125,266283.59375,306101.6875,0.0146484375,0.958740234375,-0.288330078125,-0.9155272841453552,8.972167015075684,-1.0070799589157104,80.0,928975.0,1.0
515382.1356702,282101.5625,312574.9375,319327.5,294393.15625,299092.1875,302928.5625,265848.4375,305146.84375,0.015869140625,0.959716796875,-0.285888671875,-0.8239745497703552,9.490965843200684,-1.3122557401657104,80.0,928976.0,1.0
515382.1356988,283450.25,312423.59375,318289.9375,290891.34375,295856.71875,301768.15625,265313.0625,303648.5625,0.018798828125,0.958740234375,-0.286376953125,-0.7324218153953552,9.918211936950684,-1.6784666776657104,80.0,928977.0,1.0
515382.1383085,278917.5,310797.34375,317653.1875,289686.5,296679.53125,301954.75,265414.8125,303663.75,0.01806640625,0.958740234375,-0.283935546875,-0.7629393935203552,10.467528343200684,-1.9836424589157104,80.0,928978.0,1.0
515382.1696022,274332.53125,309753.625,318212.78125,292457.3125,300491.9375,303197.0625,265981.125,305170.4375,0.022705078125,0.957763671875,-0.285888671875,-0.6713866591453552,10.986327171325684,-2.441406011581421,80.0,928979.0,1.0
515382.1696432,276184.96875,310782.34375,319214.125,295266.375,301950.90625,303780.59375,266230.125,306047.15625,0.028564453125,0.954833984375,-0.287841796875,-0.6713866591453552,11.566161155700684,-2.929687261581421,80.0,928980.0,1.0
515382.1746926,282005.96875,312512.53125,319306.40625,294326.71875,299093.4375,302917.90625,265834.59375,305112.3125,0.0361328125,0.95068359375,-0.287109375,-0.5493163466453552,12.268065452575684,-3.387450933456421,80.0,928981.0,1.0
515382.1747334,283387.84375,312346.34375,318261.3125,290824.625,295820.6875,301734.53125,265289.28125,303598.9375,0.0400390625,0.94873046875,-0.291015625,-0.3662109076976776,13.122557640075684,-3.906249761581421,80.0,928982.0,1.0
515382.1770559,278842.3125,310698.46875,317596.21875,289543.25,296583.78125,301893.84375,265349.1875,303558.875,0.042236328125,0.9501953125,-0.29052734375,-0.1220703050494194,14.007567405700684,-4.333495616912842,80.0,928983.0,1.0
515382.1794444,274242.59375,309699.0,318172.53125,292301.1875,300417.90625,303168.25,265929.28125,305074.78125,0.04638671875,0.953857421875,-0.291015625,0.03051757626235485,14.984129905700684,-4.791259288787842,80.0,928984.0,1.0
515382.1820678,276039.9375,310739.40625,319180.34375,295140.21875,301907.0,303764.5,266171.65625,305968.84375,0.050537109375,0.956298828125,-0.285400390625,0.1220703050494194,16.113279342651367,-5.218505382537842,80.0,928985.0,1.0
515382.1844507,281869.375,312495.5625,319292.4375,294278.34375,299072.625,302908.1875,265786.65625,305067.625,0.0517578125,0.95703125,-0.28955078125,0.1831054538488388,17.242429733276367,-5.584716320037842,80.0,928986.0,1.0
515382.1869537,283330.71875,312375.21875,318273.5625,290831.0625,295809.53125,301738.8125,265278.03125,303586.5,0.0498046875,0.9560546875,-0.289794921875,0.1831054538488388,18.432615280151367,-6.042479991912842,80.0,928987.0,1.0
515382.1895601,278849.5625,310739.59375,317612.3125,289526.71875,296552.59375,301906.625,265357.34375,303551.71875,0.04541015625,0.953857421875,-0.2900390625,0.3967284858226776,19.714353561401367,-6.530761241912842,80.0,928988.0,1.0
515382.19711,274265.03125,309734.65625,318186.3125,292254.25,300402.1875,303201.78125,265930.59375,305072.09375,0.038818359375,0.95703125,-0.290283203125,0.7324218153953552,20.812986373901367,-7.171630382537842,80.0,928989.0,1.0
515382.1971487,276068.8125,310791.53125,319216.8125,295151.3125,301967.875,303838.0,266191.9375,306025.71875,0.0322265625,0.961669921875,-0.292724609375,0.6713866591453552,21.911619186401367,-7.629394054412842,80.0,928990.0,1.0
515382.1995644,281886.96875,312502.71875,319317.84375,294315.1875,299137.53125,302959.5,265775.21875,305128.875,0.025390625,0.96435546875,-0.29248046875,0.3967284858226776,22.949216842651367,-7.781981945037842,80.0,928991.0,1.0
515382.2045427,283361.46875,312361.53125,318286.0,290847.53125,295836.78125,301762.6875,265238.78125,303623.53125,0.019775390625,0.96484375,-0.291015625,0.1525878757238388,23.742673873901367,-8.117674827575684,80.0,928992.0,1.0
515382.2070732,278897.03125,310752.375,317616.53125,289474.6875,296555.71875,301932.84375,265306.53125,303559.3125,0.017333984375,0.962158203125,-0.29248046875,0.0610351525247097,24.597166061401367,-8.483885765075684,80.0,928993.0,1.0
515382.2071139,274291.3125,309764.78125,318184.0625,292128.375,300404.59375,303239.875,265867.5625,305057.0625,0.0126953125,0.96484375,-0.294189453125,0.0610351525247097,25.329587936401367,-8.789061546325684,80.0,928994.0,1.0
515382.2095761,276060.6875,310823.1875,319228.78125,295041.78125,302007.125,303887.90625,266151.96875,306029.5625,0.008544921875,0.966552734375,-0.294189453125,0.0,26.031492233276367,-9.307860374450684,80.0,928995.0,1.0
515382.2144435,281877.25,312513.6875,319344.84375,294275.3125,299197.59375,302999.0,265774.59375,305165.34375,0.004638671875,0.964599609375,-0.29541015625,0.1525878757238388,26.519773483276367,-9.826659202575684,80.0,928996.0,1.0
515382.2195874,283405.375,312375.3125,318319.0625,290837.78125,295873.625,301796.5,265255.59375,303674.9375,-0.00146484375,0.965087890625,-0.29345703125,0.2441406100988388,27.069089889526367,-10.437010765075684,80.0,928997.0,1.0
515382.2196326,279024.71875,310833.125,317662.46875,289452.96875,296578.25,301988.0,265339.28125,303625.5625,-0.00537109375,0.968505859375,-0.296142578125,0.1220703050494194,27.587888717651367,-10.681151390075684,80.0,928998.0,1.0
515382.2221102,274398.4375,309867.625,318212.78125,292043.78125,300425.15625,303292.25,265891.0,305093.1875,-0.010009765625,0.97119140625,-0.29345703125,-0.2441406100988388,27.832029342651367,-10.772704124450684,80.0,928999.0,1.0
515382.2256628,276064.53125,310858.15625,319223.15625,294919.3125,302018.46875,303901.5625,266148.21875,306016.6875,-0.009765625,0.970703125,-0.29248046875,-0.7019042372703552,28.015134811401367,-10.894774436950684,80.0,929000.0,1.0
515382.2446345,281820.03125,312465.15625,319316.84375,294186.4375,299176.9375,302961.0,265744.0,305123.59375,-0.008056640625,0.964599609375,-0.2939453125,-0.9765624403953552,28.228757858276367,-11.199950218200684,80.0,929001.0,1.0
515382.2446763,283351.5625,312270.0625,318280.1875,290766.0,295798.625,301718.15625,265212.5,303601.875,-0.008056640625,0.95849609375,-0.29541015625,-0.9460448622703552,28.411863327026367,-11.383055686950684,80.0,929002.0,1.0
515382.2521823,278940.9375,310657.0,317578.53125,289268.34375,296422.6875,301880.96875,265265.96875,303458.75,-0.006103515625,0.956298828125,-0.29541015625,-0.8850097060203552,28.625486373901367,-11.627196311950684,80.0,929003.0,1.0
515382.2522188,274328.875,309727.78125,318146.34375,291824.125,300307.6875,303260.53125,265856.125,304933.59375,-0.00537109375,0.953369140625,-0.29736328125,-0.7934569716453552,28.869626998901367,-12.023924827575684,80.0,929004.0,1.0
515382.2522286,276040.03125,310804.5,319211.71875,294825.6875,302010.71875,303950.125,266174.15625,305957.9375,-0.005615234375,0.955810546875,-0.29736328125,-0.6408690810203552,29.235837936401367,-12.298583030700684,80.0,929005.0,1.0
515382.2545992,281819.21875,312418.46875,319315.15625,294213.15625,299194.28125,302988.71875,265751.34375,305114.125,-0.009033203125,0.956787109375,-0.298095703125,-0.5798339247703552,29.449460983276367,-12.420653343200684,80.0,929006.0,1.0
515382.2569142,283410.3125,312223.84375,318275.34375,290836.53125,295783.875,301709.5,265173.875,303599.46875,-0.014892578125,0.960205078125,-0.29443359375,-0.7019042372703552,29.693601608276367,-12.420653343200684,80.0,929007.0,1.0
515382.2594457,279090.0625,310690.875,317605.53125,289340.03125,296424.46875,301908.5,265238.5,303494.0625,-0.020751953125,0.96337890625,-0.294189453125,-0.9765624403953552,29.632566452026367,-12.329100608825684,80.0,929008.0,1.0
515382.2631623,274491.3125,309826.5625,318192.65625,291850.40625,300347.5625,303327.59375,265842.8125,304988.75,-0.0244140625,0.96435546875,-0.298583984375,-1.3122557401657104,29.602048873901367,-12.390135765075684,80.0,929009.0,1.0
515382.2945166,276110.5625,310884.96875,319242.75,294818.28125,302068.0,303998.59375,266136.0625,306003.71875,-0.02783203125,0.962890625,-0.296875,-1.6174315214157104,29.479978561401367,-12.298583030700684,80.0,929010.0,1.0
515382.2945567,281861.78125,312482.0625,319362.90625,294267.71875,299271.90625,303019.75,265728.28125,305187.59375,-0.031005859375,0.961181640625,-0.296875,-1.9836424589157104,29.205320358276367,-11.993407249450684,80.0,929011.0,1.0
515382.3046318,283491.65625,312311.03125,318335.71875,290931.03125,295855.84375,301730.78125,265180.9375,303696.125,-0.03564453125,0.955810546875,-0.296875,-2.197265386581421,28.808591842651367,-11.779784202575684,80.0,929012.0,1.0
515382.3046729,279194.84375,310804.5,317654.34375,289354.78125,296450.5625,301923.53125,265250.21875,303561.5625,-0.037109375,0.951171875,-0.29296875,-2.441406011581421,28.533933639526367,-11.627196311950684,80.0,929013.0,1.0
515382.3046823,274531.8125,309911.4375,318203.28125,291720.3125,300317.34375,303321.9375,265831.71875,304979.46875,-0.035888671875,0.94873046875,-0.29248046875,-2.441406011581421,28.228757858276367,-11.810301780700684,80.0,929014.0,1.0
515382.3046903,276011.25,310855.125,319208.3125,294596.71875,302005.6875,303952.28125,266104.875,305917.625,-0.03466796875,0.94482421875,-0.29345703125,-2.410888433456421,27.954099655151367,-11.718749046325684,80.0,929015.0,1.0
515382.3046981,281676.96875,312333.71875,319294.6875,294038.1875,299181.0625,302925.875,265696.71875,305052.96875,-0.029296875,0.94091796875,-0.294921875,-2.319335699081421,27.648923873901367,-11.627196311950684,80.0,929016.0,1.0
515382.3047059,283303.71875,312092.40625,318249.875,290683.65625,295714.125,301604.71875,265141.40625,303522.75,-0.02734375,0.937744140625,-0.29541015625,-2.105712652206421,27.435300827026367,-11.566161155700684,80.0,929017.0,1.0
515382.3047151,279050.0,310623.0,317586.21875,289085.84375,296314.21875,301840.46875,265221.96875,303401.0625,-0.025390625,0.939208984375,-0.293701171875,-1.9226073026657104,27.160642623901367,-11.627196311950684,80.0,929018.0,1.0
515382.3070523,274434.09375,309841.59375,318180.59375,291494.5625,300279.875,303333.21875,265856.21875,304897.3125,-0.02587890625,0.944091796875,-0.291259765625,-1.6784666776657104,27.130125045776367,-11.596678733825684,80.0,929019.0,1.0
515382.3070806,275955.625,310880.3125,319229.34375,294508.9375,302080.71875,304026.84375,266173.34375,305939.0625,-0.025146484375,0.947265625,-0.293212890625,-1.3427733182907104,27.038572311401367,-11.444090843200684,80.0,929020.0,1.0
515382.312083,281664.4375,312385.21875,319339.75,294104.28125,299295.78125,302994.53125,265757.6875,305143.625,-0.027099609375,0.947998046875,-0.29345703125,-1.2207030057907104,26.947019577026367,-11.322020530700684,80.0,929021.0,1.0
515382.3144807,283336.34375,312130.40625,318294.40625,290810.15625,295793.4375,301639.3125,265180.9375,303612.78125,-0.0302734375,0.951904296875,-0.2919921875,-1.2512205839157104,26.855466842651367,-11.169432640075684,80.0,929022.0,1.0
515382.3181716,279107.3125,310649.125,317614.625,289151.5625,296333.71875,301847.09375,265248.78125,303438.53125,-0.03466796875,0.9541015625,-0.289794921875,-1.5563963651657104,26.702878952026367,-10.742186546325684,80.0,929023.0,1.0
515382.3533606,274489.28125,309885.75,318204.46875,291494.5625,300289.8125,303339.84375,265870.96875,304900.6875,-0.03759765625,0.954345703125,-0.289306640625,-1.8310545682907104,26.489255905151367,-10.345458030700684,80.0,929024.0,1.0
515382.3534016,275962.15625,310912.15625,319251.9375,294516.53125,302114.40625,304026.9375,266162.96875,305940.59375,-0.041015625,0.9521484375,-0.291748046875,-1.7700194120407104,26.031492233276367,-9.948729515075684,80.0,929025.0,1.0
515382.3833708,281650.6875,312380.03125,319363.4375,294173.125,299332.6875,302968.34375,265726.3125,305151.75,-0.043212890625,0.951171875,-0.289794921875,-1.8310545682907104,25.756834030151367,-9.735106468200684,80.0,929026.0,1.0
515382.3834081,283378.46875,312142.125,318327.375,290930.6875,295826.15625,301617.75,265159.21875,303644.71875,-0.045654296875,0.94921875,-0.290771484375,-1.8005369901657104,25.360105514526367,-9.613036155700684,80.0,929027.0,1.0
515382.3881997,279155.15625,310656.53125,317610.53125,289184.5625,296309.40625,301820.28125,265200.34375,303433.25,-0.04833984375,0.948974609375,-0.288818359375,-1.7700194120407104,25.024412155151367,-9.613036155700684,80.0,929028.0,1.0
515382.3907891,274477.28125,309874.75,318165.90625,291403.625,300237.21875,303324.28125,265802.9375,304852.5,-0.051025390625,0.949951171875,-0.287841796875,-1.8615721464157104,24.566648483276367,-9.582518577575684,80.0,929029.0,1.0
515382.3931843,275891.25,310893.46875,319218.78125,294422.03125,302099.84375,304036.75,266123.1875,305908.59375,-0.051025390625,0.95068359375,-0.286865234375,-1.6784666776657104,24.139402389526367,-9.552000999450684,80.0,929030.0,1.0
515382.3958119,281583.09375,312367.34375,319351.625,294171.21875,299362.1875,302990.25,265707.8125,305172.3125,-0.05078125,0.954833984375,-0.289794921875,-1.5869139432907104,23.620603561401367,-9.521483421325684,80.0,929031.0,1.0
515382.3982571,283354.0625,312130.875,318319.15625,290967.78125,295837.5,301626.15625,265128.8125,303677.34375,-0.048583984375,0.956298828125,-0.291748046875,-1.4648436307907104,23.071287155151367,-9.521483421325684,80.0,929032.0,1.0
515382.4006678,279171.15625,310669.59375,317603.46875,289186.34375,296300.46875,301833.78125,265160.28125,303454.375,-0.050048828125,0.957275390625,-0.292236328125,-1.4038084745407104,22.491453170776367,-9.521483421325684,80.0,929033.0,1.0
515382.4532144,274464.59375,309890.9375,318146.96875,291335.78125,300224.0,303346.34375,265736.59375,304849.03125,-0.048583984375,0.958251953125,-0.2880859375,-1.4343260526657104,22.155759811401367,-9.460448265075684,80.0,929034.0,1.0
515382.4557751,275843.34375,310914.46875,319217.25,294387.34375,302143.75,304076.625,266057.375,305933.625,-0.046142578125,0.955810546875,-0.287109375,-1.4953612089157104,21.697996139526367,-9.429930686950684,80.0,929035.0,1.0
515382.4582577,281500.46875,312330.0625,319346.90625,294194.03125,299413.15625,302989.96875,265623.125,305185.28125,-0.04736328125,0.95556640625,-0.288330078125,-1.4038084745407104,21.209714889526367,-9.307860374450684,80.0,929036.0,1.0
515382.4657389,283246.5,312010.875,318283.65625,290973.0625,295824.8125,301553.46875,265004.8125,303618.4375,-0.044677734375,0.95849609375,-0.285888671875,-1.4038084745407104,20.812986373901367,-9.216307640075684,80.0,929037.0,1.0
515382.4682468,279131.1875,310592.78125,317587.90625,289186.34375,296275.78125,301778.59375,265081.96875,303404.03125,-0.04296875,0.95849609375,-0.2861328125,-1.2817381620407104,20.477293014526367,-9.155272483825684,80.0,929038.0,1.0
515382.475605,274457.8125,309881.5625,318149.90625,291331.21875,300225.875,303335.8125,265711.5625,304833.375,-0.040283203125,0.9619140625,-0.28662109375,-1.3427733182907104,20.233152389526367,-9.033202171325684,80.0,929039.0,1.0
515382.4782572,275766.0,310868.78125,319199.90625,294373.90625,302149.90625,304054.71875,266033.78125,305901.4375,-0.041748046875,0.965087890625,-0.2822265625,-1.4343260526657104,19.927976608276367,-8.911131858825684,80.0,929040.0,1.0
515382.4806282,281431.8125,312272.65625,319341.1875,294258.59375,299437.21875,302966.28125,265631.1875,305176.15625,-0.042724609375,0.96630859375,-0.284423828125,-1.5869139432907104,19.622800827026367,-8.758543968200684,80.0,929041.0,1.0
515382.4831514,283276.28125,312004.09375,318309.6875,291132.28125,295856.71875,301547.84375,265055.5,303666.0,-0.043212890625,0.968994140625,-0.285400390625,-1.7700194120407104,19.378660202026367,-8.392333030700684,80.0,929042.0,1.0
515382.4856939,279171.78125,310578.9375,317592.1875,289290.40625,296255.75,301755.90625,265094.84375,303425.9375,-0.044921875,0.970458984375,-0.282958984375,-1.9226073026657104,19.104001998901367,-8.270262718200684,80.0,929043.0,1.0
515382.4908079,274453.40625,309856.71875,318138.75,291340.78125,300191.09375,303315.25,265705.75,304824.53125,-0.048828125,0.970703125,-0.283935546875,-2.197265386581421,18.798826217651367,-7.904052257537842,80.0,929044.0,1.0
515382.4908484,275724.78125,310863.96875,319202.40625,294384.03125,302162.59375,304058.65625,266027.34375,305917.875,-0.0478515625,0.97216796875,-0.285400390625,-2.380370855331421,18.463132858276367,-7.659911632537842,80.0,929045.0,1.0
515382.4933388,281413.40625,312293.75,319371.21875,294350.21875,299493.375,302980.9375,265611.6875,305236.5,-0.048828125,0.97216796875,-0.283203125,-2.563476324081421,18.005369186401367,-7.232665538787842,80.0,929046.0,1.0
515382.4933767,283305.34375,312037.53125,318339.28125,291251.125,295901.0,301551.15625,265007.46875,303732.15625,-0.05029296875,0.973388671875,-0.281494140625,-2.899169683456421,17.578123092651367,-6.774901866912842,80.0,929047.0,1.0
515382.5006492,279197.0,310594.40625,317584.875,289308.3125,296229.28125,301734.25,265020.4375,303438.4375,-0.052001953125,0.970458984375,-0.281982421875,-3.204345464706421,17.181394577026367,-6.378173351287842,80.0,929048.0,1.0
515382.5033538,274431.34375,309863.84375,318108.0,291252.0,300137.71875,303299.34375,265620.46875,304798.875,-0.054931640625,0.9677734375,-0.2822265625,-3.417968511581421,16.754148483276367,-6.042479991912842,80.0,929049.0,1.0
515382.5056466,275633.9375,310856.28125,319170.21875,294279.15625,302138.5625,304056.59375,265941.34375,305886.59375,-0.054931640625,0.964111328125,-0.284423828125,-3.448486089706421,16.326902389526367,-5.645751476287842,80.0,929050.0,1.0
515382.5082971,281308.96875,312281.59375,319353.96875,294304.0,299499.625,302977.8125,265530.34375,305222.28125,-0.056396484375,0.96142578125,-0.28369140625,-3.540038824081421,15.930174827575684,-5.249022960662842,80.0,929051.0,1.0
515382.5106436,283256.4375,312053.96875,318348.84375,291262.5625,295916.0,301553.5625,264941.84375,303746.90625,-0.055419921875,0.96142578125,-0.281982421875,-3.601073980331421,15.350340843200684,-4.913329601287842,80.0,929052.0,1.0
515382.5133327,279203.0625,310656.4375,317608.1875,289319.21875,296238.21875,301751.6875,264979.40625,303473.5,-0.052978515625,0.9599609375,-0.27978515625,-3.479003667831421,14.862059593200684,-4.669188976287842,80.0,929053.0,1.0
515382.5156364,274387.71875,309912.59375,318105.65625,291200.875,300117.15625,303306.5625,265591.40625,304807.71875,-0.052734375,0.95654296875,-0.279541015625,-3.387450933456421,14.251708030700684,-4.333495616912842,80.0,929054.0,1.0
515382.5181553,275548.84375,310906.25,319180.6875,294268.5,302159.9375,304085.65625,265961.0,305918.78125,-0.051513671875,0.95556640625,-0.279052734375,-3.326415777206421,13.793944358825684,-4.028319835662842,80.0,929055.0,1.0
515382.5206451,281230.46875,312313.875,319372.125,294366.125,299547.71875,303001.5,265564.03125,305264.40625,-0.049072265625,0.951416015625,-0.27734375,-3.204345464706421,13.336180686950684,-3.601073980331421,80.0,929056.0,1.0
515382.5233051,283210.5625,312059.96875,318357.53125,291345.09375,295932.625,301551.25,264963.21875,303762.90625,-0.045654296875,0.9501953125,-0.278564453125,-2.929687261581421,12.939452171325684,-3.234863042831421,80.0,929057.0,1.0
515382.5282952,279148.34375,310617.5625,317581.75,289338.0625,296182.0,301712.25,264968.3125,303430.84375,-0.044921875,0.94970703125,-0.27880859375,-2.807616949081421,12.603758811950684,-2.838134527206421,80.0,929058.0,1.0
515382.5306328,274335.125,309892.125,318087.15625,291206.6875,300080.9375,303294.5,265575.03125,304773.125,-0.042724609375,0.947998046875,-0.2763671875,-2.502441167831421,12.176512718200684,-2.532958745956421,80.0,929059.0,1.0
515382.5333123,275399.6875,310809.59375,319125.0,294217.46875,302108.96875,304043.71875,265877.84375,305833.9375,-0.041259765625,0.94873046875,-0.275634765625,-2.136230230331421,11.962889671325684,-2.258300542831421,80.0,929060.0,1.0
515382.5333559,281050.03125,312162.15625,319314.4375,294324.5625,299496.65625,302939.46875,265464.09375,305164.34375,-0.038330078125,0.949462890625,-0.27294921875,-1.9226073026657104,11.535643577575684,-2.105712652206421,80.0,929061.0,1.0
515382.5358487,283109.25,311943.65625,318334.0,291367.4375,295905.71875,301507.875,264907.0,303704.25,-0.033447265625,0.948974609375,-0.273193359375,-1.6174315214157104,11.260985374450684,-1.7089842557907104,80.0,929062.0,1.0
515382.5383038,279131.09375,310569.0,317587.5625,289380.375,296173.6875,301705.65625,264971.4375,303419.5,-0.034423828125,0.951416015625,-0.275634765625,-1.3732908964157104,10.986327171325684,-1.4343260526657104,80.0,929063.0,1.0
515382.540716,274306.96875,309867.96875,318085.90625,291202.46875,300072.4375,303303.71875,265620.1875,304772.84375,-0.0361328125,0.951416015625,-0.276123046875,-1.2817381620407104,10.833739280700684,-1.0986326932907104,80.0,929064.0,1.0
515382.5407572,275363.3125,310840.1875,319150.375,294260.46875,302169.3125,304093.25,265979.4375,305896.4375,-0.03662109375,0.952392578125,-0.27587890625,-1.1596678495407104,10.742186546325684,-1.0070799589157104,80.0,929065.0,1.0
515382.5434198,281043.0625,312241.90625,319361.375,294437.65625,299605.5625,303002.59375,265591.5625,305272.375,-0.038818359375,0.95458984375,-0.275146484375,-0.9765624403953552,10.467528343200684,-0.7629393935203552,80.0,929066.0,1.0
515382.5434551,283129.65625,312012.3125,318360.90625,291462.90625,295970.09375,301528.8125,265008.71875,303782.40625,-0.042724609375,0.954345703125,-0.2763671875,-1.0070799589157104,10.131834983825684,-0.5187987685203552,80.0,929067.0,1.0
515382.5457794,279173.5625,310621.59375,317591.40625,289409.3125,296175.28125,301692.5,265038.15625,303456.3125,-0.04296875,0.95654296875,-0.277587890625,-0.8850097060203552,9.857176780700684,-0.3967284858226776,80.0,929068.0,1.0
515382.5458144,274332.375,309901.21875,318080.90625,291175.46875,300056.8125,303288.6875,265666.6875,304786.96875,-0.043701171875,0.956298828125,-0.275634765625,-0.9155272841453552,9.399413108825684,-0.2136230319738388,80.0,929069.0,1.0
515382.5482389,275348.75,310848.9375,319146.09375,294232.84375,302186.3125,304093.0,266035.65625,305913.21875,-0.044677734375,0.959228515625,-0.278076171875,-0.8239745497703552,9.185790061950684,0.0,80.0,929070.0,1.0
515382.5497377,281032.78125,312237.875,319367.71875,294451.0,299644.46875,303007.25,265643.6875,305297.03125,-0.046630859375,0.961669921875,-0.2822265625,-0.8850097060203552,8.789061546325684,0.1220703050494194,80.0,929071.0,1.0
515382.5569114,283163.8125,312009.34375,318376.28125,291499.3125,295994.96875,301529.15625,265035.09375,303803.9375,-0.044677734375,0.96337890625,-0.278076171875,-0.7629393935203552,8.453368186950684,0.2441406100988388,80.0,929072.0,1.0
515382.5569492,279227.125,310625.34375,317599.78125,289430.59375,296168.9375,301685.8125,265039.3125,303462.3125,-0.04296875,0.964111328125,-0.277099609375,-0.8850097060203552,8.087157249450684,0.3967284858226776,80.0,929073.0,1.0
515382.5594119,274349.09375,309917.5,318082.875,291185.21875,300044.5625,303286.375,265656.125,304789.5625,-0.043212890625,0.9638671875,-0.27587890625,-0.9155272841453552,7.720946788787842,0.5187987685203552,80.0,929074.0,1.0
515382.5594431,275282.5625,310844.90625,319130.8125,294245.1875,302181.375,304085.03125,265988.71875,305902.9375,-0.041748046875,0.963623046875,-0.27783203125,-1.1901854276657104,7.324218273162842,0.7324218153953552,80.0,929075.0,1.0
515382.5617769,280976.5625,312257.8125,319370.3125,294536.1875,299673.53125,303015.375,265591.40625,305317.0625,-0.038330078125,0.960693359375,-0.2802734375,-1.3732908964157104,6.805419445037842,0.8544921278953552,80.0,929076.0,1.0
515382.5617834,283156.21875,312041.0,318381.65625,291621.0625,296004.6875,301526.375,264983.78125,303820.65625,-0.034912109375,0.958984375,-0.281982421875,-1.3732908964157104,6.561278820037842,1.0986326932907104,80.0,929077.0,1.0
515382.5656222,279216.125,310620.34375,317579.59375,289504.625,296115.9375,301652.28125,264976.375,303434.59375,-0.03271484375,0.9580078125,-0.283203125,-1.3122557401657104,6.347655773162842,1.2512205839157104,80.0,929078.0,1.0
515382.5656344,274333.96875,309901.6875,318056.75,291231.53125,299988.15625,303262.75,265600.78125,304758.09375,-0.027099609375,0.95849609375,-0.283935546875,-1.2207030057907104,6.225585460662842,1.3732908964157104,80.0,929079.0,1.0
515382.5656366,275234.375,310806.9375,319105.40625,294284.6875,302151.78125,304068.9375,265936.875,305873.90625,-0.023193359375,0.955322265625,-0.2841796875,-1.1901854276657104,6.103515148162842,1.4343260526657104,80.0,929080.0,1.0
515382.5682684,280947.6875,312212.40625,319357.09375,294603.0625,299672.96875,303001.4375,265551.625,305293.5625,-0.021240234375,0.9580078125,-0.281494140625,-1.0681151151657104,6.134032726287842,1.7089842557907104,80.0,929081.0,1.0
515382.5682817,283223.34375,312031.875,318388.71875,291727.90625,296018.84375,301516.90625,264954.375,303823.96875,-0.021728515625,0.958251953125,-0.282470703125,-1.0070799589157104,6.225585460662842,1.6784666776657104,80.0,929082.0,1.0
515382.570789,279332.53125,310601.28125,317570.75,289568.03125,296091.15625,301625.0,264932.5625,303418.6875,-0.018798828125,0.956787109375,-0.2802734375,-1.0681151151657104,6.195067882537842,1.8615721464157104,80.0,929083.0,1.0
515382.5730368,274379.375,309802.6875,318001.9375,291179.75,299905.53125,303193.28125,265521.5625,304679.875,-0.0166015625,0.95703125,-0.2783203125,-1.0681151151657104,6.225585460662842,1.9836424589157104,80.0,929084.0,1.0
515382.5755329,275267.75,310741.84375,319088.78125,294261.96875,302135.34375,304049.1875,265906.28125,305853.15625,-0.013916015625,0.958740234375,-0.279296875,-1.0986326932907104,6.439208507537842,2.075195074081421,80.0,929085.0,1.0
515382.5832841,280980.5625,312178.59375,319363.15625,294616.21875,299700.875,303007.3125,265544.90625,305308.40625,-0.01611328125,0.959716796875,-0.2802734375,-1.1901854276657104,6.408690929412842,2.227782964706421,80.0,929086.0,1.0
515382.583299,283272.4375,311996.5625,318394.1875,291732.5625,296033.65625,301517.71875,264945.34375,303827.0,-0.0146484375,0.962646484375,-0.283203125,-1.2207030057907104,6.469726085662842,2.136230230331421,80.0,929087.0,1.0
515382.5855833,279425.25,310611.9375,317592.5625,289570.96875,296102.0625,301634.125,264945.625,303442.75,-0.016845703125,0.964111328125,-0.2802734375,-1.2207030057907104,6.622313976287842,2.227782964706421,80.0,929088.0,1.0
515382.5907384,274472.5625,309861.25,318038.875,291187.28125,299933.4375,303227.71875,265559.5625,304731.4375,-0.018310546875,0.966552734375,-0.28076171875,-1.3427733182907104,6.622313976287842,2.166747808456421,80.0,929089.0,1.0
515382.59317,275274.34375,310781.09375,319113.71875,294254.84375,302182.09375,304088.25,265942.0625,305897.84375,-0.020751953125,0.967529296875,-0.280029296875,-1.3427733182907104,6.591796398162842,2.136230230331421,80.0,929090.0,1.0
515382.5982095,280969.84375,312218.46875,319397.59375,294633.46875,299774.71875,303054.8125,265582.46875,305365.53125,-0.023193359375,0.970458984375,-0.2802734375,-1.5869139432907104,6.500243663787842,2.044677495956421,80.0,929091.0,1.0
515382.5982292,283317.6875,312073.625,318445.40625,291788.96875,296104.75,301566.4375,264992.09375,303905.0625,-0.02392578125,0.96923828125,-0.27783203125,-1.7395018339157104,6.408690929412842,1.9531248807907104,80.0,929092.0,1.0
515382.6005935,279497.125,310718.5,317640.9375,289632.5,296148.375,301677.84375,264990.9375,303524.90625,-0.026123046875,0.970458984375,-0.278564453125,-1.9226073026657104,6.225585460662842,1.9226073026657104,80.0,929093.0,1.0
515382.6031645,274500.8125,309952.90625,318063.1875,291218.84375,299952.90625,303254.34375,265586.65625,304793.3125,-0.02685546875,0.966796875,-0.28125,-2.258300542831421,6.042479991912842,1.7700194120407104,80.0,929094.0,1.0
515382.6057303,275202.90625,310790.03125,319091.65625,294235.0625,302170.21875,304073.59375,265918.53125,305898.65625,-0.024658203125,0.9599609375,-0.2802734375,-2.471923589706421,5.920409679412842,1.6174315214157104,80.0,929095.0,1.0
515382.6195813,280837.4375,312138.90625,319338.3125,294581.53125,299721.15625,302989.53125,265498.59375,305295.875,-0.024169921875,0.9560546875,-0.2802734375,-2.532958745956421,5.737304210662842,1.6784666776657104,80.0,929096.0,1.0
515382.6196154,283177.84375,311949.09375,318371.375,291716.84375,296009.71875,301466.40625,264864.96875,303788.03125,-0.0205078125,0.95068359375,-0.2783203125,-2.471923589706421,5.615233898162842,1.5869139432907104,80.0,929097.0,1.0
515382.6220911,279392.71875,310592.15625,317571.46875,289542.625,296027.3125,301575.75,264867.1875,303394.8125,-0.01611328125,0.947265625,-0.279296875,-2.380370855331421,5.554198741912842,1.5563963651657104,80.0,929098.0,1.0
515382.6221228,274410.9375,309853.84375,318012.59375,291139.1875,299859.3125,303191.875,265500.03125,304693.0,-0.01513671875,0.947265625,-0.281982421875,-2.197265386581421,5.615233898162842,1.4648436307907104,80.0,929099.0,1.0
515382.649589,275141.59375,310785.1875,319103.34375,294263.5,302184.6875,304093.09375,265902.1875,305899.46875,-0.014404296875,0.94921875,-0.279541015625,-1.8920897245407104,5.706786632537842,1.5258787870407104,80.0,929100.0,1.0
515382.6496295,280827.59375,312227.78125,319403.125,294728.6875,299819.875,303065.625,265542.3125,305387.96875,-0.015380859375,0.95166015625,-0.281494140625,-1.6479490995407104,5.706786632537842,1.5258787870407104,80.0,929101.0,1.0
515382.6528955,283230.84375,312076.84375,318443.875,291904.5,296109.125,301542.46875,264927.8125,303900.21875,-0.0166015625,0.95361328125,-0.278076171875,-1.4953612089157104,5.676269054412842,1.6479490995407104,80.0,929102.0,1.0
515382.652931,279451.0,310698.21875,317614.71875,289680.21875,296072.90625,301620.09375,264912.96875,303469.125,-0.014404296875,0.951416015625,-0.277587890625,-1.4343260526657104,5.645751476287842,1.6784666776657104,80.0,929103.0,1.0
515382.65294,274399.25,309894.34375,318005.96875,291176.90625,299840.8125,303182.375,265500.75,304697.75,-0.013916015625,0.951171875,-0.278564453125,-1.2817381620407104,5.615233898162842,1.6479490995407104,80.0,929104.0,1.0
515382.652949,275036.09375,310744.15625,319056.9375,294227.65625,302142.3125,304052.03125,265872.21875,305852.25,-0.0126953125,0.95068359375,-0.279052734375,-1.1596678495407104,5.645751476287842,1.6479490995407104,80.0,929105.0,1.0
515382.6595731,280710.5625,312137.5625,319349.03125,294666.90625,299781.875,303015.09375,265500.125,305313.75,-0.013671875,0.9521484375,-0.2802734375,-0.9460448622703552,5.706786632537842,1.6784666776657104,80.0,929106.0,1.0
515382.6645397,283203.15625,312003.8125,318411.78125,291862.5625,296077.65625,301503.78125,264897.96875,303838.28125,-0.014892578125,0.9521484375,-0.27880859375,-0.7629393935203552,5.828856945037842,1.7700194120407104,80.0,929107.0,1.0
515382.6645754,279490.6875,310651.875,317592.46875,289634.1875,296021.96875,301586.5625,264890.28125,303420.75,-0.013427734375,0.95458984375,-0.27880859375,-0.5187987685203552,5.767821788787842,1.8005369901657104,80.0,929108.0,1.0
515382.667002,274427.03125,309851.34375,317986.3125,291117.34375,299795.125,303166.75,265488.40625,304666.71875,-0.01318359375,0.957763671875,-0.279052734375,-0.3967284858226776,5.828856945037842,1.7395018339157104,80.0,929109.0,1.0
515382.6696068,275019.09375,310712.15625,319050.96875,294192.15625,302147.21875,304064.84375,265874.8125,305853.15625,-0.015625,0.962158203125,-0.281494140625,-0.3356933295726776,5.950927257537842,1.6784666776657104,80.0,929110.0,1.0
515382.6696468,280724.59375,312165.625,319383.03125,294717.78125,299853.9375,303070.34375,265531.125,305378.03125,-0.0166015625,0.964599609375,-0.278564453125,-0.3356933295726776,5.950927257537842,1.7089842557907104,80.0,929111.0,1.0
515382.6746739,283257.9375,312052.28125,318449.4375,291933.5625,296137.65625,301544.4375,264907.0,303902.75,-0.01806640625,0.963134765625,-0.276123046875,-0.4882812201976776,5.950927257537842,1.6479490995407104,80.0,929112.0,1.0
515382.6807712,279560.34375,310683.1875,317610.71875,289665.5625,296031.25,301594.96875,264862.375,303452.3125,-0.0205078125,0.962890625,-0.277099609375,-0.5493163466453552,5.798339366912842,1.5563963651657104,80.0,929113.0,1.0
515382.6833265,274500.1875,309904.09375,318011.4375,291141.40625,299807.1875,303188.28125,265464.0,304709.0,-0.023681640625,0.962646484375,-0.281005859375,-0.7019042372703552,5.676269054412842,1.4953612089157104,80.0,929114.0,1.0
515382.6833683,275050.125,310777.25,319083.875,294241.15625,302191.65625,304100.9375,265842.09375,305913.21875,-0.026611328125,0.96044921875,-0.28173828125,-0.7019042372703552,5.584716320037842,1.3732908964157104,80.0,929115.0,1.0
515382.6869216,280706.71875,312202.3125,319402.25,294772.21875,299895.6875,303086.8125,265462.28125,305414.4375,-0.02734375,0.960205078125,-0.27880859375,-0.6408690810203552,5.462646007537842,1.3122557401657104,80.0,929116.0,1.0
515382.6944639,283254.8125,312079.28125,318464.1875,291993.71875,296159.09375,301552.0625,264831.09375,303922.9375,-0.025390625,0.96044921875,-0.28173828125,-0.5187987685203552,5.249022960662842,1.1291502714157104,80.0,929117.0,1.0
515382.7195225,279560.25,310688.46875,317604.71875,289683.4375,296007.125,301580.3125,264771.625,303433.78125,-0.021484375,0.9609375,-0.2822265625,-0.5493163466453552,5.096435070037842,1.0986326932907104,80.0,929118.0,1.0
515382.719563,274457.0,309877.34375,317984.4375,291107.34375,299758.53125,303160.03125,265360.625,304655.625,-0.0205078125,0.960693359375,-0.28271484375,-0.4272460639476776,4.974364757537842,1.0070799589157104,80.0,929119.0,1.0
515382.7233812,274998.875,310786.09375,319085.28125,294251.53125,302207.3125,304118.46875,265795.96875,305909.84375,-0.01953125,0.961669921875,-0.281982421875,-0.4577636420726776,4.882812023162842,0.9765624403953552,80.0,929120.0,1.0
515382.723418,280666.5,312237.625,319425.84375,294839.5625,299951.3125,303124.625,265460.875,305450.375,-0.02099609375,0.96044921875,-0.283935546875,-0.4577636420726776,4.760741710662842,0.9765624403953552,80.0,929121.0,1.0
515382.7234278,283259.8125,312132.5625,318491.09375,292086.875,296200.25,301577.625,264844.03125,303964.59375,-0.01708984375,0.958251953125,-0.28271484375,-0.3967284858226776,4.730224132537842,0.9155272841453552,80.0,929122.0,1.0
515382.7283142,279540.75,310667.1875,317575.21875,289678.0,295948.5625,301538.375,264735.25,303388.03125,-0.01318359375,0.95703125,-0.283935546875,-0.3051757514476776,4.608153820037842,0.9155272841453552,80.0,929123.0,1.0
515382.7331417,274380.71875,309763.8125,317910.5625,290989.40625,299637.125,303068.125,265265.6875,304528.84375,-0.010498046875,0.95751953125,-0.283935546875,-0.1220703050494194,4.608153820037842,1.0681151151657104,80.0,929124.0,1.0
515382.7358446,274888.65625,310645.375,319017.15625,294123.65625,302123.1875,304041.6875,265695.28125,305787.53125,-0.006103515625,0.957275390625,-0.283203125,0.0610351525247097,4.730224132537842,1.1596678495407104,80.0,929125.0,1.0
515382.7381503,280583.0625,312115.125,319385.96875,294757.9375,299921.34375,303082.59375,265384.15625,305366.0625,-0.006591796875,0.955810546875,-0.284912109375,0.2136230319738388,4.974364757537842,1.2512205839157104,80.0,929126.0,1.0
515382.7406386,283249.46875,312031.34375,318474.1875,292038.78125,296178.875,301545.6875,264779.59375,303903.8125,-0.00732421875,0.958984375,-0.28125,0.3051757514476776,5.157470226287842,1.4038084745407104,80.0,929127.0,1.0
515382.7431534,279655.75,310673.875,317620.625,289715.5625,295978.5,301562.6875,264736.125,303422.71875,-0.00830078125,0.96044921875,-0.28369140625,0.2441406100988388,5.310058116912842,1.4038084745407104,80.0,929128.0,1.0
515382.7457018,274549.625,309872.09375,317991.5625,291089.5625,299715.8125,303143.5,265315.03125,304643.375,-0.01025390625,0.962890625,-0.280029296875,0.2441406100988388,5.310058116912842,1.5869139432907104,80.0,929129.0,1.0
515382.7508103,274949.90625,310708.5625,319059.1875,294179.90625,302179.875,304091.28125,265706.03125,305862.28125,-0.011474609375,0.9638671875,-0.283203125,0.2441406100988388,5.462646007537842,1.6479490995407104,80.0,929130.0,1.0
515382.7508507,280584.21875,312152.21875,319411.71875,294808.53125,299973.84375,303117.03125,265369.40625,305417.1875,-0.01416015625,0.966064453125,-0.28173828125,0.2441406100988388,5.493163585662842,1.5869139432907104,80.0,929131.0,1.0
515382.7533261,283248.75,312062.90625,318485.09375,292076.34375,296208.09375,301560.09375,264753.125,303928.125,-0.0166015625,0.966552734375,-0.280517578125,0.1525878757238388,5.462646007537842,1.6784666776657104,80.0,929132.0,1.0
515382.7609108,279671.84375,310703.5625,317613.125,289706.25,295957.5,301555.34375,264706.1875,303413.78125,-0.019287109375,0.9658203125,-0.281982421875,0.03051757626235485,5.584716320037842,1.5258787870407104,80.0,929133.0,1.0
515382.7632608,274543.28125,309889.4375,317975.5,291044.40625,299677.1875,303134.71875,265308.4375,304625.40625,-0.0185546875,0.96533203125,-0.281494140625,-0.0610351525247097,5.584716320037842,1.4038084745407104,80.0,929134.0,1.0
515382.7632994,274904.65625,310728.4375,319054.4375,294160.875,302187.28125,304110.96875,265744.46875,305875.3125,-0.021484375,0.966552734375,-0.28466796875,-0.0610351525247097,5.462646007537842,1.4343260526657104,80.0,929135.0,1.0
515382.8086424,280540.15625,312184.25,319422.8125,294831.6875,300025.0625,303154.75,265436.625,305457.4375,-0.023681640625,0.96923828125,-0.28271484375,-0.2136230319738388,5.340575695037842,1.3122557401657104,80.0,929136.0,1.0
515382.8195207,283260.1875,312116.75,318510.5,292125.96875,296251.1875,301594.59375,264818.84375,303980.0625,-0.02490234375,0.9677734375,-0.28173828125,-0.3662109076976776,5.157470226287842,1.2817381620407104,80.0,929137.0,1.0
515382.8220457,279722.53125,310768.21875,317641.5625,289758.5625,295974.75,301576.8125,264757.78125,303465.09375,-0.0234375,0.966796875,-0.279541015625,-0.5798339247703552,4.974364757537842,1.3732908964157104,80.0,929138.0,1.0
515382.8220877,274552.84375,309924.21875,317976.75,291049.3125,299661.625,303130.53125,265335.25,304638.09375,-0.025390625,0.965087890625,-0.2783203125,-0.7324218153953552,4.791259288787842,1.2512205839157104,80.0,929139.0,1.0
515382.8295803,274843.84375,310741.125,319041.65625,294147.28125,302181.375,304105.0625,265760.71875,305870.3125,-0.02392578125,0.961181640625,-0.278076171875,-0.9460448622703552,4.638671398162842,1.2512205839157104,80.0,929140.0,1.0
515382.8344752,280462.46875,312197.90625,319415.46875,294846.6875,300035.71875,303151.90625,265442.28125,305457.4375,-0.02392578125,0.95849609375,-0.280029296875,-1.0070799589157104,4.547118663787842,1.2207030057907104,80.0,929141.0,1.0
515382.8368575,283197.875,312114.21875,318492.78125,292140.8125,296234.46875,301566.0,264804.15625,303956.75,-0.02392578125,0.95556640625,-0.2802734375,-1.0070799589157104,4.333495616912842,1.1901854276657104,80.0,929142.0,1.0
515382.8393735,279681.84375,310747.75,317608.5625,289732.34375,295909.9375,301527.8125,264735.59375,303408.21875,-0.021240234375,0.9521484375,-0.27783203125,-0.9460448622703552,4.089354991912842,1.3122557401657104,80.0,929143.0,1.0
515382.8444104,274501.78125,309893.375,317940.71875,290998.28125,299590.625,303087.0625,265320.0625,304572.03125,-0.0205078125,0.951416015625,-0.2822265625,-0.8544921278953552,4.028319835662842,1.2817381620407104,80.0,929144.0,1.0
515382.8493816,274763.65625,310716.625,319021.8125,294124.5625,302157.25,304088.875,265764.40625,305834.8125,-0.019287109375,0.95166015625,-0.28076171875,-0.7629393935203552,3.875732183456421,1.1596678495407104,80.0,929145.0,1.0
515382.8518604,280380.21875,312186.03125,319415.375,294870.84375,300052.5,303158.875,265462.21875,305452.53125,-0.016357421875,0.947998046875,-0.280517578125,-0.6408690810203552,3.875732183456421,1.1291502714157104,80.0,929146.0,1.0
515382.8543179,283161.375,312116.8125,318505.40625,292190.6875,296250.75,301576.28125,264832.34375,303962.625,-0.0146484375,0.95068359375,-0.2802734375,-0.4577636420726776,3.753661870956421,1.1596678495407104,80.0,929147.0,1.0
515382.8558542,279656.1875,310734.9375,317603.90625,289745.0625,295887.3125,301513.25,264752.5,303388.1875,-0.013671875,0.951904296875,-0.27880859375,-0.3356933295726776,3.601073980331421,1.1901854276657104,80.0,929148.0,1.0
515382.8630225,274440.09375,309849.5625,317917.0,290955.1875,299541.03125,303055.0625,265316.65625,304524.28125,-0.01171875,0.953125,-0.279052734375,-0.3662109076976776,3.570556402206421,1.2207030057907104,80.0,929149.0,1.0
515382.865508,274659.3125,310650.1875,319000.1875,294066.8125,302126.75,304061.34375,265750.1875,305789.125,-0.0107421875,0.953125,-0.28076171875,-0.1831054538488388,3.540038824081421,1.1901854276657104,80.0,929150.0,1.0
515382.8680072,280274.15625,312111.8125,319396.875,294822.03125,300042.0625,303131.78125,265440.3125,305411.3125,-0.0107421875,0.955322265625,-0.281494140625,-0.0915527269244194,3.509521245956421,1.1291502714157104,80.0,929151.0,1.0
515382.8730606,283120.0,312068.8125,318500.40625,292166.5625,296251.1875,301562.78125,264817.59375,303937.5,-0.010498046875,0.95654296875,-0.28125,0.03051757626235485,3.479003667831421,1.2207030057907104,80.0,929152.0,1.0
515382.8730673,279690.6875,310725.21875,317614.5625,289733.59375,295882.21875,301516.8125,264747.84375,303387.03125,-0.0126953125,0.95751953125,-0.28125,0.0,3.570556402206421,1.2207030057907104,80.0,929153.0,1.0
515382.875505,274510.625,309885.59375,317943.125,290959.03125,299550.5,303084.40625,265342.5625,304561.40625,-0.013671875,0.95751953125,-0.28173828125,-0.0610351525247097,3.540038824081421,1.2207030057907104,80.0,929154.0,1.0
515382.8781202,274679.53125,310683.625,319015.09375,294071.28125,302157.875,304096.3125,265788.53125,305830.53125,-0.013916015625,0.958984375,-0.279296875,-0.03051757626235485,3.631591558456421,1.1291502714157104,80.0,929155.0,1.0
515382.8806515,280273.28125,312147.40625,319420.5625,294852.4375,300101.5,303177.03125,265493.6875,305466.71875,-0.015625,0.959228515625,-0.28076171875,-0.1220703050494194,3.631591558456421,1.1291502714157104,80.0,929156.0,1.0
515382.8806574,283161.84375,312117.8125,318532.65625,292209.8125,296294.375,301600.875,264879.90625,303998.21875,-0.01611328125,0.96142578125,-0.2822265625,-0.1831054538488388,3.601073980331421,1.0681151151657104,80.0,929157.0,1.0
515382.8832605,279773.65625,310788.40625,317645.40625,289766.0625,295895.625,301545.78125,264815.78125,303441.84375,-0.019775390625,0.9619140625,-0.28125,-0.2136230319738388,3.601073980331421,0.9155272841453552,80.0,929158.0,1.0
515382.8855295,274568.65625,309930.28125,317956.53125,290959.1875,299539.84375,303092.96875,265393.8125,304591.625,-0.020751953125,0.96142578125,-0.2783203125,-0.3662109076976776,3.540038824081421,0.8544921278953552,80.0,929159.0,1.0
515382.8907526,274645.90625,310673.53125,319000.4375,294033.71875,302133.5625,304079.59375,265801.6875,305819.09375,-0.019775390625,0.962646484375,-0.279541015625,-0.4577636420726776,3.509521245956421,0.7934569716453552,80.0,929160.0,1.0
515382.8907659,280212.75,312113.53125,319404.3125,294824.0,300086.40625,303158.59375,265495.28125,305438.75,-0.01953125,0.96337890625,-0.279052734375,-0.5493163466453552,3.356933355331421,0.6103515028953552,80.0,929161.0,1.0
515382.8930212,283166.75,312114.0625,318534.09375,292221.0,296296.78125,301598.0,264894.90625,303982.84375,-0.018798828125,0.964599609375,-0.28173828125,-0.6103515028953552,3.326415777206421,0.6103515028953552,80.0,929162.0,1.0
515382.8957705,279826.5,310799.5,317642.71875,289773.5625,295871.75,301529.15625,264818.65625,303419.84375,-0.01953125,0.9638671875,-0.281494140625,-0.7629393935203552,3.326415777206421,0.5187987685203552,80.0,929163.0,1.0
515382.8982627,274599.96875,309933.9375,317942.03125,290945.34375,299504.53125,303073.5,265386.65625,304563.625,-0.019287109375,0.962646484375,-0.281494140625,-0.7934569716453552,3.265380620956421,0.4882812201976776,80.0,929164.0,1.0
515382.898277,274616.9375,310677.375,318990.15625,294038.03125,302138.8125,304080.65625,265807.84375,305813.8125,-0.019775390625,0.962890625,-0.28076171875,-0.9155272841453552,3.234863042831421,0.3967284858226776,80.0,929165.0,1.0
515382.9007439,280150.59375,312114.15625,319399.125,294858.5,300118.0625,303168.15625,265504.21875,305444.8125,-0.018798828125,0.96142578125,-0.281494140625,-1.0681151151657104,3.173827886581421,0.3662109076976776,80.0,929166.0,1.0
515382.9057599,283149.6875,312148.46875,318548.125,292302.4375,296330.0625,301606.9375,264908.40625,304012.4375,-0.01708984375,0.9599609375,-0.279296875,-1.0375975370407104,3.173827886581421,0.4577636420726776,80.0,929167.0,1.0
515382.9057742,279817.5625,310828.46875,317641.46875,289830.53125,295859.25,301512.8125,264817.3125,303428.34375,-0.019287109375,0.9580078125,-0.28125,-1.1901854276657104,3.204345464706421,0.3662109076976776,80.0,929168.0,1.0
515382.9082815,274566.59375,309945.5,317927.46875,290958.125,299468.15625,303051.9375,265388.71875,304550.40625,-0.019775390625,0.9541015625,-0.28125,-1.2817381620407104,3.173827886581421,0.3967284858226776,80.0,929169.0,1.0
515382.9106041,274527.0,310647.96875,318967.1875,294021.84375,302107.4375,304064.125,265810.625,305783.15625,-0.01611328125,0.95654296875,-0.27880859375,-1.1596678495407104,3.204345464706421,0.3662109076976776,80.0,929170.0,1.0
515382.9132185,280075.15625,312106.0,319398.5,294880.21875,300129.75,303177.90625,265526.3125,305441.875,-0.015625,0.955078125,-0.28125,-1.0986326932907104,3.143310308456421,0.3967284858226776,80.0,929171.0,1.0
515382.9157217,283107.46875,312148.90625,318554.84375,292335.15625,296340.25,301617.3125,264928.1875,304008.59375,-0.014892578125,0.954833984375,-0.281982421875,-1.0070799589157104,3.051757574081421,0.4882812201976776,80.0,929172.0,1.0
515382.9194707,279830.25,310850.71875,317657.375,289861.375,295853.34375,301526.3125,264847.25,303431.75,-0.014404296875,0.954345703125,-0.281005859375,-0.7629393935203552,3.173827886581421,0.4577636420726776,80.0,929173.0,1.0
515382.9194887,274575.90625,309968.65625,317938.28125,290964.46875,299451.0625,303065.71875,265407.40625,304556.5625,-0.014892578125,0.955810546875,-0.280029296875,-0.7324218153953552,3.112792730331421,0.3967284858226776,80.0,929174.0,1.0
515382.9444216,274463.0625,310637.9375,318954.5,293991.4375,302093.75,304065.53125,265796.6875,305772.15625,-0.015625,0.95703125,-0.280029296875,-0.7019042372703552,2.990722417831421,0.5187987685203552,80.0,929175.0,1.0
515382.9469167,279978.9375,312063.53125,319376.21875,294839.90625,300125.75,303166.375,265489.46875,305415.21875,-0.01708984375,0.958984375,-0.279296875,-0.6713866591453552,3.051757574081421,0.4882812201976776,80.0,929176.0,1.0
515382.946946,283056.34375,312101.8125,318533.03125,292294.3125,296322.375,301594.25,264884.1875,303972.03125,-0.015869140625,0.9599609375,-0.275390625,-0.7019042372703552,3.082275152206421,0.6713866591453552,80.0,929177.0,1.0
515382.9495456,279836.78125,310813.8125,317639.6875,289804.59375,295815.59375,301499.03125,264810.15625,303391.6875,-0.014892578125,0.959228515625,-0.277099609375,-0.7019042372703552,3.173827886581421,0.7324218153953552,80.0,929178.0,1.0
515382.9520628,274586.09375,309932.78125,317912.8125,290881.5,299402.875,303033.15625,265374.9375,304508.90625,-0.014892578125,0.95849609375,-0.280029296875,-0.7324218153953552,3.234863042831421,0.7019042372703552,80.0,929179.0,1.0
515382.9545386,274478.375,310647.34375,318962.34375,293966.84375,302113.78125,304077.96875,265811.96875,305781.8125,-0.01513671875,0.958984375,-0.275390625,-0.6408690810203552,3.356933355331421,0.7629393935203552,80.0,929180.0,1.0
515382.9570281,279990.65625,312100.5625,319402.78125,294869.3125,300191.1875,303199.0,265517.375,305458.78125,-0.01513671875,0.961181640625,-0.277587890625,-0.6103515028953552,3.356933355331421,0.7629393935203552,80.0,929181.0,1.0
515382.9594516,283068.0625,312118.6875,318543.125,292313.8125,296354.65625,301599.0625,264881.25,303986.0625,-0.0166015625,0.9638671875,-0.27783203125,-0.6713866591453552,3.417968511581421,0.8544921278953552,80.0,929182.0,1.0
515382.9620828,279856.625,310806.65625,317632.4375,289787.25,295792.8125,301478.46875,264789.3125,303373.71875,-0.01806640625,0.96337890625,-0.27783203125,-0.6103515028953552,3.417968511581421,0.8544921278953552,80.0,929183.0,1.0
515382.9646099,274612.65625,309934.125,317918.34375,290865.40625,299387.5,303035.65625,265381.8125,304511.5,-0.019775390625,0.96337890625,-0.2802734375,-0.7019042372703552,3.356933355331421,0.9155272841453552,80.0,929184.0,1.0
515382.9646479,274485.0625,310676.375,318985.59375,293995.5625,302153.84375,304111.59375,265837.90625,305829.0,-0.02197265625,0.961669921875,-0.2802734375,-0.7324218153953552,3.356933355331421,0.9460448622703552,80.0,929185.0,1.0
515382.994582,279995.84375,312144.71875,319435.84375,294943.1875,300258.25,303241.46875,265543.9375,305529.6875,-0.02294921875,0.96240234375,-0.280029296875,-0.7019042372703552,3.356933355331421,0.8850097060203552,80.0,929186.0,1.0
515383.0220773,283096.03125,312146.6875,318560.65625,292376.75,296379.9375,301608.46875,264882.3125,304027.71875,-0.02294921875,0.9638671875,-0.278076171875,-0.7934569716453552,3.356933355331421,0.8239745497703552,80.0,929187.0,1.0
515383.0221175,279869.96875,310783.6875,317611.5,289775.28125,295744.78125,301439.03125,264754.46875,303348.15625,-0.022216796875,0.962158203125,-0.281005859375,-0.7629393935203552,3.387450933456421,0.8850097060203552,80.0,929188.0,1.0
515383.0245352,274592.0,309888.4375,317879.46875,290807.46875,299315.53125,302980.59375,265336.9375,304457.96875,-0.021484375,0.960693359375,-0.279541015625,-0.9155272841453552,3.326415777206421,0.7934569716453552,80.0,929189.0,1.0
515383.0245705,274441.25,310639.71875,318962.0,293951.375,302118.71875,304087.53125,265831.28125,305793.0625,-0.0234375,0.960693359375,-0.28173828125,-0.9155272841453552,3.112792730331421,0.7019042372703552,80.0,929190.0,1.0
515383.0269193,279962.125,312134.34375,319437.5625,294947.90625,300276.125,303252.65625,265574.15625,305525.46875,-0.02197265625,0.96044921875,-0.282958984375,-0.9155272841453552,3.021239995956421,0.7324218153953552,80.0,929191.0,1.0
515383.0294382,283136.1875,312195.59375,318591.9375,292444.15625,296428.65625,301643.15625,264926.84375,304063.125,-0.020263671875,0.95751953125,-0.280517578125,-0.7934569716453552,2.929687261581421,0.8239745497703552,80.0,929192.0,1.0
515383.0320476,279983.5,310896.40625,317660.3125,289881.03125,295787.25,301480.4375,264801.21875,303420.375,-0.020751953125,0.95654296875,-0.280029296875,-0.7934569716453552,2.838134527206421,0.8850097060203552,80.0,929193.0,1.0
515383.0344446,274658.34375,309975.625,317901.90625,290863.53125,299316.15625,302998.84375,265353.03125,304496.5,-0.020263671875,0.95556640625,-0.278564453125,-0.7324218153953552,2.777099370956421,0.8544921278953552,80.0,929194.0,1.0
515383.036897,274369.65625,310633.5625,318939.125,293931.8125,302088.125,304069.40625,265788.53125,305765.09375,-0.018310546875,0.95556640625,-0.279296875,-0.6713866591453552,2.655029058456421,0.8850097060203552,80.0,929195.0,1.0
515383.0395688,279810.40625,312046.46875,319384.4375,294880.21875,300222.03125,303201.59375,265491.8125,305441.96875,-0.016357421875,0.9541015625,-0.27978515625,-0.5187987685203552,2.685546636581421,0.7629393935203552,80.0,929196.0,1.0
515383.041894,283042.75,312119.0625,318560.65625,292401.96875,296386.125,301606.75,264878.65625,303996.625,-0.0146484375,0.952392578125,-0.27685546875,-0.3967284858226776,2.807616949081421,0.9155272841453552,80.0,929197.0,1.0
515383.0470281,279970.90625,310849.375,317644.5,289849.5625,295733.0,301447.8125,264779.9375,303368.96875,-0.013916015625,0.9541015625,-0.27685546875,-0.2746581733226776,2.899169683456421,1.0070799589157104,80.0,929198.0,1.0
515383.0495611,274641.0,309908.125,317874.0,290792.71875,299239.28125,302951.4375,265329.0625,304430.875,-0.011962890625,0.954345703125,-0.277587890625,-0.1220703050494194,2.868652105331421,1.0986326932907104,80.0,929199.0,1.0
515383.054544,274330.9375,310577.40625,318925.34375,293882.71875,302061.125,304052.03125,265791.3125,305733.25,-0.011474609375,0.957763671875,-0.27978515625,-0.0610351525247097,2.777099370956421,1.0986326932907104,80.0,929200.0,1.0
515383.0570307,279812.65625,312068.0,319417.875,294923.875,300282.125,303238.625,265531.3125,305485.0625,-0.011962890625,0.95703125,-0.279541015625,0.0915527269244194,2.899169683456421,1.0681151151657104,80.0,929201.0,1.0
515383.0596273,283089.15625,312167.25,318601.875,292472.6875,296440.21875,301634.9375,264907.78125,304044.8125,-0.012451171875,0.96044921875,-0.2802734375,0.0,3.082275152206421,1.1596678495407104,80.0,929202.0,1.0
515383.0596676,280010.34375,310861.46875,317660.25,289871.65625,295735.84375,301444.3125,264780.65625,303376.125,-0.014892578125,0.96142578125,-0.279541015625,0.0610351525247097,3.143310308456421,1.1291502714157104,80.0,929203.0,1.0
515383.0619303,274685.4375,309929.84375,317888.65625,290803.90625,299241.40625,302951.96875,265328.0,304443.5625,-0.01513671875,0.9619140625,-0.282470703125,0.0915527269244194,3.204345464706421,1.1596678495407104,80.0,929204.0,1.0
515383.0646024,274335.84375,310603.0,318941.0,293893.96875,302090.46875,304067.15625,265790.3125,305760.25,-0.015380859375,0.962890625,-0.280517578125,0.1831054538488388,3.326415777206421,1.0986326932907104,80.0,929205.0,1.0
515383.0646445,279801.03125,312087.21875,319437.1875,294947.1875,300329.9375,303260.34375,265534.53125,305522.78125,-0.0166015625,0.962646484375,-0.281005859375,0.0610351525247097,3.234863042831421,1.1901854276657104,80.0,929206.0,1.0
515383.0661185,283125.1875,312199.53125,318627.8125,292512.65625,296484.90625,301657.5625,264909.65625,304088.4375,-0.0185546875,0.965087890625,-0.2802734375,0.0,3.204345464706421,1.1291502714157104,80.0,929207.0,1.0
515383.0758033,280089.28125,310900.1875,317677.5,289890.15625,295743.1875,301450.84375,264773.21875,303404.28125,-0.01806640625,0.9658203125,-0.27685546875,-0.1831054538488388,3.112792730331421,1.0681151151657104,80.0,929208.0,1.0
515383.0758446,274755.34375,309960.5,317895.71875,290791.28125,299228.09375,302954.75,265324.4375,304459.5625,-0.019287109375,0.965087890625,-0.275634765625,-0.2746581733226776,3.112792730331421,1.0070799589157104,80.0,929209.0,1.0
515383.0783175,274339.59375,310605.03125,318932.21875,293872.78125,302086.625,304062.96875,265775.75,305768.03125,-0.019287109375,0.962890625,-0.277099609375,-0.3051757514476776,3.143310308456421,0.9460448622703552,80.0,929210.0,1.0
515383.0806633,279755.6875,312065.3125,319414.59375,294930.9375,300336.125,303251.3125,265505.03125,305518.5,-0.017578125,0.9638671875,-0.279052734375,-0.2746581733226776,3.112792730331421,0.8544921278953552,80.0,929211.0,1.0
515383.0831982,283084.5,312154.90625,318594.28125,292484.5625,296460.59375,301626.625,264865.59375,304056.0625,-0.016845703125,0.9638671875,-0.280029296875,-0.4882812201976776,3.173827886581421,0.7629393935203552,80.0,929212.0,1.0
515383.0832334,280102.59375,310873.0,317656.3125,289861.375,295698.65625,301421.6875,264739.78125,303375.25,-0.01611328125,0.963134765625,-0.281494140625,-0.5187987685203552,3.143310308456421,0.8544921278953552,80.0,929213.0,1.0
515383.0858211,274785.75,309956.9375,317886.0625,290766.34375,299190.53125,302942.0625,265311.46875,304449.375,-0.015869140625,0.9638671875,-0.2802734375,-0.5187987685203552,3.173827886581421,0.8544921278953552,80.0,929214.0,1.0
515383.0907069,274338.53125,310622.21875,318939.125,293877.96875,302092.15625,304081.1875,265800.0625,305787.15625,-0.015869140625,0.962890625,-0.278564453125,-0.5187987685203552,3.204345464706421,1.0681151151657104,80.0,929215.0,1.0
515383.0907463,279735.59375,312088.3125,319437.75,294981.4375,300376.71875,303286.1875,265552.875,305559.28125,-0.017822265625,0.9619140625,-0.276123046875,-0.6103515028953552,3.112792730331421,1.0375975370407104,80.0,929216.0,1.0
515383.093252,283114.28125,312208.8125,318635.21875,292579.6875,296512.34375,301675.78125,264933.1875,304118.9375,-0.017333984375,0.959716796875,-0.27783203125,-0.6713866591453552,3.173827886581421,1.0986326932907104,80.0,929217.0,1.0
515383.0970424,280166.0625,310941.03125,317692.34375,289953.0,295719.75,301456.84375,264808.625,303432.0,-0.013916015625,0.958251953125,-0.278564453125,-0.7019042372703552,3.173827886581421,1.0375975370407104,80.0,929218.0,1.0
515383.1058222,274793.625,309982.40625,317885.09375,290797.1875,299161.65625,302937.0625,265336.125,304457.78125,-0.0126953125,0.954345703125,-0.2802734375,-0.7324218153953552,3.112792730331421,1.1291502714157104,80.0,929219.0,1.0
515383.105869,274219.625,310544.78125,318885.125,293821.125,302023.75,304028.25,265754.03125,305718.15625,-0.013427734375,0.95166015625,-0.278564453125,-0.7019042372703552,3.143310308456421,1.1596678495407104,80.0,929220.0,1.0
515383.10836,279588.0625,311985.125,319381.5,294915.09375,300326.0,303230.125,265489.75,305475.9375,-0.012939453125,0.947998046875,-0.276611328125,-0.6103515028953552,3.143310308456421,1.1291502714157104,80.0,929221.0,1.0
515383.1206596,283020.125,312134.34375,318601.875,292545.53125,296474.8125,301628.40625,264876.78125,304055.1875,-0.012939453125,0.946044921875,-0.28076171875,-0.3967284858226776,3.143310308456421,1.1901854276657104,80.0,929222.0,1.0
515383.1231968,280106.625,310871.90625,317657.375,289905.0,295655.3125,301404.25,264747.21875,303363.0625,-0.011962890625,0.947998046875,-0.28173828125,-0.2136230319738388,3.143310308456421,1.2207030057907104,80.0,929223.0,1.0
515383.1232319,274769.1875,309936.375,317863.09375,290747.3125,299111.3125,302908.25,265300.375,304413.59375,-0.01416015625,0.94921875,-0.281005859375,0.0610351525247097,3.234863042831421,1.1901854276657104,80.0,929224.0,1.0
515383.1281443,274224.28125,310570.71875,318910.15625,293838.09375,302057.65625,304065.46875,265774.6875,305755.15625,-0.0146484375,0.95068359375,-0.280517578125,0.3051757514476776,3.265380620956421,1.1901854276657104,80.0,929225.0,1.0
515383.1307733,279583.15625,312033.59375,319420.75,294967.59375,300393.6875,303285.8125,265513.53125,305539.25,-0.015380859375,0.95458984375,-0.281494140625,0.3356933295726776,3.265380620956421,1.0986326932907104,80.0,929226.0,1.0
515383.1345549,283035.78125,312171.53125,318628.5,292581.5,296519.0625,301661.3125,264872.9375,304091.75,-0.0146484375,0.957275390625,-0.28125,0.4577636420726776,3.204345464706421,0.9765624403953552,80.0,929227.0,1.0
515383.1920798,280170.09375,310901.5,317673.75,289909.125,295663.625,301418.5625,264726.125,303377.375,-0.0146484375,0.96044921875,-0.27880859375,0.3356933295726776,3.295898199081421,0.9155272841453552,80.0,929228.0,1.0
515383.192121,274823.03125,309968.03125,317875.34375,290726.125,299105.78125,302925.4375,265278.84375,304422.1875,-0.015869140625,0.962646484375,-0.279296875,0.3356933295726776,3.234863042831421,0.9460448622703552,80.0,929229.0,1.0
515383.1945196,274222.75,310609.5,318925.96875,293832.28125,302084.65625,304100.3125,265763.3125,305783.84375,-0.013916015625,0.961181640625,-0.27783203125,0.3051757514476776,3.143310308456421,0.8850097060203552,80.0,929230.0,1.0
515383.1945517,279552.3125,312078.65625,319442.03125,294995.03125,300452.0625,303331.875,265509.3125,305585.5625,-0.012451171875,0.95947265625,-0.276123046875,0.2136230319738388,3.143310308456421,0.8850097060203552,80.0,929231.0,1.0
515383.1994809,282990.8125,312200.59375,318636.28125,292605.625,296553.65625,301683.375,264855.03125,304120.625,-0.0126953125,0.960205078125,-0.279541015625,0.1831054538488388,3.234863042831421,0.8239745497703552,80.0,929232.0,1.0
515383.201894,280105.1875,310895.15625,317651.75,289878.96875,295630.0,301392.1875,264682.125,303356.46875,-0.012939453125,0.958740234375,-0.27978515625,0.1831054538488388,3.326415777206421,0.9460448622703552,80.0,929233.0,1.0
515383.2045478,274722.8125,309909.71875,317826.34375,290635.625,299023.96875,302866.96875,265215.875,304351.28125,-0.014892578125,0.959716796875,-0.281005859375,0.0,3.387450933456421,0.9765624403953552,80.0,929234.0,1.0
515383.2070373,274103.125,310545.40625,318885.46875,293753.875,302032.53125,304059.1875,265724.78125,305725.65625,-0.014892578125,0.9580078125,-0.28125,0.0,3.479003667831421,0.9460448622703552,80.0,929235.0,1.0
515383.2094627,279461.90625,312048.15625,319430.9375,294984.75,300458.0625,303322.84375,265514.875,305573.65625,-0.01708984375,0.958984375,-0.282958984375,-0.0610351525247097,3.479003667831421,0.9460448622703552,80.0,929236.0,1.0
515383.2119094,282995.1875,312221.0625,318658.65625,292663.375,296584.40625,301698.3125,264893.3125,304147.25,-0.01806640625,0.958740234375,-0.2822265625,-0.1220703050494194,3.448486089706421,0.9155272841453552,80.0,929237.0,1.0
515383.2144945,280202.5625,310968.3125,317696.90625,289975.90625,295661.125,301426.0625,264744.8125,303414.75,-0.019287109375,0.958984375,-0.279541015625,-0.1831054538488388,3.265380620956421,0.8544921278953552,80.0,929238.0,1.0
515383.2169145,274841.96875,310006.90625,317876.40625,290733.4375,299058.5625,302907.625,265290.28125,304424.78125,-0.01806640625,0.961669921875,-0.280029296875,-0.2136230319738388,3.143310308456421,0.8239745497703552,80.0,929239.0,1.0
515383.219558,274138.34375,310590.375,318904.78125,293812.0,302061.59375,304077.09375,265763.875,305763.65625,-0.017578125,0.961669921875,-0.281494140625,-0.3356933295726776,3.082275152206421,0.7629393935203552,80.0,929240.0,1.0
515383.2219011,279408.53125,312010.78125,319413.25,294984.21875,300459.21875,303305.3125,265496.96875,305548.4375,-0.017822265625,0.958984375,-0.2802734375,-0.3967284858226776,2.929687261581421,0.7324218153953552,80.0,929241.0,1.0
515383.2244496,282963.0,312161.09375,318636.8125,292647.375,296566.1875,301665.9375,264856.84375,304098.0,-0.0146484375,0.9580078125,-0.28173828125,-0.4272460639476776,2.868652105331421,0.8239745497703552,80.0,929242.0,1.0
515383.2320137,280240.90625,310920.65625,317680.71875,289949.875,295627.0625,301391.46875,264715.84375,303364.96875,-0.01513671875,0.95703125,-0.281494140625,-0.3662109076976776,2.716064214706421,0.7629393935203552,80.0,929243.0,1.0
515383.2345488,274910.71875,309982.3125,317869.0,290700.90625,299029.96875,302885.28125,265277.75,304391.0,-0.013671875,0.955810546875,-0.28076171875,-0.2746581733226776,2.716064214706421,0.7629393935203552,80.0,929244.0,1.0
515383.2469861,274176.53125,310575.53125,318909.34375,293798.40625,302075.875,304084.40625,265773.78125,305764.28125,-0.012451171875,0.956787109375,-0.28125,-0.2136230319738388,2.746581792831421,0.7629393935203552,80.0,929245.0,1.0
515383.2470249,279453.40625,312031.53125,319442.75,295030.25,300530.65625,303344.9375,265533.5625,305597.4375,-0.013427734375,0.9599609375,-0.283203125,-0.1831054538488388,2.777099370956421,0.7324218153953552,80.0,929246.0,1.0
515383.250999,283050.96875,312200.78125,318662.9375,292713.90625,296626.78125,301694.03125,264885.34375,304148.15625,-0.01513671875,0.9619140625,-0.282470703125,-0.1831054538488388,2.716064214706421,0.5798339247703552,80.0,929247.0,1.0
515383.251036,280276.6875,310868.34375,317640.03125,289907.15625,295574.84375,301336.21875,264674.09375,303311.40625,-0.0146484375,0.96337890625,-0.28173828125,-0.2441406100988388,2.624511480331421,0.6103515028953552,80.0,929248.0,1.0
515383.2510462,274909.3125,309884.40625,317806.59375,290595.40625,298940.5625,302811.53125,265221.0625,304296.84375,-0.0166015625,0.962158203125,-0.283203125,-0.2441406100988388,2.655029058456421,0.6713866591453552,80.0,929249.0,1.0
515383.2582945,274164.28125,310512.15625,318875.28125,293727.78125,302044.21875,304056.53125,265758.84375,305714.75,-0.014892578125,0.961669921875,-0.28369140625,-0.2441406100988388,2.624511480331421,0.6713866591453552,80.0,929250.0,1.0
515383.2606823,279447.59375,312003.46875,319433.8125,295013.4375,300548.8125,303349.65625,265546.96875,305587.0625,-0.014892578125,0.96337890625,-0.28466796875,-0.2136230319738388,2.624511480331421,0.6408690810203552,80.0,929251.0,1.0
515383.2657028,283088.96875,312202.21875,318670.09375,292734.8125,296657.8125,301709.75,264910.46875,304159.6875,-0.015869140625,0.963134765625,-0.2841796875,-0.1831054538488388,2.685546636581421,0.5798339247703552,80.0,929252.0,1.0
515383.2657418,280420.53125,310955.78125,317683.84375,289988.0625,295632.59375,301391.375,264742.125,303384.53125,-0.013916015625,0.966552734375,-0.28076171875,-0.2136230319738388,2.624511480331421,0.5798339247703552,80.0,929253.0,1.0
515383.2683741,275047.53125,309973.125,317834.125,290645.90625,298970.78125,302854.625,265280.25,304359.15625,-0.014404296875,0.96728515625,-0.27978515625,-0.2136230319738388,2.563476324081421,0.5187987685203552,80.0,929254.0,1.0
515383.2732911,274215.3125,310536.28125,318871.6875,293722.5,302050.59375,304070.28125,265782.71875,305728.53125,-0.013427734375,0.968017578125,-0.278076171875,-0.2746581733226776,2.685546636581421,0.4882812201976776,80.0,929255.0,1.0
515383.2733305,279443.59375,311993.1875,319420.40625,294997.8125,300565.96875,303353.96875,265551.6875,305584.5625,-0.01318359375,0.96923828125,-0.279052734375,-0.3051757514476776,2.716064214706421,0.5493163466453552,80.0,929256.0,1.0
515383.275676,283101.65625,312189.59375,318664.375,292730.09375,296670.0625,301705.90625,264908.96875,304154.40625,-0.012451171875,0.9677734375,-0.27783203125,-0.4577636420726776,2.777099370956421,0.4577636420726776,80.0,929257.0,1.0
515383.2798569,280456.1875,310945.9375,317677.21875,289972.59375,295613.53125,301376.28125,264737.75,303371.21875,-0.012451171875,0.965087890625,-0.280517578125,-0.4882812201976776,2.807616949081421,0.4272460639476776,80.0,929258.0,1.0
515383.289568,275065.40625,309955.78125,317820.4375,290605.3125,298932.78125,302837.1875,265271.3125,304334.3125,-0.013916015625,0.96337890625,-0.2802734375,-0.6103515028953552,2.868652105331421,0.5187987685203552,80.0,929259.0,1.0
515383.2919214,274175.0,310517.0625,318858.90625,293684.78125,302044.0625,304068.125,265783.625,305716.4375,-0.01220703125,0.964111328125,-0.28125,-0.7324218153953552,2.929687261581421,0.4882812201976776,80.0,929260.0,1.0
515383.2970188,279406.03125,312005.875,319435.6875,295013.1875,300609.34375,303383.28125,265586.5625,305615.9375,-0.011474609375,0.962158203125,-0.280029296875,-0.7019042372703552,2.899169683456421,0.5493163466453552,80.0,929261.0,1.0
515383.3020354,283107.46875,312226.625,318688.5,292773.8125,296709.59375,301734.71875,264946.5,304195.09375,-0.012451171875,0.95947265625,-0.279296875,-0.7019042372703552,2.990722417831421,0.5798339247703552,80.0,929262.0,1.0
515383.3045655,280495.0,310978.84375,317684.09375,289992.0,295605.78125,301374.40625,264746.59375,303385.4375,-0.013427734375,0.958740234375,-0.27734375,-0.7324218153953552,3.021239995956421,0.6713866591453552,80.0,929263.0,1.0
515383.3069909,275096.34375,309977.75,317813.75,290592.53125,298901.75,302821.4375,265271.78125,304334.21875,-0.01513671875,0.96044921875,-0.276611328125,-0.8544921278953552,2.960204839706421,0.6713866591453552,80.0,929264.0,1.0
515383.30703,274158.71875,310526.28125,318851.59375,293666.96875,302030.71875,304062.0625,265788.28125,305715.8125,-0.015380859375,0.959716796875,-0.275390625,-0.8239745497703552,2.899169683456421,0.7324218153953552,80.0,929265.0,1.0
515383.3094676,279350.25,311997.1875,319427.53125,295009.4375,300616.59375,303379.4375,265582.375,305612.09375,-0.016357421875,0.959716796875,-0.2763671875,-0.9155272841453552,2.716064214706421,0.8544921278953552,80.0,929266.0,1.0
515383.3120251,283093.4375,312247.1875,318698.875,292806.78125,296729.53125,301742.9375,264955.90625,304209.3125,-0.015380859375,0.95703125,-0.2763671875,-0.6408690810203552,2.685546636581421,0.8544921278953552,80.0,929267.0,1.0
515383.3168938,280530.3125,311030.15625,317708.5,290037.59375,295616.40625,301390.75,264777.96875,303413.15625,-0.01611328125,0.955078125,-0.278076171875,-0.5493163466453552,2.685546636581421,0.8544921278953552,80.0,929268.0,1.0
515383.3195315,275111.4375,310025.40625,317831.71875,290614.4375,298898.53125,302836.65625,265299.21875,304351.28125,-0.017333984375,0.954833984375,-0.2822265625,-0.5187987685203552,2.624511480331421,0.8544921278953552,80.0,929269.0,1.0
515383.3220147,274084.0,310538.25,318849.4375,293667.875,302038.96875,304073.6875,265796.75,305721.625,-0.016357421875,0.95361328125,-0.281005859375,-0.4577636420726776,2.593993902206421,0.8850097060203552,80.0,929270.0,1.0
515383.3244442,279223.09375,311971.625,319406.25,294995.375,300626.96875,303376.5625,265567.625,305594.21875,-0.017578125,0.9541015625,-0.27587890625,-0.3356933295726776,2.502441167831421,0.8544921278953552,80.0,929271.0,1.0
515383.3294956,282987.21875,312202.75,318674.75,292784.0,296721.46875,301721.21875,264930.21875,304173.0,-0.013427734375,0.9541015625,-0.275634765625,-0.1831054538488388,2.410888433456421,0.9460448622703552,80.0,929272.0,1.0
515383.3295356,280459.875,310986.71875,317686.6875,289998.0625,295580.90625,301360.09375,264749.0,303368.09375,-0.011962890625,0.953125,-0.277099609375,-0.0610351525247097,2.319335699081421,0.9460448622703552,80.0,929273.0,1.0
515383.3320693,275039.03125,309962.90625,317793.90625,290538.0,298835.15625,302794.625,265261.84375,304287.53125,-0.01171875,0.95166015625,-0.276611328125,0.0,2.258300542831421,1.0375975370407104,80.0,929274.0,1.0
515383.3344527,273980.53125,310475.40625,318818.78125,293599.46875,302003.03125,304050.4375,265775.3125,305674.25,-0.010986328125,0.951904296875,-0.278076171875,0.1831054538488388,2.349853277206421,1.0375975370407104,80.0,929275.0,1.0
515383.3368916,279112.78125,311949.625,319413.0625,294989.75,300656.5625,303395.53125,265585.75,305600.75,-0.010498046875,0.953125,-0.278564453125,0.2746581733226776,2.319335699081421,1.0070799589157104,80.0,929276.0,1.0
515383.3396231,282904.625,312200.0625,318690.375,292804.03125,296755.71875,301742.125,264954.71875,304188.125,-0.011474609375,0.956787109375,-0.27734375,0.3967284858226776,2.380370855331421,1.0375975370407104,80.0,929277.0,1.0
515383.3396653,280401.5625,310964.71875,317683.125,289982.4375,295562.9375,301348.125,264747.125,303349.75,-0.011962890625,0.956787109375,-0.278564453125,0.4882812201976776,2.410888433456421,0.9460448622703552,80.0,929278.0,1.0
515383.341967,275025.71875,309980.09375,317812.59375,290537.28125,298829.0625,302803.9375,265284.71875,304303.0,-0.013427734375,0.958984375,-0.27880859375,0.5187987685203552,2.349853277206421,0.9155272841453552,80.0,929279.0,1.0
515383.3470479,273954.96875,310515.1875,318851.125,293626.9375,302040.75,304085.75,265811.25,305722.625,-0.012939453125,0.962158203125,-0.277587890625,0.5187987685203552,2.319335699081421,0.9155272841453552,80.0,929280.0,1.0
515383.3533318,279054.03125,311983.53125,319437.28125,295029.53125,300706.34375,303422.875,265594.78125,305647.875,-0.014892578125,0.959716796875,-0.275634765625,0.4882812201976776,2.349853277206421,0.8239745497703552,80.0,929281.0,1.0
515383.3533715,282848.5625,312212.84375,318697.71875,292826.90625,296770.65625,301740.96875,264927.09375,304206.4375,-0.014404296875,0.9599609375,-0.278076171875,0.3967284858226776,2.349853277206421,0.9155272841453552,80.0,929282.0,1.0
515383.3558658,280381.28125,310970.71875,317683.84375,289982.0625,295536.46875,301328.25,264712.4375,303346.4375,-0.015625,0.959228515625,-0.28173828125,0.3356933295726776,2.258300542831421,0.8239745497703552,80.0,929283.0,1.0
515383.3694552,275026.53125,309991.96875,317810.15625,290522.625,298791.34375,302781.5625,265247.1875,304291.9375,-0.015869140625,0.95947265625,-0.27978515625,0.3967284858226776,2.197265386581421,0.8544921278953552,80.0,929284.0,1.0
515383.3720396,273935.40625,310527.34375,318846.125,293614.125,302032.15625,304078.96875,265783.25,305722.78125,-0.015869140625,0.9619140625,-0.282470703125,0.3967284858226776,2.166747808456421,0.7934569716453552,80.0,929285.0,1.0
515383.372081,279033.03125,311992.0,319438.28125,295039.28125,300738.96875,303437.0,265588.53125,305665.84375,-0.015625,0.96240234375,-0.279296875,0.3356933295726776,2.075195074081421,0.7019042372703552,80.0,929286.0,1.0
515383.3794772,282918.84375,312257.375,318719.25,292883.40625,296819.46875,301767.96875,264941.78125,304248.90625,-0.014892578125,0.9619140625,-0.282958984375,0.3356933295726776,2.044677495956421,0.6103515028953552,80.0,929287.0,1.0
515383.3820168,280518.34375,311025.6875,317699.9375,290031.875,295551.5,301336.5,264714.3125,303377.90625,-0.0126953125,0.961181640625,-0.2822265625,0.2136230319738388,2.105712652206421,0.6408690810203552,80.0,929288.0,1.0
515383.3869661,275126.28125,309998.875,317792.75,290505.0,298752.625,302753.3125,265222.875,304273.25,-0.011962890625,0.958984375,-0.283203125,0.2136230319738388,2.044677495956421,0.6713866591453552,80.0,929289.0,1.0
515383.3870052,273941.46875,310471.90625,318809.03125,293552.90625,301986.65625,304040.4375,265742.84375,305667.625,-0.012451171875,0.9580078125,-0.283447265625,0.3051757514476776,2.105712652206421,0.7019042372703552,80.0,929290.0,1.0
515383.3957638,279030.53125,311947.5625,319431.75,295022.75,300743.28125,303433.78125,265574.21875,305642.25,-0.01171875,0.95849609375,-0.28271484375,0.2441406100988388,2.014159917831421,0.7324218153953552,80.0,929291.0,1.0
515383.3981393,282969.0,312246.65625,318736.25,292912.125,296846.46875,301785.40625,264945.15625,304252.75,-0.012939453125,0.958984375,-0.28173828125,0.2441406100988388,2.075195074081421,0.7019042372703552,80.0,929292.0,1.0
515383.4007806,280624.65625,311035.53125,317719.875,290069.96875,295559.28125,301346.5,264723.78125,303386.84375,-0.011474609375,0.9599609375,-0.2802734375,0.1525878757238388,2.105712652206421,0.6103515028953552,80.0,929293.0,1.0
515383.4033119,275205.875,309971.5,317788.09375,290491.59375,298715.6875,302735.96875,265210.6875,304244.09375,-0.010498046875,0.9609375,-0.281005859375,0.1831054538488388,2.166747808456421,0.7324218153953552,80.0,929294.0,1.0
515383.4056327,273974.1875,310438.375,318804.65625,293533.9375,301970.125,304030.21875,265736.5,305638.5625,-0.009765625,0.961181640625,-0.27978515625,0.0610351525247097,2.258300542831421,0.8850097060203552,80.0,929295.0,1.0
515383.4196152,279033.375,311923.4375,319429.25,295022.125,300761.4375,303431.90625,265572.875,305623.28125,-0.010986328125,0.960693359375,-0.279541015625,0.0,2.258300542831421,0.9155272841453552,80.0,929296.0,1.0
515383.4196553,282996.4375,312236.28125,318743.03125,292933.40625,296866.125,301784.78125,264951.5,304242.84375,-0.00927734375,0.95849609375,-0.282470703125,0.0,2.380370855331421,0.9460448622703552,80.0,929297.0,1.0
515383.4221681,280697.34375,311041.875,317729.25,290083.46875,295554.8125,301345.15625,264735.6875,303377.5625,-0.00830078125,0.958251953125,-0.283203125,-0.03051757626235485,2.563476324081421,0.9155272841453552,80.0,929298.0,1.0
515383.4222039,275322.1875,310030.0625,317820.71875,290529.96875,298739.84375,302766.65625,265253.15625,304280.40625,-0.010498046875,0.95703125,-0.28369140625,-0.0610351525247097,2.502441167831421,0.9460448622703552,80.0,929299.0,1.0
515383.4244654,274054.84375,310512.0625,318837.625,293589.65625,302028.125,304077.34375,265783.53125,305703.40625,-0.011962890625,0.958251953125,-0.283935546875,-0.1220703050494194,2.593993902206421,0.8850097060203552,80.0,929300.0,1.0
515383.4331412,279031.78125,311933.71875,319426.1875,295037.59375,300792.8125,303448.28125,265577.09375,305641.78125,-0.01171875,0.958251953125,-0.280517578125,0.03051757626235485,2.563476324081421,0.9765624403953552,80.0,929301.0,1.0
515383.4383289,282992.9375,312211.40625,318725.6875,292919.09375,296869.53125,301777.625,264937.375,304225.125,-0.011962890625,0.958740234375,-0.281494140625,-0.0610351525247097,2.593993902206421,0.9155272841453552,80.0,929302.0,1.0
515383.438431,280730.25,311016.3125,317713.4375,290053.40625,295533.34375,301326.03125,264718.34375,303351.90625,-0.012939453125,0.958251953125,-0.28125,0.0,2.624511480331421,0.8850097060203552,80.0,929303.0,1.0
515383.4432664,275364.21875,310007.53125,317802.125,290474.0,298697.90625,302742.40625,265231.53125,304247.84375,-0.011962890625,0.958984375,-0.28076171875,-0.1525878757238388,2.716064214706421,0.8850097060203552,80.0,929304.0,1.0
515383.445623,274030.0625,310462.25,318812.78125,293510.78125,301996.75,304058.5625,265762.0,305662.625,-0.01171875,0.95751953125,-0.281494140625,-0.1831054538488388,2.716064214706421,0.8850097060203552,80.0,929305.0,1.0
515383.4494135,278995.03125,311918.15625,319436.9375,295015.9375,300834.5625,303474.65625,265598.5625,305652.78125,-0.0126953125,0.959716796875,-0.28369140625,-0.2746581733226776,2.685546636581421,0.9155272841453552,80.0,929306.0,1.0
515383.4719799,282997.0625,312233.6875,318754.9375,292939.03125,296922.1875,301808.5625,264961.53125,304258.125,-0.012451171875,0.9599609375,-0.286865234375,-0.2136230319738388,2.899169683456421,0.8850097060203552,80.0,929307.0,1.0
515383.4719955,280767.78125,311044.3125,317728.8125,290052.4375,295534.6875,301327.71875,264719.78125,303360.21875,-0.01318359375,0.958984375,-0.284423828125,-0.1525878757238388,2.990722417831421,0.9155272841453552,80.0,929308.0,1.0
515383.4745231,275380.65625,310018.8125,317801.0625,290433.125,298666.34375,302727.9375,265225.0,304231.21875,-0.01513671875,0.957275390625,-0.28125,-0.1220703050494194,2.990722417831421,0.9460448622703552,80.0,929309.0,1.0
515383.4745388,274021.21875,310493.625,318830.40625,293500.6875,302012.59375,304075.1875,265781.375,305675.0625,-0.015380859375,0.9580078125,-0.28662109375,-0.1525878757238388,2.807616949081421,1.0375975370407104,80.0,929310.0,1.0
515383.4794487,278972.6875,311960.1875,319460.4375,295041.34375,300876.40625,303498.15625,265616.0625,305680.59375,-0.0166015625,0.95751953125,-0.28369140625,-0.2136230319738388,2.838134527206421,1.0681151151657104,80.0,929311.0,1.0
515383.4819631,283006.28125,312279.0,318776.3125,292976.3125,296955.71875,301825.53125,264973.25,304279.75,-0.01513671875,0.958251953125,-0.28271484375,-0.2136230319738388,2.807616949081421,1.1291502714157104,80.0,929312.0,1.0
515383.484494,280809.8125,311079.625,317744.90625,290073.4375,295538.53125,301335.15625,264734.34375,303363.96875,-0.014892578125,0.95654296875,-0.283203125,-0.0915527269244194,2.807616949081421,1.1596678495407104,80.0,929313.0,1.0
515383.4868155,275441.53125,310056.09375,317815.71875,290447.15625,298658.125,302738.46875,265244.6875,304234.4375,-0.01513671875,0.956298828125,-0.280029296875,-0.0915527269244194,2.777099370956421,1.1291502714157104,80.0,929314.0,1.0
515383.4894859,274039.1875,310521.4375,318842.1875,293519.46875,302024.65625,304098.4375,265803.03125,305691.0625,-0.016845703125,0.955078125,-0.283203125,-0.0610351525247097,2.655029058456421,1.1596678495407104,80.0,929315.0,1.0
515383.5007579,278951.9375,311974.125,319474.9375,295081.40625,300918.875,303535.8125,265640.125,305709.21875,-0.017333984375,0.95751953125,-0.283203125,-0.0915527269244194,2.655029058456421,1.0681151151657104,80.0,929316.0,1.0
515383.5007895,283010.65625,312291.09375,318794.28125,293033.34375,296985.40625,301850.40625,264986.46875,304307.21875,-0.01904296875,0.95849609375,-0.2861328125,-0.0915527269244194,2.471923589706421,1.0986326932907104,80.0,929317.0,1.0
515383.5032509,280837.25,311076.125,317748.40625,290099.71875,295515.46875,301330.40625,264725.125,303361.8125,-0.0185546875,0.959228515625,-0.28271484375,-0.0610351525247097,2.471923589706421,1.1291502714157104,80.0,929318.0,1.0
515383.5057925,275422.59375,309997.0625,317786.75,290395.9375,298577.5625,302696.1875,265207.75,304176.0625,-0.014404296875,0.95703125,-0.283935546875,-0.0610351525247097,2.288818120956421,1.1596678495407104,80.0,929319.0,1.0
515383.5058323,273976.0625,310441.4375,318805.0,293451.6875,301956.34375,304057.59375,265769.5,305624.0,-0.01513671875,0.957275390625,-0.280029296875,0.03051757626235485,2.197265386581421,1.1901854276657104,80.0,929320.0,1.0
515383.5083167,278896.84375,311918.96875,319462.0625,295061.5625,300904.84375,303522.21875,265635.28125,305680.15625,-0.012451171875,0.95751953125,-0.28173828125,0.1220703050494194,2.258300542831421,1.2817381620407104,80.0,929321.0,1.0
515383.5391966,283005.375,312267.28125,318794.53125,293049.09375,296989.78125,301846.8125,264995.0625,304299.0,-0.0126953125,0.95654296875,-0.28515625,0.1220703050494194,2.014159917831421,1.2207030057907104,80.0,929322.0,1.0
515383.5392372,280899.21875,311080.96875,317756.53125,290130.40625,295508.75,301326.84375,264748.125,303364.875,-0.010009765625,0.957275390625,-0.283203125,0.2746581733226776,2.075195074081421,1.2512205839157104,80.0,929323.0,1.0
515383.5522146,275532.65625,310038.5625,317805.4375,290439.28125,298577.3125,302701.09375,265247.625,304204.3125,-0.009765625,0.959228515625,-0.282958984375,0.3356933295726776,2.227782964706421,1.4038084745407104,80.0,929324.0,1.0
515383.5522504,274033.375,310470.65625,318814.03125,293477.71875,301967.0,304062.5,265803.28125,305649.65625,-0.009765625,0.958984375,-0.28173828125,0.2441406100988388,2.136230230331421,1.3427733182907104,80.0,929325.0,1.0
515383.5522601,278887.75,311923.0,319462.3125,295078.625,300928.6875,303525.09375,265654.15625,305691.21875,-0.01220703125,0.958984375,-0.282958984375,0.4272460639476776,2.258300542831421,1.4343260526657104,80.0,929326.0,1.0
515383.5598376,283040.96875,312298.15625,318818.40625,293106.40625,297031.0,301870.6875,265038.6875,304334.40625,-0.012451171875,0.962890625,-0.2841796875,0.3662109076976776,2.197265386581421,1.2817381620407104,80.0,929327.0,1.0
515383.5598736,280990.84375,311132.09375,317781.21875,290187.15625,295522.1875,301345.6875,264797.8125,303401.4375,-0.01171875,0.96533203125,-0.283935546875,0.3356933295726776,2.166747808456421,1.2512205839157104,80.0,929328.0,1.0
515383.5598826,275608.65625,310076.1875,317813.9375,290457.09375,298558.0,302712.28125,265301.71875,304221.90625,-0.00927734375,0.9638671875,-0.283447265625,0.1831054538488388,2.380370855331421,1.2817381620407104,80.0,929329.0,1.0
515383.5598919,274045.625,310480.0625,318814.65625,293480.46875,301961.34375,304080.9375,265877.3125,305660.21875,-0.007568359375,0.964111328125,-0.282470703125,0.1525878757238388,2.410888433456421,1.2817381620407104,80.0,929330.0,1.0
515383.561993,278870.3125,311924.96875,319467.0625,295099.90625,300954.375,303557.34375,265748.03125,305711.25,-0.007080078125,0.964111328125,-0.28173828125,0.1831054538488388,2.349853277206421,1.3122557401657104,80.0,929331.0,1.0
515383.562024,283052.03125,312309.0625,318826.46875,293141.25,297055.5,301893.3125,265131.125,304352.90625,-0.007568359375,0.965087890625,-0.280517578125,0.0915527269244194,2.410888433456421,1.1901854276657104,80.0,929332.0,1.0
515383.5645676,281034.40625,311141.46875,317787.5625,290202.8125,295518.59375,301348.28125,264879.8125,303404.65625,-0.00634765625,0.964599609375,-0.28369140625,0.1220703050494194,2.471923589706421,1.1901854276657104,80.0,929333.0,1.0
515383.5695629,275668.1875,310086.46875,317820.90625,290446.53125,298540.46875,302709.78125,265375.03125,304217.4375,-0.0078125,0.9638671875,-0.28173828125,-0.03051757626235485,2.502441167831421,1.2512205839157104,80.0,929334.0,1.0
515383.5744797,274062.8125,310488.90625,318825.21875,293466.71875,301967.625,304091.375,265942.5,305663.15625,-0.0087890625,0.963623046875,-0.279541015625,0.0,2.593993902206421,1.1596678495407104,80.0,929335.0,1.0
515383.5794424,278863.40625,311934.34375,319485.03125,295107.78125,300994.6875,303577.28125,265809.0,305729.6875,-0.00927734375,0.963623046875,-0.28076171875,-0.0915527269244194,2.655029058456421,1.1291502714157104,80.0,929336.0,1.0
515383.5819688,283052.5,312299.84375,318835.9375,293136.71875,297073.5625,301891.25,265164.21875,304345.375,-0.00830078125,0.961669921875,-0.2822265625,-0.1220703050494194,2.655029058456421,1.0681151151657104,80.0,929337.0,1.0
515383.5845191,281084.03125,311149.09375,317802.65625,290200.3125,295513.6875,301344.8125,264913.59375,303399.8125,-0.007080078125,0.959228515625,-0.28173828125,-0.2441406100988388,2.624511480331421,1.0681151151657104,80.0,929338.0,1.0
515383.5869996,275700.8125,310082.0,317820.53125,290411.59375,298506.75,302699.0625,265401.3125,304196.09375,-0.008056640625,0.95947265625,-0.28125,-0.3662109076976776,2.685546636581421,1.0070799589157104,80.0,929339.0,1.0
515383.5917909,274054.5625,310473.0,318822.0,293428.71875,301946.96875,304088.78125,265968.34375,305646.8125,-0.00927734375,0.9580078125,-0.283935546875,-0.3051757514476776,2.655029058456421,1.0070799589157104,80.0,929340.0,1.0
515383.5944003,278853.21875,311950.78125,319505.59375,295122.0,301024.90625,303608.125,265851.03125,305754.1875,-0.009765625,0.956787109375,-0.280517578125,-0.3051757514476776,2.716064214706421,1.0070799589157104,80.0,929341.0,1.0
515383.5944151,283084.0625,312333.625,318862.5,293180.78125,297107.28125,301922.28125,265202.84375,304382.21875,-0.008056640625,0.955810546875,-0.27880859375,-0.1525878757238388,2.685546636581421,0.8850097060203552,80.0,929342.0,1.0
515383.5969729,281153.9375,311171.6875,317810.53125,290216.6875,295503.84375,301348.125,264936.40625,303408.9375,-0.009765625,0.95458984375,-0.27880859375,-0.1525878757238388,2.746581792831421,0.8544921278953552,80.0,929343.0,1.0
515383.6069657,275764.125,310073.96875,317804.09375,290379.9375,298460.96875,302674.03125,265406.15625,304172.21875,-0.009765625,0.95458984375,-0.2822265625,-0.03051757626235485,2.685546636581421,0.8239745497703552,80.0,929344.0,1.0
515383.6094815,274062.4375,310438.84375,318797.03125,293377.75,301922.09375,304066.4375,265971.09375,305615.5,-0.010009765625,0.9541015625,-0.282958984375,0.03051757626235485,2.746581792831421,0.7934569716453552,80.0,929345.0,1.0
515383.6094971,278814.25,311885.96875,319476.71875,295071.84375,301021.15625,303589.0,265849.0625,305714.5625,-0.009033203125,0.952880859375,-0.282958984375,0.1525878757238388,2.838134527206421,0.7629393935203552,80.0,929346.0,1.0
515383.6119531,283079.84375,312288.125,318850.96875,293163.96875,297120.21875,301918.96875,265210.53125,304358.90625,-0.008056640625,0.952880859375,-0.2822265625,0.2136230319738388,2.746581792831421,0.7019042372703552,80.0,929347.0,1.0
515383.6144936,281203.65625,311155.53125,317805.6875,290208.1875,295498.03125,301342.03125,264942.46875,303393.5625,-0.010498046875,0.953857421875,-0.283203125,0.2746581733226776,2.807616949081421,0.7324218153953552,80.0,929348.0,1.0
515383.6619027,275849.59375,310094.25,317818.03125,290386.375,298461.34375,302687.15625,265423.75,304185.71875,-0.010986328125,0.952392578125,-0.28125,0.3967284858226776,2.838134527206421,0.6713866591453552,80.0,929349.0,1.0
515383.6645016,274123.0625,310469.59375,318816.09375,293399.125,301947.125,304092.8125,265985.15625,305648.0625,-0.01123046875,0.9541015625,-0.282470703125,0.3662109076976776,2.685546636581421,0.6713866591453552,80.0,929350.0,1.0
515383.6645405,278841.6875,311920.03125,319496.84375,295111.53125,301073.90625,303623.15625,265859.15625,305756.59375,-0.01220703125,0.954345703125,-0.27978515625,0.4882812201976776,2.655029058456421,0.5798339247703552,80.0,929351.0,1.0
515383.6668984,283140.5625,312341.78125,318878.84375,293223.96875,297172.96875,301953.40625,265231.625,304409.59375,-0.01416015625,0.956298828125,-0.2802734375,0.4882812201976776,2.624511480331421,0.6103515028953552,80.0,929352.0,1.0
515383.6720397,281292.34375,311204.34375,317827.78125,290246.34375,295513.84375,301358.84375,264960.90625,303424.0625,-0.01513671875,0.958984375,-0.2822265625,0.4272460639476776,2.532958745956421,0.5493163466453552,80.0,929353.0,1.0
515383.6794445,275933.5625,310130.1875,317822.15625,290383.25,298442.84375,302683.6875,265427.0625,304189.09375,-0.013427734375,0.958984375,-0.2822265625,0.5493163466453552,2.502441167831421,0.5187987685203552,80.0,929354.0,1.0
515383.6870429,274152.125,310482.5625,318809.03125,293374.09375,301935.34375,304092.0,265984.4375,305638.75,-0.012939453125,0.958740234375,-0.281494140625,0.4882812201976776,2.502441167831421,0.5493163466453552,80.0,929355.0,1.0
515383.6895237,278828.5625,311913.5,319495.5,295099.28125,301088.46875,303632.625,265858.625,305749.875,-0.0126953125,0.958984375,-0.2822265625,0.4272460639476776,2.349853277206421,0.5798339247703552,80.0,929356.0,1.0
515383.6920355,283163.4375,312351.15625,318897.28125,293250.34375,297203.125,301977.625,265224.65625,304422.09375,-0.012451171875,0.9609375,-0.28271484375,0.3662109076976776,2.288818120956421,0.4577636420726776,80.0,929357.0,1.0
515383.6945901,281346.875,311206.40625,317834.75,290258.34375,295509.21875,301365.8125,264918.34375,303422.96875,-0.01416015625,0.960205078125,-0.281494140625,0.4272460639476776,2.197265386581421,0.5493163466453552,80.0,929358.0,1.0
515383.6995575,275973.96875,310106.59375,317813.84375,290352.5625,298410.65625,302678.9375,265368.875,304162.375,-0.0126953125,0.961669921875,-0.28173828125,0.4272460639476776,2.166747808456421,0.5187987685203552,80.0,929359.0,1.0
515383.7019602,274184.125,310484.4375,318821.09375,293376.3125,301953.3125,304118.5625,265963.6875,305649.9375,-0.011962890625,0.961181640625,-0.2822265625,0.3051757514476776,2.044677495956421,0.5493163466453552,80.0,929360.0,1.0
515383.7061389,278861.53125,311955.625,319527.5,295162.9375,301168.03125,303691.1875,265879.03125,305812.8125,-0.01318359375,0.962890625,-0.281005859375,0.1525878757238388,1.8310545682907104,0.6713866591453552,80.0,929361.0,1.0
515383.7132102,283201.90625,312384.96875,318915.96875,293316.21875,297266.5,302010.25,265237.96875,304467.0625,-0.01513671875,0.961669921875,-0.283203125,0.1220703050494194,1.8615721464157104,0.8239745497703552,80.0,929362.0,1.0
515383.7132533,281404.09375,311217.03125,317838.34375,290294.90625,295519.40625,301362.59375,264913.0625,303431.125,-0.015625,0.9609375,-0.28466796875,0.03051757626235485,1.6784666776657104,0.8239745497703552,80.0,929363.0,1.0
515383.7158126,276038.34375,310108.125,317810.8125,290363.9375,298393.46875,302665.0625,265354.375,304160.75,-0.01513671875,0.95751953125,-0.284912109375,0.03051757626235485,1.6479490995407104,0.7629393935203552,80.0,929364.0,1.0
515383.7181634,274200.84375,310471.03125,318813.9375,293375.78125,301953.03125,304113.375,265931.78125,305650.09375,-0.01318359375,0.95751953125,-0.28515625,0.0,1.5258787870407104,0.7934569716453552,80.0,929365.0,1.0
515383.7206358,278839.625,311938.46875,319527.6875,295179.65625,301197.28125,303697.46875,265831.71875,305821.21875,-0.014404296875,0.95751953125,-0.283203125,0.03051757626235485,1.4648436307907104,0.8544921278953552,80.0,929366.0,1.0
515383.7283163,283217.625,312394.34375,318932.6875,293361.65625,297305.75,302025.71875,265195.9375,304490.125,-0.01513671875,0.95703125,-0.283447265625,0.1831054538488388,1.2817381620407104,0.8544921278953552,80.0,929367.0,1.0
515383.730669,281510.65625,311285.6875,317878.21875,290374.5625,295557.03125,301392.71875,264903.3125,303488.4375,-0.01318359375,0.957763671875,-0.28125,0.1831054538488388,1.2817381620407104,0.7324218153953552,80.0,929368.0,1.0
515383.7381961,276162.625,310191.1875,317843.875,290426.78125,298411.09375,302687.4375,265356.4375,304214.9375,-0.0126953125,0.955810546875,-0.283935546875,0.1525878757238388,1.2817381620407104,0.7629393935203552,80.0,929369.0,1.0
515383.7382339,274219.71875,310481.84375,318803.21875,293363.625,301935.5,304100.25,265908.875,305642.96875,-0.010498046875,0.956787109375,-0.282470703125,0.0610351525247097,1.2512205839157104,0.7934569716453552,80.0,929370.0,1.0
515383.7406085,278764.875,311860.59375,319481.53125,295100.09375,301152.75,303651.3125,265782.625,305750.0625,-0.010009765625,0.9560546875,-0.2861328125,0.03051757626235485,1.1596678495407104,0.9765624403953552,80.0,929371.0,1.0
515383.7481341,283174.53125,312298.6875,318895.21875,293278.9375,297258.90625,301975.125,265150.1875,304409.125,-0.008056640625,0.958740234375,-0.2841796875,0.0610351525247097,1.2207030057907104,0.9155272841453552,80.0,929372.0,1.0
515383.7507598,281526.3125,311194.5,317847.90625,290279.78125,295492.75,301337.84375,264859.34375,303400.1875,-0.00732421875,0.95849609375,-0.282958984375,0.0,1.2817381620407104,0.8544921278953552,80.0,929373.0,1.0
515383.7558034,276212.6875,310116.96875,317826.1875,290327.8125,298346.0,302645.0625,265325.0625,304139.40625,-0.007568359375,0.956787109375,-0.2841796875,0.03051757626235485,1.4038084745407104,0.8239745497703552,80.0,929374.0,1.0
515383.755844,274274.78125,310442.84375,318808.9375,293302.375,301922.90625,304095.5,265914.15625,305617.46875,-0.006591796875,0.955078125,-0.2841796875,0.0915527269244194,1.4953612089157104,0.8850097060203552,80.0,929375.0,1.0
515383.7583115,278825.15625,311876.6875,319523.125,295114.75,301218.28125,303697.71875,265833.59375,305790.84375,-0.004638671875,0.956298828125,-0.285400390625,0.0,1.4648436307907104,0.9155272841453552,80.0,929376.0,1.0
515383.760788,283262.15625,312351.96875,318947.875,293332.78125,297336.40625,302036.09375,265216.96875,304469.21875,-0.008056640625,0.958740234375,-0.28564453125,0.0915527269244194,1.5258787870407104,0.9155272841453552,80.0,929377.0,1.0
515383.7631908,281647.46875,311259.0625,317887.6875,290325.5625,295530.21875,301385.75,264924.15625,303449.34375,-0.009521484375,0.9599609375,-0.2822265625,0.1220703050494194,1.6784666776657104,0.8850097060203552,80.0,929378.0,1.0
515383.7632271,276321.5,310170.15625,317843.96875,290340.59375,298345.90625,302673.125,265388.1875,304169.625,-0.01025390625,0.96044921875,-0.28125,0.1525878757238388,1.7395018339157104,0.8850097060203552,80.0,929379.0,1.0
515383.765659,274320.125,310481.65625,318819.3125,293312.21875,301935.96875,304128.75,265972.0,305646.96875,-0.01025390625,0.96142578125,-0.282470703125,0.1220703050494194,1.7395018339157104,0.8239745497703552,80.0,929380.0,1.0
515383.768221,278812.625,311893.21875,319524.71875,295129.21875,301247.53125,303732.78125,265880.53125,305816.9375,-0.01025390625,0.9619140625,-0.282958984375,0.0610351525247097,1.8920897245407104,0.6713866591453552,80.0,929381.0,1.0
515383.7732931,283285.84375,312384.78125,318962.4375,293374.71875,297376.46875,302080.8125,265267.9375,304513.5625,-0.0126953125,0.9638671875,-0.28173828125,-0.0610351525247097,1.8005369901657104,0.5187987685203552,80.0,929382.0,1.0
515383.7757179,281720.875,311309.21875,317910.125,290371.34375,295553.28125,301420.1875,264966.25,303497.90625,-0.012939453125,0.962890625,-0.286865234375,-0.1220703050494194,1.8920897245407104,0.6103515028953552,80.0,929383.0,1.0
515383.7757522,276398.8125,310216.84375,317862.21875,290366.15625,298348.25,302697.8125,265407.65625,304206.71875,-0.012939453125,0.961669921875,-0.287109375,-0.1831054538488388,1.9226073026657104,0.5493163466453552,80.0,929384.0,1.0
515383.7782707,274340.59375,310505.625,318829.0625,293321.6875,301946.96875,304151.09375,265976.65625,305675.125,-0.0126953125,0.961181640625,-0.285888671875,-0.1831054538488388,1.9531248807907104,0.6103515028953552,80.0,929385.0,1.0
515383.7806163,278796.1875,311912.15625,319539.9375,295157.84375,301291.59375,303761.46875,265873.46875,305851.8125,-0.01171875,0.959716796875,-0.28369140625,-0.2746581733226776,1.8615721464157104,0.4577636420726776,80.0,929386.0,1.0
515383.7832042,283251.96875,312380.5,318965.75,293395.375,297399.90625,302080.8125,265229.03125,304517.9375,-0.010986328125,0.95751953125,-0.28515625,-0.3356933295726776,1.8615721464157104,0.4577636420726776,80.0,929387.0,1.0
515383.7832478,281702.90625,311295.71875,317906.375,290369.375,295533.71875,301400.59375,264925.3125,303479.125,-0.01025390625,0.95654296875,-0.2802734375,-0.3051757514476776,1.7700194120407104,0.4882812201976776,80.0,929388.0,1.0
515383.7857033,276400.0,310208.34375,317860.96875,290350.34375,298314.4375,302676.875,265383.625,304190.8125,-0.010498046875,0.957763671875,-0.28173828125,-0.3051757514476776,1.8920897245407104,0.4882812201976776,80.0,929389.0,1.0
515383.7881401,274320.125,310508.03125,318834.6875,293319.1875,301945.96875,304152.375,265955.71875,305680.5,-0.009765625,0.95751953125,-0.284912109375,-0.2136230319738388,1.8615721464157104,0.5493163466453552,80.0,929390.0,1.0
515383.7907833,278752.5625,311926.9375,319553.59375,295190.21875,301328.09375,303783.8125,265848.4375,305883.71875,-0.00927734375,0.95703125,-0.287353515625,-0.2441406100988388,1.8920897245407104,0.5798339247703552,80.0,929391.0,1.0
515383.8195986,283234.0,312395.5,318975.6875,293443.625,297430.21875,302095.5625,265202.65625,304546.46875,-0.008544921875,0.956787109375,-0.285888671875,-0.2746581733226776,2.044677495956421,0.6713866591453552,80.0,929392.0,1.0
515383.8196415,281725.78125,311300.625,317899.5,290401.84375,295519.9375,301384.78125,264877.65625,303478.6875,-0.00830078125,0.95703125,-0.2841796875,-0.3356933295726776,2.166747808456421,0.7324218153953552,80.0,929393.0,1.0
