Time,FZ,C3,CZ,C4,PZ,PO7,OZ,PO8,AccX,AccY,AccZ,Gyro1,Gyro2,Gyro3,Battery,Counter,Validation
469643.5708678,264385.5625,263709.5625,392528.46875,407015.53125,269962.875,258194.046875,231641.328125,217938.375,-0.1171875,0.830078125,-0.55615234375,-11.718749046325684,2.929687261581421,-1.4648436307907104,100.0,38706.0,1.0
469643.5745767,266079.28125,264192.0,392589.53125,406806.5,269486.6875,258222.46875,231475.65625,217828.046875,-0.117431640625,0.83447265625,-0.55419921875,-11.810301780700684,2.990722417831421,-1.2817381620407104,100.0,38707.0,1.0
469643.5745918,266171.65625,264056.375,390471.84375,406589.875,268794.125,258230.96875,231402.4375,217792.8125,-0.116943359375,0.836181640625,-0.548583984375,-11.993407249450684,3.204345464706421,-1.2817381620407104,100.0,38708.0,1.0
469643.5745938,264657.90625,263538.78125,389129.9375,406653.625,268833.75,258207.1875,231514.1875,217849.859375,-0.114990234375,0.834716796875,-0.549560546875,-11.962889671325684,3.173827886581421,-1.0375975370407104,100.0,38709.0,1.0
469643.574596,263540.21875,263318.84375,390433.40625,406897.96875,269550.25,258165.703125,231640.609375,217885.625,-0.11279296875,0.8369140625,-0.55078125,-11.840819358825684,3.204345464706421,-0.9460448622703552,100.0,38710.0,1.0
469643.5785611,264396.28125,263710.46875,392570.0625,407012.3125,269973.875,258195.734375,231635.34375,217875.96875,-0.110107421875,0.838134765625,-0.549072265625,-11.840819358825684,3.173827886581421,-0.6408690810203552,100.0,38711.0,1.0
469643.5785741,266100.46875,264197.53125,392644.0,406806.15625,269495.71875,258216.9375,231464.75,217789.953125,-0.10595703125,0.83642578125,-0.55078125,-11.871336936950684,3.326415777206421,-0.4272460639476776,100.0,38712.0,1.0
469643.5785761,266157.875,264032.0625,390493.5625,406559.125,268766.5,258191.890625,231362.828125,217750.796875,-0.10791015625,0.838134765625,-0.549072265625,-11.718749046325684,3.479003667831421,-0.2441406100988388,100.0,38713.0,1.0
469643.5785782,264635.71875,263517.78125,389151.9375,406625.09375,268814.59375,258178.125,231479.859375,217848.421875,-0.109375,0.83935546875,-0.548828125,-11.688231468200684,3.479003667831421,-0.0610351525247097,100.0,38714.0,1.0
469643.5808689,263544.34375,263317.0625,390462.09375,406905.75,269560.96875,258178.390625,231647.5,217943.28125,-0.111083984375,0.8408203125,-0.548828125,-11.505125999450684,3.662109136581421,0.0610351525247097,100.0,38715.0,1.0
469643.5833647,264372.34375,263679.875,392537.96875,406999.625,269954.1875,258184.921875,231631.578125,217936.046875,-0.11279296875,0.842529296875,-0.545166015625,-11.444090843200684,3.570556402206421,0.1831054538488388,100.0,38716.0,1.0
469643.5958618,266088.6875,264193.15625,392610.03125,406797.65625,269487.75,258215.671875,231469.484375,217853.171875,-0.113525390625,0.841796875,-0.5439453125,-11.383055686950684,3.540038824081421,0.3051757514476776,100.0,38717.0,1.0
469643.6034183,266168.96875,264045.90625,390468.28125,406574.9375,268777.59375,258204.234375,231377.3125,217813.015625,-0.1123046875,0.8388671875,-0.54345703125,-11.260985374450684,3.509521245956421,0.4882812201976776,100.0,38718.0,1.0
469643.6034361,264641.4375,263529.6875,389081.5625,406644.6875,268811.5625,258181.078125,231482.640625,217874.0,-0.11279296875,0.835205078125,-0.544921875,-11.138915061950684,3.509521245956421,0.4882812201976776,100.0,38719.0,1.0
469643.6034401,263530.125,263315.53125,390361.0,406914.96875,269555.4375,258173.484375,231644.375,217936.5,-0.112060546875,0.831787109375,-0.542236328125,-10.742186546325684,3.356933355331421,0.4882812201976776,100.0,38720.0,1.0
469643.6057379,264366.0625,263691.6875,392448.28125,407013.21875,269965.90625,258192.703125,231633.734375,217933.28125,-0.111572265625,0.828857421875,-0.54296875,-10.589598655700684,3.387450933456421,0.5493163466453552,100.0,38721.0,1.0
469643.6057524,266071.25,264187.09375,392501.5625,406799.1875,269479.625,258207.71875,231457.515625,217841.71875,-0.1103515625,0.82763671875,-0.544189453125,-9.979247093200684,3.265380620956421,0.7019042372703552,100.0,38722.0,1.0
469643.6208188,266153.5,264044.9375,390360.71875,406573.25,268767.75,258203.4375,231368.640625,217799.34375,-0.110595703125,0.824951171875,-0.544921875,-9.521483421325684,3.173827886581421,0.7019042372703552,100.0,38723.0,1.0
469643.6232797,264619.09375,263488.0,388963.8125,406636.90625,268803.78125,258184.5625,231485.578125,217871.765625,-0.10888671875,0.82470703125,-0.547119140625,-9.002684593200684,3.051757574081421,0.6408690810203552,100.0,38724.0,1.0
469643.6233124,263498.1875,263274.9375,390217.03125,406904.40625,269543.90625,258173.75,231650.984375,217977.0,-0.106201171875,0.8251953125,-0.54638671875,-8.483885765075684,2.960204839706421,0.7629393935203552,100.0,38725.0,1.0
469643.6260062,264352.5625,263704.8125,392296.65625,407018.5,269965.8125,258204.234375,231655.1875,217994.703125,-0.10205078125,0.826904296875,-0.54443359375,-7.690429210662842,2.960204839706421,0.7629393935203552,100.0,38726.0,1.0
469643.6295233,266072.59375,264179.5625,392377.46875,406809.0,269486.78125,258221.84375,231483.890625,217889.28125,-0.098876953125,0.826904296875,-0.5458984375,-7.141112804412842,2.990722417831421,0.8544921278953552,100.0,38727.0,1.0
469643.6458787,266132.21875,264016.6875,390215.0625,406561.1875,268752.75,258199.234375,231378.203125,217826.078125,-0.09619140625,0.826416015625,-0.5458984375,-6.652831554412842,2.990722417831421,1.0681151151657104,100.0,38728.0,1.0
469643.6484403,264580.21875,263464.84375,388799.59375,406620.8125,268776.96875,258169.1875,231480.75,217882.84375,-0.08935546875,0.828125,-0.548583984375,-5.981444835662842,3.021239995956421,1.2512205839157104,100.0,38729.0,1.0
469643.6484832,263440.71875,263239.8125,390021.40625,406887.34375,269508.21875,258159.890625,231640.796875,217939.0,-0.08642578125,0.827880859375,-0.55029296875,-5.371093273162842,3.143310308456421,1.4648436307907104,100.0,38730.0,1.0
469643.6509741,264288.8125,263648.84375,392089.3125,406983.71875,269918.53125,258178.75,231629.171875,217901.53125,-0.081787109375,0.828369140625,-0.54736328125,-4.791259288787842,3.265380620956421,1.6174315214157104,100.0,38731.0,1.0
469643.6559019,266025.46875,264147.375,392177.5625,406784.34375,269453.25,258213.984375,231476.90625,217785.75,-0.078125,0.829345703125,-0.542724609375,-4.150390148162842,3.479003667831421,1.7700194120407104,100.0,38732.0,1.0
469643.6584407,266099.6875,263978.5,389991.5625,406560.28125,268727.25,258210.046875,231388.484375,217706.625,-0.07666015625,0.83349609375,-0.544677734375,-3.692626714706421,3.723144292831421,2.105712652206421,100.0,38733.0,1.0
469643.662093,264537.65625,263440.90625,388511.6875,406618.75,268746.75,258185.8125,231490.953125,217749.453125,-0.073486328125,0.834228515625,-0.5439453125,-3.234863042831421,3.814697027206421,2.471923589706421,100.0,38734.0,1.0
469643.6621336,263401.90625,263214.4375,389702.9375,406898.25,269487.84375,258180.28125,231659.5625,217834.21875,-0.073974609375,0.834716796875,-0.542236328125,-2.899169683456421,3.967284917831421,2.777099370956421,100.0,38735.0,1.0
469643.6709609,264246.28125,263625.34375,391738.3125,407000.96875,269895.1875,258200.84375,231649.203125,217813.375,-0.07470703125,0.833984375,-0.539794921875,-2.563476324081421,4.119872570037842,3.082275152206421,100.0,38736.0,1.0
469643.6710016,265975.9375,264109.125,391808.5,406779.25,269412.5625,258223.546875,231475.21875,217699.5625,-0.071044921875,0.83251953125,-0.54150390625,-2.166747808456421,4.302978038787842,3.265380620956421,100.0,38737.0,1.0
469643.6957948,266094.40625,263985.8125,389702.9375,406572.96875,268721.28125,258230.25,231402.875,217656.734375,-0.069580078125,0.8359375,-0.543212890625,-1.6174315214157104,4.425048351287842,3.448486089706421,100.0,38738.0,1.0
469643.6958364,264536.75,263444.03125,388280.65625,406621.53125,268738.34375,258184.203125,231492.203125,217686.421875,-0.06982421875,0.837646484375,-0.539794921875,-1.2817381620407104,4.699706554412842,3.662109136581421,100.0,38739.0,1.0
469643.6983538,263376.78125,263199.9375,389467.625,406876.6875,269455.125,258157.65625,231640.890625,217750.96875,-0.069580078125,0.838134765625,-0.541748046875,-0.9765624403953552,4.699706554412842,3.967284917831421,100.0,38740.0,1.0
469643.6983951,264219.4375,263577.25,391536.6875,406970.21875,269865.40625,258172.40625,231629.53125,217737.734375,-0.072021484375,0.839599609375,-0.538330078125,-0.8239745497703552,4.760741710662842,4.150390148162842,100.0,38741.0,1.0
469643.7007593,265982.09375,264118.78125,391672.78125,406766.625,269405.59375,258207.8125,231467.796875,217643.953125,-0.072998046875,0.840576171875,-0.5361328125,-0.6713866591453552,4.821776866912842,4.333495616912842,100.0,38742.0,1.0
469643.7033238,266103.4375,263985.125,389607.90625,406551.53125,268711.6875,258211.03125,231387.328125,217638.59375,-0.076416015625,0.840576171875,-0.537353515625,-0.4882812201976776,4.943847179412842,4.394530773162842,100.0,38743.0,1.0
469643.7057739,264562.6875,263442.21875,388246.34375,406608.84375,268746.75,258177.765625,231483.625,217725.578125,-0.080078125,0.839599609375,-0.5419921875,-0.3356933295726776,4.791259288787842,4.394530773162842,100.0,38744.0,1.0
469643.708403,263441.96875,263245.8125,389526.1875,406877.40625,269492.40625,258165.515625,231639.71875,217824.734375,-0.07958984375,0.8359375,-0.54052734375,-0.0915527269244194,4.760741710662842,4.364013195037842,100.0,38745.0,1.0
469643.7109244,264323.96875,263687.21875,391677.78125,406997.03125,269931.40625,258200.921875,231643.296875,217850.296875,-0.083251953125,0.830810546875,-0.5390625,0.03051757626235485,4.699706554412842,4.302978038787842,100.0,38746.0,1.0
469643.7134409,266091.71875,264195.21875,391872.9375,406790.9375,269479.625,258233.828125,231485.9375,217765.8125,-0.08740234375,0.83056640625,-0.5439453125,0.2746581733226776,4.425048351287842,4.272460460662842,100.0,38747.0,1.0
469643.7168055,266188.28125,264034.28125,389816.40625,406545.71875,268758.625,258210.140625,231382.40625,217692.953125,-0.0908203125,0.8310546875,-0.54052734375,0.3967284858226776,4.150390148162842,4.211425304412842,100.0,38748.0,1.0
469643.7168473,264652.90625,263506.875,388479.6875,406607.5,268797.25,258184.5625,231484.953125,217763.578125,-0.093505859375,0.82763671875,-0.5400390625,0.6408690810203552,3.753661870956421,4.028319835662842,100.0,38749.0,1.0
469643.72469,263533.875,263304.8125,389787.875,406886.53125,269550.96875,258174.1875,231643.75,217895.1875,-0.09716796875,0.825927734375,-0.544189453125,0.8850097060203552,3.479003667831421,3.723144292831421,100.0,38750.0,1.0
469643.7247312,264389.5,263714.21875,391929.625,406981.3125,269966.625,258184.921875,231628.359375,217918.875,-0.097412109375,0.824951171875,-0.541748046875,1.1291502714157104,3.173827886581421,3.417968511581421,100.0,38751.0,1.0
469643.7484253,266145.71875,264228.375,392095.46875,406773.875,269497.3125,258209.875,231462.421875,217833.234375,-0.09912109375,0.823486328125,-0.54248046875,1.5258787870407104,2.655029058456421,2.960204839706421,100.0,38752.0,1.0
469643.750868,266285.375,264104.1875,390076.9375,406574.5,268818.375,258231.953125,231399.84375,217815.796875,-0.1005859375,0.822021484375,-0.543701171875,1.8310545682907104,2.166747808456421,2.716064214706421,100.0,38753.0,1.0
469643.7509085,264760.09375,263587.96875,388750.78125,406655.84375,268872.1875,258224.265625,231518.390625,217885.4375,-0.10107421875,0.8212890625,-0.544921875,1.9836424589157104,1.7395018339157104,2.410888433456421,100.0,38754.0,1.0
469643.7532371,263620.40625,263366.9375,390036.71875,406921.9375,269610.34375,258203.703125,231668.25,217955.984375,-0.10205078125,0.82080078125,-0.544921875,2.105712652206421,1.3122557401657104,1.9836424589157104,100.0,38755.0,1.0
469643.754986,264490.25,263792.4375,392183.09375,407032.78125,270035.8125,258226.671875,231668.0625,217954.375,-0.103271484375,0.819580078125,-0.548095703125,2.563476324081421,0.9460448622703552,1.4648436307907104,100.0,38756.0,1.0
469643.7587176,266232.96875,264286.5,392353.25,406808.84375,269557.21875,258237.671875,231488.09375,217845.5625,-0.10205078125,0.8212890625,-0.547607421875,2.838134527206421,0.3662109076976776,0.9155272841453552,100.0,38757.0,1.0
469643.7846389,266324.09375,264127.0,390308.6875,406574.3125,268845.375,258227.5625,231394.296875,217794.25,-0.102294921875,0.82177734375,-0.548828125,3.234863042831421,-0.0610351525247097,0.3967284858226776,100.0,38758.0,1.0
469643.7862651,264772.59375,263594.5,388946.375,406643.34375,268883.375,258210.578125,231504.53125,217873.453125,-0.099365234375,0.823486328125,-0.548828125,3.509521245956421,-0.4272460639476776,0.0,100.0,38759.0,1.0
469643.8046881,263619.0,263363.5625,390196.9375,406908.4375,269613.8125,258189.9375,231655.546875,217956.875,-0.10009765625,0.822021484375,-0.551513671875,3.753661870956421,-0.9155272841453552,-0.3051757514476776,100.0,38760.0,1.0
469643.8070581,264434.65625,263744.4375,392291.28125,406976.8125,269998.09375,258179.828125,231618.890625,217920.484375,-0.098876953125,0.822998046875,-0.5517578125,4.089354991912842,-1.2817381620407104,-0.7629393935203552,100.0,38761.0,1.0
469643.8096795,266178.96875,264249.84375,392444.4375,406759.21875,269518.96875,258197.171875,231444.71875,217821.515625,-0.09716796875,0.8212890625,-0.549560546875,4.394530773162842,-1.5563963651657104,-1.1901854276657104,100.0,38762.0,1.0
469643.8121406,266283.125,264111.1875,390382.34375,406540.25,268820.34375,258200.75,231364.796875,217781.734375,-0.095947265625,0.826171875,-0.5537109375,4.760741710662842,-1.8920897245407104,-1.6174315214157104,100.0,38763.0,1.0
469643.814688,264723.625,263557.03125,389004.15625,406598.71875,268848.9375,258174.109375,231470.296875,217841.984375,-0.0908203125,0.826416015625,-0.552001953125,4.913329601287842,-2.197265386581421,-1.8310545682907104,100.0,38764.0,1.0
469643.8171124,263578.5625,263316.625,390266.03125,406866.0625,269582.0,258154.703125,231627.5625,217942.390625,-0.090576171875,0.8271484375,-0.555419921875,5.157470226287842,-2.410888433456421,-2.075195074081421,100.0,38765.0,1.0
469643.819535,264425.96875,263726.28125,392383.1875,406963.59375,269994.34375,258171.15625,231619.875,217957.328125,-0.08984375,0.8310546875,-0.55419921875,5.310058116912842,-2.593993902206421,-2.319335699081421,100.0,38766.0,1.0
469643.824632,266179.96875,264242.59375,392530.625,406759.65625,269529.3125,258201.109375,231457.515625,217882.21875,-0.0888671875,0.829833984375,-0.55615234375,5.310058116912842,-2.777099370956421,-2.471923589706421,100.0,38767.0,1.0
469643.8262585,266276.78125,264094.28125,390441.71875,406538.71875,268822.03125,258203.15625,231372.578125,217859.15625,-0.088623046875,0.830078125,-0.55224609375,5.462646007537842,-2.807616949081421,-2.563476324081421,100.0,38768.0,1.0
469643.8333893,264703.0625,263534.78125,389027.75,406585.59375,268834.0,258165.703125,231466.984375,217926.03125,-0.088623046875,0.831787109375,-0.550537109375,5.432128429412842,-2.838134527206421,-2.716064214706421,100.0,38769.0,1.0
469643.8359334,263552.65625,263298.46875,390280.875,406838.5,269559.71875,258136.546875,231611.296875,218017.671875,-0.087646484375,0.831787109375,-0.553466796875,5.554198741912842,-2.868652105331421,-2.960204839706421,100.0,38770.0,1.0
469643.8383527,264408.09375,263716.09375,392399.71875,406940.4375,269981.1875,258159.890625,231609.0625,218031.171875,-0.08740234375,0.831787109375,-0.557373046875,5.493163585662842,-2.838134527206421,-2.990722417831421,100.0,38771.0,1.0
469643.8407791,266167.96875,264239.28125,392553.96875,406742.21875,269528.34375,258198.515625,231457.59375,217947.671875,-0.087890625,0.833984375,-0.5556640625,5.523681163787842,-2.807616949081421,-3.112792730331421,100.0,38772.0,1.0
469643.8434039,266260.6875,264084.96875,390447.625,406520.3125,268813.0,258197.890625,231373.28125,217908.59375,-0.086669921875,0.83349609375,-0.55859375,5.462646007537842,-2.868652105331421,-3.143310308456421,100.0,38773.0,1.0
469643.845999,264704.21875,263542.5625,389056.1875,406572.09375,268836.15625,258170.078125,231472.984375,217963.578125,-0.0859375,0.83447265625,-0.557373046875,5.523681163787842,-2.838134527206421,-3.173827886581421,100.0,38774.0,1.0
469643.8460404,263559.53125,263306.4375,390318.96875,406829.5,269563.75,258142.8125,231618.171875,218040.296875,-0.08544921875,0.83935546875,-0.55322265625,5.554198741912842,-2.807616949081421,-3.051757574081421,100.0,38775.0,1.0
469643.8483659,264407.125,263714.03125,392427.375,406933.09375,269976.71875,258163.90625,231609.765625,218031.796875,-0.08642578125,0.841552734375,-0.554931640625,5.371093273162842,-2.563476324081421,-2.960204839706421,100.0,38776.0,1.0
469643.8484195,266135.0,264212.65625,392534.03125,406713.34375,269497.59375,258184.921875,231439.71875,217930.140625,-0.084228515625,0.84130859375,-0.553955078125,5.187987804412842,-2.532958745956421,-2.899169683456421,100.0,38777.0,1.0
469643.8507659,266243.8125,264082.84375,390458.0,406507.0,268811.375,258199.765625,231370.875,217905.734375,-0.0849609375,0.841796875,-0.5498046875,5.004882335662842,-2.441406011581421,-2.746581792831421,100.0,38778.0,1.0
469643.8559331,264692.6875,263542.28125,389064.0625,406575.5625,268842.875,258177.59375,231479.859375,217975.390625,-0.08642578125,0.841552734375,-0.549072265625,4.730224132537842,-2.227782964706421,-2.624511480331421,100.0,38779.0,1.0
469643.8582983,263540.3125,263296.21875,390308.25,406823.0625,269557.84375,258137.53125,231614.6875,218046.734375,-0.085205078125,0.83984375,-0.548095703125,4.394530773162842,-2.136230230331421,-2.502441167831421,100.0,38780.0,1.0
469643.8609607,264388.34375,263700.96875,392413.3125,406915.40625,269968.21875,258150.6875,231600.828125,218044.578125,-0.0869140625,0.839111328125,-0.550048828125,4.180907726287842,-1.8920897245407104,-2.288818120956421,100.0,38781.0,1.0
469643.8610031,266119.4375,264198.625,392519.4375,406703.6875,269496.6875,258174.8125,231434.359375,217960.71875,-0.087890625,0.840087890625,-0.550048828125,3.845214605331421,-1.8310545682907104,-2.288818120956421,100.0,38782.0,1.0
469643.8633979,266204.71875,264045.5625,390385.65625,406481.5,268782.15625,258169.015625,231342.53125,217916.734375,-0.086181640625,0.83740234375,-0.548583984375,3.692626714706421,-1.6784666776657104,-2.136230230331421,100.0,38783.0,1.0
469643.865953,264657.09375,263505.71875,389000.65625,406543.75,268811.9375,258135.296875,231441.5,217972.703125,-0.0849609375,0.83544921875,-0.548095703125,3.479003667831421,-1.4648436307907104,-1.9226073026657104,100.0,38784.0,1.0
469643.8659949,263541.375,263291.3125,390295.8125,406821.15625,269555.875,258124.125,231599.046875,218052.71875,-0.083984375,0.83837890625,-0.546630859375,3.173827886581421,-1.2817381620407104,-1.8005369901657104,100.0,38785.0,1.0
469643.8708913,264384.40625,263683.375,392402.9375,406907.4375,269955.875,258132.0,231576.953125,218027.6875,-0.083251953125,0.836669921875,-0.545166015625,2.990722417831421,-1.1596678495407104,-1.5258787870407104,100.0,38786.0,1.0
469643.8736893,266118.625,264193.25,392508.4375,406703.96875,269486.78125,258164.359375,231421.296875,217950.4375,-0.0810546875,0.8359375,-0.544189453125,2.960204839706421,-1.0375975370407104,-1.3122557401657104,100.0,38787.0,1.0
469643.8737303,266213.5,264052.625,390400.59375,406492.96875,268791.4375,258174.375,231351.921875,217922.640625,-0.08056640625,0.832763671875,-0.5419921875,2.838134527206421,-0.7019042372703552,-1.1596678495407104,100.0,38788.0,1.0
469643.8959014,264678.90625,263524.75,389032.65625,406565.65625,268834.28125,258162.03125,231469.671875,217985.484375,-0.08154296875,0.83056640625,-0.544921875,2.777099370956421,-0.4272460639476776,-1.0070799589157104,100.0,38789.0,1.0
469643.8984417,263576.0625,263325.8125,390336.40625,406850.5,269587.4375,258162.75,231643.484375,218082.5,-0.07958984375,0.829833984375,-0.543212890625,2.746581792831421,-0.1525878757238388,-0.7324218153953552,100.0,38790.0,1.0
469643.8984837,264414.625,263719.40625,392454.09375,406932.9375,269989.0625,258161.671875,231616.296875,218050.75,-0.078369140625,0.8291015625,-0.545166015625,2.716064214706421,0.0,-0.5187987685203552,100.0,38791.0,1.0
469643.9009172,266140.34375,264219.1875,392564.6875,406720.3125,269518.0625,258187.78125,231448.65625,217937.828125,-0.078125,0.826904296875,-0.547119140625,2.777099370956421,0.2136230319738388,-0.2441406100988388,100.0,38792.0,1.0
469643.9032551,266231.5625,264079.0,390457.53125,406503.5,268819.875,258194.484375,231373.640625,217886.0625,-0.0751953125,0.826416015625,-0.5498046875,2.899169683456421,0.5493163466453552,0.0,100.0,38793.0,1.0
469643.9059025,264674.71875,263521.71875,389073.96875,406548.65625,268838.65625,258151.578125,231461.09375,217913.78125,-0.075439453125,0.825439453125,-0.551025390625,3.021239995956421,0.9155272841453552,0.1220703050494194,100.0,38794.0,1.0
469643.9082669,263552.75,263302.84375,390370.1875,406812.84375,269575.5625,258130.296875,231610.21875,217951.421875,-0.073974609375,0.824462890625,-0.55078125,3.265380620956421,1.2817381620407104,0.4272460639476776,100.0,38795.0,1.0
469643.9133412,264413.0,263729.9375,392512.65625,406922.1875,270004.15625,258161.140625,231610.84375,217895.1875,-0.07373046875,0.8251953125,-0.551025390625,3.417968511581421,1.5869139432907104,0.8239745497703552,100.0,38796.0,1.0
469643.9157919,266128.46875,264224.28125,392610.03125,406706.8125,269530.65625,258188.328125,231446.953125,217745.515625,-0.070068359375,0.822021484375,-0.551025390625,3.631591558456421,1.8920897245407104,1.2512205839157104,100.0,38797.0,1.0
469643.9184659,266199.28125,264053.15625,390472.3125,406472.5625,268810.84375,258177.59375,231356.03125,217655.9375,-0.066650390625,0.821533203125,-0.546875,3.814697027206421,2.227782964706421,1.6479490995407104,100.0,38798.0,1.0
469643.9185064,264665.78125,263521.8125,389099.46875,406540.6875,268848.3125,258155.59375,231466.890625,217695.453125,-0.064453125,0.822998046875,-0.548828125,4.028319835662842,2.563476324081421,2.075195074081421,100.0,38799.0,1.0
469643.9220631,263551.5,263307.75,390402.90625,406809.53125,269586.71875,258135.21875,231619.6875,217771.171875,-0.064453125,0.823974609375,-0.5478515625,4.180907726287842,2.899169683456421,2.563476324081421,100.0,38800.0,1.0
469643.9457921,264387.625,263706.59375,392514.0,406894.84375,269986.65625,258143.078125,231598.328125,217762.6875,-0.061767578125,0.82275390625,-0.546875,4.364013195037842,3.326415777206421,2.746581792831421,100.0,38801.0,1.0
469643.945833,266098.4375,264191.28125,392594.8125,406679.09375,269505.375,258163.46875,231429.171875,217678.109375,-0.06298828125,0.826904296875,-0.548583984375,4.516601085662842,3.753661870956421,3.051757574081421,100.0,38802.0,1.0
469643.9497813,266187.46875,264048.59375,390471.6875,406463.28125,268804.6875,258168.5625,231349.859375,217634.296875,-0.063232421875,0.8291015625,-0.550048828125,4.638671398162842,4.150390148162842,3.417968511581421,100.0,38803.0,1.0
469643.9498218,264649.84375,263503.65625,389095.625,406526.3125,268836.34375,258144.15625,231451.96875,217674.171875,-0.065673828125,0.832275390625,-0.550537109375,4.760741710662842,4.425048351287842,3.753661870956421,100.0,38804.0,1.0
469643.9498329,263542.71875,263293.375,390398.34375,406798.5625,269578.59375,258128.15625,231610.671875,217751.234375,-0.06494140625,0.83349609375,-0.551513671875,4.760741710662842,4.638671398162842,4.241942882537842,100.0,38805.0,1.0
469643.9534915,264399.96875,263711.25,392526.5,406903.25,270002.75,258155.234375,231608.875,217741.578125,-0.06787109375,0.83544921875,-0.5517578125,4.760741710662842,4.882812023162842,4.638671398162842,100.0,38806.0,1.0
469643.9535334,266128.28125,264220.34375,392619.3125,406706.1875,269538.1875,258195.828125,231456.34375,217638.3125,-0.072509765625,0.83935546875,-0.550537109375,4.791259288787842,5.065917491912842,5.004882335662842,100.0,38807.0,1.0
469643.9535434,266202.6875,264061.90625,390470.6875,406477.9375,268821.03125,258193.0625,231369.71875,217562.765625,-0.074951171875,0.841796875,-0.55224609375,4.608153820037842,5.096435070037842,5.279540538787842,100.0,38808.0,1.0
469643.9608647,264662.8125,263521.34375,389082.5625,406538.28125,268849.75,258166.0625,231472.359375,217594.515625,-0.0771484375,0.844482421875,-0.552001953125,4.516601085662842,5.096435070037842,5.584716320037842,100.0,38809.0,1.0
469643.9659453,263569.71875,263325.90625,390406.125,406828.0625,269609.53125,258165.171875,231643.296875,217669.609375,-0.079345703125,0.84765625,-0.54833984375,4.272460460662842,4.913329601287842,5.920409679412842,100.0,38810.0,1.0
469643.9682803,264420.53125,263737.90625,392525.8125,406932.84375,270028.5625,258189.125,231637.9375,217655.84375,-0.081298828125,0.849609375,-0.550048828125,4.119872570037842,4.821776866912842,6.103515148162842,100.0,38811.0,1.0
469643.9708928,266103.6875,264201.46875,392560.9375,406688.59375,269517.625,258184.46875,231438.375,217528.34375,-0.0810546875,0.85009765625,-0.55419921875,3.845214605331421,4.577636241912842,6.378173351287842,100.0,38812.0,1.0
469643.9745339,266189.1875,264042.875,390418.75,406464.25,268807.625,258183.046875,231351.5625,217477.65625,-0.085205078125,0.850830078125,-0.55859375,3.662109136581421,4.394530773162842,6.591796398162842,100.0,38813.0,1.0
469643.9958274,264655.5,263505.4375,389035.96875,406526.125,268840.625,258155.234375,231454.65625,217532.640625,-0.0869140625,0.854736328125,-0.5576171875,3.417968511581421,4.028319835662842,6.744384288787842,100.0,38814.0,1.0
469643.9958685,263545.9375,263295.15625,390327.375,406798.46875,269582.0625,258139.765625,231613.796875,217613.203125,-0.08740234375,0.8564453125,-0.557373046875,3.173827886581421,3.814697027206421,6.988524913787842,100.0,38815.0,1.0
469643.998413,264376.8125,263682.90625,392419.40625,406882.6875,269979.65625,258141.5625,231588.578125,217585.921875,-0.087890625,0.857177734375,-0.55908203125,2.929687261581421,3.479003667831421,7.049560070037842,100.0,38816.0,1.0
469643.9984543,266096.625,264178.0625,392486.46875,406673.75,269503.125,258165.515625,231422.734375,217495.984375,-0.08740234375,0.856201171875,-0.561767578125,2.777099370956421,3.173827886581421,7.171630382537842,100.0,38817.0,1.0
469644.0147567,266178.4375,264027.3125,390337.65625,406446.09375,268790.28125,258160.609375,231333.328125,217446.984375,-0.086181640625,0.857666015625,-0.564453125,2.563476324081421,2.868652105331421,7.171630382537842,100.0,38818.0,1.0
469644.0147985,264639.21875,263484.0,388952.375,406503.40625,268815.3125,258125.203125,231430.0625,217498.671875,-0.087646484375,0.854248046875,-0.566162109375,2.380370855331421,2.502441167831421,7.141112804412842,100.0,38819.0,1.0
469644.0148084,263536.28125,263264.9375,390262.09375,406777.90625,269558.84375,258104.640625,231587.953125,217585.84375,-0.09228515625,0.851806640625,-0.5654296875,2.349853277206421,2.166747808456421,7.049560070037842,100.0,38820.0,1.0
469644.0170771,264377.4375,263662.8125,392366.65625,406879.1875,269967.25,258119.65625,231577.140625,217576.09375,-0.094970703125,0.84814453125,-0.566650390625,2.197265386581421,1.7700194120407104,6.927489757537842,100.0,38821.0,1.0
469644.0171123,266083.75,264156.78125,392429.5,406658.90625,269479.96875,258136.828125,231401.0,217469.34375,-0.094970703125,0.84521484375,-0.57080078125,2.136230230331421,1.2817381620407104,6.713866710662842,100.0,38822.0,1.0
469644.0196628,266184.53125,264024.09375,390320.5625,406449.3125,268785.65625,258149.078125,231330.375,217434.921875,-0.095703125,0.842529296875,-0.570068359375,2.136230230331421,0.7934569716453552,6.683349132537842,100.0,38823.0,1.0
469644.0221306,264675.34375,263511.0625,388984.375,406531.3125,268842.25,258140.125,231455.1875,217512.53125,-0.097900390625,0.84130859375,-0.5703125,2.288818120956421,0.3662109076976776,6.591796398162842,100.0,38824.0,1.0
469644.0245287,263550.25,263279.96875,390294.03125,406783.34375,269571.875,258105.53125,231594.125,217577.96875,-0.099853515625,0.836181640625,-0.566650390625,2.471923589706421,-0.1831054538488388,6.530761241912842,100.0,38825.0,1.0
469644.0271205,264370.28125,263664.6875,392398.9375,406863.71875,269969.75,258111.96875,231570.875,217553.03125,-0.09912109375,0.834716796875,-0.5693359375,2.593993902206421,-0.7324218153953552,6.347655773162842,100.0,38826.0,1.0
469644.0309484,266071.15625,264161.34375,392453.03125,406655.84375,269492.40625,258145.046875,231412.0,217452.078125,-0.101806640625,0.83251953125,-0.57080078125,2.716064214706421,-1.3427733182907104,6.256103038787842,100.0,38827.0,1.0
469644.0459298,266142.59375,264009.53125,390292.84375,406425.8125,268774.71875,258140.578125,231319.46875,217382.890625,-0.1025390625,0.831787109375,-0.57080078125,2.960204839706421,-1.9531248807907104,6.072997570037842,100.0,38828.0,1.0
469644.0459715,264596.03125,263450.90625,388889.78125,406474.625,268788.5,258096.59375,231405.203125,217405.421875,-0.1044921875,0.828369140625,-0.567626953125,3.173827886581421,-2.532958745956421,6.072997570037842,100.0,38829.0,1.0
469644.0484298,263495.6875,263237.3125,390187.1875,406746.25,269526.75,258077.71875,231562.921875,217474.265625,-0.106689453125,0.8251953125,-0.570068359375,3.509521245956421,-3.051757574081421,5.920409679412842,100.0,38830.0,1.0
469644.0484707,264334.875,263639.71875,392287.71875,406838.5,269930.6875,258088.546875,231544.0625,217441.71875,-0.1064453125,0.822265625,-0.571044921875,3.814697027206421,-3.753661870956421,5.767821788787842,100.0,38831.0,1.0
469644.0509088,266044.59375,264141.125,392340.90625,406626.625,269451.09375,258119.5625,231380.890625,217344.171875,-0.10693359375,0.8212890625,-0.57275390625,4.180907726287842,-4.547118663787842,5.554198741912842,100.0,38832.0,1.0
469644.0544998,266135.4375,263993.78125,390202.65625,406408.125,268752.125,258127.25,231305.96875,217307.328125,-0.10791015625,0.820068359375,-0.57080078125,4.394530773162842,-5.065917491912842,5.340575695037842,100.0,38833.0,1.0
469644.0708239,264599.78125,263448.03125,388833.90625,406463.1875,268779.84375,258091.3125,231399.671875,217338.453125,-0.109130859375,0.8193359375,-0.569091796875,4.852294445037842,-5.645751476287842,5.218505382537842,100.0,38834.0,1.0
469644.0708623,263504.71875,263242.0625,390146.84375,406746.15625,269526.46875,258080.234375,231563.09375,217420.703125,-0.108642578125,0.81787109375,-0.5751953125,5.126952648162842,-6.256103038787842,4.943847179412842,100.0,38835.0,1.0
469644.0732874,264342.125,263640.0,392249.1875,406835.75,269932.71875,258093.546875,231548.53125,217409.890625,-0.108642578125,0.8173828125,-0.573974609375,5.615233898162842,-6.805419445037842,4.699706554412842,100.0,38836.0,1.0
469644.0733229,266040.75,264131.5625,392297.53125,406615.25,269449.5,258112.953125,231375.703125,217309.75,-0.1064453125,0.81689453125,-0.576416015625,6.011962413787842,-7.293700695037842,4.425048351287842,100.0,38837.0,1.0
469644.0757043,266112.0,263965.09375,390125.65625,406380.21875,268724.40625,258100.875,231280.578125,217243.3125,-0.10986328125,0.8193359375,-0.58056640625,6.286620616912842,-7.690429210662842,3.997802495956421,100.0,38838.0,1.0
469644.0781391,264582.625,263419.4375,388733.78125,406439.5,268748.96875,258066.734375,231382.046875,217291.15625,-0.1103515625,0.820068359375,-0.576416015625,6.561278820037842,-8.148192405700684,3.692626714706421,100.0,38839.0,1.0
469644.0844998,263502.125,263206.65625,390053.875,406722.65625,269497.84375,258054.125,231545.484375,217379.84375,-0.107177734375,0.821044921875,-0.5771484375,6.774901866912842,-8.636473655700684,3.326415777206421,100.0,38840.0,1.0
469644.088385,264365.09375,263625.0625,392187.5625,406834.75,269928.1875,258089.171875,231552.28125,217383.328125,-0.109375,0.821044921875,-0.578857421875,7.049560070037842,-9.185790061950684,3.021239995956421,100.0,38841.0,1.0
469644.0883987,266050.0625,264117.0625,392224.21875,406611.59375,269444.3125,258114.46875,231384.46875,217277.203125,-0.110107421875,0.823486328125,-0.577880859375,7.293700695037842,-9.552000999450684,2.410888433456421,100.0,38842.0,1.0
469644.1146016,266111.84375,263955.875,390047.875,406369.3125,268722.6875,258098.734375,231279.5,217200.40625,-0.111328125,0.822509765625,-0.582275390625,7.507323741912842,-9.887694358825684,2.075195074081421,100.0,38843.0,1.0
469644.1171397,264584.59375,263410.9375,388668.25,406430.46875,268750.5,258063.328125,231375.53125,217247.796875,-0.11083984375,0.822509765625,-0.585205078125,7.629394054412842,-10.192870140075684,1.4953612089157104,100.0,38844.0,1.0
469644.1171664,263514.5625,263210.125,390007.46875,406720.9375,269501.15625,258056.796875,231545.671875,217349.53125,-0.110595703125,0.825927734375,-0.582275390625,7.598876476287842,-10.437010765075684,1.0375975370407104,100.0,38845.0,1.0
469644.1211491,264355.96875,263607.0,392125.4375,406808.75,269905.375,258066.28125,231529.84375,217339.4375,-0.11083984375,0.826171875,-0.57763671875,7.659911632537842,-10.620116233825684,0.5493163466453552,100.0,38846.0,1.0
469644.1650109,266051.3125,264110.8125,392177.28125,406593.90625,269435.0,258101.234375,231370.78125,217246.71875,-0.112060546875,0.82861328125,-0.581787109375,7.629394054412842,-10.803221702575684,0.0915527269244194,100.0,38847.0,1.0
469644.1721434,266108.53125,263951.9375,389991.8125,406361.53125,268717.5,258095.25,231280.65625,217187.796875,-0.110107421875,0.827392578125,-0.580078125,7.507323741912842,-11.016844749450684,-0.3662109076976776,100.0,38848.0,1.0
469644.1745728,264596.46875,263416.75,388626.5,406428.84375,268752.03125,258072.0,231394.484375,217240.546875,-0.10791015625,0.829345703125,-0.58056640625,7.293700695037842,-11.169432640075684,-0.8850097060203552,100.0,38849.0,1.0
469644.1771243,263530.46875,263219.4375,389973.0625,406714.875,269497.0625,258060.734375,231557.921875,217319.046875,-0.106201171875,0.83056640625,-0.58349609375,7.202147960662842,-11.169432640075684,-1.2207030057907104,100.0,38850.0,1.0
469644.1795285,264386.46875,263623.8125,392111.21875,406817.0625,269919.21875,258082.734375,231544.5,217308.234375,-0.1044921875,0.83203125,-0.580322265625,6.927489757537842,-11.077879905700684,-1.6174315214157104,100.0,38851.0,1.0
469644.1820702,266047.0,264107.6875,392144.3125,406577.4375,269431.4375,258091.578125,231357.828125,217181.625,-0.102294921875,0.833740234375,-0.57763671875,6.652831554412842,-10.955809593200684,-1.9836424589157104,100.0,38852.0,1.0
469644.1845499,266088.40625,263929.3125,389955.625,406330.9375,268704.71875,258070.84375,231255.890625,217108.5,-0.101318359375,0.8349609375,-0.575439453125,6.256103038787842,-10.742186546325684,-2.197265386581421,100.0,38853.0,1.0
469644.187149,264577.6875,263391.375,388596.09375,406394.96875,268730.21875,258035.53125,231351.109375,217148.640625,-0.098876953125,0.835205078125,-0.574951171875,5.737304210662842,-10.467528343200684,-2.471923589706421,100.0,38854.0,1.0
469644.1896377,263523.40625,263188.59375,389964.90625,406680.09375,269475.875,258022.375,231511.421875,217223.5625,-0.098388671875,0.834228515625,-0.575927734375,5.340575695037842,-10.253905296325684,-2.655029058456421,100.0,38855.0,1.0
469644.1920682,264378.59375,263599.21875,392108.4375,406782.8125,269894.1875,258050.546875,231512.3125,217210.859375,-0.093994140625,0.833984375,-0.57177734375,5.004882335662842,-9.979247093200684,-3.021239995956421,100.0,38856.0,1.0
469644.1921034,266038.25,264091.78125,392126.40625,406554.8125,269412.84375,258076.734375,231346.640625,217098.5625,-0.092041015625,0.831298828125,-0.5712890625,4.669188976287842,-9.613036155700684,-3.234863042831421,100.0,38857.0,1.0
469644.1945046,266086.0,263935.125,389930.125,406322.28125,268701.15625,258074.421875,231257.328125,217035.453125,-0.087890625,0.831298828125,-0.572021484375,4.302978038787842,-9.246825218200684,-3.112792730331421,100.0,38858.0,1.0
469644.1969556,264592.71875,263405.03125,388592.78125,406404.25,268749.875,258055.109375,231369.53125,217092.9375,-0.083740234375,0.8271484375,-0.5703125,3.814697027206421,-8.850096702575684,-2.960204839706421,100.0,38859.0,1.0
469644.199398,263542.375,263196.28125,389972.78125,406690.28125,269494.625,258042.046875,231531.8125,217174.03125,-0.08349609375,0.82568359375,-0.569580078125,3.631591558456421,-8.331297874450684,-2.838134527206421,100.0,38860.0,1.0
469644.204611,264383.5,263595.84375,392114.0,406779.5,269903.21875,258054.5625,231514.1875,217142.46875,-0.0830078125,0.823974609375,-0.56787109375,3.295898199081421,-7.812499523162842,-2.807616949081421,100.0,38861.0,1.0
469644.2071186,266037.53125,264093.375,392119.875,406556.78125,269427.9375,258083.265625,231347.265625,217042.15625,-0.082763671875,0.817626953125,-0.5712890625,3.021239995956421,-7.202147960662842,-2.746581792831421,100.0,38862.0,1.0
469644.2095922,266086.96875,263943.53125,389924.9375,406323.8125,268722.34375,258079.953125,231262.25,216991.546875,-0.08447265625,0.814697265625,-0.572509765625,2.899169683456421,-6.530761241912842,-2.624511480331421,100.0,38863.0,1.0
469644.2121157,264581.90625,263402.71875,388585.375,406386.375,268753.625,258046.15625,231363.28125,217042.6875,-0.0830078125,0.81103515625,-0.5703125,2.929687261581421,-5.828856945037842,-2.685546636581421,100.0,38864.0,1.0
469644.2146124,263528.0625,263182.78125,389975.09375,406660.0625,269484.1875,258021.484375,231514.8125,217126.46875,-0.083984375,0.8115234375,-0.572265625,2.868652105331421,-5.279540538787842,-2.624511480331421,100.0,38865.0,1.0
469644.2184831,264393.25,263606.46875,392150.65625,406769.03125,269911.90625,258057.078125,231521.53125,217145.234375,-0.082275390625,0.81005859375,-0.571044921875,2.777099370956421,-4.638671398162842,-2.685546636581421,100.0,38866.0,1.0
469644.2184975,266023.59375,264089.8125,392135.8125,406535.34375,269422.40625,258078.890625,231346.734375,217043.140625,-0.082763671875,0.80712890625,-0.569091796875,2.685546636581421,-4.119872570037842,-2.716064214706421,100.0,38867.0,1.0
469644.2184995,266058.625,263931.90625,389909.9375,406299.65625,268709.65625,258075.125,231256.34375,216982.15625,-0.083984375,0.802490234375,-0.570068359375,2.685546636581421,-3.540038824081421,-2.532958745956421,100.0,38868.0,1.0
469644.2185016,264565.53125,263397.96875,388561.3125,406375.84375,268750.0625,258054.03125,231369.265625,217038.671875,-0.08642578125,0.798828125,-0.57080078125,2.777099370956421,-2.990722417831421,-2.471923589706421,100.0,38869.0,1.0
469644.220894,263514.84375,263177.15625,389938.375,406655.9375,269480.96875,258029.171875,231520.984375,217122.078125,-0.088134765625,0.794921875,-0.575927734375,2.899169683456421,-2.410888433456421,-2.502441167831421,100.0,38870.0,1.0
469644.2232776,264373.84375,263599.0625,392093.96875,406768.34375,269907.0625,258063.0625,231526.359375,217135.234375,-0.08837890625,0.794677734375,-0.574462890625,2.990722417831421,-1.7395018339157104,-2.410888433456421,100.0,38871.0,1.0
469644.2232916,266007.5,264087.9375,392076.96875,406538.71875,269426.40625,258086.671875,231356.5625,217038.9375,-0.09130859375,0.79296875,-0.574951171875,3.234863042831421,-1.2817381620407104,-2.380370855331421,100.0,38872.0,1.0
469644.2283316,266033.15625,263919.03125,389845.375,406292.40625,268699.8125,258062.875,231247.140625,216977.6875,-0.093017578125,0.791015625,-0.572998046875,3.509521245956421,-0.7629393935203552,-2.197265386581421,100.0,38873.0,1.0
469644.2308627,264541.65625,263385.375,388495.0625,406369.3125,268735.3125,258037.140625,231355.59375,217040.90625,-0.095703125,0.79052734375,-0.574951171875,3.570556402206421,-0.2136230319738388,-2.166747808456421,100.0,38874.0,1.0
469644.2332321,263518.21875,263195.125,389902.96875,406666.6875,269485.59375,258034.0,231526.71875,217137.375,-0.098876953125,0.789794921875,-0.577880859375,3.692626714706421,0.2746581733226776,-2.075195074081421,100.0,38875.0,1.0
469644.2332491,264352.40625,263585.28125,392037.375,406755.1875,269889.1875,258046.25,231507.671875,217126.203125,-0.10009765625,0.7880859375,-0.581787109375,3.906249761581421,0.7019042372703552,-2.044677495956421,100.0,38876.0,1.0
469644.2358495,265956.96875,264050.375,391971.28125,406511.09375,269386.8125,258058.046875,231322.78125,217015.421875,-0.1005859375,0.784423828125,-0.5849609375,4.150390148162842,0.9765624403953552,-1.9226073026657104,100.0,38877.0,1.0
469644.2383651,266007.59375,263902.78125,389732.8125,406298.125,268691.3125,258075.21875,231255.984375,216984.3125,-0.1005859375,0.782470703125,-0.58251953125,4.455565929412842,1.4038084745407104,-1.8920897245407104,100.0,38878.0,1.0
469644.2458854,264505.28125,263350.3125,388366.75,406348.03125,268708.03125,258024.53125,231340.65625,217010.328125,-0.100830078125,0.78125,-0.583984375,4.791259288787842,1.7395018339157104,-1.8310545682907104,100.0,38879.0,1.0
469644.2473273,263458.59375,263128.59375,389763.3125,406613.46875,269430.96875,257987.15625,231481.03125,217060.03125,-0.101318359375,0.7822265625,-0.584228515625,5.065917491912842,1.9836424589157104,-1.8005369901657104,100.0,38880.0,1.0
469644.2546871,264328.96875,263563.8125,391935.25,406728.8125,269866.46875,258030.15625,231492.921875,217065.21875,-0.10302734375,0.7841796875,-0.585693359375,5.371093273162842,2.258300542831421,-1.8310545682907104,100.0,38881.0,1.0
469644.254728,265955.90625,264048.59375,391905.21875,406504.5,269390.03125,258065.921875,231331.625,216971.609375,-0.1005859375,0.78466796875,-0.588623046875,5.645751476287842,2.593993902206421,-1.8005369901657104,100.0,38882.0,1.0
469644.2595318,265988.09375,263883.375,389644.65625,406269.96875,268669.6875,258060.375,231243.203125,216923.328125,-0.1025390625,0.78662109375,-0.591552734375,6.042479991912842,2.838134527206421,-1.8615721464157104,100.0,38883.0,1.0
469644.2646026,264525.84375,263380.71875,388326.25,406356.0,268724.40625,258044.375,231362.203125,216997.71875,-0.10546875,0.7861328125,-0.594482421875,6.195067882537842,3.051757574081421,-1.8005369901657104,100.0,38884.0,1.0
469644.2671279,263518.0625,263185.375,389775.1875,406654.6875,269483.71875,258037.484375,231533.859375,217101.078125,-0.10400390625,0.78857421875,-0.596435546875,6.439208507537842,3.234863042831421,-1.7395018339157104,100.0,38885.0,1.0
469644.2746411,264351.3125,263568.65625,391917.84375,406737.9375,269880.15625,258041.421875,231508.46875,217070.859375,-0.104736328125,0.78955078125,-0.594970703125,6.774901866912842,3.509521245956421,-1.8005369901657104,100.0,38886.0,1.0
469644.2771627,265983.625,264061.09375,391897.09375,406519.0625,269410.875,258080.40625,231350.3125,216950.875,-0.104736328125,0.79150390625,-0.59814453125,6.927489757537842,3.814697027206421,-1.9226073026657104,100.0,38887.0,1.0
469644.2796129,266009.5625,263901.25,389650.03125,406279.8125,268692.21875,258071.5625,231258.21875,216882.203125,-0.103759765625,0.79443359375,-0.59716796875,7.110595226287842,4.058837413787842,-1.8310545682907104,100.0,38888.0,1.0
469644.279652,264519.3125,263364.8125,388301.5,406338.625,268711.6875,258029.53125,231349.78125,216918.6875,-0.104248046875,0.7998046875,-0.597412109375,7.141112804412842,4.241942882537842,-1.6174315214157104,100.0,38889.0,1.0
469644.2820416,263512.40625,263169.375,389756.9375,406631.8125,269465.40625,258016.390625,231512.40625,216998.875,-0.107421875,0.8037109375,-0.59912109375,7.019042491912842,4.272460460662842,-1.5258787870407104,100.0,38890.0,1.0
469644.284659,264373.6875,263589.125,391950.1875,406739.8125,269897.25,258047.328125,231514.375,216999.421875,-0.10693359375,0.808837890625,-0.595458984375,6.958007335662842,4.516601085662842,-1.3732908964157104,100.0,38891.0,1.0
469644.2959445,265993.375,264074.78125,391914.875,406515.9375,269419.28125,258081.75,231354.6875,216900.890625,-0.111083984375,0.81298828125,-0.59619140625,6.774901866912842,4.516601085662842,-1.2207030057907104,100.0,38892.0,1.0
469644.295987,265997.9375,263885.0625,389640.625,406257.71875,268679.78125,258054.390625,231246.234375,216821.234375,-0.113525390625,0.81689453125,-0.599609375,6.469726085662842,4.608153820037842,-1.2207030057907104,100.0,38893.0,1.0
469644.298454,264527.625,263357.125,388316.875,406325.3125,268716.53125,258021.390625,231343.34375,216868.53125,-0.1123046875,0.821044921875,-0.5986328125,6.072997570037842,4.608153820037842,-1.0986326932907104,100.0,38894.0,1.0
469644.2984955,263518.84375,263158.1875,389782.15625,406609.71875,269466.03125,258003.15625,231507.40625,216960.25,-0.1142578125,0.8232421875,-0.595703125,5.645751476287842,4.699706554412842,-1.0375975370407104,100.0,38895.0,1.0
469644.3209188,264371.34375,263579.375,391955.125,406715.5,269885.625,258033.203125,231506.328125,216963.75,-0.1171875,0.826904296875,-0.59423828125,5.187987804412842,4.699706554412842,-1.0986326932907104,100.0,38896.0,1.0
469644.3234626,265990.78125,264062.34375,391913.375,406497.6875,269408.90625,258072.265625,231344.59375,216867.1875,-0.116943359375,0.8310546875,-0.59033203125,4.638671398162842,4.577636241912842,-1.0070799589157104,100.0,38897.0,1.0
469644.3235041,265997.5625,263870.21875,389633.75,406246.71875,268671.375,258048.484375,231240.96875,216794.765625,-0.120849609375,0.836669921875,-0.586181640625,3.936767339706421,4.333495616912842,-0.8239745497703552,100.0,38898.0,1.0
469644.3258894,264517.625,263340.03125,388301.9375,406302.34375,268695.15625,257997.34375,231319.109375,216815.859375,-0.12109375,0.837890625,-0.589111328125,3.143310308456421,4.180907726287842,-0.7629393935203552,100.0,38899.0,1.0
469644.328453,263513.03125,263148.96875,389776.34375,406588.1875,269447.0625,257981.703125,231477.1875,216880.6875,-0.122314453125,0.83984375,-0.5888671875,2.227782964706421,4.028319835662842,-0.7324218153953552,100.0,38900.0,1.0
469644.3308059,264360.25,263557.5625,391950.1875,406690.625,269865.21875,258006.375,231472.984375,216870.578125,-0.12060546875,0.8408203125,-0.5869140625,1.4343260526657104,3.784179449081421,-0.7019042372703552,100.0,38901.0,1.0
469644.3359358,265969.9375,264032.75,391888.3125,406471.21875,269381.90625,258042.140625,231315.4375,216782.25,-0.118896484375,0.839111328125,-0.589111328125,0.7324218153953552,3.601073980331421,-0.6103515028953552,100.0,38902.0,1.0
469644.3382714,265995.59375,263869.15625,389611.5625,406236.71875,268661.8125,258037.046875,231228.890625,216735.21875,-0.119140625,0.838134765625,-0.589599609375,0.0,3.295898199081421,-0.5493163466453552,100.0,38903.0,1.0
469644.3411248,264519.21875,263343.96875,388279.875,406299.5625,268697.03125,258001.375,231333.765625,216780.546875,-0.119384765625,0.83544921875,-0.59033203125,-0.5798339247703552,3.082275152206421,-0.5798339247703552,100.0,38904.0,1.0
469644.3411659,263526.1875,263168.46875,389760.96875,406595.5,269459.9375,257996.1875,231509.09375,216878.0,-0.119140625,0.8359375,-0.592529296875,-1.0986326932907104,2.990722417831421,-0.5187987685203552,100.0,38905.0,1.0
469644.3471469,264370.625,263572.0625,391927.75,406695.375,269871.75,258019.4375,231497.125,216864.234375,-0.118896484375,0.833984375,-0.5888671875,-1.5869139432907104,2.685546636581421,-0.4882812201976776,100.0,38906.0,1.0
469644.3509235,265973.0625,264038.21875,391870.625,406466.40625,269384.65625,258044.734375,231327.0625,216756.765625,-0.1181640625,0.8310546875,-0.58935546875,-2.075195074081421,2.563476324081421,-0.4272460639476776,100.0,38907.0,1.0
469644.3709464,265987.90625,263866.125,389593.34375,406223.84375,268656.34375,258029.265625,231234.96875,216693.46875,-0.11669921875,0.828369140625,-0.589111328125,-2.532958745956421,2.288818120956421,-0.3356933295726776,100.0,38908.0,1.0
469644.3709884,264525.125,263354.875,388276.90625,406296.0,268698.8125,258007.0,231349.59375,216745.859375,-0.116943359375,0.82568359375,-0.585693359375,-2.990722417831421,2.014159917831421,-0.2136230319738388,100.0,38909.0,1.0
469644.3734918,263515.90625,263164.4375,389740.78125,406581.90625,269447.15625,257989.5625,231507.046875,216833.203125,-0.1171875,0.826904296875,-0.582763671875,-3.387450933456421,1.8920897245407104,-0.0915527269244194,100.0,38910.0,1.0
469644.3735324,264366.625,263574.71875,391921.84375,406686.4375,269867.03125,258013.0,231502.921875,216838.03125,-0.115234375,0.822998046875,-0.582763671875,-3.784179449081421,1.7089842557907104,-0.1220703050494194,100.0,38911.0,1.0
469644.3772703,265960.65625,264039.375,391860.625,406450.3125,269375.625,258031.765625,231331.984375,216744.78125,-0.115478515625,0.81884765625,-0.58203125,-4.089354991912842,1.5563963651657104,-0.0610351525247097,100.0,38912.0,1.0
469644.377311,265981.3125,263868.875,389580.71875,406209.71875,268651.53125,258024.703125,231238.1875,216695.796875,-0.115234375,0.815185546875,-0.580078125,-4.394530773162842,1.3122557401657104,0.03051757626235485,100.0,38913.0,1.0
469644.3773209,264521.90625,263350.9375,388264.3125,406286.25,268695.53125,258001.375,231351.203125,216765.890625,-0.114501953125,0.810791015625,-0.5791015625,-4.608153820037842,1.1291502714157104,0.1220703050494194,100.0,38914.0,1.0
469644.3834219,263513.03125,263163.09375,389738.8125,406575.21875,269449.21875,257986.265625,231513.21875,216854.84375,-0.11279296875,0.80859375,-0.577392578125,-4.638671398162842,0.9155272841453552,0.2441406100988388,100.0,38915.0,1.0
469644.3834635,264345.0625,263565.625,391906.46875,406671.78125,269860.65625,258007.625,231503.203125,216845.546875,-0.11376953125,0.805908203125,-0.575927734375,-4.547118663787842,0.7019042372703552,0.3967284858226776,100.0,38916.0,1.0
469644.3859049,265957.53125,264050.46875,391854.96875,406456.9375,269383.59375,258044.28125,231347.09375,216767.9375,-0.110595703125,0.802734375,-0.575927734375,-4.638671398162842,0.5187987685203552,0.5187987685203552,100.0,38917.0,1.0
469644.4208666,265980.21875,263878.375,389585.84375,406218.3125,268662.53125,258033.828125,231254.640625,216721.984375,-0.1064453125,0.79931640625,-0.578369140625,-4.455565929412842,0.5187987685203552,0.5493163466453552,100.0,38918.0,1.0
469644.4250013,264516.8125,263359.4375,388262.5,406297.78125,268707.15625,258013.171875,231365.953125,216786.625,-0.103271484375,0.798095703125,-0.581298828125,-4.455565929412842,0.4577636420726776,0.6408690810203552,100.0,38919.0,1.0
469644.4250434,263510.90625,263181.4375,389731.5625,406591.65625,269468.53125,258001.375,231530.734375,216870.765625,-0.1005859375,0.795166015625,-0.583251953125,-4.333495616912842,0.4272460639476776,0.7019042372703552,100.0,38920.0,1.0
469644.4250536,264335.59375,263572.0625,391892.625,406681.78125,269874.71875,258013.4375,231513.03125,216847.34375,-0.09814453125,0.79443359375,-0.581787109375,-4.211425304412842,0.5493163466453552,0.8850097060203552,100.0,38921.0,1.0
469644.4285678,265925.25,264030.34375,391822.15625,406433.6875,269369.1875,258023.546875,231325.8125,216722.078125,-0.098388671875,0.792724609375,-0.58056640625,-3.906249761581421,0.6713866591453552,0.9765624403953552,100.0,38922.0,1.0
469644.4286084,265965.3125,263877.65625,389575.90625,406203.71875,268659.75,258024.796875,231242.046875,216672.375,-0.099365234375,0.7919921875,-0.58154296875,-3.570556402206421,0.7934569716453552,1.2817381620407104,100.0,38923.0,1.0
469644.4286171,264505.90625,263363.09375,388251.6875,406285.875,268705.96875,258005.578125,231357.546875,216742.734375,-0.098388671875,0.7919921875,-0.580810546875,-3.051757574081421,0.7629393935203552,1.3122557401657104,100.0,38924.0,1.0
469644.4286262,263490.96875,263171.875,389709.21875,406573.4375,269459.5,257991.796875,231520.359375,216833.296875,-0.099609375,0.79248046875,-0.579345703125,-2.593993902206421,0.7934569716453552,1.5869139432907104,100.0,38925.0,1.0
469644.4332773,264339.6875,263580.53125,391897.53125,406677.75,269884.90625,258022.65625,231514.546875,216821.140625,-0.097412109375,0.797119140625,-0.583251953125,-2.319335699081421,0.8239745497703552,1.7700194120407104,100.0,38926.0,1.0
469644.4359316,265949.90625,264055.84375,391859.96875,406454.25,269400.5,258048.578125,231346.46875,216718.59375,-0.094482421875,0.798828125,-0.580078125,-1.9531248807907104,0.7934569716453552,1.8920897245407104,100.0,38927.0,1.0
469644.4383223,265965.75,263882.28125,389588.25,406203.53125,268671.65625,258028.28125,231246.953125,216645.546875,-0.090087890625,0.8017578125,-0.578125,-1.7089842557907104,0.8850097060203552,2.105712652206421,100.0,38928.0,1.0
469644.4459137,264485.625,263350.21875,388250.1875,406266.5,268702.65625,257991.796875,231347.984375,216688.546875,-0.0869140625,0.80078125,-0.578369140625,-1.5563963651657104,1.0681151151657104,2.319335699081421,100.0,38929.0,1.0
469644.4484484,263479.0625,263163.90625,389712.59375,406561.09375,269458.59375,257980.0,231512.234375,216778.3125,-0.085205078125,0.80126953125,-0.586181640625,-1.3427733182907104,1.3732908964157104,2.655029058456421,100.0,38930.0,1.0
469644.4508086,264310.65625,263560.25,391878.84375,406654.96875,269870.59375,257998.59375,231497.390625,216762.046875,-0.084716796875,0.805419921875,-0.5830078125,-1.0681151151657104,1.6174315214157104,2.990722417831421,100.0,38931.0,1.0
469644.4532275,265917.65625,264032.125,391831.71875,406425.28125,269379.3125,258023.09375,231330.015625,216654.75,-0.0859375,0.807861328125,-0.580810546875,-0.8544921278953552,1.8005369901657104,3.173827886581421,100.0,38932.0,1.0
469644.4559308,265952.5,263866.75,389585.90625,406188.96875,268661.71875,258015.5,231238.734375,216584.75,-0.085205078125,0.81103515625,-0.579833984375,-0.7019042372703552,2.075195074081421,3.509521245956421,100.0,38933.0,1.0
469644.4583023,264494.03125,263351.65625,388261.09375,406267.65625,268706.0625,257995.828125,231352.1875,216646.4375,-0.084228515625,0.81494140625,-0.58056640625,-0.4272460639476776,2.319335699081421,3.784179449081421,100.0,38934.0,1.0
469644.4618394,263475.75,263157.375,389703.5,406555.71875,269454.59375,257978.484375,231509.640625,216730.484375,-0.0869140625,0.81640625,-0.582275390625,-0.3051757514476776,2.532958745956421,3.967284917831421,100.0,38935.0,1.0
469644.4618807,264307.96875,263558.90625,391867.0625,406652.375,269866.5625,257999.046875,231498.546875,216723.328125,-0.085205078125,0.81884765625,-0.580810546875,-0.1220703050494194,2.685546636581421,4.180907726287842,100.0,38936.0,1.0
469644.4696802,265930.4375,264044.84375,391837.28125,406437.0625,269390.65625,258035.53125,231343.0625,216636.609375,-0.086181640625,0.82080078125,-0.582763671875,-0.0915527269244194,2.899169683456421,4.455565929412842,100.0,38937.0,1.0
469644.4697229,265960.375,263860.75,389581.90625,406194.59375,268665.03125,258021.21875,231249.109375,216574.203125,-0.087646484375,0.820556640625,-0.5830078125,-0.1525878757238388,2.990722417831421,4.608153820037842,100.0,38938.0,1.0
469644.4734283,264501.25,263354.78125,388260.0,406272.3125,268711.53125,258002.71875,231358.359375,216631.78125,-0.08837890625,0.822021484375,-0.583251953125,-0.1525878757238388,3.021239995956421,4.791259288787842,100.0,38939.0,1.0
469644.521116,263492.3125,263175.71875,389712.53125,406569.84375,269473.1875,257998.859375,231527.78125,216730.921875,-0.092041015625,0.82470703125,-0.583984375,-0.2136230319738388,3.112792730331421,5.004882335662842,100.0,38940.0,1.0
469644.5346753,264307.4375,263556.84375,391855.34375,406654.15625,269874.0,258005.65625,231505.703125,216716.4375,-0.091796875,0.82373046875,-0.587646484375,-0.2136230319738388,3.051757574081421,5.035399913787842,100.0,38941.0,1.0
469644.5347177,265913.09375,264028.125,391806.0625,406420.09375,269383.5,258025.953125,231332.78125,216624.359375,-0.09375,0.825439453125,-0.58837890625,-0.1831054538488388,3.173827886581421,5.126952648162842,100.0,38942.0,1.0
469644.5370315,265950.8125,263867.09375,389559.375,406179.84375,268667.28125,258017.015625,231238.90625,216568.5625,-0.09521484375,0.826416015625,-0.58984375,-0.1831054538488388,2.990722417831421,5.157470226287842,100.0,38943.0,1.0
469644.5420349,264479.09375,263339.59375,388223.34375,406245.46875,268701.0625,257988.9375,231343.15625,216623.1875,-0.096435546875,0.82666015625,-0.5888671875,-0.1525878757238388,2.929687261581421,5.035399913787842,100.0,38944.0,1.0
469644.5471347,263463.40625,263147.375,389667.71875,406534.625,269458.25,257979.5625,231509.359375,216724.484375,-0.0986328125,0.828369140625,-0.591552734375,-0.1831054538488388,2.960204839706421,4.913329601287842,100.0,38945.0,1.0
469644.5496713,264301.0,263557.125,391828.34375,406640.75,269880.0625,258010.3125,231511.421875,216741.84375,-0.099609375,0.825439453125,-0.589599609375,-0.0915527269244194,2.899169683456421,4.882812023162842,100.0,38946.0,1.0
469644.5520165,265915.9375,264034.71875,391794.0,406412.21875,269396.5625,258040.4375,231345.296875,216646.171875,-0.098388671875,0.82470703125,-0.5869140625,-0.1220703050494194,2.685546636581421,4.791259288787842,100.0,38947.0,1.0
469644.5546117,265936.875,263864.78125,389536.9375,406161.875,268667.28125,258020.140625,231241.234375,216575.359375,-0.09619140625,0.823486328125,-0.58935546875,-0.0915527269244194,2.471923589706421,4.486083507537842,100.0,38948.0,1.0
469644.5596195,264461.46875,263343.71875,388198.78125,406229.03125,268699.375,257990.1875,231343.0625,216624.4375,-0.09326171875,0.8212890625,-0.589111328125,-0.0915527269244194,2.319335699081421,4.455565929412842,100.0,38949.0,1.0
469644.5620596,263439.71875,263141.90625,389629.1875,406518.53125,269446.96875,257975.359375,231501.234375,216712.328125,-0.0908203125,0.820556640625,-0.5869140625,-0.1220703050494194,2.227782964706421,4.272460460662842,100.0,38950.0,1.0
469644.563593,264269.96875,263541.125,391782.90625,406614.0,269857.625,257993.140625,231488.625,216698.75,-0.08740234375,0.8193359375,-0.590087890625,-0.0915527269244194,2.227782964706421,4.058837413787842,100.0,38951.0,1.0
469644.5708969,265893.3125,264025.34375,391759.59375,406389.59375,269377.25,258019.96875,231322.953125,216604.59375,-0.0849609375,0.820556640625,-0.59033203125,-0.0610351525247097,2.197265386581421,4.028319835662842,100.0,38952.0,1.0
469644.5734161,265935.625,263865.75,389525.03125,406154.0,268661.625,258013.171875,231234.625,216554.96875,-0.0849609375,0.822265625,-0.5927734375,-0.1220703050494194,2.288818120956421,3.906249761581421,100.0,38953.0,1.0
469644.5758075,264481.78125,263351.46875,388202.53125,406234.75,268708.03125,257995.921875,231351.5625,216620.953125,-0.082763671875,0.822998046875,-0.59228515625,-0.1525878757238388,2.319335699081421,3.845214605331421,100.0,38954.0,1.0
469644.5782259,263461.46875,263151.9375,389630.71875,406520.5,269454.0625,257980.09375,231510.703125,216707.6875,-0.081298828125,0.8203125,-0.588623046875,0.03051757626235485,2.227782964706421,3.631591558456421,100.0,38955.0,1.0
469644.5809155,264282.65625,263535.40625,391779.96875,406609.1875,269858.53125,257992.4375,231494.171875,216693.5625,-0.081298828125,0.81689453125,-0.586181640625,0.03051757626235485,2.227782964706421,3.509521245956421,100.0,38956.0,1.0
469644.5809572,265904.59375,264025.34375,391759.125,406384.9375,269380.28125,258023.90625,231333.953125,216588.765625,-0.078369140625,0.814453125,-0.586669921875,0.0915527269244194,2.319335699081421,3.356933355331421,100.0,38957.0,1.0
469644.5832913,265935.96875,263865.5625,389505.8125,406141.5,268654.5625,258013.625,231238.90625,216517.328125,-0.07861328125,0.81591796875,-0.5849609375,0.1525878757238388,2.410888433456421,3.112792730331421,100.0,38958.0,1.0
469644.5857993,264465.9375,263327.625,388175.4375,406207.03125,268689.96875,257981.515625,231337.078125,216566.78125,-0.080810546875,0.818115234375,-0.58740234375,0.1831054538488388,2.532958745956421,2.929687261581421,100.0,38959.0,1.0
469644.5883702,263445.09375,263124.3125,389604.4375,406496.875,269438.3125,257967.390625,231499.078125,216650.546875,-0.0849609375,0.8173828125,-0.584716796875,0.2136230319738388,2.624511480331421,2.746581792831421,100.0,38960.0,1.0
469644.5884118,264267.90625,263522.6875,391758.0625,406589.0625,269852.71875,257981.078125,231485.5,216633.125,-0.087890625,0.81591796875,-0.581787109375,0.1220703050494194,2.502441167831421,2.441406011581421,100.0,38961.0,1.0
469644.5907615,265877.9375,263995.5625,391725.0625,406354.71875,269366.0625,258000.5625,231311.859375,216529.140625,-0.089599609375,0.81201171875,-0.58154296875,0.2441406100988388,2.471923589706421,2.075195074081421,100.0,38962.0,1.0
469644.5934414,265925.78125,263847.4375,389493.375,406126.5625,268657.78125,258005.65625,231232.5625,216490.609375,-0.09423828125,0.81103515625,-0.58349609375,0.1831054538488388,2.410888433456421,1.6784666776657104,100.0,38963.0,1.0
469644.5934831,264471.5625,263339.6875,388167.375,406215.34375,268706.34375,257993.5,231355.234375,216568.5625,-0.097412109375,0.809814453125,-0.58251953125,0.1831054538488388,2.075195074081421,1.2512205839157104,100.0,38964.0,1.0
469644.5958787,263451.71875,263143.0,389594.15625,406511.03125,269459.40625,257979.828125,231516.515625,216666.46875,-0.100830078125,0.8115234375,-0.584716796875,0.3967284858226776,1.9531248807907104,0.8850097060203552,100.0,38965.0,1.0
469644.5982028,264276.3125,263535.65625,391745.375,406608.75,269870.0625,257995.734375,231503.015625,216660.828125,-0.101806640625,0.8095703125,-0.581787109375,0.3356933295726776,1.5869139432907104,0.4577636420726776,100.0,38966.0,1.0
469644.6009077,265890.65625,264015.15625,391717.75,406377.8125,269385.28125,258023.09375,231336.625,216570.890625,-0.104248046875,0.80810546875,-0.58056640625,0.3967284858226776,1.3427733182907104,0.0,100.0,38967.0,1.0
469644.60345,265924.53125,263850.375,389464.0625,406134.78125,268659.84375,258010.84375,231241.6875,216518.3125,-0.103759765625,0.806396484375,-0.58251953125,0.5493163466453552,1.1901854276657104,-0.4577636420726776,100.0,38968.0,1.0
469644.603491,264462.53125,263332.96875,388130.71875,406206.59375,268699.625,257983.75,231349.0625,216585.375,-0.10595703125,0.805908203125,-0.585205078125,0.6713866591453552,0.9765624403953552,-0.8850097060203552,100.0,38969.0,1.0
469644.6058073,263442.21875,263138.34375,389572.0625,406494.5625,269452.78125,257969.359375,231511.421875,216686.40625,-0.107421875,0.8056640625,-0.58837890625,0.7629393935203552,0.7324218153953552,-1.4038084745407104,100.0,38970.0,1.0
469644.6084272,264267.625,263524.9375,391728.5625,406589.78125,269861.84375,257984.296875,231499.984375,216679.078125,-0.10595703125,0.8046875,-0.591796875,0.8544921278953552,0.4577636420726776,-1.8615721464157104,100.0,38971.0,1.0
469644.6084692,265910.3125,264029.8125,391714.6875,406385.03125,269398.09375,258032.65625,231350.671875,216595.484375,-0.105712890625,0.80419921875,-0.5888671875,0.9460448622703552,0.1831054538488388,-2.380370855331421,100.0,38972.0,1.0
469644.6109245,265920.40625,263834.375,389436.25,406115.03125,268648.75,257996.8125,231227.828125,216494.0,-0.10693359375,0.80322265625,-0.59033203125,1.1291502714157104,0.03051757626235485,-2.807616949081421,100.0,38973.0,1.0
469644.6459502,264444.21875,263296.84375,388086.5625,406174.84375,268670.3125,257955.0625,231317.140625,216509.375,-0.10791015625,0.801513671875,-0.589599609375,1.2817381620407104,-0.2441406100988388,-3.295898199081421,100.0,38974.0,1.0
469644.6460089,263438.84375,263116.15625,389541.125,406480.34375,269434.75,257952.90625,231489.96875,216594.765625,-0.1064453125,0.800537109375,-0.593994140625,1.4038084745407104,-0.4272460639476776,-3.662109136581421,100.0,38975.0,1.0
469644.6484494,264261.46875,263516.09375,391702.4375,406578.78125,269850.65625,257974.734375,231485.40625,216608.359375,-0.1064453125,0.800537109375,-0.591796875,1.6174315214157104,-0.4577636420726776,-3.997802495956421,100.0,38976.0,1.0
469644.6484905,265862.03125,263990.3125,391653.375,406342.40625,269356.3125,257990.375,231307.484375,216521.09375,-0.108154296875,0.801025390625,-0.59326171875,1.8310545682907104,-0.4272460639476776,-4.364013195037842,100.0,38977.0,1.0
469644.6508031,265888.84375,263817.03125,389388.0625,406097.5,268629.90625,257977.140625,231213.078125,216467.984375,-0.10791015625,0.80078125,-0.593017578125,1.9836424589157104,-0.5493163466453552,-4.547118663787842,100.0,38978.0,1.0
469644.6534081,264435.09375,263310.53125,388050.25,406173.78125,268674.875,257960.25,231330.828125,216533.25,-0.108154296875,0.800048828125,-0.594970703125,2.105712652206421,-0.5798339247703552,-4.821776866912842,100.0,38979.0,1.0
469644.6559404,263428.8125,263119.84375,389511.0,406465.96875,269436.6875,257952.375,231496.140625,216629.359375,-0.109375,0.80029296875,-0.59521484375,2.288818120956421,-0.7629393935203552,-4.974364757537842,100.0,38980.0,1.0
469644.6585472,264240.90625,263503.75,391668.65625,406555.71875,269842.625,257966.234375,231483.265625,216632.3125,-0.110107421875,0.803466796875,-0.59228515625,2.349853277206421,-0.6713866591453552,-5.187987804412842,100.0,38981.0,1.0
469644.6607679,265837.09375,263980.0,391616.96875,406319.6875,269350.59375,257987.953125,231303.734375,216565.53125,-0.111083984375,0.804931640625,-0.590576171875,2.288818120956421,-0.6713866591453552,-5.401610851287842,100.0,38982.0,1.0
469644.6634231,265868.125,263815.5,389342.8125,406082.65625,268624.53125,257980.8125,231207.078125,216548.984375,-0.11181640625,0.80810546875,-0.589599609375,2.258300542831421,-0.6713866591453552,-5.432128429412842,100.0,38983.0,1.0
469644.6658257,264415.875,263298.90625,388007.625,406158.5625,268662.53125,257960.875,231322.859375,216637.5,-0.11181640625,0.80615234375,-0.594482421875,2.044677495956421,-0.6103515028953552,-5.493163585662842,100.0,38984.0,1.0
469644.6658669,263412.375,263110.25,389470.125,406452.8125,269420.34375,257952.46875,231493.71875,216749.890625,-0.1142578125,0.8056640625,-0.5966796875,2.014159917831421,-0.5798339247703552,-5.554198741912842,100.0,38985.0,1.0
469644.6673688,264237.0625,263514.75,391647.90625,406550.96875,269843.5,257973.125,231487.015625,216752.390625,-0.1123046875,0.80419921875,-0.59375,1.9836424589157104,-0.6103515028953552,-5.676269054412842,100.0,38986.0,1.0
469644.6745267,265835.03125,263988.40625,391595.78125,406323.71875,269358.46875,257996.28125,231315.71875,216663.78125,-0.1123046875,0.80322265625,-0.59619140625,2.044677495956421,-0.5187987685203552,-5.676269054412842,100.0,38987.0,1.0
469644.6745682,265865.96875,263818.375,389313.21875,406080.4375,268630.96875,257987.421875,231220.140625,216613.453125,-0.113037109375,0.8037109375,-0.596435546875,1.9836424589157104,-0.4272460639476776,-5.615233898162842,100.0,38988.0,1.0
469644.6959467,264405.5,263289.625,387965.5,406139.625,268656.90625,257949.6875,231314.109375,216679.515625,-0.1142578125,0.806884765625,-0.593017578125,2.014159917831421,-0.3356933295726776,-5.523681163787842,100.0,38989.0,1.0
469644.6996856,263407.8125,263104.1875,389438.125,406437.34375,269415.6875,257936.546875,231475.390625,216792.890625,-0.114990234375,0.806396484375,-0.591064453125,1.9531248807907104,-0.2136230319738388,-5.432128429412842,100.0,38990.0,1.0
469644.699726,264239.21875,263514.84375,391628.875,406543.125,269840.375,257963.1875,231472.359375,216808.71875,-0.1142578125,0.807373046875,-0.5908203125,1.9226073026657104,-0.1831054538488388,-5.493163585662842,100.0,38991.0,1.0
469644.6997361,265834.6875,263986.4375,391573.625,406319.0625,269357.84375,257998.953125,231312.40625,216694.890625,-0.11328125,0.8046875,-0.59423828125,1.8920897245407104,-0.1220703050494194,-5.310058116912842,100.0,38992.0,1.0
469644.70361,265859.8125,263815.5,389278.0,406074.53125,268628.28125,257992.34375,231212.53125,216585.640625,-0.111572265625,0.806396484375,-0.594482421875,1.8310545682907104,0.0,-4.943847179412842,100.0,38993.0,1.0
469644.7036493,264421.78125,263312.25,387955.9375,406151.4375,268672.90625,257966.40625,231316.6875,216602.984375,-0.112060546875,0.805908203125,-0.5947265625,1.8920897245407104,0.2136230319738388,-4.852294445037842,100.0,38994.0,1.0
469644.7036578,263426.75,263134.5,389442.59375,406448.875,269432.59375,257953.984375,231482.28125,216660.75,-0.110595703125,0.80419921875,-0.5908203125,1.8920897245407104,0.3051757514476776,-4.486083507537842,100.0,38995.0,1.0
469644.7036668,264240.8125,263530.5625,391623.3125,406543.46875,269846.71875,257970.4375,231470.921875,216609.0625,-0.111572265625,0.80517578125,-0.590087890625,1.8920897245407104,0.4272460639476776,-4.302978038787842,100.0,38996.0,1.0
469644.7057691,265819.90625,263974.84375,391554.40625,406309.3125,269350.96875,257990.46875,231292.734375,216473.609375,-0.113525390625,0.80859375,-0.592041015625,1.7700194120407104,0.6103515028953552,-4.028319835662842,100.0,38997.0,1.0
469644.7209039,265848.1875,263811.03125,389252.15625,406070.96875,268622.90625,257983.21875,231200.203125,216401.015625,-0.11669921875,0.810546875,-0.593994140625,1.7089842557907104,0.7629393935203552,-3.692626714706421,100.0,38998.0,1.0
469644.7258917,264396.21875,263287.8125,387912.5625,406132.03125,268652.78125,257945.40625,231296.40625,216435.625,-0.118408203125,0.81005859375,-0.594970703125,1.5563963651657104,0.9155272841453552,-3.326415777206421,100.0,38999.0,1.0
469644.72593,263412.5625,263108.125,389415.6875,406426.0,269414.8125,257933.6875,231463.859375,216505.359375,-0.1162109375,0.8095703125,-0.59033203125,1.4038084745407104,1.0070799589157104,-3.112792730331421,100.0,39000.0,1.0
469644.7259405,264237.0625,263506.34375,391613.21875,406525.21875,269831.78125,257948.625,231447.3125,216474.59375,-0.11865234375,0.80908203125,-0.58984375,1.2207030057907104,1.1596678495407104,-2.746581792831421,100.0,39001.0,1.0
469644.7559563,265828.0625,263974.65625,391547.6875,406305.8125,269345.875,257980.890625,231281.640625,216374.640625,-0.120361328125,0.810546875,-0.5908203125,1.2512205839157104,1.1901854276657104,-2.441406011581421,100.0,39002.0,1.0
469644.755999,265882.40625,263830.4375,389268.4375,406091.25,268640.96875,257998.953125,231215.671875,216334.3125,-0.1201171875,0.810302734375,-0.58984375,1.0681151151657104,1.3122557401657104,-2.197265386581421,100.0,39003.0,1.0
469644.7584412,264420.875,263300.0625,387921.34375,406139.1875,268661.375,257953.359375,231305.703125,216380.625,-0.119873046875,0.809814453125,-0.58837890625,0.9155272841453552,1.3122557401657104,-1.8920897245407104,100.0,39004.0,1.0
469644.7608256,263433.65625,263120.53125,389424.625,406432.34375,269423.375,257943.25,231470.109375,216484.078125,-0.120849609375,0.80859375,-0.587890625,0.8239745497703552,1.3122557401657104,-1.4648436307907104,100.0,39005.0,1.0
469644.7608617,264248.6875,263515.09375,391619.84375,406527.375,269836.71875,257957.65625,231454.65625,216477.453125,-0.123046875,0.807861328125,-0.58935546875,0.7324218153953552,1.3122557401657104,-1.0681151151657104,100.0,39006.0,1.0
469644.7634127,265830.28125,263983.0625,391558.6875,406303.875,269351.5,257990.375,231294.796875,216388.5,-0.12109375,0.806640625,-0.588134765625,0.7019042372703552,1.4038084745407104,-0.7019042372703552,100.0,39007.0,1.0
469644.7683581,265853.71875,263814.6875,389258.15625,406065.875,268622.46875,257987.328125,231205.375,216329.484375,-0.120849609375,0.805419921875,-0.5888671875,0.6103515028953552,1.3732908964157104,-0.4272460639476776,100.0,39008.0,1.0
469644.7708793,264405.15625,263299.09375,387920.4375,406127.90625,268652.875,257951.84375,231301.765625,216374.828125,-0.12255859375,0.80419921875,-0.59130859375,0.5187987685203552,1.3732908964157104,-0.0610351525247097,100.0,39009.0,1.0
469644.7724924,263413.0,263116.96875,389415.0625,406417.21875,269409.4375,257935.828125,231460.375,216454.03125,-0.12255859375,0.80224609375,-0.589111328125,0.6713866591453552,1.4038084745407104,0.2746581733226776,100.0,39010.0,1.0
469644.7795361,264223.375,263507.59375,391600.25,406514.0625,269826.0625,257952.90625,231450.359375,216432.3125,-0.122802734375,0.80126953125,-0.5888671875,0.6408690810203552,1.3122557401657104,0.5187987685203552,100.0,39011.0,1.0
469644.7820724,265794.875,263961.40625,391519.625,406283.21875,269331.1875,257976.96875,231281.5625,216326.453125,-0.121826171875,0.798095703125,-0.58837890625,0.6713866591453552,1.2207030057907104,0.8544921278953552,100.0,39012.0,1.0
469644.7845773,265823.125,263802.09375,389217.125,406047.875,268605.65625,257974.015625,231192.234375,216271.28125,-0.122314453125,0.799072265625,-0.58984375,0.6103515028953552,1.2512205839157104,1.0986326932907104,100.0,39013.0,1.0
469644.7846177,264403.09375,263308.03125,387897.375,406133.53125,268659.84375,257964.890625,231313.5625,216332.625,-0.1220703125,0.799072265625,-0.588623046875,0.6103515028953552,1.1901854276657104,1.3122557401657104,100.0,39014.0,1.0
469644.7871028,263412.46875,263121.25,389387.78125,406417.6875,269414.0,257944.859375,231470.03125,216400.65625,-0.124267578125,0.801025390625,-0.59033203125,0.6103515028953552,1.1596678495407104,1.4953612089157104,100.0,39015.0,1.0
469644.7895267,264221.59375,263513.9375,391573.15625,406512.1875,269829.28125,257959.078125,231457.59375,216388.40625,-0.123046875,0.802490234375,-0.5888671875,0.5493163466453552,1.1291502714157104,1.7395018339157104,100.0,39016.0,1.0
469644.7945053,265816.0,263989.9375,391520.25,406301.28125,269355.875,258002.53125,231305.609375,216304.453125,-0.1240234375,0.8037109375,-0.590087890625,0.5798339247703552,0.9765624403953552,1.8615721464157104,100.0,39017.0,1.0
469644.7972507,265840.21875,263818.46875,389207.28125,406056.28125,268622.90625,257993.765625,231208.59375,216240.4375,-0.125,0.802001953125,-0.5908203125,0.7019042372703552,0.8544921278953552,1.9531248807907104,100.0,39018.0,1.0
469644.797293,264386.09375,263292.125,387843.375,406113.4375,268644.1875,257954.703125,231299.890625,216254.5625,-0.125,0.804443359375,-0.59033203125,0.6408690810203552,0.7324218153953552,2.258300542831421,100.0,39019.0,1.0
469644.8007834,263395.375,263109.0,389323.15625,406406.59375,269400.3125,257938.15625,231457.6875,216308.390625,-0.125,0.8046875,-0.593017578125,0.5493163466453552,0.6713866591453552,2.471923589706421,100.0,39020.0,1.0
469644.8209381,264204.59375,263499.71875,391503.875,406501.90625,269816.3125,257952.375,231444.1875,216276.03125,-0.123779296875,0.806396484375,-0.590087890625,0.4577636420726776,0.5493163466453552,2.502441167831421,100.0,39021.0,1.0
469644.8209802,265789.53125,263972.40625,391430.28125,406282.125,269334.59375,257987.25,231287.1875,216182.859375,-0.123046875,0.808349609375,-0.5908203125,0.3051757514476776,0.4577636420726776,2.532958745956421,100.0,39022.0,1.0
469644.8234504,265815.09375,263803.0,389114.65625,406041.28125,268604.40625,257981.25,231198.40625,216149.78125,-0.12158203125,0.80859375,-0.591064453125,0.1831054538488388,0.2136230319738388,2.593993902206421,100.0,39023.0,1.0
469644.8257951,264383.25,263292.75,387768.0,406123.875,268643.46875,257958.90625,231311.78125,216219.609375,-0.122314453125,0.810546875,-0.593505859375,0.1220703050494194,0.1220703050494194,2.655029058456421,100.0,39024.0,1.0
469644.8332762,263390.28125,263106.0625,389237.21875,406413.84375,269395.125,257942.09375,231473.78125,216279.953125,-0.125244140625,0.812255859375,-0.591796875,0.0610351525247097,-0.03051757626235485,2.655029058456421,100.0,39025.0,1.0
469644.8358863,264207.09375,263499.0,391423.40625,406513.625,269814.8125,257958.359375,231465.828125,216253.234375,-0.1240234375,0.815673828125,-0.59228515625,-0.0610351525247097,-0.0915527269244194,2.716064214706421,100.0,39026.0,1.0
469644.8384269,265783.8125,263955.59375,391340.71875,406278.8125,269321.0,257977.5,231294.609375,216139.140625,-0.12353515625,0.818359375,-0.58837890625,-0.3356933295726776,-0.2441406100988388,2.746581792831421,100.0,39027.0,1.0
469644.8433213,265820.28125,263790.46875,389043.5625,406036.1875,268598.4375,257970.53125,231199.65625,216067.078125,-0.12255859375,0.82177734375,-0.58447265625,-0.6408690810203552,-0.3356933295726776,2.746581792831421,100.0,39028.0,1.0
469644.8433622,264389.3125,263285.9375,387713.1875,406114.3125,268643.9375,257951.296875,231312.21875,216131.359375,-0.12158203125,0.821044921875,-0.58740234375,-0.9460448622703552,-0.5187987685203552,2.655029058456421,100.0,39029.0,1.0
469644.845784,263396.625,263103.03125,389177.875,406411.15625,269401.3125,257945.671875,231485.234375,216257.34375,-0.1201171875,0.82080078125,-0.586181640625,-1.4343260526657104,-0.6408690810203552,2.563476324081421,100.0,39030.0,1.0
469644.8508915,264217.84375,263503.5625,391367.4375,406517.71875,269827.84375,257968.296875,231473.78125,216264.40625,-0.11767578125,0.822509765625,-0.587158203125,-1.7700194120407104,-0.7324218153953552,2.502441167831421,100.0,39031.0,1.0
469644.85344,265792.125,263955.875,391301.90625,406273.90625,269326.5625,257973.296875,231278.609375,216157.109375,-0.119140625,0.823974609375,-0.5849609375,-2.105712652206421,-0.7629393935203552,2.288818120956421,100.0,39032.0,1.0
469644.8559801,265847.71875,263810.15625,389037.84375,406051.09375,268617.46875,257983.75,231203.59375,216142.1875,-0.117919921875,0.8232421875,-0.583984375,-2.471923589706421,-0.8850097060203552,2.227782964706421,100.0,39033.0,1.0
469644.8560216,264396.46875,263295.59375,387690.9375,406114.21875,268644.125,257951.75,231301.40625,216217.640625,-0.118408203125,0.82421875,-0.585693359375,-2.838134527206421,-0.9460448622703552,2.258300542831421,100.0,39034.0,1.0
469644.8573655,263390.28125,263099.0,389156.84375,406391.03125,269387.4375,257929.578125,231454.65625,216297.21875,-0.11669921875,0.8232421875,-0.583984375,-3.234863042831421,-0.9460448622703552,2.227782964706421,100.0,39035.0,1.0
469644.9024715,264220.34375,263505.0,391370.65625,406500.75,269825.25,257961.5,231462.34375,216305.53125,-0.11767578125,0.822998046875,-0.58349609375,-3.601073980331421,-1.0375975370407104,2.014159917831421,100.0,39036.0,1.0
469644.9071645,265835.46875,263997.28125,391361.90625,406293.75,269370.625,258010.40625,231314.734375,216247.421875,-0.11767578125,0.822265625,-0.585205078125,-3.784179449081421,-1.0986326932907104,2.014159917831421,100.0,39037.0,1.0
469644.9072069,265851.5625,263819.34375,389078.4375,406034.46875,268632.125,257986.34375,231205.921875,216211.5625,-0.11669921875,0.82275390625,-0.584716796875,-4.119872570037842,-1.0681151151657104,1.8310545682907104,100.0,39038.0,1.0
469644.9095364,264397.8125,263294.625,387728.84375,406095.71875,268653.3125,257951.125,231302.921875,216268.875,-0.115966796875,0.822998046875,-0.5830078125,-4.455565929412842,-1.0681151151657104,1.6479490995407104,100.0,39039.0,1.0
469644.9121469,263392.78125,263098.5625,389194.9375,406383.6875,269401.03125,257933.0625,231464.3125,216332.984375,-0.114013671875,0.8212890625,-0.583984375,-4.699706554412842,-1.0681151151657104,1.5258787870407104,100.0,39040.0,1.0
469644.9145533,264215.875,263505.09375,391397.9375,406489.65625,269829.5625,257956.046875,231461.171875,216336.109375,-0.112548828125,0.820556640625,-0.586669921875,-4.882812023162842,-1.0070799589157104,1.4038084745407104,100.0,39041.0,1.0
469644.9170499,265809.90625,263976.625,391372.96875,406260.84375,269351.84375,257981.171875,231295.5,216288.09375,-0.11279296875,0.81884765625,-0.585693359375,-5.157470226287842,-0.7324218153953552,1.3122557401657104,100.0,39042.0,1.0
469644.9221151,265856.125,263824.625,389120.46875,406025.96875,268634.28125,257976.78125,231207.703125,216288.09375,-0.11181640625,0.8203125,-0.583251953125,-5.096435070037842,-0.6713866591453552,1.2817381620407104,100.0,39043.0,1.0
469644.9246598,264398.15625,263299.71875,387766.5,406089.1875,268654.65625,257941.640625,231305.34375,216377.328125,-0.107421875,0.818115234375,-0.58740234375,-5.187987804412842,-0.5493163466453552,1.2207030057907104,100.0,39044.0,1.0
469644.9271325,263390.5625,263106.25,389219.09375,406373.15625,269399.96875,257921.625,231462.15625,216495.78125,-0.10791015625,0.81591796875,-0.58447265625,-5.340575695037842,-0.4272460639476776,1.1901854276657104,100.0,39045.0,1.0
469644.9296206,264200.59375,263498.125,391404.46875,406472.65625,269818.5625,257940.21875,231454.203125,216522.515625,-0.105712890625,0.81494140625,-0.584716796875,-5.401610851287842,-0.3356933295726776,1.2207030057907104,100.0,39046.0,1.0
469644.9320981,265811.25,263994.0625,391400.15625,406260.21875,269357.9375,257982.5,231304.71875,216453.046875,-0.106201171875,0.814208984375,-0.58837890625,-5.340575695037842,-0.0915527269244194,1.0986326932907104,100.0,39047.0,1.0
469644.9346165,265873.375,263858.25,389177.0625,406041.4375,268662.25,257997.53125,231233.640625,216435.96875,-0.106689453125,0.812255859375,-0.58642578125,-5.401610851287842,0.0610351525247097,0.9155272841453552,100.0,39048.0,1.0
469644.9370089,264405.875,263321.34375,387814.59375,406099.375,268673.4375,257954.4375,231318.578125,216497.390625,-0.10595703125,0.812255859375,-0.582763671875,-5.432128429412842,0.2746581733226776,0.8544921278953552,100.0,39049.0,1.0
469644.939684,263397.34375,263121.09375,389255.28125,406390.9375,269418.46875,257942.1875,231483.078125,216597.796875,-0.10498046875,0.812255859375,-0.586181640625,-5.371093273162842,0.5493163466453552,0.8544921278953552,100.0,39050.0,1.0
469644.9446768,264224.1875,263525.28125,391449.34375,406498.59375,269851.375,257972.21875,231484.875,216618.1875,-0.104248046875,0.813232421875,-0.5791015625,-5.462646007537842,0.7934569716453552,0.9155272841453552,100.0,39051.0,1.0
469644.9447184,265808.21875,263987.4375,391415.625,406246.1875,269355.6875,257975.796875,231292.28125,216502.40625,-0.1025390625,0.813232421875,-0.579833984375,-5.279540538787842,1.0681151151657104,0.9460448622703552,100.0,39052.0,1.0
469644.9472071,265874.28125,263848.125,389178.5,406021.6875,268649.5625,257986.96875,231217.28125,216474.328125,-0.1025390625,0.810546875,-0.579345703125,-5.157470226287842,1.3122557401657104,0.9155272841453552,100.0,39053.0,1.0
469644.9472498,264419.09375,263315.0,387811.28125,406092.40625,268672.375,257958.28125,231318.03125,216549.171875,-0.102294921875,0.810546875,-0.5791015625,-5.187987804412842,1.4953612089157104,0.9460448622703552,100.0,39054.0,1.0
469644.9496706,263402.71875,263113.9375,389233.46875,406378.875,269413.1875,257938.25,231473.15625,216642.140625,-0.0986328125,0.811279296875,-0.57666015625,-5.187987804412842,1.6784666776657104,0.9155272841453552,100.0,39055.0,1.0
469644.9521225,264234.75,263529.21875,391445.40625,406493.59375,269857.625,257971.859375,231483.703125,216668.171875,-0.098388671875,0.811767578125,-0.57470703125,-5.096435070037842,2.075195074081421,0.9155272841453552,100.0,39056.0,1.0
469644.9521616,265833.59375,263997.09375,391450.5,406254.875,269380.375,257986.265625,231308.46875,216569.015625,-0.098388671875,0.810791015625,-0.576171875,-5.065917491912842,2.441406011581421,1.0375975370407104,100.0,39057.0,1.0
469644.9545395,265870.25,263834.5625,389195.84375,406008.28125,268650.375,257971.421875,231208.59375,216499.8125,-0.09912109375,0.8095703125,-0.578125,-4.974364757537842,2.868652105331421,0.9460448622703552,100.0,39058.0,1.0
469644.957131,264412.3125,263304.8125,387823.78125,406080.25,268670.75,257944.15625,231312.84375,216560.15625,-0.1005859375,0.80908203125,-0.5771484375,-4.852294445037842,3.021239995956421,1.0375975370407104,100.0,39059.0,1.0
469644.9607754,263402.96875,263111.59375,389249.125,406381.375,269420.6875,257939.6875,231481.734375,216658.6875,-0.1015625,0.8095703125,-0.5771484375,-4.608153820037842,3.295898199081421,1.0375975370407104,100.0,39060.0,1.0
469644.9720437,264213.625,263508.65625,391417.78125,406478.5625,269839.75,257959.078125,231474.5,216651.359375,-0.10009765625,0.807861328125,-0.578369140625,-4.394530773162842,3.479003667831421,1.0681151151657104,100.0,39061.0,1.0
469644.9720857,265832.34375,263995.125,391426.90625,406252.4375,269370.8125,257987.515625,231309.09375,216560.421875,-0.102783203125,0.810302734375,-0.578369140625,-4.241942882537842,3.662109136581421,1.0375975370407104,100.0,39062.0,1.0
469644.9767199,265892.25,263846.34375,389195.375,406019.53125,268657.0625,257988.046875,231223.265625,216519.921875,-0.104248046875,0.810302734375,-0.578125,-4.058837413787842,3.967284917831421,1.1291502714157104,100.0,39063.0,1.0
469644.9767595,264424.28125,263314.8125,387816.09375,406082.9375,268673.4375,257957.03125,231321.171875,216572.234375,-0.10498046875,0.8115234375,-0.5791015625,-3.906249761581421,4.089354991912842,1.1291502714157104,100.0,39064.0,1.0
469644.9832665,263408.71875,263125.09375,389245.46875,406381.65625,269430.625,257951.21875,231490.765625,216679.875,-0.106201171875,0.8134765625,-0.58056640625,-3.723144292831421,4.302978038787842,1.0681151151657104,100.0,39065.0,1.0
469644.9884216,264207.09375,263505.71875,391417.78125,406465.40625,269841.8125,257956.40625,231467.34375,216656.453125,-0.104736328125,0.81201171875,-0.577880859375,-3.479003667831421,4.486083507537842,1.0681151151657104,100.0,39066.0,1.0
469644.9909071,265836.375,264006.03125,391433.5,406254.0625,269381.71875,257995.203125,231310.890625,216561.234375,-0.104736328125,0.80908203125,-0.575927734375,-3.326415777206421,4.638671398162842,1.1596678495407104,100.0,39067.0,1.0
469644.993238,265896.0,263853.5,389198.59375,406015.78125,268660.84375,257989.125,231217.09375,216479.875,-0.106201171875,0.8076171875,-0.577392578125,-2.990722417831421,4.760741710662842,1.1901854276657104,100.0,39068.0,1.0
469645.020932,264427.125,263315.71875,387818.53125,406076.9375,268673.875,257951.578125,231307.484375,216510.890625,-0.10546875,0.80908203125,-0.579345703125,-2.746581792831421,4.852294445037842,1.2207030057907104,100.0,39069.0,1.0
469645.0209737,263396.71875,263114.5625,389223.46875,406366.8125,269417.125,257936.546875,231467.25,216607.546875,-0.103759765625,0.80810546875,-0.57958984375,-2.441406011581421,5.035399913787842,1.2512205839157104,100.0,39070.0,1.0
469645.0260126,264207.75,263509.5625,391403.46875,406461.84375,269840.71875,257952.015625,231454.828125,216619.96875,-0.10498046875,0.810546875,-0.5810546875,-2.288818120956421,5.157470226287842,1.3122557401657104,100.0,39071.0,1.0
469645.0260553,265819.5625,263978.21875,391413.9375,406222.3125,269361.6875,257967.03125,231277.625,216525.296875,-0.104736328125,0.8115234375,-0.579833984375,-2.044677495956421,5.340575695037842,1.3427733182907104,100.0,39072.0,1.0
469645.0309006,265906.90625,263847.875,389206.75,406004.875,268661.46875,257983.3125,231211.375,216500.171875,-0.10400390625,0.811279296875,-0.580078125,-1.8310545682907104,5.310058116912842,1.2512205839157104,100.0,39073.0,1.0
469645.0359097,264459.0625,263337.625,387832.65625,406087.84375,268692.84375,257971.59375,231331.265625,216580.640625,-0.105224609375,0.81103515625,-0.5791015625,-1.6479490995407104,5.462646007537842,1.3732908964157104,100.0,39074.0,1.0
469645.0384421,263414.59375,263125.8125,389224.0,406364.375,269429.625,257948.53125,231484.59375,216667.453125,-0.10595703125,0.811767578125,-0.582275390625,-1.4648436307907104,5.493163585662842,1.4038084745407104,100.0,39075.0,1.0
469645.0407665,264222.9375,263519.84375,391407.0625,406456.9375,269853.59375,257957.296875,231471.640625,216657.171875,-0.105712890625,0.8125,-0.58349609375,-1.3732908964157104,5.493163585662842,1.5258787870407104,100.0,39076.0,1.0
469645.0432948,265856.5,264010.25,391439.9375,406237.15625,269391.5625,257990.1875,231313.390625,216535.484375,-0.106201171875,0.8115234375,-0.580322265625,-1.0986326932907104,5.462646007537842,1.4038084745407104,100.0,39077.0,1.0
469645.0457809,265927.84375,263863.96875,389221.75,406008.375,268678.25,257996.1875,231232.734375,216471.375,-0.10498046875,0.811279296875,-0.5810546875,-0.8850097060203552,5.523681163787842,1.4953612089157104,100.0,39078.0,1.0
469645.0484058,264445.1875,263317.0625,387825.0625,406061.84375,268682.65625,257955.5,231320.984375,216517.875,-0.10546875,0.812255859375,-0.578125,-0.6408690810203552,5.523681163787842,1.5258787870407104,100.0,39079.0,1.0
469645.0509244,263404.9375,263105.0,389212.65625,406347.125,269420.59375,257938.515625,231478.96875,216613.359375,-0.104248046875,0.81298828125,-0.580322265625,-0.4882812201976776,5.523681163787842,1.4953612089157104,100.0,39080.0,1.0
469645.0532925,264218.03125,263502.9375,391384.53125,406448.34375,269844.21875,257958.28125,231472.359375,216606.5625,-0.105224609375,0.814453125,-0.578369140625,-0.3356933295726776,5.554198741912842,1.4038084745407104,100.0,39081.0,1.0
469645.0558267,265861.5,264011.21875,391426.4375,406239.9375,269393.78125,258002.265625,231319.015625,216513.21875,-0.1064453125,0.81494140625,-0.5771484375,-0.0915527269244194,5.462646007537842,1.4648436307907104,100.0,39082.0,1.0
469645.0558678,265917.1875,263846.0,389201.03125,405989.25,268661.8125,257983.671875,231210.203125,216440.71875,-0.1064453125,0.8134765625,-0.5771484375,-0.1220703050494194,5.432128429412842,1.5563963651657104,100.0,39083.0,1.0
469645.058471,264438.6875,263308.75,387808.875,406044.3125,268669.21875,257945.046875,231302.390625,216495.25,-0.10595703125,0.814208984375,-0.580322265625,0.0,5.493163585662842,1.6479490995407104,100.0,39084.0,1.0
469645.0585107,263401.5625,263109.71875,389199.84375,406336.75,269417.9375,257934.046875,231470.46875,216606.03125,-0.107177734375,0.81396484375,-0.578125,0.0915527269244194,5.432128429412842,1.6784666776657104,100.0,39085.0,1.0
469645.0734426,264215.25,263507.9375,391376.84375,406439.3125,269849.75,257958.90625,231470.5625,216630.703125,-0.1064453125,0.815185546875,-0.584716796875,0.1525878757238388,5.249022960662842,1.5869139432907104,100.0,39086.0,1.0
469645.076055,265845.3125,264002.1875,391402.9375,406215.78125,269382.53125,257987.6875,231306.953125,216555.515625,-0.104736328125,0.817138671875,-0.583251953125,0.1831054538488388,5.157470226287842,1.6479490995407104,100.0,39087.0,1.0
469645.0760965,265922.90625,263855.125,389195.375,405982.875,268668.34375,257984.390625,231217.546875,216517.6875,-0.10107421875,0.815185546875,-0.580810546875,0.2746581733226776,5.187987804412842,1.8005369901657104,100.0,39088.0,1.0
469645.0761075,264457.1875,263323.6875,387809.9375,406049.0625,268684.15625,257954.25,231319.640625,216588.234375,-0.101318359375,0.818359375,-0.580810546875,0.3051757514476776,5.279540538787842,1.8615721464157104,100.0,39089.0,1.0
469645.085906,263409.96875,263116.0,389189.84375,406331.5625,269425.15625,257935.03125,231478.796875,216689.71875,-0.1015625,0.8173828125,-0.58349609375,0.4272460639476776,5.126952648162842,1.8615721464157104,100.0,39090.0,1.0
469645.0907641,264216.75,263507.15625,391366.0,406435.125,269853.6875,257956.3125,231475.921875,216698.296875,-0.102294921875,0.818115234375,-0.58251953125,0.3967284858226776,5.096435070037842,1.8005369901657104,100.0,39091.0,1.0
469645.0933413,265850.84375,263999.15625,391401.3125,406217.40625,269392.28125,257989.75,231314.28125,216603.875,-0.100341796875,0.8154296875,-0.581298828125,0.5187987685203552,4.913329601287842,1.7395018339157104,100.0,39092.0,1.0
469645.0933825,265922.65625,263849.03125,389192.15625,405972.96875,268671.90625,257981.4375,231217.546875,216539.59375,-0.10009765625,0.8173828125,-0.583251953125,0.5493163466453552,4.852294445037842,1.8310545682907104,100.0,39093.0,1.0
469645.0959512,264451.90625,263318.84375,387794.03125,406033.5,268680.84375,257948.0,231315.890625,216585.734375,-0.1025390625,0.81640625,-0.581298828125,0.5493163466453552,4.913329601287842,1.8615721464157104,100.0,39094.0,1.0
469645.1208927,263417.65625,263127.78125,389181.8125,406336.9375,269434.5625,257944.859375,231488.625,216695.796875,-0.1015625,0.81591796875,-0.581298828125,0.6713866591453552,4.882812023162842,1.9226073026657104,100.0,39095.0,1.0
469645.1496762,264202.28125,263495.6875,391330.4375,406418.5625,269837.96875,257938.15625,231455.28125,216679.703125,-0.1005859375,0.814453125,-0.584716796875,0.7019042372703552,4.821776866912842,1.7700194120407104,100.0,39096.0,1.0
469645.1497182,265855.875,264006.75,391384.6875,406217.125,269393.875,257987.328125,231310.4375,216607.28125,-0.099365234375,0.814697265625,-0.5849609375,0.6103515028953552,4.760741710662842,1.7700194120407104,100.0,39097.0,1.0
469645.1497271,265942.21875,263871.375,389183.0625,405989.78125,268684.0,257996.359375,231230.234375,216558.546875,-0.100341796875,0.811767578125,-0.58349609375,0.7324218153953552,4.699706554412842,1.8310545682907104,100.0,39098.0,1.0
469645.1497349,264449.03125,263314.65625,387762.28125,406031.34375,268672.09375,257947.375,231308.015625,216565.25,-0.098876953125,0.810791015625,-0.583251953125,0.7629393935203552,4.547118663787842,1.8310545682907104,100.0,39099.0,1.0
469645.1497433,263403.0625,263110.71875,389132.4375,406323.09375,269414.96875,257936.375,231472.4375,216647.875,-0.097412109375,0.810791015625,-0.582763671875,0.7934569716453552,4.486083507537842,1.6479490995407104,100.0,39100.0,1.0
469645.1497515,264218.375,263510.4375,391328.09375,406427.34375,269851.375,257953.265625,231466.1875,216634.1875,-0.098388671875,0.810791015625,-0.5830078125,0.8544921278953552,4.425048351287842,1.5563963651657104,100.0,39101.0,1.0
469645.1497608,265849.96875,263994.0625,391366.46875,406200.59375,269381.4375,257975.984375,231297.03125,216528.515625,-0.0966796875,0.810302734375,-0.5849609375,0.8544921278953552,4.211425304412842,1.5563963651657104,100.0,39102.0,1.0
469645.1534954,265922.90625,263841.34375,389147.8125,405958.9375,268653.40625,257965.515625,231196.53125,216468.78125,-0.098388671875,0.810791015625,-0.583740234375,0.9155272841453552,4.211425304412842,1.4648436307907104,100.0,39103.0,1.0
469645.1535346,264469.78125,263321.71875,387771.03125,406035.625,268680.125,257949.25,231308.46875,216528.515625,-0.100341796875,0.810546875,-0.583740234375,0.9765624403953552,4.119872570037842,1.4343260526657104,100.0,39104.0,1.0
469645.1535448,263418.4375,263121.96875,389142.625,406324.5,269422.84375,257943.078125,231473.78125,216604.0625,-0.10009765625,0.810546875,-0.5830078125,0.8850097060203552,4.058837413787842,1.1596678495407104,100.0,39105.0,1.0
469645.1558934,264205.15625,263497.03125,391300.125,406406.9375,269836.71875,257941.46875,231451.96875,216588.859375,-0.1015625,0.81005859375,-0.583251953125,0.8850097060203552,3.967284917831421,1.1291502714157104,100.0,39106.0,1.0
469645.1583011,265836.8125,263972.6875,391339.53125,406178.59375,269366.6875,257959.171875,231280.578125,216506.34375,-0.100341796875,0.8095703125,-0.58447265625,0.9155272841453552,3.753661870956421,1.0070799589157104,100.0,39107.0,1.0
469645.1608823,265924.4375,263831.34375,389129.84375,405947.3125,268648.21875,257960.875,231195.453125,216465.03125,-0.10107421875,0.81298828125,-0.5830078125,0.9460448622703552,3.662109136581421,0.9155272841453552,100.0,39108.0,1.0
469645.1634067,264474.09375,263317.0625,387758.96875,406025.34375,268678.34375,257948.078125,231313.125,216538.875,-0.10009765625,0.812744140625,-0.58544921875,0.9765624403953552,3.570556402206421,0.7934569716453552,100.0,39109.0,1.0
469645.1657912,263407.90625,263098.90625,389126.0,406308.0625,269417.3125,257929.578125,231472.703125,216616.3125,-0.098876953125,0.81298828125,-0.58251953125,0.9765624403953552,3.448486089706421,0.7019042372703552,100.0,39110.0,1.0
469645.1682607,264197.8125,263481.75,391281.875,406401.3125,269835.46875,257938.703125,231458.671875,216589.84375,-0.097900390625,0.8134765625,-0.584228515625,0.9155272841453552,3.356933355331421,0.6713866591453552,100.0,39111.0,1.0
469645.170915,265831.09375,263976.78125,391314.5,406177.09375,269367.5,257962.03125,231285.3125,216483.71875,-0.0986328125,0.81298828125,-0.58544921875,0.7934569716453552,3.204345464706421,0.6103515028953552,100.0,39112.0,1.0
469645.1709564,265909.875,263835.25,389112.25,405934.4375,268646.78125,257957.296875,231191.34375,216427.03125,-0.099853515625,0.814697265625,-0.582275390625,0.7629393935203552,3.143310308456421,0.5187987685203552,100.0,39113.0,1.0
469645.1957679,264451.1875,263322.15625,387734.9375,406008.09375,268671.03125,257939.953125,231303.640625,216496.859375,-0.100341796875,0.81591796875,-0.580322265625,0.5187987685203552,3.051757574081421,0.4882812201976776,100.0,39114.0,1.0
469645.1983536,263397.71875,263120.53125,389111.625,406298.59375,269417.3125,257927.78125,231469.21875,216572.328125,-0.100341796875,0.818115234375,-0.58056640625,0.4882812201976776,2.960204839706421,0.4882812201976776,100.0,39115.0,1.0
469645.1983892,264190.84375,263504.1875,391282.0625,406395.6875,269839.9375,257937.625,231450.0,216532.625,-0.1005859375,0.817626953125,-0.5810546875,0.3051757514476776,2.929687261581421,0.3967284858226776,100.0,39116.0,1.0
469645.2007258,265835.75,263993.6875,391324.875,406182.625,269377.34375,257969.0,231283.703125,216428.203125,-0.101806640625,0.818359375,-0.581298828125,0.2746581733226776,2.746581792831421,0.3662109076976776,100.0,39117.0,1.0
469645.203442,265920.9375,263844.375,389106.875,405945.53125,268652.0625,257963.640625,231191.96875,216368.921875,-0.101806640625,0.818603515625,-0.583984375,0.03051757626235485,2.685546636581421,0.4272460639476776,100.0,39118.0,1.0
469645.2060703,264457.28125,263324.84375,387712.3125,406014.0,268672.28125,257941.109375,231301.40625,216435.34375,-0.1015625,0.81494140625,-0.582275390625,-0.1220703050494194,2.532958745956421,0.4882812201976776,100.0,39119.0,1.0
469645.2083023,263411.21875,263128.0625,389102.59375,406309.9375,269428.75,257936.8125,231477.0,216542.015625,-0.09765625,0.81640625,-0.584228515625,-0.1831054538488388,2.471923589706421,0.5187987685203552,100.0,39120.0,1.0
469645.2107514,264194.78125,263497.5,391261.03125,406400.875,269844.40625,257940.125,231460.015625,216533.96875,-0.095703125,0.81298828125,-0.58203125,-0.3051757514476776,2.441406011581421,0.3662109076976776,100.0,39121.0,1.0
469645.213275,265818.65625,263972.875,391289.125,406169.21875,269368.3125,257958.71875,231284.6875,216424.078125,-0.09619140625,0.813232421875,-0.585693359375,-0.3662109076976776,2.410888433456421,0.5493163466453552,100.0,39122.0,1.0
469645.2159434,265912.375,263829.53125,389091.9375,405941.125,268656.4375,257966.953125,231206.28125,216366.78125,-0.095458984375,0.81298828125,-0.58642578125,-0.4272460639476776,2.319335699081421,0.5493163466453552,100.0,39123.0,1.0
469645.2159854,264437.15625,263290.34375,387683.96875,405994.25,268658.25,257930.734375,231300.6875,216416.84375,-0.0966796875,0.8134765625,-0.587890625,-0.4577636420726776,2.288818120956421,0.6713866591453552,100.0,39124.0,1.0
469645.2182911,263379.8125,263080.84375,389049.46875,406278.125,269400.3125,257917.328125,231463.40625,216523.234375,-0.09619140625,0.812744140625,-0.58642578125,-0.5187987685203552,2.319335699081421,0.7019042372703552,100.0,39125.0,1.0
469645.2682296,264193.6875,263489.53125,391242.375,406397.75,269848.6875,257949.328125,231472.796875,216528.59375,-0.096923828125,0.814697265625,-0.58447265625,-0.5493163466453552,2.288818120956421,0.7019042372703552,100.0,39126.0,1.0
469645.270771,265823.59375,263976.4375,391280.1875,406174.21875,269380.1875,257972.765625,231298.015625,216422.03125,-0.099853515625,0.812744140625,-0.5849609375,-0.7019042372703552,2.227782964706421,0.7934569716453552,100.0,39127.0,1.0
469645.270793,265899.5,263821.9375,389068.25,405923.0625,268649.5625,257956.21875,231191.171875,216349.078125,-0.098876953125,0.8125,-0.584228515625,-0.7019042372703552,2.136230230331421,0.7934569716453552,100.0,39128.0,1.0
469645.2758839,264433.5625,263299.0,387672.59375,405984.21875,268660.1875,257926.8125,231291.578125,216400.921875,-0.097412109375,0.81201171875,-0.58642578125,-0.7019042372703552,2.136230230331421,0.7934569716453552,100.0,39129.0,1.0
469645.2782474,263375.8125,263099.53125,389046.09375,406276.78125,269409.4375,257918.578125,231459.75,216492.390625,-0.098876953125,0.8125,-0.587158203125,-0.7019042372703552,2.014159917831421,0.7629393935203552,100.0,39130.0,1.0
469645.280707,264165.28125,263488.09375,391214.8125,406377.1875,269834.84375,257932.703125,231448.21875,216470.671875,-0.1025390625,0.8125,-0.587890625,-0.6713866591453552,1.9836424589157104,0.8850097060203552,100.0,39131.0,1.0
469645.2861993,265803.46875,263978.125,391261.03125,406154.8125,269369.75,257960.25,231283.875,216376.609375,-0.1044921875,0.81494140625,-0.5849609375,-0.6713866591453552,1.9226073026657104,0.7629393935203552,100.0,39132.0,1.0
469645.2932055,265900.03125,263843.5,389071.8125,405923.625,268660.03125,257967.390625,231202.4375,216350.234375,-0.107666015625,0.81591796875,-0.58251953125,-0.7934569716453552,1.7395018339157104,0.7019042372703552,100.0,39133.0,1.0
469645.2981903,264420.25,263304.46875,387671.625,405969.03125,268660.46875,257926.984375,231285.578125,216400.125,-0.11181640625,0.81689453125,-0.583251953125,-0.8544921278953552,1.5563963651657104,0.6713866591453552,100.0,39134.0,1.0
469645.3008692,263354.6875,263094.875,389033.5625,406258.4375,269401.21875,257910.171875,231447.9375,216506.78125,-0.114013671875,0.817626953125,-0.579345703125,-0.9155272841453552,1.3732908964157104,0.4577636420726776,100.0,39135.0,1.0
469645.3058997,264149.34375,263483.53125,391207.3125,406360.625,269831.53125,257923.140625,231437.21875,216512.59375,-0.1171875,0.822265625,-0.582763671875,-1.1596678495407104,1.0986326932907104,0.3356933295726776,100.0,39136.0,1.0
469645.308245,265792.90625,263974.375,391260.96875,406143.5625,269370.1875,257952.203125,231273.15625,216432.125,-0.1142578125,0.82177734375,-0.58544921875,-1.3732908964157104,0.8544921278953552,0.3356933295726776,100.0,39137.0,1.0
469645.310775,265891.28125,263833.375,389059.84375,405915.65625,268653.59375,257957.203125,231188.84375,216391.359375,-0.112060546875,0.821044921875,-0.58349609375,-1.5869139432907104,0.6408690810203552,0.1220703050494194,100.0,39138.0,1.0
469645.313346,264433.84375,263317.5,387660.09375,405985.65625,268667.96875,257933.421875,231292.203125,216465.84375,-0.110595703125,0.82275390625,-0.582763671875,-1.8615721464157104,0.4577636420726776,0.1525878757238388,100.0,39139.0,1.0
469645.3184002,263382.0625,263116.6875,389035.15625,406283.9375,269423.5625,257931.90625,231472.359375,216570.890625,-0.107421875,0.822998046875,-0.5830078125,-2.105712652206421,0.3662109076976776,0.0610351525247097,100.0,39140.0,1.0
469645.3209121,264170.0,263500.4375,391214.46875,406382.53125,269852.0,257942.265625,231455.359375,216551.75,-0.105712890625,0.824462890625,-0.582275390625,-2.166747808456421,0.2136230319738388,0.0915527269244194,100.0,39141.0,1.0
469645.3234372,265804.625,263982.0625,391266.0625,406153.125,269380.46875,257958.453125,231276.734375,216455.5625,-0.1064453125,0.824462890625,-0.58203125,-2.410888433456421,0.0915527269244194,0.2441406100988388,100.0,39142.0,1.0
469645.323481,265901.71875,263841.25,389065.21875,405916.90625,268659.84375,257960.6875,231188.65625,216414.15625,-0.103515625,0.8232421875,-0.581298828125,-2.563476324081421,0.0915527269244194,0.2441406100988388,100.0,39143.0,1.0
469645.3258734,264442.78125,263320.46875,387669.65625,405981.28125,268673.15625,257937.53125,231296.046875,216468.703125,-0.102294921875,0.82275390625,-0.579345703125,-2.655029058456421,0.0,0.3051757514476776,100.0,39144.0,1.0
469645.3284201,263341.46875,263079.40625,388997.875,406236.09375,269382.0,257892.5625,231431.140625,216525.03125,-0.102294921875,0.8193359375,-0.580810546875,-2.777099370956421,-0.0610351525247097,0.4882812201976776,100.0,39145.0,1.0
469645.3308647,264148.0,263495.6875,391198.65625,406356.4375,269834.65625,257927.4375,231441.78125,216532.171875,-0.100830078125,0.816162109375,-0.58056640625,-2.838134527206421,-0.0610351525247097,0.5493163466453552,100.0,39146.0,1.0
469645.3348008,265808.3125,264002.1875,391284.03125,406159.75,269395.03125,257975.359375,231298.640625,216436.59375,-0.099853515625,0.816650390625,-0.583984375,-2.899169683456421,-0.0610351525247097,0.7629393935203552,100.0,39147.0,1.0
469645.334841,265874.90625,263825.4375,389052.6875,405898.65625,268646.6875,257949.515625,231187.5,216349.78125,-0.10009765625,0.816650390625,-0.5810546875,-2.746581792831421,0.0,0.8544921278953552,100.0,39148.0,1.0
469645.3348518,264406.3125,263292.84375,387635.25,405960.0,268653.3125,257921.171875,231291.296875,216385.546875,-0.099853515625,0.815185546875,-0.580078125,-2.685546636581421,0.1831054538488388,0.9155272841453552,100.0,39149.0,1.0
469645.3370042,263349.0625,263088.28125,389005.5625,406252.09375,269404.6875,257912.234375,231458.84375,216456.625,-0.099609375,0.814208984375,-0.579345703125,-2.563476324081421,0.2136230319738388,1.0986326932907104,100.0,39150.0,1.0
469645.3395755,264138.53125,263478.25,391189.15625,406356.25,269837.6875,257927.34375,231449.90625,216412.8125,-0.100341796875,0.8134765625,-0.57861328125,-2.563476324081421,0.1831054538488388,1.2207030057907104,100.0,39151.0,1.0
469645.3396164,265790.40625,263980.1875,391253.28125,406143.46875,269383.0625,257962.296875,231296.21875,216295.703125,-0.10205078125,0.8134765625,-0.580078125,-2.471923589706421,0.3356933295726776,1.2817381620407104,100.0,39152.0,1.0
469645.3421271,265891.53125,263843.3125,389062.0,405905.8125,268665.84375,257962.03125,231211.109375,216219.15625,-0.102294921875,0.814208984375,-0.576416015625,-2.471923589706421,0.5187987685203552,1.3732908964157104,100.0,39153.0,1.0
469645.3447059,264438.84375,263324.21875,387676.375,405979.3125,268686.03125,257943.609375,231318.65625,216266.015625,-0.101318359375,0.813720703125,-0.577392578125,-2.410888433456421,0.5187987685203552,1.4953612089157104,100.0,39154.0,1.0
469645.3447593,263355.5,263098.65625,389007.46875,406256.46875,269411.75,257915.1875,231467.4375,216343.890625,-0.103515625,0.81494140625,-0.5703125,-2.441406011581421,0.5798339247703552,1.4953612089157104,100.0,39155.0,1.0
469645.3471671,264131.375,263478.875,391173.0625,406348.28125,269834.46875,257916.796875,231444.28125,216331.375,-0.102783203125,0.8134765625,-0.572998046875,-2.502441167831421,0.7934569716453552,1.4038084745407104,100.0,39156.0,1.0
469645.3495263,265794.09375,263992.09375,391269.8125,406144.0,269390.9375,257950.3125,231290.765625,216249.921875,-0.1015625,0.814208984375,-0.576416015625,-2.593993902206421,0.7324218153953552,1.5258787870407104,100.0,39157.0,1.0
469645.370459,265881.875,263837.84375,389065.3125,405896.78125,268656.1875,257937.890625,231186.515625,216180.359375,-0.1025390625,0.813720703125,-0.574462890625,-2.502441167831421,0.8544921278953552,1.5563963651657104,100.0,39158.0,1.0
469645.3705008,264422.125,263308.5625,387655.1875,405969.3125,268668.4375,257916.875,231293.984375,216238.125,-0.103759765625,0.813720703125,-0.57275390625,-2.502441167831421,0.8850097060203552,1.4953612089157104,100.0,39159.0,1.0
469645.4022174,263356.40625,263105.78125,389001.5625,406264.0,269412.90625,257910.984375,231464.84375,216323.234375,-0.105712890625,0.8154296875,-0.57373046875,-2.410888433456421,0.9460448622703552,1.4953612089157104,100.0,39160.0,1.0
469645.4022687,264145.6875,263503.125,391185.125,406366.0,269848.0625,257928.140625,231459.75,216307.9375,-0.105224609375,0.813720703125,-0.573486328125,-2.410888433456421,0.9155272841453552,1.4038084745407104,100.0,39161.0,1.0
469645.4044626,265786.03125,263988.875,391255.9375,406131.65625,269381.4375,257944.5,231283.53125,216189.921875,-0.10546875,0.814697265625,-0.576904296875,-2.380370855331421,1.0070799589157104,1.3122557401657104,100.0,39162.0,1.0
469645.409455,265891.625,263852.625,389060.375,405896.4375,268661.625,257942.8125,231190.0,216121.703125,-0.106201171875,0.814453125,-0.5771484375,-2.349853277206421,1.0681151151657104,1.3122557401657104,100.0,39163.0,1.0
469645.4144992,264439.75,263341.125,387659.5625,405969.5625,268681.3125,257924.84375,231299.265625,216170.34375,-0.106689453125,0.815185546875,-0.572509765625,-2.258300542831421,1.0986326932907104,1.0986326932907104,100.0,39164.0,1.0
469645.4169746,263357.75,263118.3125,388997.1875,406247.90625,269415.25,257906.875,231456.890625,216255.46875,-0.105712890625,0.81591796875,-0.5751953125,-2.288818120956421,1.0681151151657104,1.0070799589157104,100.0,39165.0,1.0
469645.4194367,264142.125,263501.6875,391177.375,406356.53125,269855.40625,257933.25,231461.0,216261.0,-0.10546875,0.816162109375,-0.57470703125,-2.166747808456421,1.0986326932907104,0.9155272841453552,100.0,39166.0,1.0
469645.4219381,265805.09375,264015.59375,391272.125,406147.84375,269413.53125,257975.890625,231308.640625,216188.765625,-0.106689453125,0.814208984375,-0.57421875,-2.136230230331421,1.1596678495407104,0.8544921278953552,100.0,39167.0,1.0
469645.4245182,265887.0625,263857.71875,389062.96875,405889.1875,268669.21875,257954.34375,231198.046875,216166.953125,-0.107421875,0.814208984375,-0.57177734375,-2.044677495956421,1.1291502714157104,0.7019042372703552,100.0,39168.0,1.0
469645.4270198,264415.6875,263322.875,387636.9375,405948.75,268668.25,257927.4375,231300.25,216281.65625,-0.1064453125,0.8154296875,-0.57373046875,-2.136230230331421,1.1291502714157104,0.7019042372703552,100.0,39169.0,1.0
469645.4294318,263328.3125,263094.15625,388954.625,406227.40625,269394.9375,257905.265625,231456.96875,216410.40625,-0.104248046875,0.815673828125,-0.5751953125,-2.075195074081421,1.2207030057907104,0.5798339247703552,100.0,39170.0,1.0
469645.4319931,264123.875,263494.09375,391143.03125,406342.03125,269841.8125,257931.0,231461.625,216447.59375,-0.104248046875,0.818359375,-0.57763671875,-1.9226073026657104,1.1596678495407104,0.5798339247703552,100.0,39171.0,1.0
469645.4344621,265770.5625,263980.09375,391215.53125,406112.8125,269376.8125,257947.546875,231287.28125,216359.0,-0.104736328125,0.818359375,-0.57568359375,-1.8005369901657104,1.1596678495407104,0.4882812201976776,100.0,39172.0,1.0
469645.4370822,265867.5,263830.25,389013.09375,405866.46875,268645.375,257935.828125,231187.765625,216303.921875,-0.105224609375,0.818115234375,-0.57568359375,-1.7395018339157104,1.3427733182907104,0.3967284858226776,100.0,39173.0,1.0
469645.4371132,264400.84375,263298.375,387582.3125,405927.71875,268647.15625,257911.609375,231286.75,216365.34375,-0.10498046875,0.818603515625,-0.572265625,-1.7089842557907104,1.4953612089157104,0.3967284858226776,100.0,39174.0,1.0
469645.4394218,263318.59375,263075.5,388908.84375,406208.28125,269380.5625,257892.03125,231445.796875,216463.78125,-0.103271484375,0.81787109375,-0.574462890625,-1.5869139432907104,1.5869139432907104,0.3662109076976776,100.0,39175.0,1.0
469645.4418586,264107.59375,263468.15625,391093.9375,406320.65625,269821.6875,257913.75,231448.84375,216480.328125,-0.103759765625,0.81689453125,-0.576416015625,-1.3732908964157104,1.5563963651657104,0.4272460639476776,100.0,39176.0,1.0
469645.4444065,265776.1875,263977.96875,391198.71875,406110.28125,269378.40625,257947.90625,231291.921875,216402.171875,-0.10400390625,0.818603515625,-0.576171875,-1.1901854276657104,1.6174315214157104,0.4577636420726776,100.0,39177.0,1.0
469645.4444134,265894.9375,263852.53125,389028.46875,405879.8125,268667.90625,257950.859375,231205.375,216359.796875,-0.104736328125,0.81884765625,-0.57373046875,-1.0986326932907104,1.8310545682907104,0.5493163466453552,100.0,39178.0,1.0
469645.4468865,264425.625,263316.09375,387605.90625,405942.46875,268669.9375,257923.40625,231304.625,216408.171875,-0.103271484375,0.817138671875,-0.576416015625,-0.9460448622703552,1.9531248807907104,0.5493163466453552,100.0,39179.0,1.0
469645.4493411,263341.5625,263090.78125,388927.34375,406232.96875,269405.21875,257908.03125,231465.640625,216489.703125,-0.106201171875,0.818359375,-0.577880859375,-0.9155272841453552,1.9531248807907104,0.5493163466453552,100.0,39180.0,1.0
469645.4581914,264108.84375,263461.0,391088.21875,406324.25,269826.15625,257909.90625,231442.9375,216464.40625,-0.104736328125,0.8173828125,-0.57568359375,-0.7629393935203552,1.9226073026657104,0.5798339247703552,100.0,39181.0,1.0
469645.4581995,265770.75,263965.875,391189.0,406107.6875,269375.71875,257938.875,231278.609375,216363.46875,-0.103271484375,0.816162109375,-0.5751953125,-0.5798339247703552,1.8920897245407104,0.7019042372703552,100.0,39182.0,1.0
469645.4606147,265884.5625,263834.5625,389010.84375,405878.28125,268661.0,257942.453125,231190.90625,216318.40625,-0.103515625,0.8173828125,-0.576171875,-0.6408690810203552,2.075195074081421,0.8239745497703552,100.0,39183.0,1.0
469645.4632989,264426.15625,263313.3125,387594.8125,405946.84375,268670.75,257921.796875,231299.796875,216386.796875,-0.103271484375,0.818115234375,-0.576904296875,-0.5187987685203552,2.197265386581421,0.9460448622703552,100.0,39184.0,1.0
469645.4633047,263330.5625,263079.96875,388907.9375,406220.09375,269396.28125,257894.96875,231454.921875,216468.078125,-0.104248046875,0.8203125,-0.578369140625,-0.5493163466453552,2.166747808456421,0.9155272841453552,100.0,39185.0,1.0
469645.465624,264103.75,263469.9375,391082.59375,406319.96875,269831.34375,257911.25,231445.890625,216461.359375,-0.10498046875,0.822021484375,-0.578857421875,-0.4272460639476776,2.319335699081421,0.9460448622703552,100.0,39186.0,1.0
469645.4682653,265759.40625,263973.75,391182.46875,406096.875,269378.59375,257939.234375,231278.78125,216368.46875,-0.107666015625,0.822265625,-0.578369140625,-0.2746581733226776,2.288818120956421,1.0070799589157104,100.0,39187.0,1.0
469645.4720097,265861.84375,263835.71875,388996.28125,405856.125,268655.375,257935.390625,231183.75,216313.046875,-0.109619140625,0.822021484375,-0.57861328125,-0.2136230319738388,2.319335699081421,1.0070799589157104,100.0,39188.0,1.0
469645.4953703,264394.40625,263306.34375,387563.25,405916.71875,268658.0625,257914.109375,231286.75,216371.421875,-0.11181640625,0.82275390625,-0.574951171875,-0.1831054538488388,2.227782964706421,1.1291502714157104,100.0,39189.0,1.0
469645.4953837,263325.28125,263098.28125,388900.15625,406214.90625,269411.03125,257917.328125,231466.09375,216471.65625,-0.113037109375,0.82373046875,-0.574951171875,-0.2441406100988388,2.258300542831421,1.0070799589157104,100.0,39190.0,1.0
469645.5046625,264102.6875,263491.6875,391080.09375,406319.78125,269852.4375,257935.65625,231461.359375,216454.484375,-0.112060546875,0.82080078125,-0.57763671875,-0.2441406100988388,2.197265386581421,0.9155272841453552,100.0,39191.0,1.0
469645.5046782,265754.21875,263992.71875,391176.8125,406088.65625,269396.46875,257955.765625,231289.875,216341.921875,-0.111083984375,0.81787109375,-0.578857421875,-0.3356933295726776,2.044677495956421,0.9460448622703552,100.0,39192.0,1.0
469645.5070899,265854.6875,263849.3125,388986.8125,405837.34375,268664.59375,257941.28125,231186.34375,216263.0625,-0.106201171875,0.815673828125,-0.57373046875,-0.2746581733226776,1.9836424589157104,0.9765624403953552,100.0,39193.0,1.0
469645.512065,264398.34375,263327.53125,387562.5625,405903.21875,268670.5625,257921.4375,231292.546875,216318.3125,-0.104736328125,0.812744140625,-0.57275390625,-0.3967284858226776,1.9531248807907104,0.9155272841453552,100.0,39194.0,1.0
469645.5145114,263308.125,263096.9375,388872.90625,406188.15625,269400.3125,257904.984375,231451.34375,216401.90625,-0.10107421875,0.8125,-0.573974609375,-0.3356933295726776,1.9531248807907104,1.0070799589157104,100.0,39195.0,1.0
469645.5170601,264090.4375,263494.34375,391059.625,406306.46875,269848.0625,257928.953125,231453.125,216400.390625,-0.099853515625,0.81298828125,-0.576416015625,-0.1831054538488388,2.014159917831421,0.9765624403953552,100.0,39196.0,1.0
469645.5196199,265767.4375,264011.5625,391190.0625,406105.8125,269417.9375,257972.765625,231304.359375,216322.515625,-0.100830078125,0.8134765625,-0.580322265625,0.0,2.075195074081421,0.9765624403953552,100.0,39197.0,1.0
469645.5220917,265884.65625,263879.875,389007.90625,405873.375,268699.53125,257977.5,231217.90625,216285.0625,-0.101318359375,0.812744140625,-0.5810546875,0.0610351525247097,2.105712652206421,0.9460448622703552,100.0,39198.0,1.0
469645.5246705,264432.5,263360.59375,387582.5,405940.0625,268707.0625,257957.828125,231321.4375,216346.65625,-0.100830078125,0.809814453125,-0.579345703125,0.0915527269244194,2.197265386581421,1.0681151151657104,100.0,39199.0,1.0
469645.529722,263302.9375,263093.53125,388857.4375,406178.25,269398.09375,257894.34375,231435.515625,216385.8125,-0.09814453125,0.80859375,-0.578857421875,0.2136230319738388,2.227782964706421,1.0375975370407104,100.0,39200.0,1.0
469645.5297482,264080.96875,263483.09375,391037.25,406285.96875,269834.84375,257908.203125,231428.09375,216406.828125,-0.09912109375,0.804443359375,-0.578125,0.3662109076976776,2.227782964706421,1.0070799589157104,100.0,39201.0,1.0
469645.5297537,265748.03125,263990.9375,391156.25,406068.4375,269389.125,257939.5,231267.34375,216334.40625,-0.099609375,0.8076171875,-0.578125,0.4577636420726776,2.380370855331421,0.9460448622703552,100.0,39202.0,1.0
469645.5334195,265865.15625,263852.34375,388974.5625,405828.21875,268663.40625,257940.125,231175.96875,216291.21875,-0.10205078125,0.80908203125,-0.576904296875,0.6713866591453552,2.532958745956421,0.9460448622703552,100.0,39203.0,1.0
469645.5334455,264406.9375,263323.9375,387541.28125,405887.84375,268662.71875,257915.984375,231274.21875,216357.46875,-0.106689453125,0.811279296875,-0.57470703125,0.7324218153953552,2.502441167831421,0.7934569716453552,100.0,39204.0,1.0
469645.5457623,263314.65625,263091.03125,388841.96875,406164.5625,269384.3125,257892.109375,231428.546875,216441.703125,-0.110107421875,0.8125,-0.576904296875,0.6408690810203552,2.441406011581421,0.6713866591453552,100.0,39205.0,1.0
469645.5483356,264097.125,263484.6875,391030.8125,406282.40625,269834.375,257919.03125,231436.859375,216452.0625,-0.11279296875,0.813720703125,-0.57763671875,0.7019042372703552,2.319335699081421,0.4882812201976776,100.0,39206.0,1.0
469645.5483673,265754.46875,263982.96875,391140.25,406062.90625,269383.5,257940.84375,231268.859375,216353.71875,-0.114501953125,0.814208984375,-0.57666015625,0.7629393935203552,2.288818120956421,0.3356933295726776,100.0,39207.0,1.0
469645.5507387,265877.0625,263852.6875,388971.5,405826.25,268662.96875,257939.234375,231178.109375,216310.453125,-0.115966796875,0.81396484375,-0.579833984375,0.7934569716453552,2.044677495956421,0.2136230319738388,100.0,39208.0,1.0
469645.5583527,264410.34375,263314.8125,387526.15625,405881.59375,268654.9375,257909.734375,231275.203125,216371.875,-0.114013671875,0.814697265625,-0.578857421875,0.7629393935203552,1.7089842557907104,0.1220703050494194,100.0,39209.0,1.0
469645.5681595,263310.09375,263078.96875,388834.0,406161.34375,269382.15625,257887.5625,231432.03125,216480.671875,-0.1123046875,0.816650390625,-0.58251953125,0.7324218153953552,1.5563963651657104,-0.0915527269244194,100.0,39210.0,1.0
469645.5745974,264086.78125,263470.21875,391022.59375,406285.53125,269833.9375,257915.265625,231441.5,216500.703125,-0.111083984375,0.81689453125,-0.5810546875,0.7019042372703552,1.4648436307907104,-0.2441406100988388,100.0,39211.0,1.0
469645.580841,265761.8125,263986.90625,391151.34375,406083.65625,269400.5,257957.296875,231292.203125,216418.453125,-0.109375,0.81787109375,-0.58154296875,0.6713866591453552,1.1901854276657104,-0.2441406100988388,100.0,39212.0,1.0
469645.5833551,265856.75,263827.75,388945.3125,405818.65625,268651.625,257931.546875,231174.359375,216348.796875,-0.110107421875,0.8203125,-0.581298828125,0.7629393935203552,1.2207030057907104,-0.3662109076976776,100.0,39213.0,1.0
469645.5896266,264399.78125,263301.40625,387501.84375,405883.375,268652.25,257907.40625,231276.109375,216413.71875,-0.1083984375,0.820556640625,-0.580810546875,0.7934569716453552,1.2207030057907104,-0.3967284858226776,100.0,39214.0,1.0
469645.5911867,263331.8125,263100.34375,388835.875,406189.40625,269405.9375,257906.328125,231454.921875,216533.34375,-0.10888671875,0.821044921875,-0.5810546875,0.5493163466453552,1.0375975370407104,-0.3662109076976776,100.0,39215.0,1.0
469645.6299564,264090.96875,263480.21875,391020.71875,406293.75,269845.75,257920.09375,231447.9375,216540.84375,-0.108154296875,0.81982421875,-0.582275390625,0.5493163466453552,1.0681151151657104,-0.3356933295726776,100.0,39216.0,1.0
469645.6395524,265741.59375,263980.09375,391127.46875,406072.125,269394.6875,257945.671875,231282.546875,216442.40625,-0.105224609375,0.819580078125,-0.5830078125,0.4577636420726776,1.0681151151657104,-0.2746581733226776,100.0,39217.0,1.0
469645.6395818,265866.15625,263856.8125,388949.15625,405834.21875,268676.28125,257951.75,231196.4375,216386.265625,-0.106201171875,0.8212890625,-0.58349609375,0.4577636420726776,1.0070799589157104,-0.2746581733226776,100.0,39218.0,1.0
469645.6420944,264400.40625,263321.8125,387501.03125,405886.40625,268665.65625,257922.875,231292.828125,216427.390625,-0.10400390625,0.8203125,-0.582275390625,0.3967284858226776,1.0681151151657104,-0.1525878757238388,100.0,39219.0,1.0
469645.6445344,263307.6875,263091.3125,388813.34375,406164.28125,269394.21875,257900.875,231450.8125,216501.15625,-0.102783203125,0.819091796875,-0.582763671875,0.2441406100988388,1.1291502714157104,-0.03051757626235485,100.0,39220.0,1.0
469645.6469972,264080.5,263485.40625,391004.34375,406279.0,269843.59375,257923.40625,231452.234375,216515.453125,-0.1015625,0.820556640625,-0.58154296875,0.2441406100988388,1.1291502714157104,0.0,100.0,39221.0,1.0
