Time,FZ,C3,CZ,C4,PZ,PO7,OZ,PO8,AccX,AccY,AccZ,Gyro1,Gyro2,Gyro3,Battery,Counter,Validation
1212718.6558566,288883.0,299776.0625,316484.53125,296584.25,316642.15625,302765.84375,299515.625,306504.375,-0.091552734375,0.9501953125,-0.1826171875,13.153075218200684,8.789061546325684,5.249022960662842,80.0,1100763.0,1.0
1212718.6558899,288902.5625,299866.90625,316322.71875,296775.46875,317258.09375,303222.15625,299498.71875,307275.71875,-0.0947265625,0.94921875,-0.181640625,12.878417015075684,8.453368186950684,5.340575695037842,80.0,1100764.0,1.0
1212718.6691134,288746.375,297806.96875,315642.59375,296189.15625,316071.03125,300793.59375,298184.1875,305186.1875,-0.093017578125,0.94970703125,-0.183837890625,12.359618186950684,8.209227561950684,5.401610851287842,80.0,1100765.0,1.0
1212718.672675,288620.125,296449.875,315375.25,295619.53125,314747.71875,298850.71875,297394.96875,303125.0625,-0.08740234375,0.94677734375,-0.18212890625,11.901854515075684,7.812499523162842,5.523681163787842,80.0,1100766.0,1.0
1212718.6727198,288709.8125,297685.375,315903.75,295898.21875,315153.71875,300101.96875,298233.0,304004.125,-0.08447265625,0.947021484375,-0.1826171875,11.627196311950684,7.568358898162842,5.645751476287842,80.0,1100767.0,1.0
1212718.6727316,288874.9375,299775.4375,316475.9375,296600.875,316697.5,302788.0,299517.6875,306572.59375,-0.0810546875,0.944580078125,-0.182373046875,11.352538108825684,7.354735851287842,5.706786632537842,80.0,1100768.0,1.0
1212718.6752372,288895.78125,299861.09375,316318.25,296776.1875,317271.21875,303227.90625,299493.71875,307315.125,-0.076904296875,0.94482421875,-0.1826171875,11.077879905700684,7.232665538787842,5.920409679412842,80.0,1100769.0,1.0
1212718.6778879,288738.78125,297815.71875,315641.78125,296196.9375,316094.0,300815.96875,298192.65625,305247.59375,-0.07177734375,0.94677734375,-0.1826171875,10.742186546325684,7.080077648162842,6.195067882537842,80.0,1100770.0,1.0
1212718.6841111,288605.65625,296456.03125,315372.5,295624.46875,314769.875,298874.5,297403.65625,303196.15625,-0.06982421875,0.94873046875,-0.177978515625,10.437010765075684,7.080077648162842,6.530761241912842,80.0,1100771.0,1.0
1212718.6884976,288706.21875,297693.34375,315906.4375,295907.96875,315178.9375,300127.625,298241.65625,304078.15625,-0.067626953125,0.94921875,-0.175537109375,9.857176780700684,6.988524913787842,6.927489757537842,80.0,1100772.0,1.0
1212718.6885376,288886.21875,299801.625,316483.0,296626.875,316744.0,302826.90625,299538.6875,306660.6875,-0.06689453125,0.94970703125,-0.174072265625,9.552000999450684,6.988524913787842,7.324218273162842,80.0,1100773.0,1.0
1212718.6991159,288891.125,299864.65625,316309.28125,296779.25,317287.125,303243.8125,299498.90625,307377.8125,-0.066162109375,0.947998046875,-0.174072265625,9.063719749450684,7.019042491912842,7.751464366912842,80.0,1100774.0,1.0
1212718.7022061,288729.84375,297815.90625,315635.4375,296191.90625,316094.09375,300834.8125,298201.4375,305309.65625,-0.063720703125,0.947509765625,-0.173095703125,8.666991233825684,7.202147960662842,8.361815452575684,80.0,1100775.0,1.0
1212718.7022501,288596.34375,296457.5625,315367.40625,295618.65625,314781.15625,298904.875,297415.8125,303271.875,-0.064697265625,0.94384765625,-0.179443359375,8.331297874450684,7.171630382537842,8.758543968200684,80.0,1100776.0,1.0
1212718.7053071,288693.8125,297691.8125,315895.6875,295895.8125,315186.34375,300149.25,298245.25,304147.4375,-0.06689453125,0.939697265625,-0.185791015625,7.995604991912842,7.110595226287842,9.307860374450684,80.0,1100777.0,1.0
1212718.7142222,288875.9375,299800.84375,316474.15625,296614.375,316744.25,302842.71875,299533.96875,306720.65625,-0.067626953125,0.93603515625,-0.189208984375,7.781981945037842,7.110595226287842,9.704588890075684,80.0,1100778.0,1.0
1212718.7171596,288894.15625,299877.625,316316.0,296782.09375,317305.28125,303278.59375,299509.28125,307452.71875,-0.069091796875,0.932373046875,-0.19189453125,7.751464366912842,7.019042491912842,10.070799827575684,80.0,1100779.0,1.0
1212718.7172033,288745.21875,297842.1875,315655.1875,296209.4375,316136.03125,300890.78125,298232.71875,305405.9375,-0.06982421875,0.93017578125,-0.194580078125,7.843017101287842,6.896972179412842,10.406493186950684,80.0,1100780.0,1.0
1212718.7189404,288610.03125,296494.75,315385.71875,295643.59375,314841.78125,298971.0625,297453.1875,303382.65625,-0.07080078125,0.927490234375,-0.197509765625,8.087157249450684,6.866454601287842,10.772704124450684,80.0,1100781.0,1.0
1212718.7265689,288702.84375,297724.625,315905.1875,295917.4375,315250.28125,300212.8125,298275.0,304252.75,-0.068603515625,0.924560546875,-0.203125,8.270262718200684,6.683349132537842,11.199950218200684,80.0,1100782.0,1.0
1212718.7304719,288873.875,299817.375,316470.0625,296625.8125,316800.125,302893.34375,299544.5,306807.84375,-0.070556640625,0.922119140625,-0.201904296875,8.453368186950684,6.591796398162842,11.444090843200684,80.0,1100783.0,1.0
1212718.7371876,288882.28125,299886.125,316302.59375,296788.09375,317365.375,303323.03125,299510.34375,307537.84375,-0.072265625,0.920166015625,-0.203857421875,8.666991233825684,6.500243663787842,11.688231468200684,80.0,1100784.0,1.0
1212718.7372314,288721.4375,297838.09375,315632.5,296199.0625,316183.15625,300918.78125,298217.71875,305483.09375,-0.07421875,0.918212890625,-0.209228515625,8.880614280700684,6.195067882537842,11.901854515075684,80.0,1100785.0,1.0
1212718.7428084,288603.59375,296495.46875,315382.78125,295640.0,314884.96875,299002.53125,297448.96875,303468.40625,-0.076171875,0.91650390625,-0.213134765625,9.124754905700684,5.981444835662842,11.840819358825684,80.0,1100786.0,1.0
1212718.7466084,288714.1875,297746.53125,315922.34375,295939.71875,315310.71875,300264.6875,298287.96875,304357.1875,-0.07373046875,0.916748046875,-0.212646484375,9.368895530700684,5.676269054412842,11.932372093200684,80.0,1100787.0,1.0
1212718.75357,288885.21875,299842.3125,316487.46875,296654.4375,316859.0625,302945.53125,299555.59375,306909.75,-0.0703125,0.9130859375,-0.216552734375,9.887694358825684,5.432128429412842,12.054442405700684,80.0,1100788.0,1.0
1212718.7536152,288884.78125,299906.4375,316308.5,296811.40625,317424.03125,303371.5625,299517.3125,307637.96875,-0.069091796875,0.911865234375,-0.2197265625,10.253905296325684,5.187987804412842,11.932372093200684,80.0,1100789.0,1.0
1212718.7590733,288707.125,297845.3125,315623.09375,296205.6875,316239.65625,300961.4375,298221.09375,305583.0625,-0.065673828125,0.912109375,-0.221435546875,10.864256858825684,5.065917491912842,11.871336936950684,80.0,1100790.0,1.0
1212718.7684564,288577.9375,296489.28125,315360.59375,295626.59375,314930.28125,299032.46875,297441.28125,303558.25,-0.064453125,0.91357421875,-0.22314453125,11.077879905700684,5.004882335662842,11.901854515075684,80.0,1100791.0,1.0
1212718.7685004,288687.8125,297737.9375,315894.8125,295917.53125,315344.78125,300283.09375,298268.3125,304437.5625,-0.059326171875,0.916015625,-0.22509765625,11.596678733825684,4.791259288787842,11.871336936950684,80.0,1100792.0,1.0
1212718.7711191,288889.78125,299874.25,316489.1875,296678.84375,316945.59375,303005.8125,299569.34375,307038.59375,-0.052490234375,0.917236328125,-0.224365234375,12.023924827575684,4.608153820037842,11.871336936950684,80.0,1100793.0,1.0
1212718.771191,288901.3125,299952.5625,316323.15625,296851.65625,317534.8125,303445.78125,299543.53125,307781.375,-0.04736328125,0.920654296875,-0.22412109375,12.298583030700684,4.669188976287842,11.840819358825684,80.0,1100794.0,1.0
1212718.7792205,288706.0625,297861.96875,315623.625,296218.84375,316322.4375,301005.40625,298225.125,305695.25,-0.044677734375,0.925048828125,-0.227783203125,12.573241233825684,4.608153820037842,11.871336936950684,80.0,1100795.0,1.0
1212718.7834692,288567.375,296492.78125,315356.40625,295629.625,314991.96875,299064.75,297439.6875,303651.9375,-0.03857421875,0.927978515625,-0.2294921875,12.756346702575684,4.669188976287842,11.962889671325684,80.0,1100796.0,1.0
1212718.7835124,288701.9375,297770.9375,315912.15625,295958.84375,315449.5625,300354.8125,298297.1875,304569.34375,-0.03662109375,0.931640625,-0.232421875,12.847899436950684,4.699706554412842,12.054442405700684,80.0,1100797.0,1.0
1212718.7865179,288916.875,299923.40625,316512.875,296729.15625,317064.0625,303086.53125,299598.59375,307175.75,-0.03271484375,0.936767578125,-0.23193359375,12.908934593200684,4.699706554412842,12.023924827575684,80.0,1100798.0,1.0
1212718.7953649,288929.21875,299994.9375,316345.15625,296896.28125,317646.1875,303520.4375,299567.84375,307911.03125,-0.028564453125,0.941162109375,-0.231689453125,12.908934593200684,4.852294445037842,12.023924827575684,80.0,1100799.0,1.0
1212718.7998336,288717.75,297886.28125,315631.78125,296244.59375,316427.65625,301066.9375,298244.625,305811.21875,-0.024169921875,0.94482421875,-0.229736328125,12.847899436950684,4.913329601287842,11.871336936950684,80.0,1100800.0,1.0
1212718.799884,288573.71875,296512.71875,315358.4375,295645.90625,315102.46875,299118.3125,297458.375,303759.25,-0.02197265625,0.949462890625,-0.23681640625,12.847899436950684,5.035399913787842,11.810301780700684,80.0,1100801.0,1.0
1212718.8103605,288709.53125,297789.34375,315912.25,295968.9375,315550.84375,300393.875,298305.15625,304653.3125,-0.01904296875,0.950927734375,-0.23779296875,12.695311546325684,5.249022960662842,11.779784202575684,80.0,1100802.0,1.0
1212718.8134527,288910.78125,299922.4375,316498.40625,296727.90625,317141.21875,303103.875,299583.21875,307227.4375,-0.01611328125,0.95458984375,-0.2412109375,12.542723655700684,5.340575695037842,11.596678733825684,80.0,1100803.0,1.0
1212718.8134966,288916.0625,299990.5625,316328.25,296889.375,317722.71875,303530.53125,299547.46875,307954.5625,-0.0146484375,0.9609375,-0.242919921875,12.359618186950684,5.432128429412842,11.505125999450684,80.0,1100804.0,1.0
1212718.8189828,288720.53125,297894.9375,315632.65625,296246.5625,316517.34375,301084.90625,298241.21875,305867.625,-0.01123046875,0.9638671875,-0.24365234375,12.145995140075684,5.645751476287842,11.199950218200684,80.0,1100805.0,1.0
1212718.8233518,288571.9375,296507.78125,315354.875,295635.4375,315180.0,299122.3125,297448.90625,303807.53125,-0.010009765625,0.968994140625,-0.242431640625,11.688231468200684,5.676269054412842,11.108397483825684,80.0,1100806.0,1.0
1212718.8233856,288700.25,297771.90625,315902.9375,295950.0,315603.78125,300387.15625,298286.09375,304679.5,-0.0107421875,0.9716796875,-0.241455078125,11.138915061950684,5.798339366912842,10.864256858825684,80.0,1100807.0,1.0
1212718.8303755,288920.53125,299927.96875,316504.84375,296736.5,317212.125,303121.6875,299583.125,307265.6875,-0.010986328125,0.972900390625,-0.242431640625,10.650633811950684,5.828856945037842,10.620116233825684,80.0,1100808.0,1.0
1212718.8327561,288930.65625,300000.125,316338.625,296907.53125,317799.0,303554.6875,299555.5,307992.21875,-0.01123046875,0.9755859375,-0.24267578125,10.131834983825684,5.737304210662842,10.375975608825684,80.0,1100809.0,1.0
1212718.8366103,288719.8125,297881.53125,315632.84375,296247.71875,316577.96875,301092.75,298244.625,305889.8125,-0.00732421875,0.975341796875,-0.239990234375,9.552000999450684,5.737304210662842,10.101317405700684,80.0,1100810.0,1.0
1212718.8460657,288580.09375,296502.25,315366.21875,295641.09375,315243.9375,299135.90625,297465.0,303836.5,-0.0048828125,0.97900390625,-0.24462890625,9.094237327575684,5.737304210662842,9.857176780700684,80.0,1100811.0,1.0
1212718.846111,288700.78125,297763.59375,315902.21875,295945.4375,315663.0625,300390.28125,298284.59375,304701.5,-0.003173828125,0.982421875,-0.244384765625,8.453368186950684,5.767821788787842,9.521483421325684,80.0,1100812.0,1.0
1212718.8478737,288925.46875,299928.5,316505.90625,296731.84375,317278.90625,303125.34375,299580.09375,307286.6875,0.000244140625,0.9892578125,-0.249755859375,7.843017101287842,5.706786632537842,9.185790061950684,80.0,1100813.0,1.0
1212718.8515678,288929.21875,299997.34375,316339.59375,296896.8125,317861.40625,303552.15625,299548.625,308007.3125,0.000244140625,0.9921875,-0.252685546875,7.049560070037842,5.645751476287842,8.880614280700684,80.0,1100814.0,1.0
1212718.8658626,288700.78125,297865.0,315621.75,296224.8125,316631.59375,301077.21875,298228.6875,305898.3125,0.00146484375,0.996826171875,-0.25244140625,6.347655773162842,5.615233898162842,8.605956077575684,80.0,1100815.0,1.0
1212718.8659068,288568.90625,296485.71875,315361.21875,295624.90625,315302.46875,299124.28125,297459.8125,303851.0625,0.00390625,1.001220703125,-0.25146484375,5.645751476287842,5.615233898162842,8.331297874450684,80.0,1100816.0,1.0
1212718.8684142,288707.46875,297762.71875,315910.8125,295942.5625,315720.8125,300389.21875,298296.90625,304719.03125,0.00439453125,1.004638671875,-0.251220703125,4.730224132537842,5.493163585662842,8.056639671325684,80.0,1100817.0,1.0
1212718.868455,288919.46875,299917.34375,316499.375,296719.96875,317317.09375,303112.28125,299583.5,307286.96875,0.00146484375,1.00732421875,-0.250244140625,3.845214605331421,5.340575695037842,7.812499523162842,80.0,1100818.0,1.0
1212718.8741159,288911.5,299970.78125,316316.28125,296869.0,317880.09375,303524.375,299537.8125,307988.28125,0.0,1.012939453125,-0.248291015625,2.838134527206421,5.126952648162842,7.568358898162842,80.0,1100819.0,1.0
1212718.8834096,288691.9375,297840.5,315606.75,296199.34375,316644.75,301051.28125,298221.28125,305883.09375,-0.002197265625,1.017578125,-0.24169921875,1.7089842557907104,4.943847179412842,7.171630382537842,80.0,1100820.0,1.0
1212718.8834536,288548.15625,296449.78125,315338.0625,295590.125,315297.125,299085.125,297432.34375,303828.53125,-0.001708984375,1.0234375,-0.241455078125,0.5798339247703552,4.699706554412842,6.683349132537842,80.0,1100821.0,1.0
1212718.8852815,288704.34375,297751.0,315907.59375,295934.6875,315743.8125,300374.75,298288.15625,304723.84375,-0.00439453125,1.025390625,-0.241455078125,-0.4882812201976776,4.516601085662842,6.408690929412842,80.0,1100822.0,1.0
1212718.8892279,288937.53125,299930.75,316518.78125,296735.15625,317365.90625,303123.03125,299594.3125,307313.25,-0.00390625,1.02685546875,-0.239990234375,-1.6784666776657104,4.150390148162842,5.981444835662842,80.0,1100823.0,1.0
1212718.8958957,288927.96875,299986.71875,316334.96875,296892.6875,317936.9375,303541.0,299552.28125,308023.875,-0.00634765625,1.029541015625,-0.2392578125,-3.051757574081421,3.814697027206421,5.462646007537842,80.0,1100824.0,1.0
1212718.8959381,288689.15625,297834.59375,315606.46875,296210.34375,316683.1875,301050.125,298218.5,305904.28125,-0.005126953125,1.031494140625,-0.234130859375,-4.272460460662842,3.448486089706421,4.852294445037842,80.0,1100825.0,1.0
1212718.90404,288542.34375,296440.21875,315333.40625,295597.8125,315331.0,299079.125,297431.625,303847.84375,-0.002685546875,1.031494140625,-0.23388671875,-5.554198741912842,3.234863042831421,4.272460460662842,80.0,1100826.0,1.0
1212718.9072105,288684.875,297719.25,315891.40625,295920.03125,315748.28125,300347.5625,298273.75,304719.125,0.00146484375,1.029296875,-0.231689453125,-6.805419445037842,3.082275152206421,3.723144292831421,80.0,1100827.0,1.0
1212718.9072544,288907.75,299883.28125,316490.6875,296704.125,317346.25,303080.71875,299569.8125,307289.65625,0.0078125,1.028076171875,-0.232177734375,-7.965087413787842,3.021239995956421,3.173827886581421,80.0,1100828.0,1.0
1212718.9129686,288910.4375,299950.21875,316318.6875,296871.25,317919.15625,303507.03125,299540.65625,308004.71875,0.01123046875,1.0244140625,-0.232421875,-9.063719749450684,2.960204839706421,2.655029058456421,80.0,1100829.0,1.0
1212718.9191237,288691.21875,297822.78125,315610.75,296209.90625,316687.125,301037.5,298232.0,305904.28125,0.016845703125,1.019287109375,-0.231201171875,-10.070799827575684,3.143310308456421,1.9531248807907104,80.0,1100830.0,1.0
1212718.9283596,288549.9375,296433.5,315343.0625,295606.125,315345.03125,299075.21875,297449.96875,303852.125,0.018798828125,1.013427734375,-0.23046875,-10.894774436950684,3.387450933456421,1.4648436307907104,80.0,1100831.0,1.0
1212718.9284041,288699.09375,297724.96875,315905.09375,295938.09375,315776.0625,300355.34375,298296.03125,304734.40625,0.021240234375,1.00927734375,-0.23095703125,-11.718749046325684,3.662109136581421,0.8850097060203552,80.0,1100832.0,1.0
1212718.9359565,288911.25,299884.15625,316496.5,296712.0,317369.65625,303083.6875,299581.53125,307298.59375,0.02099609375,1.0048828125,-0.229736328125,-12.329100608825684,3.936767339706421,0.3662109076976776,80.0,1100833.0,1.0
1212718.9360005,288905.59375,299940.75,316316.4375,296866.84375,317929.96875,303501.125,299544.78125,308000.875,0.02392578125,1.0,-0.229736328125,-13.092040061950684,4.302978038787842,-0.2136230319738388,80.0,1100834.0,1.0
1212718.9379453,288693.1875,297813.125,315609.59375,296208.8125,316691.40625,301027.75,298233.96875,305893.125,0.0244140625,0.994140625,-0.226318359375,-13.732909202575684,4.577636241912842,-0.7019042372703552,80.0,1100835.0,1.0
1212718.9403824,288552.28125,296423.03125,315340.125,295605.3125,315342.28125,299059.03125,297450.25,303833.0,0.026123046875,0.9912109375,-0.2255859375,-14.160155296325684,4.974364757537842,-1.1596678495407104,80.0,1100836.0,1.0
1212718.9428394,288694.53125,297703.53125,315898.1875,295924.6875,315756.59375,300327.71875,298294.40625,304700.5,0.02734375,0.9873046875,-0.221435546875,-14.587401390075684,5.493163585662842,-1.6174315214157104,80.0,1100837.0,1.0
1212718.9516123,288908.90625,299862.4375,316491.6875,296694.3125,317346.59375,303056.40625,299583.21875,307260.3125,0.02783203125,0.982421875,-0.2197265625,-14.892577171325684,6.011962413787842,-1.9531248807907104,80.0,1100838.0,1.0
1212718.9546254,288906.3125,299916.96875,316312.59375,296846.90625,317906.0,303470.90625,299540.03125,307959.75,0.03173828125,0.977294921875,-0.221435546875,-15.075682640075684,6.439208507537842,-2.288818120956421,80.0,1100839.0,1.0
1212718.9546753,288700.34375,297792.65625,315608.78125,296196.75,316669.875,300998.34375,298223.875,305850.90625,0.03369140625,0.970947265625,-0.219970703125,-15.258788108825684,6.988524913787842,-2.807616949081421,80.0,1100840.0,1.0
1212718.9653762,288566.84375,296408.46875,315345.40625,295600.75,315314.375,299030.6875,297442.375,303789.09375,0.036376953125,0.96435546875,-0.218017578125,-15.350340843200684,7.476806163787842,-3.143310308456421,80.0,1100841.0,1.0
1212718.9684653,288685.3125,297666.5,315880.5,295895.90625,315699.375,300277.1875,298265.09375,304631.9375,0.03662109375,0.960693359375,-0.21630859375,-15.319823265075684,8.026122093200684,-3.479003667831421,80.0,1100842.0,1.0
1212718.9685104,288911.875,299852.96875,316491.34375,296685.09375,317324.15625,303038.15625,299583.5625,307227.25,0.0361328125,0.958984375,-0.214111328125,-15.319823265075684,8.636473655700684,-3.692626714706421,80.0,1100843.0,1.0
1212718.9703588,288908.03125,299906.15625,316311.25,296827.96875,317867.5625,303447.5625,299538.5,307916.65625,0.03662109375,0.9541015625,-0.2177734375,-15.136717796325684,9.368895530700684,-4.028319835662842,80.0,1100844.0,1.0
1212718.9842194,288711.96875,297790.59375,315619.6875,296196.84375,316638.40625,300987.53125,298236.9375,305820.34375,0.038330078125,0.952392578125,-0.21826171875,-14.892577171325684,10.101317405700684,-4.364013195037842,80.0,1100845.0,1.0
1212718.9872028,288571.75,296396.75,315350.3125,295603.53125,315286.75,299015.84375,297445.9375,303758.15625,0.03857421875,0.95068359375,-0.216064453125,-14.678954124450684,10.681151390075684,-4.638671398162842,80.0,1100846.0,1.0
1212718.9872479,288700.0625,297670.8125,315897.125,295902.5,315686.40625,300274.78125,298280.03125,304612.375,0.0419921875,0.947509765625,-0.2119140625,-14.282225608825684,11.444090843200684,-4.821776866912842,80.0,1100847.0,1.0
1212718.9909671,288911.15625,299843.3125,316496.78125,296657.1875,317273.09375,303010.46875,299577.6875,307170.90625,0.042236328125,0.9453125,-0.21044921875,-14.007567405700684,12.268065452575684,-5.096435070037842,80.0,1100848.0,1.0
1212718.9910107,288913.9375,299909.09375,316327.28125,296818.3125,317833.6875,303435.3125,299543.96875,307872.75,0.044189453125,0.94384765625,-0.20947265625,-13.610838890075684,13.092040061950684,-5.432128429412842,80.0,1100849.0,1.0
1212719.0041097,288710.53125,297784.96875,315624.625,296189.0625,316602.625,300967.78125,298228.78125,305773.03125,0.04296875,0.941650390625,-0.210693359375,-13.122557640075684,13.946532249450684,-5.554198741912842,80.0,1100850.0,1.0
1212719.0116641,288574.34375,296398.1875,315358.625,295607.03125,315256.96875,299004.84375,297444.15625,303721.96875,0.040283203125,0.940185546875,-0.2099609375,-12.786864280700684,14.770506858825684,-5.859374523162842,80.0,1100851.0,1.0
1212719.0117088,288699.25,297673.21875,315902.75,295903.03125,315662.53125,300264.40625,298278.0625,304575.53125,0.0400390625,0.939208984375,-0.2109375,-12.207030296325684,15.655516624450684,-6.195067882537842,80.0,1100852.0,1.0
1212719.0117208,288908.03125,299835.15625,316495.53125,296641.90625,317234.46875,302987.5625,299568.65625,307116.46875,0.041015625,0.939208984375,-0.210693359375,-11.657713890075684,16.296384811401367,-6.591796398162842,80.0,1100853.0,1.0
1212719.0147018,288911.40625,299895.96875,316319.40625,296797.375,317783.625,303406.71875,299530.28125,307811.15625,0.043212890625,0.94140625,-0.20849609375,-11.016844749450684,17.150876998901367,-6.713866710662842,80.0,1100854.0,1.0
1212719.0147461,288731.90625,297789.96875,315639.09375,296196.125,316567.0625,300955.78125,298228.6875,305737.71875,0.0419921875,0.942138671875,-0.203857421875,-10.498045921325684,17.974851608276367,-6.958007335662842,80.0,1100855.0,1.0
1212719.0228686,288574.625,296381.46875,315351.46875,295596.28125,315189.46875,298965.59375,297420.71875,303665.375,0.041748046875,0.94287109375,-0.201904296875,-10.162352561950684,18.829343795776367,-7.110595226287842,80.0,1100856.0,1.0
1212719.029674,288687.0,297653.09375,315886.125,295889.625,315603.4375,300228.65625,298257.65625,304524.375,0.042724609375,0.943603515625,-0.2021484375,-9.643553733825684,19.653318405151367,-7.324218273162842,80.0,1100857.0,1.0
1212719.0297174,288893.0,299812.28125,316476.5625,296617.59375,317181.1875,302951.71875,299549.875,307060.21875,0.041259765625,0.94384765625,-0.201416015625,-9.216307640075684,20.477293014526367,-7.507323741912842,80.0,1100858.0,1.0
1212719.0423168,288900.6875,299880.5,316306.625,296776.28125,317738.03125,303371.9375,299513.5625,307762.96875,0.0400390625,0.946533203125,-0.19970703125,-8.789061546325684,21.392820358276367,-7.568358898162842,80.0,1100859.0,1.0
1212719.0423608,288709.625,297769.0625,315621.40625,296178.15625,316520.84375,300918.40625,298207.6875,305694.8125,0.0380859375,0.947021484375,-0.197265625,-8.331297874450684,22.186277389526367,-7.720946788787842,80.0,1100860.0,1.0
1212719.0447057,288582.59375,296395.6875,315363.5625,295620.4375,315193.5,298971.84375,297431.5625,303674.125,0.03515625,0.947021484375,-0.203369140625,-7.904052257537842,22.979734420776367,-7.751464366912842,80.0,1100861.0,1.0
1212719.0447487,288689.59375,297651.125,315886.03125,295888.21875,315579.28125,300214.4375,298250.34375,304502.65625,0.031982421875,0.9462890625,-0.198486328125,-7.507323741912842,23.590085983276367,-7.873534679412842,80.0,1100862.0,1.0
1212719.0528479,288898.375,299814.4375,316480.40625,296605.34375,317143.90625,302933.65625,299544.0625,307020.28125,0.02880859375,0.945556640625,-0.194580078125,-7.049560070037842,24.322507858276367,-7.843017101287842,80.0,1100863.0,1.0
1212719.0678056,288912.3125,299892.125,316321.71875,296776.28125,317716.90625,303367.8125,299518.9375,307730.6875,0.026123046875,0.946533203125,-0.197265625,-6.744384288787842,24.841306686401367,-7.812499523162842,80.0,1100864.0,1.0
1212719.0678513,288720.96875,297772.53125,315632.84375,296187.90625,316498.3125,300912.15625,298207.875,305674.0625,0.025634765625,0.944580078125,-0.1962890625,-6.469726085662842,25.421140670776367,-7.904052257537842,80.0,1100865.0,1.0
1212719.0678637,288590.09375,296392.5625,315368.75,295633.84375,315164.0,298955.5,297423.40625,303659.0,0.020263671875,0.944580078125,-0.19775390625,-6.134032726287842,25.756834030151367,-7.965087413787842,80.0,1100866.0,1.0
1212719.0710786,288709.90625,297663.46875,315906.0625,295906.8125,315555.9375,300203.0625,298252.40625,304493.1875,0.018798828125,0.9462890625,-0.195068359375,-5.798339366912842,26.275632858276367,-8.087157249450684,80.0,1100867.0,1.0
1212719.0711229,288911.34375,299821.9375,316490.6875,296605.78125,317116.375,302915.59375,299539.59375,306993.09375,0.0185546875,0.94677734375,-0.1962890625,-5.432128429412842,26.641843795776367,-8.056639671325684,80.0,1100868.0,1.0
1212719.072889,288900.59375,299876.03125,316304.8125,296746.59375,317655.75,303323.65625,299489.78125,307674.28125,0.01611328125,0.948486328125,-0.197509765625,-5.035399913787842,26.977537155151367,-8.117674827575684,80.0,1100869.0,1.0
1212719.0766215,288716.5,297771.5625,315622.03125,296182.4375,316457.0,300889.8125,298192.5,305648.5,0.0146484375,0.949951171875,-0.195556640625,-4.760741710662842,27.374265670776367,-8.056639671325684,80.0,1100870.0,1.0
1212719.0909594,288582.65625,296389.875,315357.46875,295636.96875,315135.5625,298943.6875,297412.9375,303653.65625,0.0126953125,0.949951171875,-0.19580078125,-4.547118663787842,27.679441452026367,-8.117674827575684,80.0,1100871.0,1.0
1212719.091003,288695.5,297656.0625,315888.09375,295900.53125,315535.84375,300193.875,298240.59375,304486.90625,0.012939453125,0.951171875,-0.19677734375,-4.150390148162842,28.045652389526367,-7.995604991912842,80.0,1100872.0,1.0
1212719.0929729,288879.875,299796.375,316457.1875,296567.6875,317075.25,302883.0625,299508.5625,306949.625,0.012939453125,0.953125,-0.197998046875,-3.936767339706421,28.228757858276367,-7.873534679412842,80.0,1100873.0,1.0
1212719.0953808,288901.0625,299878.15625,316302.9375,296734.96875,317636.09375,303314.09375,299488.09375,307650.78125,0.01025390625,0.955078125,-0.194580078125,-3.814697027206421,28.472898483276367,-7.751464366912842,80.0,1100874.0,1.0
1212719.0997124,288751.90625,297811.78125,315657.25,296220.09375,316475.6875,300918.34375,298228.625,305677.65625,0.0068359375,0.9560546875,-0.19384765625,-3.601073980331421,28.533933639526367,-7.659911632537842,80.0,1100875.0,1.0
1212719.0997561,288596.0,296412.21875,315369.8125,295666.9375,315145.5625,298957.90625,297429.59375,303683.25,0.00439453125,0.96044921875,-0.193115234375,-3.356933355331421,28.656003952026367,-7.568358898162842,80.0,1100876.0,1.0
1212719.1078586,288702.84375,297667.03125,315892.21875,295912.15625,315531.375,300194.75,298247.75,304494.0625,0.0009765625,0.962890625,-0.1865234375,-3.326415777206421,28.594968795776367,-7.385253429412842,80.0,1100877.0,1.0
1212719.1147893,288886.03125,299803.5,316456.28125,296562.78125,317054.9375,302875.28125,299509.1875,306934.34375,-0.00048828125,0.963134765625,-0.18896484375,-3.356933355331421,28.656003952026367,-7.141112804412842,80.0,1100878.0,1.0
1212719.1148339,288899.4375,299881.84375,316295.0,296733.8125,317616.34375,303309.15625,299483.53125,307635.46875,-0.0029296875,0.965576171875,-0.189453125,-3.448486089706421,28.411863327026367,-6.958007335662842,80.0,1100879.0,1.0
1212719.1166354,288730.5625,297799.71875,315632.03125,296219.90625,316450.75,300904.125,298210.375,305668.96875,-0.0048828125,0.96484375,-0.1845703125,-3.509521245956421,28.259275436401367,-6.713866710662842,80.0,1100880.0,1.0
1212719.1453852,288588.125,296417.0625,315359.53125,295690.25,315141.71875,298962.46875,297427.4375,303708.625,-0.00634765625,0.9658203125,-0.186767578125,-3.570556402206421,28.106687545776367,-6.469726085662842,80.0,1100881.0,1.0
1212719.1484543,288708.90625,297692.875,315892.03125,295942.5625,315551.84375,300217.5625,298256.875,304538.78125,-0.009033203125,0.96630859375,-0.18359375,-3.601073980331421,27.893064498901367,-6.164550304412842,80.0,1100882.0,1.0
1212719.148498,288899.96875,299834.28125,316464.6875,296587.28125,317084.90625,302902.1875,299526.625,306973.15625,-0.010498046875,0.96533203125,-0.18212890625,-3.631591558456421,27.557371139526367,-5.920409679412842,80.0,1100883.0,1.0
1212719.1504282,288884.6875,299878.875,316277.375,296721.5625,317610.53125,303298.96875,299468.15625,307638.0625,-0.0107421875,0.96484375,-0.182373046875,-3.723144292831421,27.130125045776367,-5.615233898162842,80.0,1100884.0,1.0
1212719.1553306,288708.09375,297786.3125,315612.28125,296209.25,316441.96875,300892.75,298188.46875,305678.09375,-0.011474609375,0.9658203125,-0.1845703125,-3.753661870956421,26.763914108276367,-5.249022960662842,80.0,1100885.0,1.0
1212719.1578674,288580.78125,296412.21875,315357.03125,295702.875,315157.46875,298971.84375,297424.3125,303746.28125,-0.010986328125,0.966064453125,-0.183349609375,-3.845214605331421,26.275632858276367,-4.852294445037842,80.0,1100886.0,1.0
1212719.1603926,288702.21875,297679.90625,315886.84375,295940.40625,315559.15625,300216.03125,298253.5625,304555.5,-0.012939453125,0.968017578125,-0.18017578125,-3.997802495956421,25.817869186401367,-4.608153820037842,80.0,1100887.0,1.0
1212719.1629928,288888.96875,299813.53125,316452.09375,296560.1875,317073.375,302884.84375,299514.46875,306949.5625,-0.0166015625,0.969482421875,-0.176513671875,-4.211425304412842,25.238035202026367,-4.211425304412842,80.0,1100888.0,1.0
1212719.1653846,288914.625,299895.15625,316309.03125,296729.4375,317626.625,303319.96875,299499.1875,307638.0625,-0.017333984375,0.97119140625,-0.17431640625,-4.272460460662842,24.627683639526367,-3.936767339706421,80.0,1100889.0,1.0
1212719.1678806,288755.9375,297824.59375,315663.96875,296255.03125,316487.125,300942.28125,298242.28125,305722.78125,-0.01708984375,0.973388671875,-0.17333984375,-4.364013195037842,23.986814498901367,-3.601073980331421,80.0,1100890.0,1.0
1212719.1703911,288621.125,296449.3125,315400.90625,295751.9375,315203.875,299019.9375,297470.8125,303802.96875,-0.0185546875,0.976806640625,-0.17138671875,-4.638671398162842,23.284910202026367,-3.234863042831421,80.0,1100891.0,1.0
1212719.1730025,288711.875,297688.6875,315898.46875,295955.15625,315574.625,300232.9375,298262.75,304578.125,-0.021728515625,0.974365234375,-0.170654296875,-4.913329601287842,22.460935592651367,-2.838134527206421,80.0,1100892.0,1.0
1212719.1759731,288875.46875,299800.03125,316440.8125,296541.78125,317061.21875,302870.0,299496.21875,306933.1875,-0.023681640625,0.97607421875,-0.16943359375,-5.187987804412842,21.636960983276367,-2.410888433456421,80.0,1100893.0,1.0
1212719.1760164,288888.53125,299876.21875,316288.28125,296707.25,317612.125,303297.1875,299476.5625,307614.1875,-0.025390625,0.977783203125,-0.16943359375,-5.371093273162842,20.690916061401367,-2.075195074081421,80.0,1100894.0,1.0
1212719.1778798,288698.09375,297771.21875,315613.09375,296212.40625,316439.375,300888.46875,298191.6875,305677.28125,-0.02490234375,0.977294921875,-0.16748046875,-5.615233898162842,19.836423873901367,-1.6479490995407104,80.0,1100895.0,1.0
1212719.1841356,288589.09375,296418.125,315375.875,295740.9375,315180.1875,298991.78125,297449.59375,303791.96875,-0.02490234375,0.9765625,-0.164794921875,-5.676269054412842,18.859861373901367,-1.3427733182907104,80.0,1100896.0,1.0
1212719.1883723,288692.375,297675.09375,315887.21875,295951.15625,315569.1875,300221.75,298261.34375,304578.46875,-0.025390625,0.974853515625,-0.1640625,-5.920409679412842,17.913816452026367,-1.0070799589157104,80.0,1100897.0,1.0
1212719.1884196,288860.28125,299789.125,316430.96875,296532.21875,317058.875,302864.1875,299500.0625,306927.46875,-0.026611328125,0.975341796875,-0.16455078125,-6.072997570037842,16.906736373901367,-0.7934569716453552,80.0,1100898.0,1.0
1212719.1940938,288889.15625,299876.65625,316292.21875,296709.6875,317624.46875,303302.8125,299488.4375,307621.625,-0.0263671875,0.97265625,-0.1640625,-6.256103038787842,15.930174827575684,-0.4577636420726776,80.0,1100899.0,1.0
1212719.2034578,288714.625,297791.21875,315633.1875,296238.84375,316475.25,300915.03125,298220.375,305715.46875,-0.02392578125,0.972412109375,-0.16650390625,-6.317138195037842,14.892577171325684,-0.1525878757238388,80.0,1100900.0,1.0
1212719.2035014,288575.4375,296414.375,315364.0,295745.78125,315199.75,298999.03125,297450.78125,303818.78125,-0.02490234375,0.97119140625,-0.16455078125,-6.286620616912842,13.732909202575684,-0.0915527269244194,80.0,1100901.0,1.0
1212719.2053439,288680.75,297667.3125,315875.125,295949.90625,315584.21875,300222.21875,298258.84375,304598.0625,-0.024169921875,0.97216796875,-0.16650390625,-6.256103038787842,12.634276390075684,-0.0610351525247097,80.0,1100902.0,1.0
1212719.2117432,288866.0,299799.21875,316435.8125,296538.0,317088.3125,302877.25,299510.875,306950.71875,-0.024169921875,0.974853515625,-0.164794921875,-6.256103038787842,11.566161155700684,0.0915527269244194,80.0,1100903.0,1.0
1212719.215975,288894.78125,299887.375,316296.25,296714.3125,317652.1875,303318.0,299499.4375,307644.875,-0.02392578125,0.974853515625,-0.16455078125,-6.317138195037842,10.528563499450684,0.2746581733226776,80.0,1100904.0,1.0
1212719.2160186,288723.65625,297801.15625,315642.3125,296253.25,316503.5,300935.75,298235.21875,305750.5,-0.020751953125,0.97802734375,-0.16552734375,-6.286620616912842,9.460448265075684,0.5187987685203552,80.0,1100905.0,1.0
1212719.2241457,288585.0,296421.96875,315373.5625,295763.9375,315225.5,299021.65625,297466.25,303854.625,-0.02001953125,0.97802734375,-0.1630859375,-6.195067882537842,8.422850608825684,0.5798339247703552,80.0,1100906.0,1.0
1212719.2308545,288679.40625,297664.53125,315874.0625,295954.46875,315600.125,300234.90625,298262.40625,304618.0,-0.020263671875,0.983154296875,-0.160888671875,-6.225585460662842,7.263183116912842,0.6408690810203552,80.0,1100907.0,1.0
1212719.2309004,288861.8125,299785.53125,316433.3125,296529.34375,317092.59375,302880.375,299511.59375,306954.65625,-0.01953125,0.98388671875,-0.15625,-6.317138195037842,6.225585460662842,0.6713866591453552,80.0,1100908.0,1.0
1212719.2327294,288876.90625,299854.84375,316278.90625,296686.15625,317635.375,303302.1875,299483.15625,307624.5625,-0.017333984375,0.98486328125,-0.158203125,-6.408690929412842,5.218505382537842,0.5493163466453552,80.0,1100909.0,1.0
1212719.2433786,288716.4375,297782.375,315629.96875,296238.78125,316498.65625,300928.0625,298226.28125,305741.46875,-0.013916015625,0.987548828125,-0.1591796875,-6.561278820037842,4.272460460662842,0.7019042372703552,80.0,1100910.0,1.0
1212719.2434112,288590.90625,296419.0,315375.34375,295769.75,315242.40625,299027.71875,297470.25,303866.71875,-0.015380859375,0.985595703125,-0.155029296875,-6.744384288787842,3.356933355331421,0.8850097060203552,80.0,1100911.0,1.0
1212719.2478471,288687.28125,297662.5625,315881.5625,295962.0625,315622.03125,300245.28125,298273.3125,304633.09375,-0.013427734375,0.9873046875,-0.154052734375,-6.835937023162842,2.288818120956421,0.9460448622703552,80.0,1100912.0,1.0
1212719.250387,288889.34375,299811.375,316462.8125,296553.46875,317139.15625,302917.03125,299547.46875,306991.9375,-0.0126953125,0.989501953125,-0.153076171875,-6.988524913787842,1.3732908964157104,0.7629393935203552,80.0,1100913.0,1.0
1212719.2542812,288874.3125,299855.375,316280.34375,296681.78125,317650.21875,303310.78125,299493.09375,307633.15625,-0.012939453125,0.991455078125,-0.153564453125,-7.263183116912842,0.4577636420726776,0.7629393935203552,80.0,1100914.0,1.0
1212719.2609638,288708.46875,297771.84375,315628.90625,296236.09375,316503.65625,300931.03125,298230.21875,305745.78125,-0.011962890625,0.990966796875,-0.156005859375,-7.507323741912842,-0.2441406100988388,0.7019042372703552,80.0,1100915.0,1.0
1212719.2610081,288596.15625,296419.8125,315387.6875,295780.46875,315253.40625,299039.8125,297481.875,303882.25,-0.011962890625,0.989501953125,-0.151123046875,-7.751464366912842,-1.1291502714157104,0.5187987685203552,80.0,1100916.0,1.0
1212719.2691371,288679.21875,297652.84375,315881.84375,295954.46875,315617.8125,300243.03125,298271.53125,304637.5625,-0.00732421875,0.988037109375,-0.1513671875,-7.995604991912842,-1.9226073026657104,0.3356933295726776,80.0,1100917.0,1.0
1212719.2734584,288838.03125,299757.125,316421.21875,296501.09375,317087.0625,302866.875,299504.71875,306952.3125,-0.004638671875,0.9853515625,-0.153076171875,-8.239745140075684,-2.777099370956421,0.3967284858226776,80.0,1100918.0,1.0
1212719.2735024,288859.03125,299836.59375,316273.96875,296668.5625,317637.4375,303297.71875,299490.84375,307634.40625,-0.00537109375,0.982177734375,-0.156005859375,-8.270262718200684,-3.417968511581421,0.3662109076976776,80.0,1100919.0,1.0
1212719.2885857,288702.75,297762.625,315628.65625,296233.75,316491.96875,300924.3125,298234.6875,305753.1875,-0.00439453125,0.97998046875,-0.155517578125,-8.331297874450684,-4.211425304412842,0.1525878757238388,80.0,1100920.0,1.0
1212719.2886782,288578.8125,296402.375,315371.6875,295771.15625,315224.96875,299018.78125,297470.25,303871.4375,0.00048828125,0.9765625,-0.154541015625,-8.361815452575684,-4.821776866912842,-0.1220703050494194,80.0,1100921.0,1.0
1212719.290435,288673.6875,297648.09375,315878.71875,295960.1875,315608.78125,300239.03125,298277.78125,304638.09375,0.0048828125,0.974365234375,-0.1533203125,-8.331297874450684,-5.432128429412842,-0.4272460639476776,80.0,1100922.0,1.0
1212719.2928804,288834.34375,299748.8125,316421.875,296498.59375,317077.3125,302863.1875,299508.46875,306948.84375,0.008544921875,0.973388671875,-0.155029296875,-8.239745140075684,-5.950927257537842,-0.6713866591453552,80.0,1100923.0,1.0
1212719.2953914,288847.6875,299813.625,316265.40625,296648.25,317605.59375,303275.71875,299473.6875,307605.71875,0.01318359375,0.970947265625,-0.156005859375,-8.117674827575684,-6.317138195037842,-0.8850097060203552,80.0,1100924.0,1.0
1212719.2992505,288705.96875,297760.21875,315633.75,296234.125,316484.71875,300919.21875,298229.875,305737.8125,0.016357421875,0.970458984375,-0.153564453125,-8.056639671325684,-6.591796398162842,-1.0070799589157104,80.0,1100925.0,1.0
1212719.3059614,288591.78125,296409.34375,315385.8125,295782.0,315233.71875,299021.46875,297474.71875,303869.5625,0.018798828125,0.971923828125,-0.15087890625,-8.026122093200684,-6.927489757537842,-1.0681151151657104,80.0,1100926.0,1.0
1212719.3060053,288672.53125,297637.0,315880.3125,295951.5,315599.75,300220.78125,298266.96875,304624.6875,0.01904296875,0.970947265625,-0.150634765625,-7.873534679412842,-7.232665538787842,-1.1291502714157104,80.0,1100927.0,1.0
1212719.3147347,288824.96875,299728.59375,316416.0625,296479.46875,317060.75,302835.5625,299498.28125,306934.78125,0.0224609375,0.970458984375,-0.150146484375,-7.751464366912842,-7.385253429412842,-1.1901854276657104,80.0,1100928.0,1.0
1212719.3147786,288868.78125,299825.34375,316287.84375,296658.0,317620.375,303275.8125,299494.25,307623.5,0.023193359375,0.97314453125,-0.150146484375,-7.598876476287842,-7.629394054412842,-1.3122557401657104,80.0,1100929.0,1.0
1212719.3171732,288719.71875,297759.3125,315638.21875,296229.84375,316477.1875,300897.9375,298224.84375,305729.0625,0.024169921875,0.97412109375,-0.151611328125,-7.476806163787842,-7.751464366912842,-1.5258787870407104,80.0,1100930.0,1.0
1212719.3172165,288570.4375,296367.96875,315351.46875,295740.78125,315182.59375,298962.09375,297427.625,303810.375,0.02685546875,0.977294921875,-0.147705078125,-7.354735851287842,-7.843017101287842,-1.5869139432907104,80.0,1100931.0,1.0
1212719.3304894,288648.03125,297593.1875,315844.90625,295902.34375,315538.59375,300157.9375,298219.125,304553.8125,0.023681640625,0.9765625,-0.149658203125,-7.293700695037842,-7.965087413787842,-1.6479490995407104,80.0,1100932.0,1.0
1212719.3328503,288816.1875,299698.71875,316405.3125,296446.65625,317018.28125,302795.34375,299476.1875,306881.0625,0.0234375,0.978271484375,-0.1474609375,-7.232665538787842,-7.965087413787842,-1.9531248807907104,80.0,1100933.0,1.0
1212719.3353782,288851.96875,299784.75,316269.15625,296619.5625,317568.59375,303230.40625,299466.8125,307560.28125,0.0205078125,0.977783203125,-0.14453125,-7.202147960662842,-8.148192405700684,-1.9226073026657104,80.0,1100934.0,1.0
1212719.3378521,288714.90625,297737.21875,315631.3125,296207.84375,316438.21875,300864.78125,298207.96875,305673.0,0.02001953125,0.977294921875,-0.145751953125,-7.110595226287842,-8.239745140075684,-2.136230230331421,80.0,1100935.0,1.0
1212719.359818,288593.9375,296383.78125,315375.1875,295753.8125,315180.4375,298963.1875,297444.78125,303787.125,0.01708984375,0.977783203125,-0.14697265625,-7.019042491912842,-8.300780296325684,-2.319335699081421,80.0,1100936.0,1.0
1212719.3598711,288664.3125,297599.71875,315866.90625,295913.59375,315537.0,300158.28125,298237.8125,304531.28125,0.01611328125,0.9775390625,-0.14599609375,-7.080077648162842,-8.361815452575684,-2.502441167831421,80.0,1100937.0,1.0
1212719.3622258,288821.9375,299688.4375,316417.46875,296437.15625,316994.0625,302772.53125,299479.9375,306836.28125,0.01513671875,0.978515625,-0.144775390625,-7.141112804412842,-8.483885765075684,-2.746581792831421,80.0,1100938.0,1.0
1212719.3622687,288840.96875,299758.0,316263.875,296585.5,317513.25,303179.25,299448.40625,307486.09375,0.013671875,0.977783203125,-0.144287109375,-7.263183116912842,-8.605956077575684,-2.960204839706421,80.0,1100939.0,1.0
1212719.3641344,288695.9375,297703.25,315616.03125,296166.96875,316363.03125,300804.59375,298179.0,305585.90625,0.0107421875,0.978515625,-0.14013671875,-7.171630382537842,-8.697508811950684,-3.143310308456421,80.0,1100940.0,1.0
1212719.3666391,288582.40625,296358.9375,315361.40625,295726.125,315112.21875,298911.59375,297420.65625,303707.84375,0.011474609375,0.977783203125,-0.1416015625,-7.049560070037842,-8.880614280700684,-3.448486089706421,80.0,1100941.0,1.0
1212719.3692473,288672.71875,297594.96875,315871.1875,295903.59375,315484.0625,300123.5,298232.53125,304470.1875,0.0107421875,0.9775390625,-0.1416015625,-7.171630382537842,-8.911131858825684,-3.845214605331421,80.0,1100942.0,1.0
1212719.3715937,288842.75,299696.3125,316436.0,296439.21875,316954.09375,302752.15625,299488.625,306790.40625,0.009521484375,0.979248046875,-0.1416015625,-7.049560070037842,-9.063719749450684,-4.028319835662842,80.0,1100943.0,1.0
1212719.3741392,288846.6875,299751.9375,316269.6875,296583.0625,317470.25,303153.0625,299446.15625,307434.40625,0.007568359375,0.97900390625,-0.142333984375,-7.171630382537842,-9.185790061950684,-4.211425304412842,80.0,1100944.0,1.0
1212719.3809559,288682.0,297676.0,315596.46875,296148.03125,316300.71875,300756.3125,298148.59375,305511.09375,0.00830078125,0.97998046875,-0.140625,-7.141112804412842,-9.277342796325684,-4.455565929412842,80.0,1100945.0,1.0
1212719.3809993,288568.71875,296333.625,315340.125,295706.96875,315041.9375,298857.84375,297383.96875,303626.1875,0.007080078125,0.97998046875,-0.141845703125,-7.202147960662842,-9.338377952575684,-4.638671398162842,80.0,1100946.0,1.0
1212719.3830126,288636.40625,297548.21875,315830.34375,295861.375,315399.75,300049.90625,298182.375,304373.90625,0.005859375,0.978515625,-0.141845703125,-7.354735851287842,-9.399413108825684,-4.791259288787842,80.0,1100947.0,1.0
1212719.399136,288778.21875,299621.75,316371.96875,296368.15625,316849.3125,302655.96875,299421.65625,306674.875,0.003173828125,0.981201171875,-0.139892578125,-7.385253429412842,-9.460448265075684,-5.004882335662842,80.0,1100948.0,1.0
1212719.4077596,288822.0,299716.6875,316246.1875,296543.125,317391.5625,303089.3125,299411.8125,307351.4375,0.002685546875,0.983154296875,-0.13916015625,-7.385253429412842,-9.552000999450684,-5.126952648162842,80.0,1100949.0,1.0
1212719.4078011,288701.5,297688.9375,315616.40625,296159.5625,316266.28125,300740.78125,298158.0625,305476.3125,0.00146484375,0.985595703125,-0.14111328125,-7.537841320037842,-9.582518577575684,-5.249022960662842,80.0,1100950.0,1.0
1212719.4078122,288591.0,296353.375,315362.3125,295725.46875,315014.59375,298848.75,297397.9375,303598.9375,-0.002197265625,0.9873046875,-0.138427734375,-7.507323741912842,-9.613036155700684,-5.310058116912842,80.0,1100951.0,1.0
1212719.4147338,288650.71875,297558.59375,315847.25,295870.9375,315367.125,300037.40625,298190.4375,304340.125,-0.001953125,0.99169921875,-0.13720703125,-7.781981945037842,-9.643553733825684,-5.493163585662842,80.0,1100952.0,1.0
1212719.4147876,288786.59375,299620.6875,316384.03125,296364.125,316803.28125,302634.84375,299422.5625,306633.40625,-0.002197265625,0.993896484375,-0.134521484375,-8.056639671325684,-9.796141624450684,-5.554198741912842,80.0,1100953.0,1.0
1212719.4167441,288815.03125,299695.25,316244.03125,296522.8125,317321.90625,303050.40625,299400.46875,307292.4375,-0.005126953125,0.997802734375,-0.130615234375,-8.392333030700684,-9.857176780700684,-5.493163585662842,80.0,1100954.0,1.0
1212719.4191376,288719.5625,297697.34375,315633.125,296168.59375,316218.90625,300725.125,298165.84375,305437.3125,-0.004638671875,1.00048828125,-0.1298828125,-8.666991233825684,-9.948729515075684,-5.371093273162842,80.0,1100955.0,1.0
1212719.4216399,288638.0,296392.8125,315406.03125,295769.21875,314997.15625,298869.40625,297435.75,303592.84375,-0.005859375,1.002685546875,-0.127685546875,-9.185790061950684,-9.918211936950684,-5.340575695037842,80.0,1100956.0,1.0
1212719.4241466,288671.375,297573.15625,315867.71875,295889.1875,315327.4375,300040.96875,298214.65625,304319.65625,-0.007080078125,1.004150390625,-0.12744140625,-9.521483421325684,-10.040282249450684,-5.310058116912842,80.0,1100957.0,1.0
1212719.4377841,288766.125,299598.3125,316371.6875,296343.71875,316735.5,302607.125,299423.09375,306587.8125,-0.00830078125,1.004150390625,-0.128662109375,-10.009764671325684,-10.131834983825684,-5.187987804412842,80.0,1100958.0,1.0
1212719.440907,288791.875,299671.46875,316226.3125,296492.6875,317246.46875,303016.0,299388.5,307237.78125,-0.008056640625,1.005615234375,-0.1259765625,-10.528563499450684,-10.131834983825684,-4.943847179412842,80.0,1100959.0,1.0
1212719.4409578,288711.15625,297688.0625,315626.59375,296153.28125,316144.96875,300697.75,298156.46875,305388.21875,-0.00927734375,1.005859375,-0.127685546875,-10.925292015075684,-10.223387718200684,-4.913329601287842,80.0,1100960.0,1.0
1212719.4428929,288609.9375,296372.34375,315380.1875,295747.84375,314915.34375,298829.25,297408.40625,303531.4375,-0.008056640625,1.006103515625,-0.12548828125,-11.352538108825684,-10.192870140075684,-4.852294445037842,80.0,1100961.0,1.0
1212719.4453841,288642.21875,297551.71875,315845.625,295871.21875,315253.21875,300003.34375,298190.625,304264.125,-0.010498046875,1.00341796875,-0.12158203125,-11.657713890075684,-10.223387718200684,-4.730224132537842,80.0,1100962.0,1.0
1212719.4491134,288762.75,299589.5625,316375.625,296335.6875,316671.84375,302583.4375,299421.21875,306548.65625,-0.01123046875,1.00341796875,-0.119384765625,-12.023924827575684,-10.223387718200684,-4.577636241912842,80.0,1100963.0,1.0
1212719.4572209,288804.84375,299673.0625,316245.71875,296498.0625,317194.25,303002.84375,299402.0,307212.03125,-0.009521484375,1.0029296875,-0.120849609375,-12.359618186950684,-10.162352561950684,-4.577636241912842,80.0,1100964.0,1.0
1212719.4572888,288726.4375,297695.84375,315642.21875,296165.90625,316101.875,300690.25,298165.75,305363.8125,-0.01025390625,1.00146484375,-0.1240234375,-12.725829124450684,-10.162352561950684,-4.333495616912842,80.0,1100965.0,1.0
1212719.4710163,288629.25,296384.6875,315397.6875,295762.21875,314877.8125,298824.96875,297417.5,303506.84375,-0.010986328125,0.99755859375,-0.1201171875,-12.969969749450684,-10.131834983825684,-4.180907726287842,80.0,1100966.0,1.0
1212719.4710638,288657.5,297559.3125,315861.1875,295877.84375,315214.96875,299996.71875,298201.6875,304239.25,-0.01513671875,0.995849609375,-0.115478515625,-13.244627952575684,-10.253905296325684,-4.150390148162842,80.0,1100967.0,1.0
1212719.4740696,288773.46875,299591.875,316389.0625,296335.34375,316634.125,302574.15625,299438.1875,306522.8125,-0.015625,0.992919921875,-0.1103515625,-13.275145530700684,-10.192870140075684,-4.058837413787842,80.0,1100968.0,1.0
1212719.4741133,288818.78125,299680.5,316258.78125,296500.65625,317161.25,303001.875,299422.1875,307191.125,-0.0185546875,0.987548828125,-0.11376953125,-13.305663108825684,-10.375975608825684,-4.150390148162842,80.0,1100969.0,1.0
1212719.4741252,288734.03125,297705.3125,315643.125,296167.25,316061.09375,300688.1875,298173.90625,305337.1875,-0.01904296875,0.98486328125,-0.111083984375,-13.488768577575684,-10.375975608825684,-4.150390148162842,80.0,1100970.0,1.0
1212719.4780116,288628.1875,296388.0,315384.90625,295760.1875,314827.90625,298820.125,297412.875,303475.09375,-0.021484375,0.98583984375,-0.11181640625,-13.366698265075684,-10.467528343200684,-4.272460460662842,80.0,1100971.0,1.0
1212719.4890009,288656.625,297567.71875,315855.375,295881.6875,315177.40625,300005.84375,298206.625,304228.09375,-0.024658203125,0.9873046875,-0.10986328125,-13.305663108825684,-10.559081077575684,-4.364013195037842,80.0,1100972.0,1.0
1212719.4933873,288755.40625,299582.21875,316371.6875,296320.40625,316579.46875,302571.65625,299432.9375,306507.78125,-0.0224609375,0.987548828125,-0.106201171875,-13.092040061950684,-10.681151390075684,-4.486083507537842,80.0,1100973.0,1.0
1212719.4934214,288814.25,299684.875,316254.125,296501.625,317117.53125,303013.21875,299435.0625,307197.375,-0.02392578125,0.99169921875,-0.10400390625,-12.908934593200684,-10.833739280700684,-4.516601085662842,80.0,1100974.0,1.0
1212719.4996202,288765.6875,297741.625,315669.9375,296205.40625,316042.5,300731.90625,298215.375,305378.3125,-0.02294921875,0.9951171875,-0.1025390625,-12.786864280700684,-11.016844749450684,-4.638671398162842,80.0,1100975.0,1.0
1212719.4996517,288669.75,296441.90625,315420.9375,295819.375,314829.15625,298883.53125,297466.78125,303540.09375,-0.023681640625,0.998291015625,-0.09912109375,-12.725829124450684,-11.077879905700684,-4.791259288787842,80.0,1100976.0,1.0
1212719.5016107,288669.9375,297589.0,315863.0625,295910.375,315155.5,300039.90625,298235.125,304271.71875,-0.023193359375,1.0,-0.09765625,-12.756346702575684,-11.138915061950684,-4.821776866912842,80.0,1100977.0,1.0
1212719.5102569,288769.1875,299601.46875,316387.09375,296351.34375,316566.25,302614.46875,299472.0,306572.34375,-0.025146484375,0.998291015625,-0.094482421875,-12.725829124450684,-11.291502952575684,-4.943847179412842,80.0,1100978.0,1.0
1212719.5195741,288807.625,299683.8125,316253.3125,296515.03125,317088.9375,303042.65625,299453.3125,307253.53125,-0.02392578125,1.000244140625,-0.0927734375,-12.634276390075684,-11.352538108825684,-5.157470226287842,80.0,1100979.0,1.0
1212719.5196086,288752.8125,297739.5625,315658.0625,296219.71875,316016.5,300761.34375,298219.59375,305429.90625,-0.025634765625,1.00048828125,-0.0927734375,-12.451170921325684,-11.535643577575684,-5.249022960662842,80.0,1100980.0,1.0
1212719.5220412,288662.34375,296449.6875,315410.21875,295838.84375,314812.34375,298924.71875,297468.75,303597.3125,-0.02685546875,1.0009765625,-0.09130859375,-12.237547874450684,-11.657713890075684,-5.401610851287842,80.0,1100981.0,1.0
1212719.5220761,288665.46875,297610.0,315860.46875,295937.46875,315157.1875,300101.15625,298249.53125,304352.1875,-0.02783203125,1.0029296875,-0.09130859375,-12.054442405700684,-11.810301780700684,-5.615233898162842,80.0,1100982.0,1.0
1212719.5352715,288747.90625,299607.53125,316368.65625,296356.25,316560.96875,302661.84375,299472.53125,306644.84375,-0.02587890625,1.004638671875,-0.08740234375,-11.718749046325684,-12.054442405700684,-5.767821788787842,80.0,1100983.0,1.0
1212719.5420274,288794.75,299685.59375,316240.0,296514.0625,317076.3125,303085.5625,299452.25,307324.78125,-0.02587890625,1.006103515625,-0.088134765625,-11.016844749450684,-12.145995140075684,-5.676269054412842,80.0,1100984.0,1.0
1212719.5420486,288761.5625,297763.0625,315666.375,296239.40625,316028.75,300826.40625,298237.09375,305531.90625,-0.02587890625,1.00341796875,-0.0830078125,-10.559081077575684,-12.329100608825684,-5.767821788787842,80.0,1100985.0,1.0
1212719.543945,288679.21875,296484.28125,315427.75,295864.15625,314838.28125,298994.28125,297488.9375,303715.15625,-0.0263671875,1.00244140625,-0.07958984375,-10.101317405700684,-12.481688499450684,-5.889892101287842,80.0,1100986.0,1.0
1212719.546441,288673.875,297633.0625,315876.9375,295953.90625,315187.40625,300161.84375,298272.25,304477.53125,-0.024169921875,1.004638671875,-0.07470703125,-9.979247093200684,-12.786864280700684,-6.072997570037842,80.0,1100987.0,1.0
1212719.5500384,288742.71875,299609.5,316379.40625,296358.125,316587.53125,302709.40625,299496.84375,306772.4375,-0.021484375,1.004638671875,-0.0732421875,-10.406493186950684,-12.664793968200684,-6.408690929412842,80.0,1100988.0,1.0
1212719.5582842,288804.59375,299705.4375,316267.625,296533.8125,317123.78125,303146.25,299494.96875,307466.84375,-0.01904296875,1.00048828125,-0.069091796875,-10.803221702575684,-12.756346702575684,-6.622313976287842,80.0,1100989.0,1.0
1212719.5583052,288777.21875,297790.6875,315691.84375,296270.78125,316086.0625,300886.6875,298272.25,305660.46875,-0.01806640625,0.996337890625,-0.070068359375,-10.833739280700684,-12.664793968200684,-6.744384288787842,80.0,1100990.0,1.0
1212719.5601789,288690.3125,296510.5625,315443.9375,295905.0,314906.6875,299058.3125,297518.4375,303830.0625,-0.014892578125,0.98876953125,-0.071044921875,-10.955809593200684,-12.542723655700684,-6.835937023162842,80.0,1100991.0,1.0
1212719.5695326,288680.03125,297652.46875,315883.8125,295987.28125,315247.0625,300219.78125,298290.21875,304574.1875,-0.0146484375,0.983154296875,-0.0712890625,-10.711668968200684,-12.390135765075684,-7.049560070037842,80.0,1100992.0,1.0
1212719.5695523,288761.3125,299641.34375,316398.15625,296399.25,316660.75,302780.78125,299523.5,306880.15625,-0.015869140625,0.978515625,-0.072509765625,-10.284422874450684,-12.176512718200684,-7.171630382537842,80.0,1100993.0,1.0
1212719.5714388,288808.4375,299724.03125,316270.40625,296558.75,317187.1875,303205.625,299501.59375,307563.0625,-0.017578125,0.975341796875,-0.07568359375,-9.765624046325684,-11.962889671325684,-7.415771007537842,80.0,1100994.0,1.0
1212719.582692,288770.4375,297801.25,315680.3125,296276.9375,316130.9375,300926.75,298259.375,305733.78125,-0.018310546875,0.974365234375,-0.07568359375,-9.216307640075684,-11.749266624450684,-7.476806163787842,80.0,1100995.0,1.0
1212719.5857643,288696.84375,296537.3125,315442.21875,295919.40625,314957.65625,299106.5,297518.375,303910.96875,-0.021484375,0.973388671875,-0.072509765625,-8.697508811950684,-11.535643577575684,-7.659911632537842,80.0,1100996.0,1.0
1212719.5857843,288675.75,297664.8125,315874.96875,295994.6875,315293.8125,300264.0625,298289.5,304655.90625,-0.0224609375,0.973876953125,-0.069580078125,-8.300780296325684,-11.352538108825684,-7.781981945037842,80.0,1100997.0,1.0
1212719.5876808,288735.75,299625.0625,316373.65625,296386.03125,316683.28125,302804.09375,299506.6875,306947.40625,-0.024658203125,0.973876953125,-0.071044921875,-7.934569835662842,-11.230467796325684,-7.904052257537842,80.0,1100998.0,1.0
1212719.5965099,288798.9375,299715.8125,316258.0625,296557.25,317215.0,303236.65625,299495.875,307637.09375,-0.026123046875,0.972412109375,-0.0703125,-7.324218273162842,-11.077879905700684,-7.904052257537842,80.0,1100999.0,1.0
1212719.6008383,288802.96875,297836.03125,315708.40625,296321.1875,316194.5,300998.875,298291.09375,305837.6875,-0.02734375,0.972900390625,-0.068603515625,-6.866454601287842,-10.833739280700684,-7.965087413787842,80.0,1101000.0,1.0
1212719.60087,288714.28125,296552.0625,315458.9375,295951.3125,315001.90625,299161.21875,297533.46875,303989.1875,-0.02587890625,0.970458984375,-0.071044921875,-6.317138195037842,-10.589598655700684,-8.087157249450684,80.0,1101001.0,1.0
1212719.6090333,288686.65625,297675.53125,315885.40625,296014.71875,315329.9375,300305.8125,298300.75,304726.25,-0.03076171875,0.97216796875,-0.067626953125,-5.767821788787842,-10.375975608825684,-8.209227561950684,80.0,1101002.0,1.0
1212719.6121209,288749.40625,299643.46875,316387.625,296410.34375,316733.25,302852.46875,299531.1875,307031.53125,-0.03125,0.97509765625,-0.070068359375,-5.554198741912842,-10.192870140075684,-8.361815452575684,80.0,1101003.0,1.0
1212719.612154,288786.53125,299711.25,316247.4375,296557.875,317244.9375,303262.125,299496.125,307697.34375,-0.03466796875,0.977294921875,-0.0673828125,-5.218505382537842,-10.101317405700684,-8.331297874450684,80.0,1101004.0,1.0
1212719.620283,288773.1875,297811.15625,315676.28125,296300.5625,316199.0625,301000.9375,298266.6875,305866.125,-0.036865234375,0.9794921875,-0.066650390625,-4.882812023162842,-9.887694358825684,-8.453368186950684,80.0,1101005.0,1.0
1212719.6234351,288706.6875,296555.4375,315440.15625,295950.34375,315030.0625,299183.375,297521.125,304029.5,-0.0380859375,0.979248046875,-0.068115234375,-4.669188976287842,-9.674071311950684,-8.422850608825684,80.0,1101006.0,1.0
1212719.6234837,288674.65625,297669.28125,315866.46875,296011.6875,315357.90625,300324.84375,298286.0,304758.71875,-0.039794921875,0.97705078125,-0.0693359375,-4.394530773162842,-9.460448265075684,-8.514403343200684,80.0,1101007.0,1.0
1212719.6253844,288723.65625,299609.3125,316359.09375,296384.875,316729.0625,302837.53125,299497.375,307031.96875,-0.040771484375,0.975341796875,-0.070556640625,-4.028319835662842,-9.277342796325684,-8.605956077575684,80.0,1101008.0,1.0
1212719.6391364,288795.71875,299707.21875,316253.15625,296559.46875,317258.8125,303262.84375,299490.40625,307712.53125,-0.04248046875,0.97607421875,-0.074462890625,-3.692626714706421,-9.002684593200684,-8.636473655700684,80.0,1101009.0,1.0
1212719.6422973,288790.28125,297821.4375,315689.71875,296314.21875,316220.96875,301010.0625,298266.875,305881.40625,-0.0439453125,0.975341796875,-0.07275390625,-3.479003667831421,-8.758543968200684,-8.605956077575684,80.0,1101010.0,1.0
1212719.6423418,288728.59375,296574.84375,315464.5,295970.8125,315061.0,299197.25,297530.25,304047.125,-0.045654296875,0.974853515625,-0.076171875,-3.051757574081421,-8.514403343200684,-8.697508811950684,80.0,1101011.0,1.0
1212719.6441183,288676.375,297673.03125,315874.96875,296011.3125,315366.78125,300314.03125,298278.5,304752.90625,-0.048095703125,0.975341796875,-0.07568359375,-2.685546636581421,-8.331297874450684,-8.666991233825684,80.0,1101012.0,1.0
1212719.6478898,288718.46875,299604.6875,316361.6875,296377.96875,316727.375,302821.09375,299488.96875,307022.0625,-0.050048828125,0.97509765625,-0.07177734375,-2.319335699081421,-8.117674827575684,-8.453368186950684,80.0,1101013.0,1.0
1212719.657851,288776.59375,299688.28125,316240.375,296535.59375,317236.71875,303233.0,299468.6875,307685.8125,-0.0517578125,0.976318359375,-0.074462890625,-2.166747808456421,-7.995604991912842,-8.422850608825684,80.0,1101014.0,1.0
1212719.662106,288781.5,297811.875,315681.84375,296294.5625,316207.0,300984.59375,298247.46875,305854.65625,-0.0517578125,0.9775390625,-0.073486328125,-1.8920897245407104,-7.720946788787842,-8.361815452575684,80.0,1101015.0,1.0
1212719.6621508,288715.625,296560.375,315446.78125,295947.9375,315044.625,299167.65625,297503.625,304011.71875,-0.055908203125,0.978271484375,-0.07421875,-1.6479490995407104,-7.598876476287842,-8.148192405700684,80.0,1101016.0,1.0
1212719.6747458,288675.375,297667.84375,315869.3125,296000.84375,315368.46875,300301.96875,298268.03125,304737.4375,-0.05419921875,0.976318359375,-0.075439453125,-1.5563963651657104,-7.446288585662842,-8.056639671325684,80.0,1101017.0,1.0
1212719.6747917,288714.90625,299595.71875,316354.1875,296362.5,316728.53125,302806.0625,299475.3125,307007.3125,-0.05615234375,0.978271484375,-0.0771484375,-1.3732908964157104,-7.324218273162842,-7.904052257537842,80.0,1101018.0,1.0
1212719.6771849,288786.96875,299689.96875,316243.40625,296532.28125,317252.1875,303229.59375,299464.75,307685.0,-0.056884765625,0.9755859375,-0.079833984375,-1.0986326932907104,-7.080077648162842,-7.720946788787842,80.0,1101019.0,1.0
1212719.6772218,288803.59375,297833.0625,315695.53125,296306.28125,316238.5625,300998.53125,298257.21875,305871.46875,-0.059326171875,0.9736328125,-0.08349609375,-0.7934569716453552,-6.835937023162842,-7.507323741912842,80.0,1101020.0,1.0
1212719.6909836,288722.5,296570.03125,315445.96875,295944.96875,315059.46875,299167.90625,297496.28125,304014.6875,-0.058837890625,0.97509765625,-0.084228515625,-0.5493163466453552,-6.591796398162842,-7.324218273162842,80.0,1101021.0,1.0
1212719.6910277,288704.09375,297694.0625,315890.875,296022.75,315405.84375,300322.0,298282.34375,304762.125,-0.05908203125,0.9736328125,-0.08447265625,-0.2136230319738388,-6.256103038787842,-6.958007335662842,80.0,1101022.0,1.0
1212719.693595,288748.96875,299619.96875,316383.40625,296390.9375,316770.375,302829.3125,299497.9375,307035.65625,-0.058349609375,0.9755859375,-0.084716796875,-0.03051757626235485,-6.042479991912842,-6.652831554412842,80.0,1101023.0,1.0
1212719.6936388,288781.15625,299676.1875,316234.5625,296523.71875,317249.59375,303212.15625,299448.84375,307669.375,-0.060546875,0.976318359375,-0.08642578125,0.2746581733226776,-5.798339366912842,-6.347655773162842,80.0,1101024.0,1.0
1212719.7046796,288786.4375,297812.78125,315675.40625,296283.90625,316219.34375,300971.71875,298226.8125,305837.5,-0.06103515625,0.978271484375,-0.08837890625,0.3662109076976776,-5.554198741912842,-6.042479991912842,80.0,1101025.0,1.0
1212719.704721,288710.53125,296556.25,315432.3125,295925.40625,315039.4375,299147.8125,297472.84375,303980.96875,-0.060791015625,0.97607421875,-0.090576171875,0.6713866591453552,-5.310058116912842,-5.615233898162842,80.0,1101026.0,1.0
1212719.7184529,288677.09375,297674.125,315861.53125,295993.34375,315377.59375,300293.90625,298249.875,304721.25,-0.0595703125,0.978271484375,-0.090087890625,0.9460448622703552,-5.065917491912842,-5.065917491912842,80.0,1101027.0,1.0
1212719.7184972,288715.09375,299595.65625,316347.90625,296356.78125,316736.125,302796.0625,299457.875,306991.375,-0.06005859375,0.978271484375,-0.091796875,1.1596678495407104,-4.852294445037842,-4.699706554412842,80.0,1101028.0,1.0
1212719.7215348,288778.84375,299685.40625,316232.125,296524.34375,317255.59375,303216.71875,299441.78125,307665.53125,-0.0634765625,0.979736328125,-0.09423828125,1.3122557401657104,-4.608153820037842,-4.241942882537842,80.0,1101029.0,1.0
1212719.7215777,288795.5625,297827.96875,315683.53125,296292.59375,316233.375,300984.40625,298229.78125,305842.40625,-0.0654296875,0.978759765625,-0.09521484375,1.5563963651657104,-4.302978038787842,-3.906249761581421,80.0,1101030.0,1.0
1212719.7215888,288724.125,296576.28125,315447.59375,295939.625,315060.5625,299168.5625,297483.75,303990.53125,-0.065185546875,0.98193359375,-0.096435546875,1.7700194120407104,-4.058837413787842,-3.356933355331421,80.0,1101031.0,1.0
1212719.7242407,288681.46875,297683.75,315870.5,295997.1875,315383.3125,300304.28125,298255.6875,304721.4375,-0.0703125,0.98193359375,-0.097900390625,2.014159917831421,-3.784179449081421,-2.960204839706421,80.0,1101032.0,1.0
1212719.7278845,288717.3125,299607.625,316354.4375,296366.875,316749.8125,302813.21875,299469.84375,307001.5,-0.06884765625,0.9814453125,-0.09814453125,1.9531248807907104,-3.570556402206421,-2.532958745956421,80.0,1101033.0,1.0
1212719.7391377,288778.375,299696.75,316237.59375,296535.15625,317276.6875,303236.125,299460.375,307678.84375,-0.072265625,0.98291015625,-0.093994140625,2.014159917831421,-3.417968511581421,-2.044677495956421,80.0,1101034.0,1.0
1212719.7422428,288789.125,297831.03125,315683.0,296293.5,316251.53125,300997.625,298242.8125,305842.78125,-0.073486328125,0.98291015625,-0.09521484375,2.197265386581421,-3.204345464706421,-1.7700194120407104,80.0,1101035.0,1.0
1212719.7422864,288723.3125,296587.0,315449.8125,295939.25,315083.875,299186.0625,297500.65625,303991.34375,-0.07373046875,0.982421875,-0.096923828125,2.105712652206421,-3.051757574081421,-1.4038084745407104,80.0,1101036.0,1.0
1212719.7480166,288679.3125,297691.625,315868.875,295998.53125,315406.46875,300320.65625,298265.8125,304722.78125,-0.06982421875,0.982666015625,-0.095703125,1.9531248807907104,-2.868652105331421,-0.9765624403953552,80.0,1101037.0,1.0
1212719.7521535,288721.625,299621.40625,316357.125,296376.0,316776.71875,302831.5625,299478.4375,307013.28125,-0.0693359375,0.9814453125,-0.098876953125,1.9226073026657104,-2.716064214706421,-0.7019042372703552,80.0,1101038.0,1.0
1212719.7521964,288776.0625,299700.59375,316230.96875,296532.46875,317292.15625,303244.25,299454.125,307684.46875,-0.0693359375,0.981689453125,-0.098876953125,1.8615721464157104,-2.502441167831421,-0.3967284858226776,80.0,1101039.0,1.0
1212719.785411,288785.28125,297840.21875,315676.21875,296290.625,316278.0,301009.53125,298240.3125,305857.1875,-0.06982421875,0.98388671875,-0.1025390625,1.8310545682907104,-2.319335699081421,0.1220703050494194,80.0,1101040.0,1.0
1212719.7890726,288718.46875,296592.90625,315444.1875,295934.34375,315113.375,299193.21875,297497.0,304006.34375,-0.0673828125,0.986328125,-0.105712890625,1.9226073026657104,-1.9836424589157104,0.4272460639476776,80.0,1101041.0,1.0
1212719.789117,288681.8125,297699.15625,315870.21875,295998.625,315440.625,300331.28125,298265.71875,304745.5625,-0.06591796875,0.988037109375,-0.10791015625,1.9531248807907104,-1.6784666776657104,0.7629393935203552,80.0,1101042.0,1.0
1212719.789129,288742.875,299644.1875,316375.375,296394.96875,316827.78125,302862.03125,299498.0,307058.53125,-0.065673828125,0.98876953125,-0.107666015625,2.044677495956421,-1.3122557401657104,1.0681151151657104,80.0,1101043.0,1.0
1212719.7917495,288822.46875,299749.0625,316271.125,296575.03125,317364.75,303295.5625,299498.375,307750.8125,-0.06396484375,0.989013671875,-0.110107421875,2.105712652206421,-0.9460448622703552,1.4648436307907104,80.0,1101044.0,1.0
1212719.7940853,288792.40625,297845.59375,315678.09375,296286.59375,316300.53125,301015.0625,298243.28125,305873.71875,-0.06103515625,0.990478515625,-0.1103515625,1.9531248807907104,-0.5798339247703552,1.8615721464157104,80.0,1101045.0,1.0
1212719.7991122,288719.03125,296591.84375,315441.0625,295923.53125,315129.3125,299196.34375,297495.5625,304013.78125,-0.0615234375,0.989501953125,-0.110107421875,1.9836424589157104,-0.3051757514476776,2.258300542831421,80.0,1101046.0,1.0
1212719.8016342,288682.4375,297705.84375,315867.0,295993.78125,315465.28125,300342.46875,298268.125,304760.96875,-0.061279296875,0.9892578125,-0.11279296875,2.014159917831421,0.03051757626235485,2.685546636581421,80.0,1101047.0,1.0
1212719.8043291,288722.5,299636.78125,316352.65625,296378.15625,316841.09375,302855.96875,299481.375,307059.875,-0.064697265625,0.987060546875,-0.11279296875,1.9836424589157104,0.3662109076976776,2.929687261581421,80.0,1101048.0,1.0
1212719.806657,288796.09375,299734.9375,316247.59375,296554.46875,317374.65625,303285.5625,299476.03125,307746.25,-0.067138671875,0.984375,-0.109619140625,1.9531248807907104,0.6713866591453552,3.082275152206421,80.0,1101049.0,1.0
1212719.8091598,288788.40625,297851.9375,315680.21875,296285.25,316332.90625,301028.03125,298243.0,305886.40625,-0.070068359375,0.98388671875,-0.112548828125,1.9836424589157104,1.0375975370407104,3.356933355331421,80.0,1101050.0,1.0
1212719.81166,288715.09375,296593.90625,315442.6875,295915.125,315153.71875,299202.78125,297493.59375,304017.8125,-0.070556640625,0.981689453125,-0.111083984375,1.9836424589157104,1.2817381620407104,3.509521245956421,80.0,1101051.0,1.0
1212719.8142649,288695.5,297723.28125,315884.15625,296004.25,315503.65625,300363.90625,298281.625,304780.0,-0.072021484375,0.979736328125,-0.112548828125,1.8615721464157104,1.5563963651657104,3.692626714706421,80.0,1101052.0,1.0
1212719.8166528,288740.03125,299658.5,316372.96875,296394.53125,316884.625,302884.125,299495.78125,307085.34375,-0.070556640625,0.977294921875,-0.116455078125,2.105712652206421,1.8005369901657104,3.692626714706421,80.0,1101053.0,1.0
1212719.8197238,288810.125,299751.46875,316260.21875,296564.75,317413.84375,303308.1875,299484.59375,307770.3125,-0.070068359375,0.97705078125,-0.115478515625,2.166747808456421,1.9226073026657104,3.875732183456421,80.0,1101054.0,1.0
1212719.8197677,288813.875,297878.9375,315703.375,296302.6875,316381.90625,301059.78125,298264.1875,305921.46875,-0.068115234375,0.975341796875,-0.11865234375,2.136230230331421,2.197265386581421,3.967284917831421,80.0,1101055.0,1.0
1212719.8215613,288736.71875,296621.15625,315463.15625,295931.65625,315205.03125,299237.375,297514.0625,304054.71875,-0.06787109375,0.976806640625,-0.118896484375,2.288818120956421,2.319335699081421,4.028319835662842,80.0,1101056.0,1.0
1212719.8311102,288704.625,297740.71875,315893.03125,296013.71875,315542.28125,300389.40625,298289.78125,304807.8125,-0.06640625,0.975830078125,-0.122802734375,2.532958745956421,2.410888433456421,4.089354991912842,80.0,1101057.0,1.0
1212719.8311561,288727.96875,299659.9375,316358.03125,296392.09375,316908.78125,302894.125,299484.15625,307102.625,-0.065185546875,0.975830078125,-0.125,2.655029058456421,2.655029058456421,4.119872570037842,80.0,1101058.0,1.0
1212719.8422369,288789.75,299745.125,316237.5,296558.84375,317439.84375,303313.8125,299470.125,307785.40625,-0.06396484375,0.974853515625,-0.122802734375,2.777099370956421,2.807616949081421,4.211425304412842,80.0,1101059.0,1.0
1212719.8422806,288792.875,297862.84375,315679.59375,296288.9375,316406.65625,301060.65625,298251.9375,305933.78125,-0.0615234375,0.974365234375,-0.12255859375,2.929687261581421,3.051757574081421,4.272460460662842,80.0,1101060.0,1.0
1212719.8447301,288723.03125,296610.0,315445.96875,295920.125,315230.78125,299238.28125,297508.96875,304069.84375,-0.0595703125,0.9736328125,-0.12548828125,3.082275152206421,3.326415777206421,4.364013195037842,80.0,1101061.0,1.0
1212719.8447744,288693.4375,297733.03125,315878.625,296004.25,315571.40625,300394.3125,298282.34375,304827.375,-0.060302734375,0.974365234375,-0.123046875,3.173827886581421,3.509521245956421,4.486083507537842,80.0,1101062.0,1.0
1212719.8466596,288751.65625,299685.15625,316376.53125,296415.53125,316967.5,302929.53125,299503.46875,307152.5,-0.0615234375,0.97314453125,-0.124267578125,3.295898199081421,3.692626714706421,4.547118663787842,80.0,1101063.0,1.0
1212719.8552822,288813.4375,299772.125,316256.09375,296578.78125,317496.71875,303347.6875,299486.21875,307828.96875,-0.05908203125,0.97216796875,-0.12646484375,3.509521245956421,3.875732183456421,4.608153820037842,80.0,1101064.0,1.0
1212719.8634985,288790.8125,297860.0625,315674.6875,296282.9375,316441.96875,301066.03125,298247.46875,305945.59375,-0.058349609375,0.97412109375,-0.127197265625,3.601073980331421,4.058837413787842,4.699706554412842,80.0,1101065.0,1.0
1212719.8635504,288711.40625,296588.4375,315434.0,295899.03125,315254.84375,299230.5,297497.25,304066.34375,-0.058837890625,0.971923828125,-0.12548828125,3.723144292831421,4.150390148162842,4.699706554412842,80.0,1101066.0,1.0
1212719.8653051,288708.90625,297747.25,315889.4375,296012.65625,315621.3125,300414.0,298296.46875,304848.21875,-0.057861328125,0.971435546875,-0.128662109375,3.936767339706421,4.364013195037842,4.791259288787842,80.0,1101067.0,1.0
1212719.8678783,288773.1875,299715.8125,316393.96875,296440.75,317035.46875,302965.75,299527.6875,307192.1875,-0.056396484375,0.974853515625,-0.12451171875,3.997802495956421,4.608153820037842,4.669188976287842,80.0,1101068.0,1.0
1212719.874021,288811.09375,299779.90625,316252.53125,296587.375,317551.0625,303365.40625,299491.21875,307855.34375,-0.056884765625,0.975341796875,-0.126708984375,4.180907726287842,4.638671398162842,4.577636241912842,80.0,1101069.0,1.0
1212719.8859364,288784.8125,297864.8125,315671.28125,296285.25,316493.28125,301080.0625,298250.4375,305966.53125,-0.056396484375,0.97607421875,-0.129638671875,4.302978038787842,4.852294445037842,4.638671398162842,80.0,1101070.0,1.0
1212719.8859777,288697.375,296584.96875,315426.75,295891.15625,315293.90625,299234.53125,297491.625,304075.5625,-0.058349609375,0.977294921875,-0.129150390625,4.394530773162842,5.035399913787842,4.577636241912842,80.0,1101071.0,1.0
1212719.8884412,288719.90625,297767.09375,315904.28125,296026.34375,315677.1875,300437.84375,298311.21875,304879.6875,-0.05810546875,0.97900390625,-0.13134765625,4.547118663787842,5.157470226287842,4.577636241912842,80.0,1101072.0,1.0
1212719.8884841,288787.3125,299738.96875,316409.25,296463.375,317091.78125,302991.84375,299542.96875,307226.875,-0.057373046875,0.978515625,-0.1328125,4.608153820037842,5.310058116912842,4.455565929412842,80.0,1101073.0,1.0
1212719.8903494,288790.90625,299764.28125,316231.34375,296576.1875,317568.15625,303351.71875,299469.21875,307853.28125,-0.05712890625,0.979248046875,-0.13134765625,4.638671398162842,5.249022960662842,4.547118663787842,80.0,1101074.0,1.0
1212719.8992192,288769.1875,297843.0,315655.28125,296269.09375,316502.9375,301061.5625,298226.71875,305957.65625,-0.058837890625,0.977783203125,-0.13232421875,4.608153820037842,5.279540538787842,4.455565929412842,80.0,1101075.0,1.0
1212719.9033888,288691.3125,296572.4375,315422.28125,295884.0,315314.5625,299228.4375,297478.9375,304075.65625,-0.05908203125,0.977294921875,-0.131103515625,4.638671398162842,5.310058116912842,4.364013195037842,80.0,1101076.0,1.0
1212719.903439,288685.40625,297730.09375,315876.03125,295998.25,315674.6875,300410.6875,298274.3125,304853.75,-0.057373046875,0.97607421875,-0.1337890625,4.760741710662842,5.310058116912842,4.272460460662842,80.0,1101077.0,1.0
1212719.9116363,288762.46875,299719.84375,316387.09375,296444.59375,317096.96875,302977.28125,299513.65625,307204.71875,-0.055908203125,0.973876953125,-0.135498046875,4.852294445037842,5.310058116912842,4.272460460662842,80.0,1101078.0,1.0
1212719.9184825,288805.03125,299786.34375,316247.59375,296598.0,317617.9375,303382.46875,299483.78125,307872.125,-0.055908203125,0.97265625,-0.135009765625,4.882812023162842,5.249022960662842,4.272460460662842,80.0,1101079.0,1.0
1212719.918526,288777.5,297852.125,315666.71875,296279.90625,316542.03125,301081.59375,298241.21875,305967.5,-0.055419921875,0.974365234375,-0.13427734375,4.974364757537842,5.187987804412842,4.150390148162842,80.0,1101080.0,1.0
1212719.9210474,288698.09375,296577.1875,315430.875,295885.875,315344.15625,299237.3125,297491.28125,304073.59375,-0.0556640625,0.9716796875,-0.13427734375,4.943847179412842,5.096435070037842,4.028319835662842,80.0,1101081.0,1.0
1212719.9210919,288690.59375,297739.03125,315879.25,295997.8125,315702.65625,300417.75,298283.5,304847.6875,-0.0556640625,0.971923828125,-0.133544921875,5.096435070037842,5.065917491912842,4.058837413787842,80.0,1101082.0,1.0
1212719.9315998,288774.09375,299730.125,316393.6875,296447.4375,317128.1875,302986.75,299522.96875,307201.59375,-0.055419921875,0.9716796875,-0.13525390625,5.126952648162842,5.004882335662842,3.875732183456421,80.0,1101083.0,1.0
1212719.934736,288817.90625,299792.96875,316256.375,296596.03125,317644.3125,303385.6875,299490.40625,307860.96875,-0.05615234375,0.970458984375,-0.135009765625,5.218505382537842,4.913329601287842,3.845214605331421,80.0,1101084.0,1.0
1212719.9347783,288765.875,297830.46875,315655.8125,296251.28125,316545.59375,301054.84375,298226.90625,305928.59375,-0.0556640625,0.96923828125,-0.13720703125,5.249022960662842,4.760741710662842,3.662109136581421,80.0,1101085.0,1.0
1212719.9428873,288698.46875,296560.46875,315427.65625,295863.25,315353.0,299212.34375,297486.1875,304039.4375,-0.057861328125,0.96630859375,-0.136474609375,5.340575695037842,4.699706554412842,3.570556402206421,80.0,1101086.0,1.0
1212719.9455047,288704.875,297724.1875,315885.25,295982.53125,315706.4375,300393.6875,298280.03125,304809.5,-0.055419921875,0.965087890625,-0.13671875,5.462646007537842,4.608153820037842,3.509521245956421,80.0,1101087.0,1.0
1212719.9497052,288764.625,299694.15625,316376.34375,296417.0625,317105.46875,302941.78125,299493.1875,307134.96875,-0.056396484375,0.96728515625,-0.1337890625,5.462646007537842,4.425048351287842,3.356933355331421,80.0,1101088.0,1.0
1212719.9497488,288825.6875,299781.4375,316257.625,296590.3125,317641.28125,303360.03125,299481.5625,307814.46875,-0.056640625,0.967041015625,-0.1357421875,5.615233898162842,4.333495616912842,3.204345464706421,80.0,1101089.0,1.0
1212719.9578939,288776.9375,297827.0,315659.9375,296254.59375,316553.46875,301035.625,298224.6875,305895.09375,-0.056640625,0.969970703125,-0.13671875,5.676269054412842,4.211425304412842,3.021239995956421,80.0,1101090.0,1.0
1212719.9709535,288669.3125,296514.9375,315398.25,295826.0625,315320.09375,299156.46875,297450.6875,303971.65625,-0.054931640625,0.96826171875,-0.13427734375,5.645751476287842,4.058837413787842,3.021239995956421,80.0,1101091.0,1.0
1212719.9710048,288701.03125,297710.59375,315880.9375,295971.1875,315700.78125,300368.21875,298271.0,304772.125,-0.052734375,0.96875,-0.1357421875,5.645751476287842,3.723144292831421,2.929687261581421,80.0,1101092.0,1.0
1212719.9729997,288793.59375,299722.0625,316399.15625,296437.6875,317136.03125,302950.90625,299510.875,307131.03125,-0.050537109375,0.97021484375,-0.134765625,5.584716320037842,3.662109136581421,2.929687261581421,80.0,1101093.0,1.0
1212719.9754029,288813.15625,299764.96875,316237.21875,296570.90625,317636.8125,303332.6875,299458.21875,307774.9375,-0.0498046875,0.968505859375,-0.13525390625,5.615233898162842,3.509521245956421,2.899169683456421,80.0,1101094.0,1.0
1212719.9779036,288769.4375,297811.34375,315648.65625,296236.71875,316553.09375,301016.0625,298216.8125,305865.21875,-0.047607421875,0.97216796875,-0.136962890625,5.523681163787842,3.387450933456421,2.838134527206421,80.0,1101095.0,1.0
1212719.9803422,288676.1875,296517.4375,315402.875,295819.53125,315330.28125,299151.5625,297457.375,303953.59375,-0.050537109375,0.974365234375,-0.138427734375,5.523681163787842,3.173827886581421,2.807616949081421,80.0,1101096.0,1.0
1212719.9867401,288685.59375,297693.59375,315864.40625,295946.59375,315683.625,300344.53125,298258.90625,304732.78125,-0.046875,0.974853515625,-0.13623046875,5.432128429412842,2.990722417831421,2.807616949081421,80.0,1101097.0,1.0
1212719.990983,288788.03125,299724.3125,316394.21875,296438.6875,317145.4375,302953.5,299518.9375,307120.9375,-0.0439453125,0.976318359375,-0.138427734375,5.279540538787842,2.899169683456421,2.716064214706421,80.0,1101098.0,1.0
1212719.9910285,288823.4375,299785.46875,316251.1875,296588.96875,317666.40625,303351.375,299480.65625,307780.75,-0.04296875,0.976318359375,-0.139892578125,5.249022960662842,2.838134527206421,2.777099370956421,80.0,1101099.0,1.0
1212719.9991392,288757.8125,297804.5625,315641.78125,296225.09375,316554.375,301002.71875,298206.96875,305838.40625,-0.042724609375,0.976806640625,-0.134765625,5.096435070037842,2.777099370956421,2.716064214706421,80.0,1101100.0,1.0
1212720.003481,288670.46875,296514.6875,315402.53125,295812.65625,315331.71875,299139.65625,297452.65625,303930.625,-0.041259765625,0.98095703125,-0.135009765625,4.852294445037842,2.593993902206421,2.838134527206421,80.0,1101101.0,1.0
1212720.0035248,288700.0625,297713.0,315886.75,295962.21875,315706.25,300352.90625,298271.78125,304731.09375,-0.041748046875,0.982421875,-0.14013671875,4.699706554412842,2.471923589706421,2.960204839706421,80.0,1101102.0,1.0
1212720.011706,288787.5,299727.78125,316400.5,296434.3125,317140.78125,302939.8125,299511.15625,307094.03125,-0.0400390625,0.98388671875,-0.13916015625,4.577636241912842,2.380370855331421,2.990722417831421,80.0,1101103.0,1.0
1212720.015955,288811.46875,299782.875,316244.5625,296575.03125,317651.75,303330.25,299464.9375,307749.03125,-0.04150390625,0.9873046875,-0.138427734375,4.302978038787842,2.288818120956421,2.990722417831421,80.0,1101104.0,1.0
1212720.0159979,288754.875,297814.5625,315647.875,296228.03125,316560.8125,301001.375,298214.5625,305830.4375,-0.03955078125,0.984375,-0.137939453125,4.180907726287842,2.197265386581421,2.990722417831421,80.0,1101105.0,1.0
1212720.0241438,288670.46875,296524.875,315411.125,295821.25,315348.15625,299147.8125,297469.1875,303933.5,-0.036865234375,0.984619140625,-0.1357421875,3.936767339706421,2.044677495956421,3.051757574081421,80.0,1101106.0,1.0
1212720.0285033,288712.5,297735.8125,315901.0625,295979.125,315730.375,300369.1875,298294.5,304742.28125,-0.034912109375,0.986083984375,-0.136474609375,3.753661870956421,1.9531248807907104,3.173827886581421,80.0,1101107.0,1.0
1212720.0285471,288774.53125,299724.9375,316388.6875,296427.34375,317139.71875,302931.25,299504.71875,307080.71875,-0.032958984375,0.988037109375,-0.13623046875,3.570556402206421,1.8920897245407104,3.295898199081421,80.0,1101108.0,1.0
1212720.037393,288815.65625,299786.15625,316245.8125,296580.40625,317657.03125,303331.15625,299471.90625,307745.90625,-0.031982421875,0.98876953125,-0.137939453125,3.356933355331421,1.8615721464157104,3.295898199081421,80.0,1101109.0,1.0
1212720.0374387,288762.125,297816.34375,315648.5,296230.625,316564.65625,301001.125,298221.28125,305828.75,-0.03076171875,0.990478515625,-0.137451171875,3.173827886581421,1.8005369901657104,3.295898199081421,80.0,1101110.0,1.0
1212720.039115,288690.84375,296533.71875,315427.5625,295832.40625,315357.46875,299153.0,297484.75,303941.71875,-0.02587890625,0.9921875,-0.14013671875,2.960204839706421,1.8005369901657104,3.417968511581421,80.0,1101111.0,1.0
1212720.0428994,288715.96875,297728.1875,315900.53125,295975.5625,315724.3125,300358.5625,298287.0,304735.28125,-0.02490234375,0.994140625,-0.14111328125,2.655029058456421,1.7395018339157104,3.479003667831421,80.0,1101112.0,1.0
1212720.0516611,288801.8125,299744.40625,316409.0,296448.15625,317156.59375,302941.78125,299518.40625,307095.1875,-0.022705078125,0.996826171875,-0.135986328125,2.410888433456421,1.7395018339157104,3.601073980331421,80.0,1101113.0,1.0
1212720.0561143,288834.09375,299802.0,316262.4375,296602.3125,317677.03125,303342.0625,299484.875,307760.375,-0.019287109375,0.99951171875,-0.134521484375,2.197265386581421,1.8005369901657104,3.692626714706421,80.0,1101114.0,1.0
1212720.0561781,288772.46875,297824.84375,315659.84375,296247.875,316581.0,301005.25,298231.28125,305841.4375,-0.01806640625,1.005126953125,-0.1337890625,1.8005369901657104,1.8005369901657104,3.753661870956421,80.0,1101115.0,1.0
1212720.0678797,288671.375,296515.3125,315406.71875,295820.15625,315346.84375,299126.34375,297462.65625,303929.125,-0.01806640625,1.009033203125,-0.130615234375,1.3732908964157104,1.9226073026657104,3.784179449081421,80.0,1101116.0,1.0
1212720.0709561,288694.53125,297711.65625,315877.0,295963.3125,315721.0,300334.9375,298261.875,304727.96875,-0.01513671875,1.00830078125,-0.128662109375,0.9765624403953552,1.8615721464157104,3.997802495956421,80.0,1101117.0,1.0
1212720.0710008,288788.84375,299735.5625,316395.3125,296448.15625,317168.84375,302936.34375,299506.78125,307104.59375,-0.0126953125,1.007568359375,-0.131591796875,0.7019042372703552,1.9531248807907104,4.211425304412842,80.0,1101118.0,1.0
1212720.0734828,288851.96875,299825.59375,316280.15625,296633.6875,317726.5,303371.3125,299509.46875,307805.1875,-0.014404296875,1.005126953125,-0.130859375,0.5493163466453552,2.075195074081421,4.364013195037842,80.0,1101119.0,1.0
1212720.0735266,288763.1875,297819.125,315653.40625,296252.0,316604.34375,301004.78125,298234.6875,305860.3125,-0.01513671875,1.0048828125,-0.1279296875,0.2136230319738388,2.075195074081421,4.425048351287842,80.0,1101120.0,1.0
1212720.0817028,288668.15625,296515.21875,315408.53125,295829.1875,315374.46875,299134.03125,297481.96875,303955.21875,-0.013427734375,1.002685546875,-0.12939453125,-0.2441406100988388,2.136230230331421,4.394530773162842,80.0,1101121.0,1.0
1212720.0841548,288681.1875,297703.875,315872.28125,295961.59375,315734.78125,300336.5625,298282.625,304744.40625,-0.013916015625,1.0009765625,-0.12646484375,-0.7019042372703552,2.136230230331421,4.455565929412842,80.0,1101122.0,1.0
1212720.1041024,288769.625,299723.125,316382.875,296433.40625,317169.125,302929.71875,299511.96875,307105.28125,-0.01513671875,0.99658203125,-0.125732421875,-1.2207030057907104,2.197265386581421,4.302978038787842,80.0,1101123.0,1.0
1212720.104147,288803.5,299784.90625,316233.75,296582.4375,317688.84375,303328.03125,299471.625,307766.28125,-0.01611328125,0.99267578125,-0.1279296875,-1.5563963651657104,2.349853277206421,4.302978038787842,80.0,1101124.0,1.0
1212720.1041603,288736.375,297796.34375,315628.09375,296221.15625,316588.15625,300984.65625,298215.03125,305839.03125,-0.01708984375,0.989013671875,-0.126220703125,-1.7089842557907104,2.319335699081421,4.180907726287842,80.0,1101125.0,1.0
1212720.1066417,288656.34375,296504.3125,315396.8125,295815.34375,315375.53125,299128.03125,297471.4375,303945.84375,-0.017578125,0.98388671875,-0.126953125,-2.014159917831421,2.349853277206421,3.967284917831421,80.0,1101126.0,1.0
1212720.1092416,288677.25,297703.53125,315864.40625,295951.5,315738.15625,300334.0625,298270.375,304734.40625,-0.0146484375,0.98046875,-0.128662109375,-2.075195074081421,2.319335699081421,3.875732183456421,80.0,1101127.0,1.0
1212720.1116831,288796.71875,299756.21875,316408.53125,296452.375,317200.40625,302954.125,299531.71875,307123.0,-0.016357421875,0.976318359375,-0.126953125,-2.044677495956421,2.319335699081421,3.601073980331421,80.0,1101128.0,1.0
1212720.1141522,288832.90625,299819.6875,316264.9375,296605.875,317724.96875,303353.0625,299493.09375,307788.375,-0.015869140625,0.974609375,-0.12548828125,-1.9531248807907104,2.349853277206421,3.479003667831421,80.0,1101129.0,1.0
1212720.1166655,288751.90625,297811.96875,315642.21875,296227.59375,316601.9375,300986.0,298213.6875,305840.53125,-0.016845703125,0.9736328125,-0.128173828125,-1.8920897245407104,2.319335699081421,3.265380620956421,80.0,1101130.0,1.0
1212720.1261192,288657.9375,296501.28125,315397.78125,295806.5,315365.78125,299112.21875,297456.84375,303928.65625,-0.015625,0.972900390625,-0.124755859375,-1.8005369901657104,2.349853277206421,2.929687261581421,80.0,1101131.0,1.0
1212720.1261662,288694.25,297710.9375,315881.46875,295958.375,315741.375,300331.5625,298272.0625,304729.3125,-0.016357421875,0.97314453125,-0.122314453125,-1.7700194120407104,2.349853277206421,2.624511480331421,80.0,1101132.0,1.0
1212720.1280545,288807.25,299756.125,316418.71875,296453.875,317198.4375,302941.78125,299523.75,307105.65625,-0.01611328125,0.97216796875,-0.120849609375,-1.7395018339157104,2.380370855331421,2.319335699081421,80.0,1101133.0,1.0
1212720.1366382,288855.4375,299828.0,316286.21875,296617.40625,317733.625,303350.5625,299499.0,307778.25,-0.014892578125,0.974853515625,-0.119873046875,-1.6174315214157104,2.349853277206421,2.105712652206421,80.0,1101134.0,1.0
1212720.1397339,288767.75,297814.75,315657.96875,296234.5625,316606.125,300981.1875,298218.59375,305826.78125,-0.01513671875,0.976806640625,-0.12158203125,-1.6479490995407104,2.380370855331421,1.8310545682907104,80.0,1101135.0,1.0
1212720.1397783,288680.75,296511.375,315422.28125,295824.625,315382.875,299115.09375,297467.84375,303926.25,-0.0146484375,0.975830078125,-0.119140625,-1.6479490995407104,2.319335699081421,1.5258787870407104,80.0,1101136.0,1.0
1212720.1480175,288701.5,297711.03125,315889.875,295968.5,315754.625,300327.34375,298273.40625,304722.875,-0.014892578125,0.975830078125,-0.11669921875,-1.6174315214157104,2.258300542831421,1.4648436307907104,80.0,1101137.0,1.0
1212720.1522461,288797.15625,299748.4375,316404.0625,296449.6875,317207.65625,302937.15625,299519.46875,307095.0,-0.013671875,0.97705078125,-0.11669921875,-1.6784666776657104,2.258300542831421,1.2817381620407104,80.0,1101138.0,1.0
1212720.1522892,288834.53125,299807.375,316259.6875,296602.65625,317735.875,303341.875,299493.53125,307762.15625,-0.013916015625,0.977783203125,-0.114501953125,-1.7395018339157104,2.288818120956421,1.0986326932907104,80.0,1101139.0,1.0
1212720.1559891,288751.84375,297795.34375,315638.46875,296225.09375,316608.28125,300972.78125,298217.78125,305813.71875,-0.014404296875,0.979248046875,-0.117431640625,-1.5869139432907104,2.319335699081421,0.8850097060203552,80.0,1101140.0,1.0
1212720.1560328,288659.65625,296487.6875,315395.5625,295805.78125,315367.84375,299096.3125,297458.28125,303901.84375,-0.0146484375,0.982666015625,-0.11865234375,-1.7089842557907104,2.136230230331421,0.8239745497703552,80.0,1101141.0,1.0
1212720.1641139,288685.59375,297688.9375,315871.28125,295950.78125,315736.8125,300312.59375,298270.53125,304700.59375,-0.0146484375,0.982177734375,-0.1171875,-1.6784666776657104,2.105712652206421,0.7934569716453552,80.0,1101142.0,1.0
1212720.173027,288775.25,299710.25,316383.6875,296423.125,317172.875,302908.4375,299504.375,307059.875,-0.01611328125,0.982666015625,-0.114990234375,-1.7089842557907104,2.166747808456421,0.8239745497703552,80.0,1101143.0,1.0
1212720.1754054,288829.0,299783.125,316251.8125,296590.40625,317707.96875,303320.59375,299483.96875,307733.65625,-0.016845703125,0.982177734375,-0.1171875,-1.7395018339157104,2.197265386581421,0.7934569716453552,80.0,1101144.0,1.0
1212720.1804021,288758.96875,297784.34375,315640.53125,296224.90625,316585.75,300957.59375,298217.15625,305794.78125,-0.017578125,0.981689453125,-0.114990234375,-1.8005369901657104,2.166747808456421,0.9155272841453552,80.0,1101145.0,1.0
1212720.182891,288651.25,296461.40625,315382.59375,295790.40625,315326.34375,299063.125,297440.59375,303866.625,-0.02001953125,0.980224609375,-0.11376953125,-1.7700194120407104,2.075195074081421,0.8850097060203552,80.0,1101146.0,1.0
1212720.1874198,288670.8125,297664.1875,315851.1875,295930.6875,315688.375,300272.28125,298245.78125,304656.875,-0.020751953125,0.979248046875,-0.11669921875,-1.8615721464157104,1.9836424589157104,0.9460448622703552,80.0,1101147.0,1.0
1212720.1874653,288775.96875,299701.6875,316381.28125,296417.0625,317135.59375,302880.90625,299498.71875,307027.34375,-0.019775390625,0.978271484375,-0.115966796875,-1.8920897245407104,1.8005369901657104,0.9155272841453552,80.0,1101148.0,1.0
1212720.1928917,288831.03125,299778.46875,316256.46875,296589.96875,317673.5625,303295.5625,299482.0,307706.03125,-0.022705078125,0.977783203125,-0.114990234375,-1.9531248807907104,1.6479490995407104,0.9460448622703552,80.0,1101149.0,1.0
1212720.2021996,288770.5,297791.0625,315656.8125,296236.4375,316565.34375,300943.28125,298219.3125,305775.1875,-0.02392578125,0.9775390625,-0.115234375,-1.8920897245407104,1.4953612089157104,0.9460448622703552,80.0,1101150.0,1.0
1212720.2022426,288663.75,296473.28125,315398.875,295804.625,315317.3125,299056.34375,297445.9375,303852.125,-0.024658203125,0.97607421875,-0.11865234375,-1.8310545682907104,1.3732908964157104,0.9460448622703552,80.0,1101151.0,1.0
1212720.2041029,288693.34375,297687.15625,315880.3125,295950.15625,315691.40625,300278.71875,298265.34375,304652.3125,-0.027099609375,0.97314453125,-0.12353515625,-1.7089842557907104,1.2207030057907104,1.0375975370407104,80.0,1101152.0,1.0
1212720.2105358,288816.8125,299744.78125,316424.375,296444.59375,317152.21875,302900.3125,299522.40625,307031.1875,-0.026611328125,0.972412109375,-0.123291015625,-1.6784666776657104,1.0986326932907104,1.0986326932907104,80.0,1101153.0,1.0
1212720.2147498,288838.09375,299794.5625,316265.03125,296585.84375,317661.9375,303286.53125,299472.53125,307677.59375,-0.025390625,0.97314453125,-0.123291015625,-1.6174315214157104,0.9155272841453552,1.0375975370407104,80.0,1101154.0,1.0
1212720.2147931,288751.03125,297785.15625,315640.09375,296219.71875,316545.5,300924.84375,298199.90625,305742.375,-0.0263671875,0.970458984375,-0.123779296875,-1.4038084745407104,0.7019042372703552,1.0375975370407104,80.0,1101155.0,1.0
1212720.2279133,288645.78125,296467.03125,315384.375,295795.21875,315303.375,299044.09375,297436.1875,303830.3125,-0.02587890625,0.966796875,-0.12548828125,-1.1596678495407104,0.5493163466453552,1.0986326932907104,80.0,1101156.0,1.0
1212720.2309061,288682.28125,297686.96875,315869.9375,295947.5625,315687.84375,300274.96875,298263.125,304639.375,-0.027099609375,0.962646484375,-0.126220703125,-0.9765624403953552,0.4272460639476776,0.9765624403953552,80.0,1101157.0,1.0
1212720.2309393,288782.75,299721.4375,316390.75,296426.0,317141.40625,302881.71875,299505.0,307001.75,-0.02392578125,0.95849609375,-0.126220703125,-0.5798339247703552,0.2441406100988388,0.7934569716453552,80.0,1101158.0,1.0
1212720.232902,288801.0,299759.96875,316224.71875,296560.625,317650.59375,303260.78125,299445.34375,307637.28125,-0.023193359375,0.955810546875,-0.128662109375,-0.2136230319738388,0.1525878757238388,0.6408690810203552,80.0,1101159.0,1.0
1212720.2365463,288744.84375,297772.375,315625.875,296215.4375,316550.15625,300917.4375,298191.0625,305715.65625,-0.0205078125,0.953857421875,-0.129150390625,0.1831054538488388,0.1525878757238388,0.3967284858226776,80.0,1101160.0,1.0
1212720.2408526,288657.9375,296474.34375,315391.90625,295808.71875,315329.5625,299056.96875,297447.71875,303825.84375,-0.01953125,0.951171875,-0.13232421875,0.6713866591453552,0.1831054538488388,0.1220703050494194,80.0,1101161.0,1.0
1212720.2408962,288657.40625,297656.125,315845.90625,295923.15625,315680.75,300252.875,298237.8125,304601.625,-0.016357421875,0.94873046875,-0.131103515625,1.2817381620407104,0.2746581733226776,-0.03051757626235485,80.0,1101162.0,1.0
1212720.2541165,288771.9375,299707.75,316381.8125,296414.1875,317147.21875,302873.65625,299496.03125,306978.6875,-0.014892578125,0.949951171875,-0.12939453125,1.9226073026657104,0.3051757514476776,-0.4882812201976776,80.0,1101163.0,1.0
1212720.2567756,288845.96875,299805.65625,316271.75,296607.03125,317713.53125,303305.78125,299493.8125,307677.9375,-0.010986328125,0.9521484375,-0.128173828125,2.655029058456421,0.3662109076976776,-0.8239745497703552,80.0,1101164.0,1.0
1212720.2597438,288775.625,297801.25,315662.78125,296249.6875,316597.1875,300943.8125,298226.46875,305747.03125,-0.009033203125,0.955810546875,-0.125732421875,3.112792730331421,0.4577636420726776,-1.0681151151657104,80.0,1101165.0,1.0
1212720.2597952,288641.84375,296457.375,315378.75,295795.65625,315323.40625,299030.59375,297428.6875,303807.4375,-0.0068359375,0.96435546875,-0.12548828125,3.601073980331421,0.4577636420726776,-1.1901854276657104,80.0,1101166.0,1.0
1212720.2641112,288669.5,297663.90625,315855.28125,295932.90625,315692.125,300248.84375,298236.3125,304601.71875,-0.0078125,0.973876953125,-0.120849609375,3.906249761581421,0.5798339247703552,-1.4038084745407104,80.0,1101167.0,1.0
1212720.270368,288789.75,299715.28125,316395.21875,296423.65625,317151.34375,302868.21875,299493.28125,306976.5625,-0.009033203125,0.984619140625,-0.1181640625,4.150390148162842,0.5798339247703552,-1.3122557401657104,80.0,1101168.0,1.0
1212720.2798405,288848.46875,299789.75,316268.96875,296599.0,317688.3125,303280.90625,299475.84375,307655.5,-0.010009765625,0.993408203125,-0.11572265625,3.997802495956421,0.5493163466453552,-1.1901854276657104,80.0,1101169.0,1.0
1212720.2798855,288760.78125,297772.0,315642.3125,296225.28125,316552.40625,300903.59375,298191.78125,305715.46875,-0.0146484375,1.00390625,-0.114501953125,3.753661870956421,0.6103515028953552,-1.0986326932907104,80.0,1101170.0,1.0
1212720.2816508,288661.4375,296470.25,315396.625,295812.9375,315323.59375,299032.46875,297434.59375,303826.28125,-0.01611328125,1.010498046875,-0.1123046875,3.295898199081421,0.4882812201976776,-1.0375975370407104,80.0,1101171.0,1.0
1212720.2841586,288690.9375,297683.75,315876.5625,295955.71875,315701.6875,300257.15625,298250.53125,304630.25,-0.020751953125,1.015380859375,-0.11083984375,2.777099370956421,0.3356933295726776,-0.8850097060203552,80.0,1101172.0,1.0
1212720.2984432,288789.375,299717.59375,316395.03125,296424.03125,317146.0625,302862.03125,299493.375,306984.59375,-0.02197265625,1.01806640625,-0.11328125,2.136230230331421,0.1220703050494194,-0.7629393935203552,80.0,1101173.0,1.0
1212720.2984865,288830.875,299780.09375,316254.21875,296580.65625,317665.34375,303262.5,299465.46875,307642.53125,-0.022705078125,1.0205078125,-0.107421875,1.4953612089157104,-0.0610351525247097,-0.8239745497703552,80.0,1101174.0,1.0
1212720.3010104,288759.53125,297783.90625,315646.0625,296232.96875,316553.5625,300912.96875,298207.59375,305724.75,-0.027099609375,1.024658203125,-0.10546875,0.8544921278953552,-0.2746581733226776,-0.8239745497703552,80.0,1101175.0,1.0
1212720.3010472,288660.1875,296482.75,315396.71875,295820.34375,315325.90625,299048.5625,297452.375,303838.28125,-0.029052734375,1.02734375,-0.1064453125,0.1220703050494194,-0.5493163466453552,-0.7934569716453552,80.0,1101176.0,1.0
1212720.3116646,288687.375,297697.34375,315873.34375,295959.5625,315708.125,300277.1875,298271.71875,304644.625,-0.03076171875,1.027587890625,-0.106201171875,-0.5187987685203552,-0.8239745497703552,-0.7629393935203552,80.0,1101177.0,1.0
1212720.3215258,288778.75,299719.5625,316389.21875,296417.40625,317140.25,302869.625,299506.78125,306985.84375,-0.033203125,1.027099609375,-0.107421875,-1.1901854276657104,-1.0681151151657104,-0.7324218153953552,80.0,1101178.0,1.0
1212720.3215678,288835.78125,299790.0,316266.03125,296588.625,317673.90625,303280.65625,299488.4375,307656.21875,-0.033447265625,1.0263671875,-0.10595703125,-2.014159917831421,-1.4953612089157104,-0.6713866591453552,80.0,1101179.0,1.0
1212720.3215792,288757.09375,297784.4375,315647.40625,296234.5625,316557.03125,300923.25,298217.0625,305731.65625,-0.034912109375,1.027099609375,-0.110107421875,-2.624511480331421,-1.9531248807907104,-0.5493163466453552,80.0,1101180.0,1.0
1212720.324159,288652.40625,296476.0625,315394.03125,295817.03125,315319.75,299049.71875,297453.375,303835.21875,-0.038330078125,1.025390625,-0.110107421875,-3.356933355331421,-2.349853277206421,-0.5798339247703552,80.0,1101181.0,1.0
1212720.3267668,288683.4375,297691.0,315874.6875,295958.3125,315701.25,300276.375,298270.09375,304641.25,-0.037353515625,1.0224609375,-0.10986328125,-4.058837413787842,-2.746581792831421,-0.6408690810203552,80.0,1101182.0,1.0
1212720.3291119,288785.28125,299719.28125,316396.5625,296424.1875,317143.1875,302873.65625,299508.03125,306992.5625,-0.038818359375,1.019775390625,-0.111328125,-4.608153820037842,-3.112792730331421,-0.6408690810203552,80.0,1101183.0,1.0
1212720.3334784,288847.9375,299796.0,316276.21875,296597.75,317678.21875,303286.0,299488.90625,307665.59375,-0.03857421875,1.017822265625,-0.115234375,-5.096435070037842,-3.387450933456421,-0.7324218153953552,80.0,1101184.0,1.0
1212720.3335228,288770.0625,297789.71875,315657.25,296243.34375,316557.21875,300928.53125,298216.625,305740.5,-0.038330078125,1.017578125,-0.11279296875,-5.432128429412842,-3.814697027206421,-0.7324218153953552,80.0,1101185.0,1.0
1212720.3462137,288651.59375,296468.09375,315387.59375,295814.0,315307.59375,299044.375,297440.40625,303834.96875,-0.037353515625,1.01220703125,-0.11474609375,-5.859374523162842,-4.211425304412842,-0.7324218153953552,80.0,1101186.0,1.0
1212720.3540332,288668.21875,297670.4375,315857.6875,295942.75,315672.1875,300257.4375,298248.71875,304630.0625,-0.0390625,1.009765625,-0.11328125,-6.042479991912842,-4.516601085662842,-0.7019042372703552,80.0,1101187.0,1.0
1212720.3540818,288782.21875,299711.96875,316396.375,296422.5,317123.25,302870.4375,299506.78125,306993.96875,-0.039794921875,1.007568359375,-0.114013671875,-6.317138195037842,-4.882812023162842,-0.7629393935203552,80.0,1101188.0,1.0
1212720.3540937,288818.625,299763.90625,316250.03125,296573.0625,317634.125,303258.8125,299467.625,307644.15625,-0.038818359375,1.004150390625,-0.112060546875,-6.561278820037842,-5.126952648162842,-0.8544921278953552,80.0,1101189.0,1.0
1212720.357205,288759.875,297779.78125,315649.5625,296239.9375,316530.84375,300919.03125,298214.40625,305739.96875,-0.041015625,1.00048828125,-0.113037109375,-6.774901866912842,-5.401610851287842,-0.8544921278953552,80.0,1101190.0,1.0
1212720.3572489,288684.15625,296499.5625,315423.71875,295852.09375,315322.875,299079.40625,297481.25,303878.59375,-0.041015625,1.001220703125,-0.111083984375,-6.988524913787842,-5.767821788787842,-0.8544921278953552,80.0,1101191.0,1.0
1212720.3616232,288683.6875,297686.09375,315872.28125,295963.03125,315677.625,300280.5,298270.625,304661.71875,-0.04052734375,0.99951171875,-0.1103515625,-7.202147960662842,-6.011962413787842,-0.8239745497703552,80.0,1101192.0,1.0
1212720.3704852,288773.03125,299702.40625,316387.53125,296421.96875,317117.90625,302874.5625,299510.34375,307017.6875,-0.040771484375,0.995849609375,-0.112060546875,-7.293700695037842,-6.225585460662842,-0.7629393935203552,80.0,1101193.0,1.0
1212720.3771885,288850.53125,299788.84375,316282.46875,296612.59375,317668.625,303302.375,299511.5,307711.75,-0.042724609375,0.99462890625,-0.112548828125,-7.293700695037842,-6.378173351287842,-0.7324218153953552,80.0,1101194.0,1.0
1212720.377234,288772.5625,297783.90625,315658.78125,296256.5625,316538.09375,300935.9375,298230.9375,305776.875,-0.040771484375,0.99560546875,-0.109619140625,-7.415771007537842,-6.561278820037842,-0.6713866591453552,80.0,1101195.0,1.0
1212720.3884789,288657.0625,296471.0625,315392.59375,295832.15625,315292.46875,299056.96875,297454.25,303871.96875,-0.0380859375,0.9931640625,-0.109130859375,-7.415771007537842,-6.774901866912842,-0.6713866591453552,80.0,1101196.0,1.0
1212720.3885234,288667.25,297666.78125,315859.3125,295956.25,315660.65625,300273.53125,298261.4375,304670.03125,-0.037109375,0.990966796875,-0.106689453125,-7.446288585662842,-6.958007335662842,-0.6103515028953552,80.0,1101197.0,1.0
1212720.3903939,288765.875,299689.53125,316386.1875,296419.375,317101.8125,302872.5,299510.96875,307032.15625,-0.036865234375,0.98828125,-0.107421875,-7.385253429412842,-6.958007335662842,-0.5187987685203552,80.0,1101198.0,1.0
1212720.3929132,288824.78125,299759.625,316260.3125,296588.625,317631.71875,303277.6875,299488.625,307703.53125,-0.03564453125,0.986572265625,-0.109619140625,-7.263183116912842,-7.110595226287842,-0.4272460639476776,80.0,1101199.0,1.0
1212720.3972981,288802.875,297814.375,315690.34375,296287.125,316556.0625,300967.78125,298261.4375,305818.90625,-0.034912109375,0.984619140625,-0.110107421875,-7.202147960662842,-7.049560070037842,-0.2441406100988388,80.0,1101200.0,1.0
1212720.3973432,288704.625,296523.71875,315441.96875,295885.875,315341.03125,299116.34375,297509.5,303937.78125,-0.034423828125,0.98291015625,-0.109619140625,-6.988524913787842,-7.080077648162842,-0.2746581733226776,80.0,1101201.0,1.0
1212720.4241404,288665.5625,297673.65625,315861.90625,295961.96875,315665.75,300291.0625,298272.0625,304691.21875,-0.03369140625,0.9814453125,-0.10986328125,-6.866454601287842,-6.988524913787842,-0.1831054538488388,80.0,1101202.0,1.0
1212720.4272277,288758.0,299694.71875,316385.375,296418.9375,317099.9375,302889.03125,299521.71875,307050.9375,-0.033935546875,0.979248046875,-0.109375,-6.713866710662842,-7.019042491912842,-0.2441406100988388,80.0,1101203.0,1.0
1212720.4272705,288815.03125,299761.9375,316255.375,296588.1875,317629.65625,303295.84375,299499.8125,307723.625,-0.035400390625,0.978271484375,-0.1064453125,-6.561278820037842,-6.958007335662842,-0.0915527269244194,80.0,1101204.0,1.0
1212720.430901,288766.21875,297785.40625,315651.71875,296256.46875,316527.625,300957.65625,298236.3125,305803.96875,-0.0380859375,0.978515625,-0.107421875,-6.408690929412842,-6.866454601287842,0.0610351525247097,80.0,1101205.0,1.0
1212720.4309448,288679.3125,296499.84375,315410.125,295856.46875,315311.0625,299104.875,297476.53125,303917.9375,-0.038330078125,0.976806640625,-0.107421875,-6.103515148162842,-6.866454601287842,0.1525878757238388,80.0,1101206.0,1.0
1212720.4309563,288692.09375,297700.3125,315881.65625,295983.25,315681.21875,300324.3125,298289.5,304725.8125,-0.038818359375,0.976806640625,-0.1044921875,-5.920409679412842,-6.866454601287842,0.3356933295726776,80.0,1101207.0,1.0
1212720.4309668,288773.03125,299707.9375,316395.75,296433.84375,317112.34375,302912.5625,299530.09375,307087.5,-0.037841796875,0.976318359375,-0.105712890625,-5.706786632537842,-6.805419445037842,0.3967284858226776,80.0,1101208.0,1.0
1212720.4335349,288824.0625,299765.6875,316261.90625,296594.0625,317632.25,303309.53125,299500.34375,307751.25,-0.036865234375,0.973876953125,-0.1064453125,-5.462646007537842,-6.744384288787842,0.3967284858226776,80.0,1101209.0,1.0
1212720.4335717,288774.375,297787.84375,315659.21875,296260.21875,316526.71875,300964.03125,298234.25,305822.3125,-0.03759765625,0.972900390625,-0.104736328125,-5.249022960662842,-6.652831554412842,0.4882812201976776,80.0,1101210.0,1.0
1212720.4391671,288683.0,296495.625,315414.6875,295854.84375,315301.78125,299103.8125,297476.625,303922.3125,-0.037841796875,0.972412109375,-0.102783203125,-4.913329601287842,-6.561278820037842,0.5493163466453552,80.0,1101211.0,1.0
1212720.4485042,288690.3125,297687.96875,315881.21875,295976.8125,315671.09375,300322.625,298287.53125,304725.1875,-0.038818359375,0.97021484375,-0.1025390625,-4.638671398162842,-6.469726085662842,0.6408690810203552,80.0,1101212.0,1.0
1212720.4485479,288771.15625,299694.09375,316394.78125,296424.46875,317104.125,302909.25,299526.625,307086.34375,-0.039794921875,0.9697265625,-0.105224609375,-4.394530773162842,-6.286620616912842,0.5798339247703552,80.0,1101213.0,1.0
1212720.4503873,288819.25,299749.96875,316254.03125,296578.96875,317615.625,303294.84375,299489.34375,307736.25,-0.03955078125,0.970458984375,-0.103759765625,-4.150390148162842,-6.134032726287842,0.5798339247703552,80.0,1101214.0,1.0
1212720.4567362,288790.28125,297793.90625,315669.5,296263.09375,316528.53125,300965.0,298239.34375,305817.375,-0.039306640625,0.9697265625,-0.10595703125,-3.875732183456421,-6.011962413787842,0.6713866591453552,80.0,1101215.0,1.0
1212720.4609968,288703.0,296509.21875,315429.0,295861.375,315311.4375,299110.25,297484.84375,303921.5,-0.036865234375,0.9658203125,-0.108642578125,-3.479003667831421,-5.920409679412842,0.7019042372703552,80.0,1101216.0,1.0
1212720.4610407,288692.65625,297685.09375,315882.1875,295970.5625,315665.46875,300315.1875,298285.28125,304712.0625,-0.0390625,0.965576171875,-0.107177734375,-3.234863042831421,-5.737304210662842,0.6713866591453552,80.0,1101217.0,1.0
1212720.4691687,288778.5625,299696.125,316402.1875,296425.375,317103.40625,302908.96875,299533.15625,307080.34375,-0.038818359375,0.968017578125,-0.103759765625,-2.838134527206421,-5.676269054412842,0.6713866591453552,80.0,1101218.0,1.0
1212720.4734386,288839.625,299757.28125,316275.78125,296590.125,317625.09375,303306.84375,299508.5625,307742.0625,-0.038818359375,0.966552734375,-0.10400390625,-2.716064214706421,-5.554198741912842,0.6103515028953552,80.0,1101219.0,1.0
1212720.473489,288788.84375,297772.90625,315667.1875,296246.09375,316505.09375,300949.96875,298232.53125,305790.65625,-0.0390625,0.9677734375,-0.10595703125,-2.441406011581421,-5.340575695037842,0.6103515028953552,80.0,1101220.0,1.0
1212720.4755235,288706.84375,296495.09375,315429.96875,295846.71875,315282.625,299096.125,297479.90625,303886.8125,-0.037109375,0.96923828125,-0.1064453125,-2.166747808456421,-5.035399913787842,0.7324218153953552,80.0,1101221.0,1.0
1212720.4904112,288712.59375,297691.46875,315896.6875,295972.53125,315653.3125,300315.71875,298293.875,304692.1875,-0.03662109375,0.970947265625,-0.1064453125,-1.9226073026657104,-4.821776866912842,0.7934569716453552,80.0,1101222.0,1.0
1212720.4934795,288766.03125,299671.8125,316386.375,296400.34375,317063.4375,302879.75,299512.6875,307035.125,-0.034423828125,0.968505859375,-0.104736328125,-1.6479490995407104,-4.669188976287842,0.7324218153953552,80.0,1101223.0,1.0
1212720.4935233,288796.53125,299708.5625,316230.53125,296532.65625,317550.8125,303246.84375,299455.53125,307663.8125,-0.03466796875,0.970458984375,-0.109619140625,-1.4038084745407104,-4.547118663787842,0.7629393935203552,80.0,1101224.0,1.0
1212720.4954002,288769.71875,297757.25,315646.78125,296213.90625,316456.71875,300917.0,298205.90625,305735.5,-0.0341796875,0.97119140625,-0.11083984375,-1.0986326932907104,-4.241942882537842,0.7934569716453552,80.0,1101225.0,1.0
1212720.4980187,288693.90625,296488.75,315418.4375,295825.71875,315244.375,299073.40625,297463.75,303845.15625,-0.034912109375,0.973876953125,-0.10986328125,-1.0375975370407104,-4.119872570037842,0.8544921278953552,80.0,1101226.0,1.0
1212720.5040905,288706.21875,297694.6875,315895.4375,295962.9375,315626.6875,300304.09375,298289.5,304666.1875,-0.03466796875,0.975830078125,-0.106201171875,-0.7324218153953552,-3.814697027206421,0.8850097060203552,80.0,1101227.0,1.0
1212720.5135069,288777.21875,299690.9375,316401.125,296408.28125,317054.40625,302886.1875,299526.71875,307033.21875,-0.0341796875,0.978271484375,-0.105712890625,-0.6408690810203552,-3.631591558456421,0.9460448622703552,80.0,1101228.0,1.0
1212720.5135511,288825.21875,299741.03125,316260.125,296559.90625,317561.1875,303267.78125,299483.34375,307681.6875,-0.034912109375,0.977783203125,-0.107666015625,-0.3967284858226776,-3.448486089706421,0.8850097060203552,80.0,1101229.0,1.0
1212720.5159841,288785.71875,297777.46875,315661.8125,296230.0,316454.125,300924.78125,298218.40625,305742.46875,-0.035400390625,0.979736328125,-0.10595703125,-0.3356933295726776,-3.173827886581421,1.0070799589157104,80.0,1101230.0,1.0
1212720.5160284,288703.71875,296507.34375,315425.78125,295836.4375,315241.6875,299080.40625,297472.21875,303851.59375,-0.035400390625,0.978515625,-0.107177734375,-0.1831054538488388,-2.929687261581421,1.0681151151657104,80.0,1101231.0,1.0
1212720.5242758,288711.15625,297712.46875,315896.5,295968.9375,315624.0,300309.8125,298292.34375,304673.25,-0.034912109375,0.97998046875,-0.108642578125,-0.0915527269244194,-2.685546636581421,1.2207030057907104,80.0,1101232.0,1.0
1212720.5279014,288778.5625,299708.5625,316402.1875,296418.65625,317055.84375,302895.75,299529.03125,307047.34375,-0.035888671875,0.97998046875,-0.113037109375,0.1831054538488388,-2.441406011581421,1.1596678495407104,80.0,1101233.0,1.0
1212720.5316757,288819.5,299751.84375,316255.65625,296567.6875,317562.25,303275.46875,299482.46875,307696.1875,-0.037353515625,0.98095703125,-0.109619140625,0.3356933295726776,-2.227782964706421,1.1901854276657104,80.0,1101234.0,1.0
1212720.5410069,288780.71875,297786.59375,315657.25,296235.8125,316457.25,300928.96875,298217.4375,305756.5,-0.03662109375,0.9833984375,-0.110107421875,0.3051757514476776,-1.9836424589157104,1.1291502714157104,80.0,1101235.0,1.0
1212720.5410508,288693.625,296506.71875,315413.78125,295834.46875,315242.40625,299079.3125,297463.65625,303861.53125,-0.03662109375,0.983154296875,-0.110595703125,0.4882812201976776,-1.8615721464157104,1.1901854276657104,80.0,1101236.0,1.0
1212720.5429743,288692.90625,297697.96875,315875.125,295952.75,315607.4375,300297.75,298275.8125,304668.875,-0.037109375,0.981689453125,-0.111083984375,0.4272460639476776,-1.5563963651657104,1.1596678495407104,80.0,1101237.0,1.0
1212720.5540988,288790.8125,299722.6875,316409.78125,296426.71875,317061.46875,302910.125,299541.03125,307065.25,-0.037353515625,0.983642578125,-0.108154296875,0.6103515028953552,-1.4038084745407104,1.2207030057907104,80.0,1101238.0,1.0
1212720.5572351,288830.40625,299769.4375,316260.3125,296578.34375,317578.25,303292.71875,299490.84375,307718.8125,-0.035888671875,0.98095703125,-0.10546875,0.6103515028953552,-1.1901854276657104,1.2207030057907104,80.0,1101239.0,1.0
1212720.5572779,288804.125,297814.3125,315679.15625,296263.71875,316491.15625,300962.3125,298240.15625,305790.84375,-0.034423828125,0.982421875,-0.105712890625,0.6408690810203552,-0.9155272841453552,1.2817381620407104,80.0,1101240.0,1.0
1212720.5591643,288712.65625,296531.40625,315436.25,295858.53125,315267.25,299107.21875,297484.125,303885.21875,-0.03369140625,0.9814453125,-0.107666015625,0.6103515028953552,-0.7324218153953552,1.2817381620407104,80.0,1101241.0,1.0
1212720.5735857,288691.65625,297708.875,315880.3125,295961.96875,315625.6875,300313.40625,298278.5,304681.46875,-0.0322265625,0.982666015625,-0.1103515625,0.6713866591453552,-0.4577636420726776,1.1901854276657104,80.0,1101242.0,1.0
1212720.5736309,288764.53125,299707.9375,316386.375,296410.34375,317057.375,302899.6875,299519.375,307053.34375,-0.032470703125,0.984130859375,-0.114013671875,0.7019042372703552,-0.2441406100988388,1.2207030057907104,80.0,1101243.0,1.0
1212720.575405,288815.03125,299755.15625,316250.46875,296565.46875,317565.8125,303283.40625,299479.25,307704.9375,-0.03125,0.984130859375,-0.113037109375,0.7934569716453552,0.0,1.3122557401657104,80.0,1101244.0,1.0
1212720.5779021,288786.4375,297794.53125,315661.46875,296239.5625,316463.4375,300942.03125,298218.25,305765.4375,-0.030029296875,0.986328125,-0.114013671875,0.9155272841453552,0.2746581733226776,1.3122557401657104,80.0,1101245.0,1.0
1212720.580419,288717.9375,296534.4375,315435.25,295854.21875,315262.6875,299106.40625,297477.875,303879.21875,-0.029541015625,0.987548828125,-0.110595703125,0.8850097060203552,0.4882812201976776,1.3732908964157104,80.0,1101246.0,1.0
1212720.594865,288736.8125,297744.75,315918.6875,295997.0,315654.03125,300344.96875,298309.0,304708.03125,-0.027587890625,0.986083984375,-0.1103515625,0.7934569716453552,0.7629393935203552,1.5258787870407104,80.0,1101247.0,1.0
1212720.5949101,288785.53125,299713.46875,316405.84375,296423.21875,317060.5,302902.28125,299522.875,307048.625,-0.02783203125,0.986572265625,-0.110595703125,0.7324218153953552,1.0375975370407104,1.7089842557907104,80.0,1101248.0,1.0
1212720.5972498,288820.9375,299748.0,316254.5,296564.9375,317556.34375,303270.53125,299470.5625,307683.5,-0.0283203125,0.989501953125,-0.10986328125,0.7629393935203552,1.2512205839157104,1.7700194120407104,80.0,1101249.0,1.0
1212720.5972926,288786.96875,297786.3125,315661.625,296236.4375,316449.9375,300925.84375,298207.6875,305739.0625,-0.030029296875,0.990966796875,-0.10791015625,0.6408690810203552,1.4038084745407104,1.8615721464157104,80.0,1101250.0,1.0
1212720.5991101,288719.09375,296533.8125,315440.4375,295856.09375,315257.0625,299098.0,297477.40625,303861.6875,-0.03173828125,0.990234375,-0.107421875,0.5798339247703552,1.6479490995407104,1.9836424589157104,80.0,1101251.0,1.0
1212720.6029104,288712.21875,297724.53125,315900.0,295974.40625,315623.0,300316.34375,298287.1875,304669.40625,-0.03515625,0.988037109375,-0.106689453125,0.4272460639476776,1.7089842557907104,1.9531248807907104,80.0,1101252.0,1.0
1212720.6117784,288782.0625,299715.71875,316404.96875,296419.71875,317049.59375,302894.75,299521.15625,307031.90625,-0.038818359375,0.987548828125,-0.105712890625,0.3967284858226776,1.8310545682907104,1.9226073026657104,80.0,1101253.0,1.0
1212720.6147559,288838.09375,299767.3125,316271.9375,296583.4375,317567.96875,303282.875,299486.3125,307688.75,-0.039306640625,0.9873046875,-0.10498046875,0.3967284858226776,1.7700194120407104,1.9226073026657104,80.0,1101254.0,1.0
1212720.6147987,288807.25,297812.25,315685.40625,296261.21875,316469.78125,300945.15625,298230.5,305756.21875,-0.042236328125,0.98779296875,-0.106689453125,0.1525878757238388,1.8005369901657104,1.8310545682907104,80.0,1101255.0,1.0
1212720.6166987,288712.9375,296530.9375,315440.96875,295851.5625,315243.28125,299089.25,297471.34375,303853.03125,-0.040771484375,0.987060546875,-0.1064453125,0.1525878757238388,1.8005369901657104,1.6479490995407104,80.0,1101256.0,1.0
1212720.6304094,288705.0625,297722.375,315896.40625,295968.9375,315608.53125,300308.125,298276.96875,304661.25,-0.0400390625,0.986328125,-0.107666015625,0.1525878757238388,1.7395018339157104,1.4953612089157104,80.0,1101257.0,1.0
1212720.6335709,288788.21875,299732.78125,316411.40625,296430.28125,317054.59375,302905.84375,299523.125,307042.625,-0.03857421875,0.988037109375,-0.1064453125,0.1220703050494194,1.6174315214157104,1.4343260526657104,80.0,1101258.0,1.0
1212720.6336152,288835.78125,299778.65625,316269.96875,296583.15625,317567.875,303284.5,299479.5,307691.71875,-0.03759765625,0.985107421875,-0.10791015625,0.03051757626235485,1.4953612089157104,1.4038084745407104,80.0,1101259.0,1.0
1212720.6354236,288800.75,297813.125,315678.53125,296252.28125,316465.21875,300937.71875,298215.75,305750.25,-0.037841796875,0.9853515625,-0.109130859375,0.03051757626235485,1.4953612089157104,1.3732908964157104,80.0,1101260.0,1.0
1212720.6378743,288732.34375,296549.71875,315458.59375,295867.28125,315264.03125,299104.4375,297481.53125,303868.84375,-0.03515625,0.98193359375,-0.110595703125,0.0915527269244194,1.4343260526657104,1.3122557401657104,80.0,1101261.0,1.0
1212720.6466628,288737.15625,297751.0,315925.5625,296000.40625,315648.03125,300335.65625,298301.5625,304689.53125,-0.03466796875,0.981201171875,-0.107421875,0.1525878757238388,1.3732908964157104,1.2207030057907104,80.0,1101262.0,1.0
1212720.6498628,288790.1875,299729.65625,316411.125,296433.21875,317064.25,302905.03125,299521.0,307041.71875,-0.034423828125,0.979736328125,-0.107177734375,0.2136230319738388,1.4343260526657104,1.1596678495407104,80.0,1101263.0,1.0
1212720.6499081,288829.96875,299767.3125,316260.3125,296577.53125,317566.09375,303277.25,299470.5625,307681.4375,-0.03076171875,0.97998046875,-0.10888671875,0.3967284858226776,1.4343260526657104,1.1901854276657104,80.0,1101264.0,1.0
1212720.6552916,288796.8125,297804.90625,315672.0,296251.90625,316466.125,300936.65625,298214.84375,305746.40625,-0.028076171875,0.980224609375,-0.112060546875,0.4272460639476776,1.5258787870407104,1.0375975370407104,80.0,1101265.0,1.0
1212720.6646566,288714.375,296531.9375,315438.5625,295853.78125,315256.0,299095.0625,297470.25,303857.5,-0.03076171875,0.980712890625,-0.112548828125,0.5798339247703552,1.5258787870407104,0.9765624403953552,80.0,1101266.0,1.0
1212720.6646904,288720.625,297731.34375,315908.5,295980.125,315634.28125,300327.8125,298287.96875,304677.1875,-0.03125,0.98095703125,-0.11181640625,0.7324218153953552,1.3732908964157104,0.9460448622703552,80.0,1101267.0,1.0
1212720.6671444,288796.09375,299733.5,316414.53125,296429.5625,317066.125,302914.53125,299523.125,307045.65625,-0.03125,0.982421875,-0.112548828125,0.7629393935203552,1.4038084745407104,0.8850097060203552,80.0,1101268.0,1.0
1212720.667176,288832.65625,299768.375,316259.75,296573.0625,317564.46875,303281.71875,299467.0625,307680.8125,-0.0302734375,0.982666015625,-0.110595703125,0.7019042372703552,1.4953612089157104,0.9765624403953552,80.0,1101269.0,1.0
1212720.675518,288803.5,297809.21875,315672.8125,296253.875,316473.28125,300946.6875,298216.0,305753.0,-0.0322265625,0.984375,-0.10986328125,0.8239745497703552,1.5563963651657104,0.9460448622703552,80.0,1101270.0,1.0
1212720.6779034,288720.90625,296535.34375,315440.875,295863.34375,315269.65625,299107.21875,297474.375,303868.21875,-0.03125,0.98486328125,-0.1103515625,0.8239745497703552,1.5563963651657104,1.0681151151657104,80.0,1101271.0,1.0
1212720.6816697,288714.0,297727.84375,315898.75,295981.8125,315643.21875,300326.09375,298280.75,304677.96875,-0.0302734375,0.986083984375,-0.111328125,0.9155272841453552,1.5869139432907104,1.0375975370407104,80.0,1101272.0,1.0
1212720.6941613,288800.5625,299739.9375,316415.25,296439.3125,317083.03125,302920.15625,299525.09375,307051.65625,-0.029052734375,0.9873046875,-0.108154296875,0.9155272841453552,1.4953612089157104,1.0375975370407104,80.0,1101273.0,1.0
1212720.697367,288845.0,299780.34375,316272.71875,296592.375,317591.75,303301.46875,299483.34375,307696.71875,-0.029541015625,0.989013671875,-0.109375,0.7934569716453552,1.5869139432907104,1.0375975370407104,80.0,1101274.0,1.0
1212720.6974123,288777.9375,297782.90625,315654.3125,296236.28125,316460.40625,300928.0625,298199.1875,305732.1875,-0.0302734375,0.988037109375,-0.11279296875,0.7934569716453552,1.6479490995407104,1.0375975370407104,80.0,1101275.0,1.0
1212720.6991188,288691.65625,296510.03125,315420.0625,295838.125,315246.78125,299081.90625,297454.15625,303842.9375,-0.029052734375,0.9873046875,-0.112548828125,0.7629393935203552,1.6784666776657104,0.9765624403953552,80.0,1101276.0,1.0
1212720.7029219,288704.53125,297725.15625,315895.34375,295973.9375,315635.0,300322.0625,298278.15625,304666.90625,-0.028564453125,0.986572265625,-0.10986328125,0.7629393935203552,1.7700194120407104,0.9460448622703552,80.0,1101277.0,1.0
1212720.7172591,288784.03125,299731.71875,316404.78125,296427.875,317074.4375,302914.96875,299518.65625,307035.03125,-0.02880859375,0.982666015625,-0.109130859375,0.7629393935203552,1.7700194120407104,1.0070799589157104,80.0,1101278.0,1.0
