Time,FZ,C3,CZ,C4,PZ,PO7,OZ,PO8,AccX,AccY,AccZ,Gyro1,Gyro2,Gyro3,Battery,Counter,Validation
1125937.0117175,278129.84375,244972.8125,283788.03125,261276.53125,262407.71875,229749.484375,237831.78125,241610.828125,-0.158203125,0.941162109375,-0.2744140625,-11.871336936950684,-10.437010765075684,-2.441406011581421,80.0,273731.0,1.0
1125937.0166982,278033.09375,244968.78125,283621.65625,261185.15625,262294.78125,229730.4375,237765.703125,241358.078125,-0.15380859375,0.939453125,-0.268310546875,-12.023924827575684,-11.352538108825684,-2.410888433456421,80.0,273732.0,1.0
1125937.0167424,277968.1875,244991.5,283493.90625,261131.953125,262202.59375,229741.34375,237693.015625,241061.703125,-0.13818359375,0.93798828125,-0.2685546875,-11.901854515075684,-11.993407249450684,-2.471923589706421,80.0,273733.0,1.0
1125937.0167548,278018.625,245003.109375,283575.0625,261188.375,262254.71875,229756.09375,237709.109375,241108.1875,-0.128173828125,0.9384765625,-0.273193359375,-11.291502952575684,-12.084959983825684,-2.319335699081421,80.0,273734.0,1.0
1125937.0198183,278120.4375,244997.125,283770.96875,261284.484375,262397.875,229766.828125,237816.765625,241506.9375,-0.124267578125,0.93798828125,-0.27099609375,-10.864256858825684,-12.115477561950684,-2.258300542831421,80.0,273735.0,1.0
1125937.0198611,278119.71875,244968.6875,283780.8125,261273.390625,262405.375,229744.203125,237839.015625,241618.078125,-0.115234375,0.935791015625,-0.2734375,-10.833739280700684,-12.054442405700684,-2.502441167831421,80.0,273736.0,1.0
1125937.0279193,278024.6875,244966.015625,283615.21875,261183.546875,262288.53125,229737.3125,237768.578125,241367.015625,-0.10595703125,0.929443359375,-0.276123046875,-10.253905296325684,-11.566161155700684,-2.593993902206421,80.0,273737.0,1.0
1125937.0347836,277963.8125,244987.296875,283487.1875,261130.25,262196.78125,229753.5,237695.53125,241068.40625,-0.10107421875,0.93115234375,-0.264892578125,-9.399413108825684,-10.955809593200684,-2.624511480331421,80.0,273738.0,1.0
1125937.0348287,278021.03125,245003.5625,283571.9375,261190.25,262253.9375,229776.75,237715.46875,241111.9375,-0.09228515625,0.9296875,-0.262451171875,-9.704588890075684,-10.650633811950684,-2.380370855331421,80.0,273739.0,1.0
1125937.048678,278123.65625,244999.265625,283769.625,261285.46875,262399.21875,229790.875,237821.671875,241505.515625,-0.07666015625,0.9248046875,-0.262939453125,-9.490965843200684,-10.040282249450684,-1.8005369901657104,80.0,273740.0,1.0
1125937.0487216,278111.25,244962.609375,283772.21875,261266.25,262400.0,229756.28125,237835.625,241606.90625,-0.0654296875,0.923828125,-0.26416015625,-9.277342796325684,-9.246825218200684,-0.9765624403953552,80.0,273741.0,1.0
1125937.0510139,278014.21875,244961.71875,283606.0,261175.5,262286.375,229737.859375,237764.015625,241359.515625,-0.05126953125,0.9208984375,-0.265625,-9.429930686950684,-8.392333030700684,-0.2746581733226776,80.0,273742.0,1.0
1125937.0510563,277946.5625,244978.96875,283469.5625,261116.75,262187.125,229741.703125,237681.3125,241058.5625,-0.0400390625,0.91650390625,-0.272216796875,-9.307860374450684,-7.415771007537842,0.4272460639476776,80.0,273743.0,1.0
1125937.054239,278025.40625,245015.0,283576.15625,261194.546875,262259.46875,229779.96875,237717.96875,241115.4375,-0.036376953125,0.91455078125,-0.2705078125,-8.300780296325684,-5.920409679412842,0.8239745497703552,80.0,273744.0,1.0
1125937.0685651,278116.0625,244993.28125,283765.15625,261281.890625,262391.875,229777.546875,237813.28125,241501.765625,-0.031982421875,0.920166015625,-0.268798828125,-7.507323741912842,-4.638671398162842,0.9460448622703552,80.0,273745.0,1.0
1125937.0686077,278110.78125,244959.03125,283775.71875,261268.921875,262399.125,229740.71875,237832.671875,241614.40625,-0.02978515625,0.9326171875,-0.264892578125,-7.080077648162842,-3.448486089706421,1.3427733182907104,80.0,273746.0,1.0
1125937.0711735,278025.40625,244970.484375,283622.625,261186.765625,262296.21875,229744.03125,237777.515625,241381.859375,-0.030517578125,0.943359375,-0.260986328125,-7.293700695037842,-2.380370855331421,2.136230230331421,80.0,273747.0,1.0
1125937.0712185,277956.46875,244991.9375,283485.3125,261126.140625,262202.15625,229760.921875,237702.671875,241082.34375,-0.03076171875,0.947265625,-0.25927734375,-8.026122093200684,-1.4343260526657104,2.777099370956421,80.0,273748.0,1.0
1125937.0728387,278006.4375,245004.359375,283560.875,261178.171875,262253.75,229775.859375,237711.796875,241112.484375,-0.0322265625,0.948974609375,-0.26025390625,-8.239745140075684,-0.4882812201976776,3.448486089706421,80.0,273749.0,1.0
1125937.087184,278116.78125,245007.3125,283769.34375,261283.046875,262409.125,229793.921875,237824.0,241514.90625,-0.033935546875,0.95068359375,-0.2548828125,-8.331297874450684,0.0915527269244194,3.662109136581421,80.0,273750.0,1.0
1125937.0872313,278122.21875,244983.71875,283794.3125,261281.53125,262430.9375,229775.046875,237856.453125,241647.84375,-0.046142578125,0.9541015625,-0.248779296875,-9.460448265075684,0.9460448622703552,3.967284917831421,80.0,273751.0,1.0
1125937.0891171,278035.25,244992.46875,283638.65625,261197.671875,262326.625,229774.25,237798.4375,241412.984375,-0.059326171875,0.956787109375,-0.25244140625,-10.681151390075684,1.5563963651657104,4.180907726287842,80.0,273752.0,1.0
1125937.0968238,277971.3125,245018.140625,283505.34375,261142.859375,262233.71875,229791.234375,237730.03125,241114.8125,-0.07568359375,0.958251953125,-0.2548828125,-11.291502952575684,2.288818120956421,4.394530773162842,80.0,273753.0,1.0
1125937.0992041,278012.1875,245023.953125,283572.46875,261189.265625,262274.21875,229802.59375,237737.90625,241136.984375,-0.0927734375,0.961181640625,-0.255615234375,-11.871336936950684,2.685546636581421,4.180907726287842,80.0,273754.0,1.0
1125937.1022427,278108.5625,245008.65625,283766.125,261279.65625,262411.625,229810.09375,237839.203125,241526.25,-0.103271484375,0.958251953125,-0.260498046875,-12.573241233825684,2.532958745956421,3.509521245956421,80.0,273755.0,1.0
1125937.1022855,278111.9375,244979.6875,283788.5,261275.453125,262429.34375,229786.578125,237868.890625,241656.25,-0.113037109375,0.955810546875,-0.2587890625,-12.908934593200684,2.471923589706421,2.838134527206421,80.0,273756.0,1.0
1125937.104143,278018.53125,244981.921875,283625.40625,261187.03125,262319.09375,229776.390625,237802.1875,241417.265625,-0.123291015625,0.954345703125,-0.257568359375,-12.969969749450684,2.288818120956421,2.044677495956421,80.0,273757.0,1.0
1125937.1130739,277947.25,245002.40625,283483.4375,261124.359375,262217.34375,229783.640625,237718.765625,241106.3125,-0.124267578125,0.95361328125,-0.25390625,-13.397215843200684,1.6479490995407104,1.0986326932907104,80.0,273758.0,1.0
1125937.1174045,278000.46875,245019.921875,283558.34375,261178.171875,262262.34375,229799.8125,237726.109375,241125.09375,-0.1201171875,0.952880859375,-0.253662109375,-13.854979515075684,1.2817381620407104,0.3051757514476776,80.0,273759.0,1.0
1125937.1174472,278110.625,245016.53125,283763.53125,261279.484375,262410.03125,229812.78125,237830.078125,241516.6875,-0.117919921875,0.949951171875,-0.248046875,-14.251708030700684,0.8239745497703552,-0.3662109076976776,80.0,273760.0,1.0
1125937.1253899,278123.5625,244992.46875,283793.0625,261280.375,262434.71875,229788.734375,237862.890625,241649.734375,-0.119140625,0.94873046875,-0.2451171875,-14.617918968200684,0.3967284858226776,-1.0070799589157104,80.0,273761.0,1.0
1125937.1297871,278032.8125,244995.875,283633.46875,261194.09375,262330.625,229779.875,237803.625,241415.921875,-0.117919921875,0.947265625,-0.246826171875,-14.709471702575684,-0.0610351525247097,-1.6784666776657104,80.0,273762.0,1.0
1125937.1298306,277962.5625,245026.453125,283492.8125,261133.46875,262233.71875,229790.515625,237726.8125,241106.3125,-0.121826171875,0.949462890625,-0.248291015625,-14.770506858825684,-0.3967284858226776,-2.380370855331421,80.0,273763.0,1.0
1125937.1355786,278010.5625,245042.8125,283561.75,261182.203125,262274.84375,229805.265625,237731.109375,241113.015625,-0.12451171875,0.95458984375,-0.25048828125,-14.862059593200684,-0.8544921278953552,-2.960204839706421,80.0,273764.0,1.0
1125937.1396136,278109.71875,245023.59375,283756.3125,261274.296875,262411.8125,229814.5625,237829.09375,241494.96875,-0.12890625,0.9599609375,-0.24853515625,-15.106200218200684,-1.3732908964157104,-3.356933355331421,80.0,273765.0,1.0
1125937.1396551,278118.65625,244989.96875,283780.96875,261271.703125,262430.78125,229791.953125,237852.609375,241625.59375,-0.132080078125,0.96630859375,-0.244873046875,-15.472411155700684,-1.9836424589157104,-3.662109136581421,80.0,273766.0,1.0
1125937.1454876,278027.28125,244991.140625,283618.53125,261183.90625,262321.59375,229779.34375,237786.546875,241388.5625,-0.134033203125,0.97265625,-0.242919921875,-15.808104515075684,-2.593993902206421,-3.906249761581421,80.0,273767.0,1.0
1125937.1479709,277959.96875,245017.875,283481.65625,261126.234375,262229.59375,229797.765625,237717.78125,241085.84375,-0.135009765625,0.974365234375,-0.240234375,-16.113279342651367,-3.204345464706421,-4.058837413787842,80.0,273768.0,1.0
1125937.1568398,278002.59375,245026.09375,283545.65625,261171.296875,262268.6875,229813.5,237718.859375,241085.84375,-0.133544921875,0.976318359375,-0.238525390625,-16.632078170776367,-3.967284917831421,-4.028319835662842,80.0,273769.0,1.0
1125937.1823146,278106.75,245016.078125,283747.09375,261267.59375,262410.9375,229829.671875,237823.109375,241475.03125,-0.134765625,0.97998046875,-0.236083984375,-16.967771530151367,-4.577636241912842,-3.875732183456421,80.0,273770.0,1.0
1125937.1823583,278120.0,244991.578125,283782.78125,261271.609375,262437.46875,229814.296875,237859.765625,241622.28125,-0.132568359375,0.984130859375,-0.23193359375,-17.486570358276367,-5.371093273162842,-3.631591558456421,80.0,273771.0,1.0
1125937.1840411,278033.90625,244998.015625,283630.0625,261189.796875,262337.0625,229809.109375,237795.484375,241389.015625,-0.129638671875,0.981201171875,-0.229248046875,-18.402097702026367,-6.103515148162842,-3.326415777206421,80.0,273772.0,1.0
1125937.186574,277961.65625,245019.296875,283487.8125,261128.734375,262241.84375,229821.625,237714.75,241078.5,-0.128173828125,0.977783203125,-0.228271484375,-19.134519577026367,-6.591796398162842,-3.112792730331421,80.0,273773.0,1.0
1125937.1890469,278006.625,245028.59375,283550.40625,261175.3125,262280.375,229842.46875,237720.109375,241083.328125,-0.12939453125,0.968994140625,-0.230712890625,-19.561765670776367,-7.141112804412842,-2.990722417831421,80.0,273774.0,1.0
1125937.1915333,278114.90625,245021.0,283753.09375,261274.203125,262420.75,229849.609375,237818.8125,241472.96875,-0.129150390625,0.96044921875,-0.23046875,-19.897459030151367,-7.568358898162842,-2.777099370956421,80.0,273775.0,1.0
1125937.1940339,278125.09375,244993.28125,283787.0625,261274.65625,262446.40625,229820.015625,237851.984375,241622.90625,-0.131103515625,0.952392578125,-0.23095703125,-20.019529342651367,-7.965087413787842,-2.563476324081421,80.0,273776.0,1.0
1125937.1965569,278039.53125,245002.40625,283634.8125,261195.96875,262349.0625,229814.921875,237800.84375,241403.953125,-0.131103515625,0.947021484375,-0.232421875,-19.805906295776367,-8.270262718200684,-2.471923589706421,80.0,273777.0,1.0
1125937.1990993,277965.40625,245025.015625,283489.34375,261132.84375,262247.84375,229827.265625,237725.125,241092.453125,-0.130859375,0.94189453125,-0.230224609375,-19.470212936401367,-8.544920921325684,-2.410888433456421,80.0,273778.0,1.0
1125937.2016235,278002.875,245027.703125,283543.0625,261169.0625,262275.28125,229833.96875,237716.0,241078.78125,-0.129638671875,0.937255859375,-0.22900390625,-19.042966842651367,-8.728026390075684,-2.349853277206421,80.0,273779.0,1.0
1125937.2046884,278109.90625,245016.53125,283745.65625,261267.40625,262416.1875,229847.5625,237820.34375,241471.8125,-0.132568359375,0.935791015625,-0.224365234375,-18.829343795776367,-8.941649436950684,-2.227782964706421,80.0,273780.0,1.0
1125937.2047149,278130.1875,244994.796875,283787.6875,261274.734375,262445.0625,229829.671875,237862.453125,241632.46875,-0.1328125,0.92919921875,-0.22314453125,-18.463132858276367,-9.063719749450684,-2.166747808456421,80.0,273781.0,1.0
1125937.2065876,278041.15625,244997.84375,283629.875,261189.71875,262338.9375,229811.703125,237797.1875,241405.921875,-0.134521484375,0.92236328125,-0.220703125,-17.730710983276367,-9.033202171325684,-2.166747808456421,80.0,273782.0,1.0
1125937.2159402,277972.21875,245026.453125,283488.625,261131.59375,262246.25,229825.125,237724.3125,241101.84375,-0.13623046875,0.916748046875,-0.21630859375,-16.906736373901367,-9.155272483825684,-2.166747808456421,80.0,273783.0,1.0
1125937.2159709,278014.21875,245035.125,283547.34375,261176.484375,262280.75,229836.390625,237725.03125,241093.265625,-0.133544921875,0.9091796875,-0.214599609375,-16.143796920776367,-9.338377952575684,-2.075195074081421,80.0,273784.0,1.0
1125937.2178724,278127.6875,245031.640625,283758.53125,261280.8125,262429.4375,229855.78125,237835.796875,241486.296875,-0.129638671875,0.904296875,-0.215087890625,-15.563963890075684,-9.429930686950684,-1.7700194120407104,80.0,273785.0,1.0
1125937.2216073,278143.25,245003.296875,283802.0,261287.25,262460.8125,229834.953125,237878.0,241648.5625,-0.12109375,0.896240234375,-0.21484375,-14.709471702575684,-9.338377952575684,-1.4953612089157104,80.0,273786.0,1.0
1125937.2309531,278050.25,245004.28125,283649.28125,261204.546875,262365.0625,229828.25,237824.453125,241434.875,-0.111328125,0.888916015625,-0.21435546875,-13.854979515075684,-9.124754905700684,-1.2817381620407104,80.0,273787.0,1.0
1125937.2309809,277968.375,245022.34375,283498.09375,261137.328125,262261.625,229843.09375,237740.859375,241121.78125,-0.1015625,0.884521484375,-0.212158203125,-12.908934593200684,-8.941649436950684,-0.8850097060203552,80.0,273788.0,1.0
1125937.2328486,278005.46875,245032.078125,283552.28125,261178.453125,262292.0,229856.5,237739.953125,241111.859375,-0.093505859375,0.879150390625,-0.211181640625,-11.871336936950684,-8.575438499450684,-0.2746581733226776,80.0,273789.0,1.0
1125937.247193,278119.09375,245029.3125,283761.75,261279.65625,262436.84375,229868.390625,237841.703125,241502.46875,-0.0859375,0.87841796875,-0.2138671875,-10.742186546325684,-7.995604991912842,0.1525878757238388,80.0,273790.0,1.0
1125937.2472211,278134.03125,244998.203125,283802.25,261281.4375,262461.15625,229840.046875,237872.8125,241661.53125,-0.083251953125,0.881103515625,-0.213134765625,-9.704588890075684,-7.293700695037842,0.7019042372703552,80.0,273791.0,1.0
1125937.2490956,278048.65625,245000.609375,283652.6875,261203.21875,262364.875,229834.421875,237818.734375,241449.640625,-0.085205078125,0.88427734375,-0.21337890625,-8.300780296325684,-6.530761241912842,1.0681151151657104,80.0,273792.0,1.0
1125937.2515707,277971.59375,245020.375,283502.9375,261138.21875,262260.71875,229847.46875,237745.328125,241144.75,-0.087890625,0.887451171875,-0.21630859375,-7.080077648162842,-5.798339366912842,1.3122557401657104,80.0,273793.0,1.0
1125937.2558909,278008.96875,245029.21875,283554.96875,261177.90625,262285.5,229863.03125,237741.125,241125.171875,-0.091064453125,0.89111328125,-0.216796875,-6.011962413787842,-5.126952648162842,1.6479490995407104,80.0,273794.0,1.0
1125937.25592,278120.8125,245021.890625,283762.125,261278.578125,262426.84375,229873.9375,237837.6875,241502.296875,-0.09619140625,0.895263671875,-0.219482421875,-4.882812023162842,-4.608153820037842,1.8920897245407104,80.0,273795.0,1.0
1125937.2666059,278140.28125,244992.125,283808.875,261286.09375,262460.8125,229853.015625,237876.84375,241668.59375,-0.100830078125,0.898681640625,-0.22119140625,-3.967284917831421,-4.241942882537842,2.014159917831421,80.0,273796.0,1.0
1125937.2696933,278047.3125,244996.40625,283656.4375,261203.65625,262365.3125,229850.78125,237824.453125,241460.28125,-0.10595703125,0.904052734375,-0.22412109375,-2.899169683456421,-3.906249761581421,2.075195074081421,80.0,273797.0,1.0
1125937.2697248,277959.96875,245016.796875,283502.3125,261134.90625,262266.09375,229867.9375,237750.234375,241152.796875,-0.109130859375,0.907470703125,-0.22607421875,-1.9226073026657104,-3.723144292831421,1.9531248807907104,80.0,273798.0,1.0
1125937.2753032,278001.09375,245029.9375,283557.1875,261179.78125,262300.40625,229887.171875,237752.296875,241133.40625,-0.11181640625,0.915283203125,-0.224365234375,-1.0070799589157104,-3.479003667831421,1.9531248807907104,80.0,273799.0,1.0
1125937.2796712,278108.375,245009.828125,283753.34375,261273.484375,262430.59375,229882.875,237844.921875,241503.90625,-0.11474609375,0.919677734375,-0.224853515625,-0.1525878757238388,-3.204345464706421,1.7395018339157104,80.0,273800.0,1.0
1125937.2796988,278131.8125,244976.828125,283799.9375,261279.75,262459.5625,229851.9375,237876.84375,241663.5,-0.11376953125,0.9248046875,-0.220947265625,0.4272460639476776,-3.051757574081421,1.7395018339157104,80.0,273801.0,1.0
1125937.2853144,278043.90625,244980.234375,283649.8125,261197.578125,262362.8125,229844.421875,237812.109375,241445.515625,-0.11767578125,0.9306640625,-0.2216796875,1.0375975370407104,-3.082275152206421,1.6174315214157104,80.0,273802.0,1.0
1125937.2946953,277957.8125,244997.921875,283493.09375,261128.203125,262257.21875,229851.578125,237734.328125,241137.609375,-0.1181640625,0.931396484375,-0.22216796875,1.4343260526657104,-3.143310308456421,1.4343260526657104,80.0,273803.0,1.0
1125937.2947227,277994.8125,245004.8125,283539.75,261166.015625,262279.75,229858.28125,237729.671875,241109.625,-0.120361328125,0.9365234375,-0.220703125,1.8310545682907104,-3.082275152206421,1.4038084745407104,80.0,273804.0,1.0
1125937.2965995,278101.59375,244991.765625,283738.6875,261260.34375,262414.9375,229862.046875,237821.328125,241477.4375,-0.119140625,0.940185546875,-0.219482421875,2.197265386581421,-2.990722417831421,1.3122557401657104,80.0,273805.0,1.0
1125937.3053485,278134.21875,244973.25,283798.78125,261279.03125,262459.46875,229843.625,237873.265625,241659.109375,-0.118408203125,0.941650390625,-0.218017578125,2.441406011581421,-3.021239995956421,1.1596678495407104,80.0,273806.0,1.0
1125937.3084131,278046.6875,244978.265625,283649.1875,261195.53125,262363.34375,229827.890625,237815.15625,241445.171875,-0.11767578125,0.9453125,-0.216064453125,2.563476324081421,-2.777099370956421,1.0681151151657104,80.0,273807.0,1.0
1125937.3084407,277980.6875,245014.375,283508.5625,261141.171875,262273.6875,229852.390625,237748.625,241147.890625,-0.118896484375,0.9482421875,-0.2138671875,2.777099370956421,-2.777099370956421,0.9155272841453552,80.0,273808.0,1.0
1125937.316598,278027.375,245029.484375,283560.6875,261188.015625,262301.5,229868.296875,237743.09375,241118.46875,-0.12060546875,0.953125,-0.21240234375,2.838134527206421,-2.746581792831421,0.7324218153953552,80.0,273809.0,1.0
1125937.3209399,278129.84375,245008.84375,283755.9375,261279.296875,262431.03125,229866.78125,237829.375,241481.640625,-0.11962890625,0.958251953125,-0.208740234375,2.838134527206421,-2.532958745956421,0.5798339247703552,80.0,273810.0,1.0
1125937.3209683,278153.875,244978.890625,283811.375,261290.75,262467.0625,229843.71875,237872.546875,241661.171875,-0.12060546875,0.960205078125,-0.207763671875,2.655029058456421,-2.441406011581421,0.3967284858226776,80.0,273811.0,1.0
1125937.3290362,278068.3125,244985.40625,283665.46875,261210.1875,262373.09375,229840.40625,237823.5625,241463.5,-0.12109375,0.96142578125,-0.20654296875,2.441406011581421,-2.410888433456421,0.2441406100988388,80.0,273812.0,1.0
1125937.3334384,277982.9375,245007.40625,283508.03125,261139.28125,262269.3125,229856.234375,237749.796875,241161.203125,-0.12060546875,0.961181640625,-0.204833984375,2.105712652206421,-2.380370855331421,0.0915527269244194,80.0,273813.0,1.0
1125937.3334664,278005.125,245007.140625,283537.78125,261165.578125,262281.46875,229860.796875,237730.21875,241113.015625,-0.119873046875,0.962158203125,-0.200927734375,1.8615721464157104,-2.288818120956421,0.0,80.0,273814.0,1.0
1125937.3414167,278119.5625,245001.328125,283744.9375,261267.59375,262423.625,229875.09375,237818.453125,241472.25,-0.1171875,0.962158203125,-0.19970703125,1.5258787870407104,-2.197265386581421,-0.0915527269244194,80.0,273815.0,1.0
1125937.3484751,278141.625,244968.96875,283800.90625,261278.765625,262460.09375,229848.8125,237854.484375,241645.25,-0.11376953125,0.959716796875,-0.198486328125,1.1291502714157104,-2.136230230331421,-0.1831054538488388,80.0,273816.0,1.0
1125937.348524,278055.28125,244967.265625,283656.625,261199.015625,262367.03125,229841.65625,237802.71875,241446.6875,-0.110595703125,0.956787109375,-0.19873046875,0.7629393935203552,-2.014159917831421,-0.0610351525247097,80.0,273817.0,1.0
1125937.3505588,277986.5,245004.28125,283513.75,261143.3125,262279.6875,229874.828125,237749.078125,241159.0625,-0.112548828125,0.95263671875,-0.194091796875,0.5798339247703552,-1.9531248807907104,-0.0610351525247097,80.0,273818.0,1.0
1125937.3542383,278019.3125,245011.25,283553.78125,261178.53125,262297.65625,229885.28125,237741.03125,241116.234375,-0.1123046875,0.95361328125,-0.19287109375,0.3662109076976776,-1.9531248807907104,-0.0915527269244194,80.0,273819.0,1.0
1125937.3579597,278124.46875,244998.203125,283755.6875,261274.828125,262433.0,229887.078125,237824.625,241472.4375,-0.107421875,0.954345703125,-0.192138671875,0.2746581733226776,-2.014159917831421,-0.03051757626235485,80.0,273820.0,1.0
1125937.3673155,278148.34375,244967.984375,283814.78125,261287.25,262470.375,229863.109375,237867.0,241655.265625,-0.103515625,0.957275390625,-0.1875,0.0,-1.8920897245407104,-0.0610351525247097,80.0,273821.0,1.0
1125937.3673604,278061.875,244969.859375,283670.21875,261206.875,262376.15625,229854.4375,237821.046875,241466.4375,-0.099365234375,0.958984375,-0.18310546875,-0.4272460639476776,-1.9836424589157104,0.2136230319738388,80.0,273822.0,1.0
1125937.369877,277982.59375,244992.921875,283513.46875,261141.25,262275.90625,229873.75,237750.953125,241165.765625,-0.101806640625,0.958740234375,-0.1826171875,-0.9155272841453552,-1.9836424589157104,0.3356933295726776,80.0,273823.0,1.0
1125937.3699202,278007.96875,244997.03125,283542.25,261167.71875,262286.46875,229874.921875,237727.0,241106.671875,-0.099365234375,0.96142578125,-0.1806640625,-1.3122557401657104,-1.9531248807907104,0.5493163466453552,80.0,273824.0,1.0
1125937.3854927,278118.375,244986.21875,283745.9375,261266.6875,262424.15625,229877.515625,237815.234375,241465.90625,-0.100830078125,0.963134765625,-0.177490234375,-1.7089842557907104,-1.9226073026657104,0.5493163466453552,80.0,273825.0,1.0
1125937.3885195,278152.4375,244956.4375,283812.53125,261286.984375,262469.5,229858.375,237860.921875,241658.671875,-0.104736328125,0.96484375,-0.17919921875,-2.227782964706421,-1.9836424589157104,0.6713866591453552,80.0,273826.0,1.0
1125937.3885615,278061.4375,244950.640625,283664.125,261204.828125,262370.96875,229840.859375,237806.03125,241463.765625,-0.107666015625,0.9697265625,-0.180908203125,-2.716064214706421,-2.166747808456421,0.7019042372703552,80.0,273827.0,1.0
1125937.3904704,277971.84375,244968.0625,283501.3125,261132.5,262263.84375,229852.203125,237735.40625,241159.421875,-0.11083984375,0.970703125,-0.17724609375,-3.356933355331421,-2.471923589706421,0.8239745497703552,80.0,273828.0,1.0
1125937.392855,278000.625,244970.296875,283534.5,261165.484375,262277.34375,229861.421875,237719.671875,241105.953125,-0.1142578125,0.974609375,-0.1748046875,-3.875732183456421,-2.838134527206421,0.8239745497703552,80.0,273829.0,1.0
1125937.4041341,278105.0625,244961.625,283732.625,261260.25,262410.03125,229866.25,237807.90625,241462.59375,-0.113037109375,0.97607421875,-0.1748046875,-4.516601085662842,-3.112792730331421,0.7324218153953552,80.0,273830.0,1.0
1125937.4191406,278127.59375,244936.328125,283791.53125,261270.71875,262447.9375,229842.90625,237851.71875,241652.234375,-0.112548828125,0.977783203125,-0.17138671875,-5.157470226287842,-3.387450933456421,0.7019042372703552,80.0,273831.0,1.0
1125937.4191853,278036.125,244934.71875,283642.84375,261186.046875,262350.5625,229837.09375,237799.859375,241459.734375,-0.111572265625,0.98095703125,-0.16943359375,-5.737304210662842,-3.601073980331421,0.6103515028953552,80.0,273832.0,1.0
1125937.4191983,277943.78125,244953.140625,283476.90625,261108.890625,262237.28125,229843.53125,237710.71875,241141.1875,-0.111572265625,0.980224609375,-0.173828125,-6.347655773162842,-3.936767339706421,0.5798339247703552,80.0,273833.0,1.0
1125937.4217156,277986.5,244983.265625,283526.15625,261156.359375,262267.59375,229869.90625,237713.046875,241100.5,-0.11279296875,0.98046875,-0.173583984375,-6.683349132537842,-4.058837413787842,0.5187987685203552,80.0,273834.0,1.0
1125937.4244231,278120.0,245002.3125,283750.65625,261277.25,262425.21875,229901.375,237829.71875,241480.21875,-0.1162109375,0.982177734375,-0.170654296875,-7.415771007537842,-4.425048351287842,0.4577636420726776,80.0,273835.0,1.0
1125937.4266156,278161.65625,244982.90625,283823.4375,261300.9375,262473.25,229885.375,237880.953125,241679.59375,-0.115966796875,0.97900390625,-0.1689453125,-8.056639671325684,-4.791259288787842,0.4577636420726776,80.0,273836.0,1.0
1125937.4292352,278065.375,244970.484375,283668.0625,261209.109375,262369.34375,229861.15625,237819.796875,241483.875,-0.1142578125,0.9765625,-0.171630859375,-8.544920921325684,-5.096435070037842,0.4272460639476776,80.0,273837.0,1.0
1125937.4323098,277974.71875,244990.515625,283506.6875,261137.140625,262266.875,229874.828125,237751.578125,241179.265625,-0.114990234375,0.97021484375,-0.1728515625,-8.972167015075684,-5.401610851287842,0.3051757514476776,80.0,273838.0,1.0
1125937.4323526,278003.0625,245005.4375,283541.09375,261170.765625,262286.8125,229883.5,237732.1875,241117.9375,-0.1171875,0.966552734375,-0.17041015625,-9.246825218200684,-5.706786632537842,-0.0915527269244194,80.0,273839.0,1.0
1125937.4405978,278114.53125,244996.671875,283743.59375,261269.734375,262419.40625,229875.0,237807.46875,241466.71875,-0.115234375,0.970947265625,-0.164306640625,-9.399413108825684,-5.920409679412842,-0.5493163466453552,80.0,273840.0,1.0
1125937.4435537,278150.75,244969.859375,283814.0625,261287.96875,262463.40625,229846.578125,237848.140625,241654.640625,-0.115966796875,0.971435546875,-0.1611328125,-9.643553733825684,-6.103515148162842,-0.6713866591453552,80.0,273841.0,1.0
1125937.4435971,278072.0,244978.078125,283677.4375,261212.59375,262377.65625,229842.375,237803.703125,241472.515625,-0.11376953125,0.97265625,-0.159912109375,-9.979247093200684,-6.164550304412842,-0.9460448622703552,80.0,273842.0,1.0
1125937.4454222,277981.59375,244999.890625,283511.6875,261136.875,262269.9375,229854.171875,237732.8125,241168.984375,-0.113525390625,0.97021484375,-0.165771484375,-10.162352561950684,-6.500243663787842,-1.1596678495407104,80.0,273843.0,1.0
1125937.459809,278008.15625,245007.765625,283540.125,261166.734375,262280.9375,229864.546875,237721.625,241105.15625,-0.113525390625,0.970703125,-0.166259765625,-10.528563499450684,-6.622313976287842,-1.1901854276657104,80.0,273844.0,1.0
1125937.4598519,278128.5,245008.21875,283753.0,261275.28125,262422.71875,229877.15625,237816.140625,241462.421875,-0.114013671875,0.967041015625,-0.169677734375,-10.437010765075684,-6.683349132537842,-1.3427733182907104,80.0,273845.0,1.0
1125937.4624084,278161.84375,244980.234375,283826.3125,261296.734375,262472.15625,229854.359375,237865.671875,241668.953125,-0.114013671875,0.965576171875,-0.16943359375,-10.437010765075684,-6.866454601287842,-1.4648436307907104,80.0,273846.0,1.0
1125937.4624523,278073.96875,244973.609375,283682.375,261215.28125,262382.5,229840.859375,237817.921875,241489.953125,-0.11181640625,0.96142578125,-0.170166015625,-10.223387718200684,-6.988524913787842,-1.6174315214157104,80.0,273847.0,1.0
1125937.4729067,277985.96875,244999.265625,283520.4375,261144.296875,262278.6875,229857.390625,237743.625,241183.65625,-0.111572265625,0.959228515625,-0.172119140625,-9.918211936950684,-7.110595226287842,-1.7700194120407104,80.0,273848.0,1.0
1125937.4760564,278021.375,245019.484375,283559.53125,261183.984375,262301.84375,229882.875,237745.140625,241127.5,-0.11474609375,0.95947265625,-0.17138671875,-9.460448265075684,-7.141112804412842,-2.105712652206421,80.0,273849.0,1.0
1125937.4761009,278127.25,245002.21875,283753.875,261274.734375,262425.21875,229878.578125,237823.46875,241466.984375,-0.115478515625,0.96044921875,-0.16796875,-9.185790061950684,-7.202147960662842,-2.288818120956421,80.0,273850.0,1.0
1125937.477976,278173.1875,244988.453125,283838.375,261302.015625,262482.625,229865.0,237874.609375,241675.828125,-0.116455078125,0.95947265625,-0.167236328125,-8.819579124450684,-7.293700695037842,-2.441406011581421,80.0,273851.0,1.0
1125937.4867994,278076.0,244994.265625,283692.46875,261219.75,262391.4375,229852.46875,237829.09375,241499.25,-0.11962890625,0.959228515625,-0.165283203125,-8.422850608825684,-7.476806163787842,-2.716064214706421,80.0,273852.0,1.0
1125937.4904995,277996.09375,245037.984375,283537.53125,261159.578125,262299.15625,229885.109375,237773.3125,241210.734375,-0.119873046875,0.960205078125,-0.16650390625,-8.087157249450684,-7.568358898162842,-2.899169683456421,80.0,273853.0,1.0
1125937.4947964,278020.75,245040.75,283558.34375,261184.890625,262305.25,229893.96875,237752.125,241130.71875,-0.11962890625,0.959228515625,-0.162841796875,-7.720946788787842,-7.781981945037842,-3.082275152206421,80.0,273854.0,1.0
1125937.4948384,278120.34375,245014.921875,283748.15625,261268.84375,262423.875,229883.046875,237820.6875,241456.875,-0.120849609375,0.9609375,-0.160888671875,-7.354735851287842,-7.965087413787842,-3.417968511581421,80.0,273855.0,1.0
1125937.5029913,278159.34375,244984.078125,283826.125,261291.8125,262473.34375,229858.734375,237863.515625,241664.296875,-0.121826171875,0.956787109375,-0.16357421875,-7.019042491912842,-8.239745140075684,-3.601073980331421,80.0,273856.0,1.0
1125937.5073538,278073.59375,244974.6875,283684.40625,261216.265625,262383.75,229843.0,237815.515625,241491.296875,-0.122314453125,0.953125,-0.162109375,-6.408690929412842,-8.575438499450684,-3.967284917831421,80.0,273857.0,1.0
1125937.5073946,277980.4375,244992.921875,283513.375,261140.09375,262278.78125,229854.53125,237745.953125,241188.5625,-0.124755859375,0.9521484375,-0.159912109375,-6.042479991912842,-8.911131858825684,-4.272460460662842,80.0,273858.0,1.0
1125937.5179824,278009.3125,245009.1875,283536.8125,261168.25,262290.03125,229871.703125,237729.046875,241112.578125,-0.125244140625,0.953857421875,-0.1591796875,-5.493163585662842,-9.246825218200684,-4.608153820037842,80.0,273859.0,1.0
1125937.5210454,278122.59375,245003.828125,283742.53125,261270.265625,262426.46875,229884.3125,237816.21875,241456.15625,-0.126953125,0.9560546875,-0.158447265625,-5.035399913787842,-9.674071311950684,-5.004882335662842,80.0,273860.0,1.0
1125937.5210946,278165.78125,244980.40625,283828.53125,261297.359375,262481.09375,229866.15625,237866.921875,241671.09375,-0.127685546875,0.958251953125,-0.15625,-4.638671398162842,-10.009764671325684,-5.310058116912842,80.0,273861.0,1.0
1125937.5229616,278082.0,244974.234375,283690.21875,261220.296875,262391.96875,229852.75,237821.046875,241498.359375,-0.130615234375,0.96044921875,-0.157958984375,-4.241942882537842,-10.589598655700684,-5.645751476287842,80.0,273862.0,1.0
1125937.5368025,277982.65625,244990.15625,283513.375,261139.203125,262276.8125,229862.3125,237743.09375,241187.3125,-0.1337890625,0.962646484375,-0.155029296875,-3.936767339706421,-11.138915061950684,-5.828856945037842,80.0,273863.0,1.0
1125937.5398256,277996.96875,244998.5625,283525.09375,261160.921875,262276.0,229868.84375,237720.921875,241101.9375,-0.134521484375,0.964599609375,-0.15380859375,-3.601073980331421,-11.749266624450684,-6.011962413787842,80.0,273864.0,1.0
1125937.5398684,278126.4375,245007.140625,283743.4375,261275.90625,262422.0,229893.421875,237815.78125,241449.28125,-0.135009765625,0.964599609375,-0.151611328125,-3.387450933456421,-11.962889671325684,-6.134032726287842,80.0,273865.0,1.0
1125937.5416804,278172.375,244981.65625,283828.46875,261301.65625,262478.0625,229876.265625,237865.671875,241665.546875,-0.13720703125,0.964111328125,-0.154052734375,-3.234863042831421,-12.603758811950684,-6.500243663787842,80.0,273866.0,1.0
1125937.5442573,278089.59375,244980.3125,283690.5,261222.53125,262393.125,229869.90625,237821.59375,241498.8125,-0.137939453125,0.96337890625,-0.153076171875,-2.929687261581421,-13.244627952575684,-6.805419445037842,80.0,273867.0,1.0
1125937.5556082,277985.625,244995.515625,283512.125,261140.71875,262283.0625,229891.71875,237751.3125,241192.234375,-0.1376953125,0.962646484375,-0.153564453125,-2.471923589706421,-13.885497093200684,-7.141112804412842,80.0,273868.0,1.0
1125937.5585427,277997.6875,245001.328125,283520.53125,261159.140625,262277.0,229902.453125,237724.671875,241097.1875,-0.138671875,0.961669921875,-0.152587890625,-2.288818120956421,-14.617918968200684,-7.415771007537842,80.0,273869.0,1.0
1125937.5585857,278117.6875,245007.5,283733.5,261265.890625,262416.1875,229918.375,237812.828125,241435.78125,-0.13720703125,0.960693359375,-0.15234375,-2.014159917831421,-15.319823265075684,-7.720946788787842,80.0,273870.0,1.0
1125937.5604516,278169.8125,244994.4375,283832.03125,261300.484375,262480.46875,229900.578125,237868.890625,241662.0625,-0.14013671875,0.960205078125,-0.14990234375,-1.7700194120407104,-16.052244186401367,-7.934569835662842,80.0,273871.0,1.0
1125937.5629564,278066.09375,244970.125,283681.375,261213.140625,262384.625,229879.296875,237818.640625,241491.125,-0.141357421875,0.9619140625,-0.151123046875,-1.5563963651657104,-16.723630905151367,-8.148192405700684,80.0,273872.0,1.0
1125937.5718373,277966.5625,244989.078125,283503.28125,261131.6875,262269.3125,229893.15625,237744.4375,241181.140625,-0.139892578125,0.960205078125,-0.1494140625,-1.4038084745407104,-17.272947311401367,-8.361815452575684,80.0,273873.0,1.0
1125937.5747827,277989.09375,245003.921875,283516.96875,261154.9375,262272.0625,229909.078125,237726.375,241089.40625,-0.138427734375,0.962158203125,-0.15185546875,-1.2512205839157104,-17.883298873901367,-8.544920921325684,80.0,273874.0,1.0
1125937.574824,278123.125,245017.421875,283737.875,261268.03125,262420.84375,229925.609375,237824.1875,241433.359375,-0.13720703125,0.96142578125,-0.15185546875,-1.0375975370407104,-18.615720748901367,-8.880614280700684,80.0,273875.0,1.0
1125937.5767412,278173.8125,244996.5,283834.0,261297.359375,262479.9375,229896.90625,237867.8125,241654.5625,-0.134521484375,0.960205078125,-0.1484375,-0.9460448622703552,-19.134519577026367,-9.155272483825684,80.0,273876.0,1.0
1125937.5904937,278070.28125,244962.4375,283685.21875,261210.90625,262383.03125,229869.203125,237811.9375,241480.921875,-0.1357421875,0.960693359375,-0.1513671875,-0.7324218153953552,-19.531248092651367,-9.368895530700684,80.0,273877.0,1.0
1125937.5936715,277974.625,244978.625,283509.53125,261136.421875,262273.9375,229888.421875,237741.84375,241176.671875,-0.135009765625,0.960205078125,-0.150390625,-0.5187987685203552,-19.927976608276367,-9.429930686950684,80.0,273878.0,1.0
1125937.5937158,277981.3125,244993.546875,283513.21875,261149.390625,262268.5,229898.34375,237714.75,241076.71875,-0.13671875,0.9599609375,-0.153076171875,-0.3662109076976776,-20.263669967651367,-9.552000999450684,80.0,273879.0,1.0
1125937.5954847,278101.65625,244988.359375,283722.875,261255.25,262403.0625,229911.9375,237804.15625,241411.09375,-0.136474609375,0.95947265625,-0.151123046875,-0.2136230319738388,-20.629880905151367,-9.674071311950684,80.0,273880.0,1.0
1125937.5991873,278152.71875,244960.203125,283819.4375,261287.796875,262461.875,229884.390625,237852.4375,241639.0,-0.13818359375,0.957275390625,-0.1533203125,-0.1525878757238388,-20.843503952026367,-9.826659202575684,80.0,273881.0,1.0
1125937.6135249,278069.03125,244950.8125,283686.46875,261210.453125,262379.4375,229868.125,237811.9375,241479.9375,-0.13818359375,0.955810546875,-0.15283203125,0.03051757626235485,-21.057126998901367,-10.101317405700684,80.0,273882.0,1.0
1125937.6135693,277962.28125,244964.84375,283502.65625,261125.34375,262266.625,229880.8125,237739.78125,241171.9375,-0.138916015625,0.956787109375,-0.157470703125,0.2441406100988388,-21.270750045776367,-10.192870140075684,80.0,273883.0,1.0
1125937.6155695,277977.75,244980.234375,283508.125,261146.078125,262264.84375,229893.421875,237716.265625,241072.609375,-0.140869140625,0.955322265625,-0.15478515625,0.4577636420726776,-21.484373092651367,-10.314940452575684,80.0,273884.0,1.0
1125937.6179251,278103.1875,244988.71875,283721.34375,261253.734375,262401.96875,229906.296875,237802.359375,241405.828125,-0.144287109375,0.955078125,-0.1552734375,0.6713866591453552,-21.636960983276367,-10.406493186950684,80.0,273885.0,1.0
1125937.6217246,278163.625,244973.703125,283826.5,261290.03125,262468.78125,229892.078125,237862.265625,241643.828125,-0.143798828125,0.956298828125,-0.15771484375,0.7629393935203552,-21.820066452026367,-10.467528343200684,80.0,273886.0,1.0
1125937.6304889,278077.25,244968.515625,283690.6875,261209.46875,262383.125,229879.03125,237819.078125,241485.3125,-0.14453125,0.95654296875,-0.158935546875,0.9765624403953552,-21.850584030151367,-10.498045921325684,80.0,273887.0,1.0
1125937.6336662,277968.0,244980.234375,283503.90625,261127.03125,262270.71875,229895.65625,237747.921875,241176.578125,-0.14208984375,0.957275390625,-0.160400390625,1.1291502714157104,-21.911619186401367,-10.559081077575684,80.0,273888.0,1.0
1125937.6337106,277995.0,245000.796875,283515.1875,261151.0,262270.09375,229909.703125,237728.0625,241075.734375,-0.14306640625,0.957763671875,-0.160888671875,1.3122557401657104,-21.972654342651367,-10.620116233825684,80.0,273889.0,1.0
1125937.6354221,278110.6875,245000.078125,283723.3125,261252.296875,262404.03125,229917.75,237807.375,241398.578125,-0.143310546875,0.960693359375,-0.163818359375,1.5258787870407104,-21.972654342651367,-10.589598655700684,80.0,273890.0,1.0
1125937.6498418,278174.34375,244979.6875,283830.15625,261289.578125,262473.96875,229902.546875,237865.125,241635.953125,-0.142578125,0.962646484375,-0.16552734375,1.6784666776657104,-21.881101608276367,-10.559081077575684,80.0,273891.0,1.0
1125937.6498919,278090.21875,244959.84375,283691.46875,261210.640625,262382.9375,229876.34375,237817.75,241478.875,-0.14208984375,0.96142578125,-0.16162109375,1.7700194120407104,-21.728513717651367,-10.467528343200684,80.0,273892.0,1.0
1125937.6516926,277977.5625,244974.953125,283505.15625,261127.671875,262265.90625,229893.609375,237746.671875,241173.453125,-0.143798828125,0.96240234375,-0.164794921875,1.8615721464157104,-21.514890670776367,-10.284422874450684,80.0,273893.0,1.0
1125937.6542134,277985.4375,244991.3125,283506.21875,261148.578125,262261.0,229909.421875,237721.8125,241066.4375,-0.142333984375,0.96142578125,-0.16552734375,1.8310545682907104,-21.392820358276367,-10.162352561950684,80.0,273894.0,1.0
1125937.6604533,278122.21875,245007.671875,283727.96875,261264.546875,262401.53125,229923.90625,237806.65625,241394.03125,-0.143310546875,0.95947265625,-0.166259765625,1.8920897245407104,-21.118162155151367,-10.101317405700684,80.0,273895.0,1.0
1125937.6635754,278168.90625,244980.046875,283827.21875,261288.5,262462.34375,229897.0,237861.734375,241634.890625,-0.14453125,0.961181640625,-0.165771484375,2.044677495956421,-20.751951217651367,-9.826659202575684,80.0,273896.0,1.0
1125937.66362,278079.21875,244964.046875,283690.6875,261207.6875,262375.34375,229875.546875,237815.953125,241484.140625,-0.149169921875,0.964111328125,-0.164794921875,2.075195074081421,-20.507810592651367,-9.582518577575684,80.0,273897.0,1.0
1125937.6692427,277969.625,244980.765625,283504.25,261124.171875,262261.4375,229885.5625,237739.6875,241175.78125,-0.150390625,0.964599609375,-0.164306640625,2.075195074081421,-20.294187545776367,-9.460448265075684,80.0,273898.0,1.0
1125937.676293,277995.28125,245008.296875,283510.0625,261145.1875,262259.65625,229898.15625,237714.21875,241063.671875,-0.14990234375,0.96630859375,-0.167236328125,2.105712652206421,-19.897459030151367,-9.307860374450684,80.0,273899.0,1.0
1125937.6763417,278112.3125,245005.890625,283721.4375,261249.53125,262396.25,229913.984375,237797.53125,241390.09375,-0.148681640625,0.966552734375,-0.166015625,2.227782964706421,-19.592283248901367,-9.155272483825684,80.0,273900.0,1.0
1125937.677919,278147.53125,244952.25,283818.0,261279.484375,262458.9375,229893.421875,237854.046875,241638.8125,-0.150390625,0.96630859375,-0.164306640625,1.9836424589157104,-19.348142623901367,-8.911131858825684,80.0,273901.0,1.0
1125937.6867418,278065.1875,244939.8125,283689.0625,261207.6875,262380.0625,229881.53125,237817.5625,241496.390625,-0.150146484375,0.96533203125,-0.16552734375,1.7395018339157104,-18.951414108276367,-8.605956077575684,80.0,273902.0,1.0
1125937.6910204,277960.9375,244967.078125,283504.09375,261123.46875,262266.1875,229891.640625,237742.375,241186.59375,-0.153564453125,0.968017578125,-0.166015625,1.8310545682907104,-18.585203170776367,-8.422850608825684,80.0,273903.0,1.0
1125937.6910651,277973.375,244984.15625,283501.59375,261140.1875,262259.8125,229900.9375,237719.125,241072.515625,-0.155029296875,0.9677734375,-0.167236328125,1.8005369901657104,-18.188474655151367,-8.209227561950684,80.0,273904.0,1.0
1125937.6968669,278121.25,245004.015625,283731.28125,261258.015625,262406.1875,229921.59375,237812.5625,241403.140625,-0.152099609375,0.968505859375,-0.170166015625,1.6479490995407104,-17.761228561401367,-8.026122093200684,80.0,273905.0,1.0
1125937.7030029,278164.15625,244970.484375,283834.09375,261285.921875,262470.1875,229896.015625,237865.671875,241649.90625,-0.15283203125,0.968017578125,-0.1728515625,1.5563963651657104,-17.333982467651367,-7.751464366912842,80.0,273906.0,1.0
1125937.712311,278085.03125,244966.015625,283707.03125,261215.734375,262393.84375,229884.3125,237834.109375,241515.171875,-0.153076171875,0.967041015625,-0.173095703125,1.4648436307907104,-16.998289108276367,-7.354735851287842,80.0,273907.0,1.0
1125937.712354,277975.59375,244977.28125,283516.875,261130.34375,262276.625,229889.765625,237757.84375,241205.203125,-0.151611328125,0.96630859375,-0.17041015625,1.4343260526657104,-16.510007858276367,-7.080077648162842,80.0,273908.0,1.0
1125937.7148265,277968.625,244975.3125,283500.40625,261139.640625,262260.625,229895.125,237722.96875,241079.3125,-0.151611328125,0.96630859375,-0.168212890625,1.4648436307907104,-16.143796920776367,-6.713866710662842,80.0,273909.0,1.0
1125937.7148688,278094.96875,244981.5625,283715.4375,261250.15625,262400.0,229913.0,237810.140625,241403.234375,-0.152099609375,0.965087890625,-0.17138671875,1.1901854276657104,-15.624999046325684,-6.317138195037842,80.0,273910.0,1.0
1125937.7231043,278179.375,244976.5625,283840.4375,261294.671875,262480.40625,229898.796875,237869.421875,241657.140625,-0.153564453125,0.96533203125,-0.168701171875,1.0070799589157104,-15.075682640075684,-5.889892101287842,80.0,273911.0,1.0
1125937.7274108,278076.1875,244952.515625,283701.40625,261215.28125,262396.34375,229880.1875,237832.046875,241518.03125,-0.154296875,0.962646484375,-0.168701171875,0.9460448622703552,-14.587401390075684,-5.432128429412842,80.0,273912.0,1.0
1125937.7274541,277954.40625,244953.40625,283501.125,261121.046875,262271.1875,229881.984375,237755.34375,241204.65625,-0.155517578125,0.959228515625,-0.17041015625,0.9155272841453552,-14.221190452575684,-5.187987804412842,80.0,273913.0,1.0
1125937.7304191,277970.15625,244959.578125,283490.125,261131.421875,262252.9375,229887.4375,237719.484375,241068.671875,-0.15576171875,0.95849609375,-0.170166015625,0.8239745497703552,-13.732909202575684,-4.821776866912842,80.0,273914.0,1.0
1125937.739169,278112.84375,244994.0,283719.375,261246.671875,262398.21875,229910.859375,237806.75,241388.484375,-0.156982421875,0.9560546875,-0.17138671875,0.6713866591453552,-13.214110374450684,-4.516601085662842,80.0,273915.0,1.0
1125937.7436663,278169.34375,244970.578125,283839.09375,261291.1875,262475.28125,229892.265625,237869.59375,241653.578125,-0.15869140625,0.95654296875,-0.168701171875,0.5493163466453552,-12.786864280700684,-4.211425304412842,80.0,273916.0,1.0
1125937.7437096,278079.84375,244948.578125,283710.4375,261217.609375,262396.0,229871.4375,237833.125,241517.671875,-0.161376953125,0.955322265625,-0.16796875,0.5493163466453552,-12.359618186950684,-4.028319835662842,80.0,273917.0,1.0
1125937.7542393,277958.34375,244955.46875,283512.59375,261124.984375,262273.6875,229877.328125,237754.890625,241205.109375,-0.16064453125,0.953857421875,-0.1708984375,0.3662109076976776,-11.840819358825684,-3.784179449081421,80.0,273918.0,1.0
1125937.7573122,277985.53125,244984.34375,283513.75,261145.359375,262266.09375,229890.03125,237728.515625,241079.3125,-0.16455078125,0.95361328125,-0.1669921875,0.2746581733226776,-11.383055686950684,-3.692626714706421,80.0,273919.0,1.0
1125937.7573578,278117.6875,244993.546875,283729.46875,261250.421875,262402.25,229903.078125,237811.84375,241392.140625,-0.16552734375,0.953857421875,-0.16650390625,0.0610351525247097,-11.047362327575684,-3.417968511581421,80.0,273920.0,1.0
1125937.7590596,278172.125,244976.734375,283847.15625,261290.65625,262480.75,229890.46875,237878.546875,241657.328125,-0.1650390625,0.953857421875,-0.165771484375,0.0,-10.650633811950684,-3.387450933456421,80.0,273921.0,1.0
1125937.7668519,278089.78125,244961.71875,283722.40625,261222.4375,262403.3125,229877.328125,237848.140625,241529.203125,-0.167724609375,0.954345703125,-0.17138671875,-0.1220703050494194,-10.314940452575684,-3.265380620956421,80.0,273922.0,1.0
1125937.7692347,277969.34375,244959.75,283519.90625,261128.921875,262274.125,229877.328125,237762.9375,241209.046875,-0.169677734375,0.957763671875,-0.170166015625,-0.2746581733226776,-10.009764671325684,-3.112792730331421,80.0,273923.0,1.0
1125937.7729387,277965.9375,244963.59375,283495.5,261132.578125,262251.40625,229886.71875,237729.953125,241074.390625,-0.1708984375,0.959228515625,-0.170166015625,-0.4272460639476776,-9.613036155700684,-2.990722417831421,80.0,273924.0,1.0
1125937.7924126,278097.5625,244977.28125,283711.0625,261238.96875,262383.46875,229902.359375,237808.890625,241381.78125,-0.173095703125,0.95703125,-0.167724609375,-0.6408690810203552,-9.307860374450684,-2.929687261581421,80.0,273925.0,1.0
1125937.7924553,278173.71875,244959.9375,283843.46875,261290.03125,262468.15625,229885.28125,237871.203125,241650.359375,-0.17333984375,0.95654296875,-0.170166015625,-0.8850097060203552,-8.941649436950684,-2.960204839706421,80.0,273926.0,1.0
1125937.7949211,278091.125,244945.453125,283718.21875,261217.078125,262393.5,229865.4375,237835.625,241521.421875,-0.174072265625,0.9560546875,-0.17041015625,-0.9155272841453552,-8.544920921325684,-2.929687261581421,80.0,273927.0,1.0
1125937.794986,277975.875,244967.796875,283524.03125,261130.4375,262273.875,229879.03125,237765.0,241214.765625,-0.17626953125,0.956787109375,-0.16748046875,-1.0070799589157104,-8.270262718200684,-2.838134527206421,80.0,273928.0,1.0
1125937.7974042,277961.46875,244961.09375,283492.65625,261132.21875,262244.90625,229883.5,237731.28125,241073.671875,-0.17724609375,0.958251953125,-0.16455078125,-1.2817381620407104,-7.965087413787842,-2.746581792831421,80.0,273929.0,1.0
1125937.7974471,278099.15625,244978.625,283707.5625,261240.765625,262374.96875,229896.375,237810.0625,241378.5625,-0.1787109375,0.96044921875,-0.167236328125,-1.5563963651657104,-7.720946788787842,-2.716064214706421,80.0,273930.0,1.0
1125937.7992222,278197.6875,244976.375,283852.6875,261296.828125,262464.3125,229890.296875,237877.203125,241651.0625,-0.18017578125,0.96142578125,-0.16650390625,-1.8005369901657104,-7.476806163787842,-2.746581792831421,80.0,273931.0,1.0
1125937.8243175,278110.53125,244951.265625,283725.71875,261224.046875,262385.96875,229868.03125,237837.328125,241518.921875,-0.1806640625,0.96044921875,-0.162841796875,-2.075195074081421,-7.232665538787842,-2.777099370956421,80.0,273932.0,1.0
1125937.8280331,277990.0,244967.984375,283528.21875,261135.984375,262270.65625,229879.828125,237764.015625,241207.609375,-0.181884765625,0.958251953125,-0.16259765625,-2.349853277206421,-6.988524913787842,-2.685546636581421,80.0,273933.0,1.0
1125937.8280838,277981.96875,244980.40625,283497.8125,261129.453125,262245.78125,229883.59375,237727.71875,241060.09375,-0.18359375,0.953369140625,-0.166015625,-2.746581792831421,-6.835937023162842,-2.502441167831421,80.0,273934.0,1.0
1125937.828097,278099.0625,244981.484375,283702.40625,261230.84375,262376.6875,229884.65625,237800.046875,241361.921875,-0.182861328125,0.955322265625,-0.16357421875,-2.868652105331421,-6.683349132537842,-2.441406011581421,80.0,273935.0,1.0
1125937.8322555,278162.1875,244969.59375,283835.25,261284.125,262464.65625,229873.671875,237873.625,241646.0625,-0.18408203125,0.955078125,-0.1640625,-2.929687261581421,-6.286620616912842,-2.532958745956421,80.0,273936.0,1.0
1125937.8322985,278089.96875,244957.15625,283718.5625,261214.03125,262390.1875,229861.234375,237837.234375,241524.734375,-0.183837890625,0.953369140625,-0.162109375,-2.990722417831421,-6.072997570037842,-2.593993902206421,80.0,273937.0,1.0
1125937.83231,277960.6875,244935.4375,283503.90625,261117.46875,262257.15625,229861.421875,237750.0625,241203.140625,-0.1845703125,0.952880859375,-0.16357421875,-3.112792730331421,-5.859374523162842,-2.410888433456421,80.0,273938.0,1.0
1125937.8323207,277968.4375,244960.921875,283485.3125,261131.0625,262238.8125,229874.5625,237718.5,241055.625,-0.1845703125,0.95068359375,-0.164306640625,-3.295898199081421,-5.737304210662842,-2.319335699081421,80.0,273939.0,1.0
1125937.8342371,278105.4375,244989.796875,283708.46875,261246.75,262383.46875,229902.8125,237810.765625,241365.6875,-0.182861328125,0.9501953125,-0.165771484375,-3.265380620956421,-5.340575695037842,-2.258300542831421,80.0,273940.0,1.0
1125937.8478921,278194.5625,244982.546875,283852.3125,261303.4375,262474.5,229888.859375,237882.296875,241651.78125,-0.183837890625,0.95068359375,-0.164306640625,-3.204345464706421,-5.035399913787842,-2.227782964706421,80.0,273941.0,1.0
1125937.8556044,278088.625,244941.25,283713.21875,261214.921875,262384.90625,229854.984375,237835.796875,241521.703125,-0.185302734375,0.94677734375,-0.16259765625,-3.234863042831421,-4.730224132537842,-2.075195074081421,80.0,273942.0,1.0
1125937.8556475,277976.5,244956.71875,283515.1875,261125.34375,262264.46875,229866.421875,237760.34375,241207.609375,-0.186279296875,0.94677734375,-0.165771484375,-2.960204839706421,-4.425048351287842,-2.105712652206421,80.0,273943.0,1.0
1125937.8556598,277978.90625,244973.875,283490.125,261131.515625,262240.6875,229876.890625,237721.0,241052.484375,-0.18701171875,0.9482421875,-0.161376953125,-2.716064214706421,-4.241942882537842,-2.136230230331421,80.0,273944.0,1.0
1125937.8585101,278097.03125,244982.546875,283693.375,261228.0625,262366.03125,229883.59375,237791.90625,241345.921875,-0.189208984375,0.949462890625,-0.16455078125,-2.410888433456421,-3.997802495956421,-2.014159917831421,80.0,273945.0,1.0
1125937.8585464,278179.46875,244967.703125,283836.9375,261290.03125,262459.75,229877.953125,237868.53125,241642.671875,-0.18994140625,0.950927734375,-0.16552734375,-2.288818120956421,-3.814697027206421,-1.9226073026657104,80.0,273946.0,1.0
1125937.8667546,278123.5,244958.953125,283733.40625,261228.96875,262396.625,229867.9375,237843.140625,241534.296875,-0.192626953125,0.952880859375,-0.166015625,-2.227782964706421,-3.570556402206421,-1.8615721464157104,80.0,273947.0,1.0
1125937.8734586,277990.96875,244955.546875,283524.46875,261134.8125,262264.28125,229869.546875,237758.734375,241209.84375,-0.19287109375,0.95263671875,-0.16357421875,-2.105712652206421,-3.234863042831421,-1.7700194120407104,80.0,273948.0,1.0
1125937.8735078,277973.625,244965.390625,283487.0,261135.796875,262235.40625,229879.65625,237722.609375,241052.578125,-0.194091796875,0.95556640625,-0.164306640625,-1.9226073026657104,-3.112792730331421,-1.7700194120407104,80.0,273949.0,1.0
1125937.8824173,278091.46875,244976.734375,283685.59375,261228.34375,262357.5625,229890.203125,237790.75,241337.96875,-0.1953125,0.95654296875,-0.1640625,-1.7089842557907104,-2.960204839706421,-1.5563963651657104,80.0,273950.0,1.0
1125937.8824613,278177.75,244966.90625,283828.625,261281.984375,262443.375,229876.171875,237854.578125,241623.796875,-0.1982421875,0.95458984375,-0.16015625,-1.7089842557907104,-2.899169683456421,-1.4648436307907104,80.0,273951.0,1.0
1125937.8885438,278110.25,244956.265625,283717.78125,261216.625,262373.46875,229856.765625,237824.359375,241515.265625,-0.2001953125,0.955322265625,-0.159423828125,-1.5869139432907104,-2.868652105331421,-1.4343260526657104,80.0,273952.0,1.0
1125937.8885859,277978.90625,244969.40625,283515.71875,261125.703125,262250.625,229860.796875,237750.515625,241203.046875,-0.19970703125,0.951171875,-0.1552734375,-1.6479490995407104,-2.716064214706421,-1.3427733182907104,80.0,273953.0,1.0
1125937.9017409,277965.3125,244977.90625,283477.96875,261124.453125,262222.0,229865.078125,237714.5625,241044.53125,-0.197265625,0.947509765625,-0.156494140625,-1.7395018339157104,-2.655029058456421,-1.3122557401657104,80.0,273954.0,1.0
1125937.904819,278093.1875,244988.453125,283684.6875,261227.0,262351.65625,229879.828125,237791.640625,241335.546875,-0.198486328125,0.945556640625,-0.159912109375,-1.4953612089157104,-2.532958745956421,-1.2207030057907104,80.0,273955.0,1.0
1125937.9048618,278192.59375,244991.046875,283843.46875,261296.546875,262455.53125,229877.78125,237869.328125,241638.109375,-0.202392578125,0.9482421875,-0.161376953125,-1.0375975370407104,-2.441406011581421,-1.0681151151657104,80.0,273956.0,1.0
1125937.9068437,278124.90625,244970.484375,283736.09375,261234.234375,262391.6875,229860.25,237837.234375,241534.03125,-0.203857421875,0.953125,-0.16162109375,-0.6103515028953552,-2.471923589706421,-1.0070799589157104,80.0,273957.0,1.0
1125937.9135863,278021.28125,244976.65625,283542.53125,261155.65625,262275.28125,229871.515625,237763.203125,241224.859375,-0.200927734375,0.953125,-0.158935546875,-0.2136230319738388,-2.471923589706421,-0.8544921278953552,80.0,273958.0,1.0
1125937.9136292,277979.375,244975.21875,283488.625,261139.5625,262240.25,229881.171875,237720.734375,241056.953125,-0.198974609375,0.954345703125,-0.159423828125,-0.0610351525247097,-2.441406011581421,-0.7934569716453552,80.0,273959.0,1.0
1125937.9192434,278117.9375,244982.640625,283699.875,261251.3125,262372.125,229899.0625,237794.40625,241347.359375,-0.194580078125,0.95263671875,-0.16064453125,-0.03051757626235485,-2.380370855331421,-0.6103515028953552,80.0,273960.0,1.0
1125937.928586,278215.5,244975.40625,283853.84375,261310.40625,262464.75,229884.03125,237862.890625,241643.734375,-0.1962890625,0.9501953125,-0.1591796875,0.1220703050494194,-2.166747808456421,-0.4272460639476776,80.0,273961.0,1.0
1125937.9286289,278114.625,244931.140625,283730.28125,261231.46875,262390.71875,229854.078125,237827.671875,241536.625,-0.19921875,0.9462890625,-0.158447265625,0.3356933295726776,-2.136230230331421,-0.3051757514476776,80.0,273962.0,1.0
1125937.9311908,277984.53125,244941.515625,283525.0,261141.34375,262270.90625,229860.25,237754.71875,241227.453125,-0.201416015625,0.946533203125,-0.15966796875,0.6408690810203552,-2.014159917831421,-0.0915527269244194,80.0,273963.0,1.0
1125937.9312342,277974.4375,244956.0,283486.125,261137.40625,262242.5625,229865.265625,237713.578125,241059.1875,-0.204345703125,0.946044921875,-0.159423828125,0.8239745497703552,-2.136230230331421,-0.1220703050494194,80.0,273964.0,1.0
1125937.9416974,278113.90625,244974.953125,283700.0625,261248.1875,262376.5,229883.328125,237789.765625,241345.390625,-0.2060546875,0.9462890625,-0.159423828125,1.1291502714157104,-2.227782964706421,-0.1220703050494194,80.0,273965.0,1.0
1125937.944906,278193.59375,244962.609375,283847.5,261305.234375,262472.4375,229870.890625,237864.765625,241649.8125,-0.208251953125,0.94970703125,-0.15576171875,1.4953612089157104,-2.227782964706421,-0.1220703050494194,80.0,273966.0,1.0
1125937.9449497,278117.75,244945.984375,283730.5625,261232.1875,262398.125,229837.90625,237829.015625,241542.171875,-0.209716796875,0.958251953125,-0.150390625,1.5563963651657104,-2.288818120956421,-0.2136230319738388,80.0,273967.0,1.0
1125937.953003,277988.03125,244950.90625,283522.59375,261134.015625,262273.9375,229837.015625,237752.828125,241228.796875,-0.209716796875,0.96630859375,-0.150390625,1.4953612089157104,-2.502441167831421,-0.1525878757238388,80.0,273968.0,1.0
1125937.9560415,277978.09375,244971.640625,283484.78125,261135.359375,262243.8125,229850.421875,237718.59375,241063.390625,-0.20947265625,0.96533203125,-0.148193359375,1.0375975370407104,-2.685546636581421,-0.0610351525247097,80.0,273969.0,1.0
1125937.9560942,278109.4375,244995.515625,283693.375,261247.015625,262370.25,229865.4375,237796.109375,241346.453125,-0.2080078125,0.96337890625,-0.153564453125,0.7324218153953552,-2.807616949081421,-0.0915527269244194,80.0,273970.0,1.0
1125937.9579609,278211.1875,244994.0,283857.25,261319.0,262472.4375,229859.546875,237870.3125,241653.390625,-0.2041015625,0.957275390625,-0.15576171875,0.6713866591453552,-2.990722417831421,-0.1220703050494194,80.0,273971.0,1.0
1125937.9615342,278116.40625,244961.90625,283737.4375,261232.71875,262395.28125,229828.25,237825.796875,241542.34375,-0.202880859375,0.9541015625,-0.162109375,0.6713866591453552,-3.051757574081421,-0.03051757626235485,80.0,273972.0,1.0
1125937.9692418,277986.0625,244974.0625,283530.71875,261138.21875,262273.59375,229837.546875,237757.21875,241236.21875,-0.205322265625,0.9541015625,-0.16357421875,0.8850097060203552,-3.021239995956421,-0.0610351525247097,80.0,273973.0,1.0
1125937.9730627,277983.21875,244994.4375,283491.03125,261137.859375,262241.5,229849.796875,237718.234375,241063.03125,-0.203369140625,0.95556640625,-0.16015625,0.9155272841453552,-3.112792730331421,-0.1220703050494194,80.0,273974.0,1.0
1125937.9792283,278112.65625,245012.765625,283697.5625,261245.0625,262370.78125,229862.9375,237787.96875,241337.078125,-0.201904296875,0.95556640625,-0.157958984375,1.0681151151657104,-3.051757574081421,-0.03051757626235485,80.0,273975.0,1.0
1125937.988594,278196.875,244996.953125,283850.1875,261305.40625,262465.90625,229849.703125,237861.546875,241644.8125,-0.201416015625,0.956787109375,-0.156494140625,1.0986326932907104,-3.112792730331421,0.0610351525247097,80.0,273976.0,1.0
1125937.9886374,278138.5,244979.515625,283750.84375,261244.78125,262400.90625,229825.65625,237833.75,241554.234375,-0.201904296875,0.958251953125,-0.1552734375,1.0070799589157104,-3.173827886581421,0.2441406100988388,80.0,273977.0,1.0
1125937.9910419,278013.34375,244986.578125,283543.78125,261151.890625,262278.78125,229834.78125,237761.328125,241247.3125,-0.19921875,0.958984375,-0.158447265625,0.9155272841453552,-3.173827886581421,0.3967284858226776,80.0,273978.0,1.0
1125937.9910832,277984.71875,244994.359375,283490.21875,261139.28125,262242.84375,229848.0,237723.234375,241071.984375,-0.196533203125,0.95654296875,-0.158203125,0.8850097060203552,-3.021239995956421,0.6103515028953552,80.0,273979.0,1.0
1125937.99685,278112.21875,245013.390625,283697.125,261250.234375,262370.6875,229865.265625,237794.5,241344.21875,-0.19677734375,0.951416015625,-0.159912109375,0.9765624403953552,-2.990722417831421,0.8850097060203552,80.0,273980.0,1.0
1125938.0004457,278193.03125,245000.796875,283853.59375,261310.859375,262466.53125,229852.203125,237866.734375,241652.671875,-0.196533203125,0.94921875,-0.159423828125,0.9460448622703552,-2.929687261581421,1.0070799589157104,80.0,273981.0,1.0
1125938.0048047,278123.03125,244974.234375,283746.8125,261238.96875,262400.1875,229825.03125,237838.75,241563.453125,-0.196044921875,0.949462890625,-0.1611328125,1.0375975370407104,-2.807616949081421,1.0681151151657104,80.0,273982.0,1.0
1125938.0048468,277999.65625,244982.28125,283540.9375,261142.0625,262277.25,229828.15625,237762.484375,241253.03125,-0.195556640625,0.948486328125,-0.162841796875,1.1596678495407104,-2.807616949081421,1.0681151151657104,80.0,273983.0,1.0
1125938.017947,277987.21875,245000.25,283497.90625,261148.671875,262247.125,229844.609375,237722.796875,241076.1875,-0.194580078125,0.949462890625,-0.166748046875,1.2207030057907104,-2.838134527206421,1.0375975370407104,80.0,273984.0,1.0
1125938.021206,278099.15625,245011.4375,283693.09375,261245.59375,262365.9375,229853.1875,237786.90625,241332.59375,-0.19482421875,0.952392578125,-0.162353515625,1.3122557401657104,-2.777099370956421,1.1291502714157104,80.0,273985.0,1.0
1125938.0212498,278180.25,244995.0625,283844.46875,261295.296875,262466.625,229841.03125,237865.84375,241642.484375,-0.195068359375,0.95361328125,-0.158935546875,1.3427733182907104,-2.624511480331421,1.1596678495407104,80.0,273986.0,1.0
1125938.022932,278120.8125,244978.796875,283754.4375,261248.359375,262415.3125,229826.546875,237847.96875,241565.421875,-0.193359375,0.954345703125,-0.1591796875,1.1596678495407104,-2.593993902206421,1.2512205839157104,80.0,273987.0,1.0
1125938.0367356,278004.40625,244992.75,283554.875,261157.96875,262297.03125,229837.359375,237776.265625,241261.171875,-0.19287109375,0.954345703125,-0.160888671875,1.1291502714157104,-2.502441167831421,1.2207030057907104,80.0,273988.0,1.0
1125938.0397939,277975.34375,245002.40625,283493.53125,261139.640625,262252.59375,229839.328125,237726.8125,241072.875,-0.19189453125,0.954833984375,-0.15966796875,0.9765624403953552,-2.441406011581421,1.3427733182907104,80.0,273989.0,1.0
1125938.0398385,278092.28125,245016.34375,283687.09375,261235.21875,262369.78125,229848.453125,237789.21875,241326.609375,-0.191650390625,0.955322265625,-0.15869140625,0.7324218153953552,-2.288818120956421,1.3732908964157104,80.0,273990.0,1.0
1125938.0417992,278190.375,245005.890625,283854.90625,261306.03125,262474.59375,229841.484375,237869.59375,241646.328125,-0.192626953125,0.952880859375,-0.160888671875,0.6408690810203552,-2.288818120956421,1.4038084745407104,80.0,273991.0,1.0
1125938.0485895,278152.0,244995.15625,283773.28125,261260.96875,262421.03125,229823.328125,237852.171875,241573.640625,-0.1923828125,0.955810546875,-0.162841796875,0.5187987685203552,-2.197265386581421,1.3427733182907104,80.0,273992.0,1.0
1125938.0486327,278004.03125,244986.390625,283553.0,261150.828125,262288.53125,229820.828125,237768.75,241257.40625,-0.193359375,0.95751953125,-0.16259765625,0.4882812201976776,-2.166747808456421,1.3427733182907104,80.0,273993.0,1.0
1125938.0566645,277967.8125,244993.640625,283490.59375,261139.28125,262244.625,229831.828125,237722.34375,241067.515625,-0.193115234375,0.957275390625,-0.164306640625,0.3967284858226776,-2.075195074081421,1.3732908964157104,80.0,273994.0,1.0
1125938.0610043,278097.375,245012.140625,283688.4375,261239.875,262365.6875,229848.453125,237788.234375,241323.03125,-0.193359375,0.95751953125,-0.16064453125,0.1831054538488388,-1.9836424589157104,1.2512205839157104,80.0,273995.0,1.0
1125938.0610465,278190.0,244992.390625,283851.25,261304.78125,262470.125,229840.9375,237865.125,241639.71875,-0.19384765625,0.958251953125,-0.16064453125,0.03051757626235485,-1.9836424589157104,1.2207030057907104,80.0,273996.0,1.0
1125938.062914,278136.625,244978.96875,283765.96875,261253.28125,262417.8125,229826.90625,237845.28125,241567.921875,-0.1923828125,0.960693359375,-0.1611328125,-0.0915527269244194,-1.8310545682907104,1.3732908964157104,80.0,273997.0,1.0
1125938.0692678,278001.1875,244975.484375,283553.15625,261151.359375,262288.78125,229837.015625,237765.703125,241256.6875,-0.19140625,0.9609375,-0.1640625,-0.3662109076976776,-1.6784666776657104,1.3732908964157104,80.0,273998.0,1.0
1125938.0779562,277979.09375,244986.9375,283493.09375,261138.125,262243.8125,229853.546875,237721.359375,241065.28125,-0.192138671875,0.960693359375,-0.1611328125,-0.5493163466453552,-1.6174315214157104,1.4648436307907104,80.0,273999.0,1.0
1125938.0811051,278103.1875,245005.0,283690.59375,261246.578125,262366.03125,229875.1875,237791.546875,241316.5,-0.190673828125,0.9619140625,-0.16162109375,-0.7934569716453552,-1.6174315214157104,1.4953612089157104,80.0,274000.0,1.0
1125938.0811512,278206.46875,245001.6875,283861.4375,261314.703125,262471.09375,229874.296875,237869.59375,241632.5625,-0.189697265625,0.961181640625,-0.16015625,-1.0070799589157104,-1.4953612089157104,1.5869139432907104,80.0,274001.0,1.0
1125938.0831101,278145.84375,244982.640625,283772.75,261257.03125,262415.75,229856.328125,237848.328125,241561.75,-0.189453125,0.96044921875,-0.161376953125,-1.2817381620407104,-1.5258787870407104,1.6479490995407104,80.0,274002.0,1.0
1125938.0942059,278004.40625,244979.953125,283557.28125,261152.34375,262287.625,229854.0,237765.703125,241251.421875,-0.186279296875,0.960693359375,-0.16015625,-1.4648436307907104,-1.3732908964157104,1.8005369901657104,80.0,274003.0,1.0
1125938.097304,277978.5625,244997.296875,283494.59375,261138.484375,262240.6875,229857.03125,237710.359375,241050.515625,-0.18603515625,0.95947265625,-0.162109375,-1.6174315214157104,-1.3427733182907104,1.9836424589157104,80.0,274004.0,1.0
1125938.0973361,278099.4375,245025.109375,283685.03125,261240.140625,262358.34375,229875.453125,237774.828125,241295.765625,-0.187744140625,0.9580078125,-0.160888671875,-1.9836424589157104,-1.2817381620407104,2.014159917831421,80.0,274005.0,1.0
1125938.0991463,278197.6875,245022.875,283851.875,261308.71875,262464.5625,229873.3125,237857.53125,241619.328125,-0.1865234375,0.95703125,-0.164794921875,-2.136230230331421,-1.2207030057907104,2.227782964706421,80.0,274006.0,1.0
1125938.1078562,278132.25,244987.015625,283759.25,261247.921875,262406.625,229846.9375,237831.0625,241548.078125,-0.1875,0.95703125,-0.167236328125,-2.319335699081421,-1.0681151151657104,2.319335699081421,80.0,274007.0,1.0
1125938.1109738,277997.34375,244981.484375,283543.96875,261142.953125,262277.4375,229848.453125,237751.046875,241239.265625,-0.185791015625,0.957275390625,-0.1640625,-2.502441167831421,-0.9460448622703552,2.563476324081421,80.0,274008.0,1.0
1125938.1110067,277982.03125,245000.171875,283486.84375,261133.65625,262234.875,229860.25,237702.140625,241040.15625,-0.184326171875,0.958984375,-0.16357421875,-2.593993902206421,-0.8239745497703552,2.685546636581421,80.0,274009.0,1.0
1125938.1190937,278097.8125,245016.4375,283681.75,261241.03125,262353.25,229879.5625,237769.90625,241286.828125,-0.187744140625,0.959228515625,-0.159423828125,-2.624511480331421,-0.7629393935203552,2.746581792831421,80.0,274010.0,1.0
1125938.1221771,278192.78125,245002.40625,283854.84375,261314.25,262466.71875,229878.578125,237858.875,241622.09375,-0.187255859375,0.95947265625,-0.162841796875,-2.624511480331421,-0.7934569716453552,2.716064214706421,80.0,274011.0,1.0
1125938.1221942,278130.46875,244975.21875,283763.71875,261245.6875,262408.6875,229853.109375,237833.03125,241550.21875,-0.1904296875,0.96044921875,-0.15869140625,-2.655029058456421,-0.7934569716453552,2.746581792831421,80.0,274012.0,1.0
1125938.1303519,278001.96875,244982.640625,283556.375,261148.234375,262284.40625,229858.734375,237763.203125,241250.34375,-0.190185546875,0.96240234375,-0.158447265625,-2.899169683456421,-0.8239745497703552,2.899169683456421,80.0,274013.0,1.0
1125938.1334702,277983.375,245008.21875,283500.78125,261146.078125,262249.53125,229881.71875,237732.0,241067.0625,-0.189697265625,0.962646484375,-0.158935546875,-3.112792730331421,-0.8544921278953552,2.960204839706421,80.0,274014.0,1.0
1125938.1334979,278106.5,245028.0625,283693.0,261251.765625,262368.53125,229902.359375,237798.609375,241305.6875,-0.191162109375,0.964111328125,-0.15625,-3.234863042831421,-0.8850097060203552,2.899169683456421,80.0,274015.0,1.0
1125938.1416226,278197.78125,245013.671875,283861.09375,261316.765625,262473.0625,229895.578125,237877.46875,241626.921875,-0.191162109375,0.960693359375,-0.15576171875,-3.356933355331421,-0.9765624403953552,2.990722417831421,80.0,274016.0,1.0
1125938.1441215,278129.84375,244980.046875,283768.28125,261253.375,262411.375,229862.3125,237847.25,241558.625,-0.193359375,0.959716796875,-0.156982421875,-3.601073980331421,-1.1291502714157104,2.960204839706421,80.0,274017.0,1.0
1125938.1478455,277997.875,244978.171875,283557.0,261153.40625,262283.34375,229854.984375,237765.796875,241259.734375,-0.193115234375,0.959228515625,-0.153564453125,-3.692626714706421,-1.2207030057907104,2.960204839706421,80.0,274018.0,1.0
1125938.1596464,277971.3125,244996.046875,283491.03125,261140.453125,262240.78125,229864.28125,237718.953125,241064.734375,-0.19482421875,0.9599609375,-0.15380859375,-3.784179449081421,-1.3122557401657104,2.929687261581421,80.0,274019.0,1.0
1125938.1596743,278088.0,245012.234375,283677.4375,261239.421875,262355.84375,229883.046875,237781.0,241294.6875,-0.19287109375,0.9619140625,-0.1533203125,-3.936767339706421,-1.4648436307907104,2.868652105331421,80.0,274020.0,1.0
1125938.1622896,278188.75,244998.109375,283850.625,261310.59375,262464.125,229876.265625,237864.5,241623.078125,-0.193603515625,0.962646484375,-0.153564453125,-4.180907726287842,-1.6479490995407104,2.899169683456421,80.0,274021.0,1.0
1125938.1623176,278142.34375,244983.171875,283776.96875,261265.4375,262423.09375,229860.96875,237856.1875,241575.875,-0.192626953125,0.962646484375,-0.1513671875,-4.272460460662842,-1.8005369901657104,2.960204839706421,80.0,274022.0,1.0
1125938.1741197,278011.09375,244982.015625,283565.5,261167.0,262294.78125,229858.640625,237773.125,241272.703125,-0.1904296875,0.958984375,-0.15380859375,-4.364013195037842,-1.8615721464157104,2.960204839706421,80.0,274023.0,1.0
1125938.1772591,277974.1875,244989.703125,283489.25,261143.21875,262238.8125,229861.328125,237710.09375,241059.546875,-0.189453125,0.956787109375,-0.1513671875,-4.364013195037842,-2.136230230331421,2.990722417831421,80.0,274024.0,1.0
1125938.1772898,278092.09375,245011.4375,283674.40625,261237.8125,262354.0625,229884.390625,237771.875,241284.953125,-0.1884765625,0.953125,-0.15576171875,-4.302978038787842,-2.258300542831421,2.929687261581421,80.0,274025.0,1.0
1125938.1791472,278193.03125,245005.625,283850.53125,261307.8125,262465.1875,229883.765625,237856.015625,241612.0,-0.187255859375,0.95361328125,-0.156005859375,-4.333495616912842,-2.471923589706421,3.082275152206421,80.0,274026.0,1.0
1125938.182954,278144.3125,244987.640625,283776.0625,261259.984375,262419.875,229861.421875,237841.890625,241566.578125,-0.18701171875,0.951171875,-0.155517578125,-4.211425304412842,-2.624511480331421,3.021239995956421,80.0,274027.0,1.0
1125938.1916886,278009.125,244988.0,283562.65625,261159.5,262296.03125,229867.5,237765.265625,241270.375,-0.18505859375,0.9501953125,-0.154052734375,-3.997802495956421,-2.807616949081421,3.051757574081421,80.0,274028.0,1.0
1125938.1962021,277978.46875,245001.859375,283489.34375,261142.234375,262248.90625,229891.546875,237718.0625,241063.671875,-0.184814453125,0.949951171875,-0.1533203125,-3.814697027206421,-2.990722417831421,3.143310308456421,80.0,274029.0,1.0
1125938.1962458,278087.375,245007.5,283663.6875,261231.5625,262350.5625,229906.125,237769.640625,241277.53125,-0.18310546875,0.94970703125,-0.15283203125,-3.692626714706421,-3.051757574081421,3.234863042831421,80.0,274030.0,1.0
1125938.2067446,278191.25,244993.375,283839.71875,261304.515625,262460.8125,229900.75,237850.28125,241608.953125,-0.18115234375,0.9501953125,-0.152099609375,-3.570556402206421,-3.143310308456421,3.234863042831421,80.0,274031.0,1.0
1125938.2097973,278142.78125,244972.8125,283769.1875,261257.75,262417.71875,229882.609375,237836.609375,241566.125,-0.178466796875,0.9501953125,-0.15478515625,-3.295898199081421,-3.204345464706421,3.265380620956421,80.0,274032.0,1.0
1125938.2098458,278012.1875,244973.875,283562.46875,261156.359375,262291.46875,229887.875,237763.65625,241272.515625,-0.178955078125,0.949462890625,-0.1552734375,-3.143310308456421,-3.265380620956421,3.417968511581421,80.0,274033.0,1.0
1125938.2209758,277977.75,244990.421875,283487.90625,261137.046875,262241.21875,229902.90625,237717.875,241064.640625,-0.1767578125,0.94921875,-0.151611328125,-2.929687261581421,-3.204345464706421,3.509521245956421,80.0,274034.0,1.0
1125938.2210198,278092.1875,245006.0625,283669.40625,261233.171875,262349.6875,229919.796875,237776.890625,241278.6875,-0.176513671875,0.949462890625,-0.1533203125,-2.685546636581421,-3.173827886581421,3.479003667831421,80.0,274035.0,1.0
1125938.222821,278195.46875,244998.109375,283849.71875,261308.0,262462.0625,229915.234375,237857.078125,241608.25,-0.17529296875,0.9501953125,-0.15234375,-2.502441167831421,-3.326415777206421,3.509521245956421,80.0,274036.0,1.0
1125938.225347,278146.8125,244984.34375,283780.53125,261262.21875,262422.28125,229900.3125,237841.34375,241566.484375,-0.174560546875,0.950439453125,-0.1533203125,-2.227782964706421,-3.295898199081421,3.601073980331421,80.0,274037.0,1.0
1125938.2290821,278019.3125,244995.515625,283574.53125,261162.53125,262300.5,229909.703125,237769.90625,241276.28125,-0.171875,0.953857421875,-0.150634765625,-1.9226073026657104,-3.356933355331421,3.601073980331421,80.0,274038.0,1.0
1125938.2353189,277976.9375,245006.78125,283492.03125,261136.25,262245.4375,229924.453125,237720.015625,241062.6875,-0.170166015625,0.954345703125,-0.149658203125,-1.8615721464157104,-3.173827886581421,3.662109136581421,80.0,274039.0,1.0
1125938.2397116,278082.625,245017.421875,283664.40625,261230.921875,262353.78125,229942.234375,237775.90625,241269.75,-0.168701171875,0.955810546875,-0.15087890625,-1.5869139432907104,-3.112792730331421,3.662109136581421,80.0,274040.0,1.0
1125938.2397465,278200.65625,245014.734375,283852.3125,261312.828125,262471.625,229943.578125,237861.546875,241606.359375,-0.168701171875,0.958740234375,-0.150634765625,-1.4953612089157104,-2.990722417831421,3.631591558456421,80.0,274041.0,1.0
1125938.2502947,278148.96875,244987.921875,283780.8125,261262.21875,262424.96875,229921.765625,237845.015625,241567.65625,-0.166748046875,0.9599609375,-0.148193359375,-1.3732908964157104,-3.051757574081421,3.570556402206421,80.0,274042.0,1.0
1125938.2533495,278012.875,244983.71875,283569.0,261157.890625,262298.71875,229926.5,237768.75,241276.0,-0.16552734375,0.960205078125,-0.1494140625,-1.4343260526657104,-2.929687261581421,3.540038824081421,80.0,274043.0,1.0
1125938.2533653,277983.21875,245001.140625,283494.875,261142.421875,262253.3125,229943.5,237724.046875,241068.5,-0.1650390625,0.9609375,-0.14990234375,-1.3122557401657104,-2.838134527206421,3.448486089706421,80.0,274044.0,1.0
1125938.2590422,278100.34375,245014.296875,283671.0,261238.265625,262359.5,229957.96875,237778.21875,241272.25,-0.164306640625,0.961669921875,-0.1474609375,-1.2817381620407104,-2.593993902206421,3.479003667831421,80.0,274045.0,1.0
1125938.2621931,278210.75,245005.625,283857.875,261316.046875,262475.03125,229959.859375,237862.625,241607.96875,-0.160400390625,0.962890625,-0.1494140625,-1.1596678495407104,-2.349853277206421,3.387450933456421,80.0,274046.0,1.0
1125938.262209,278157.8125,244976.296875,283789.5625,261266.953125,262432.65625,229938.484375,237849.21875,241571.5,-0.16015625,0.963623046875,-0.147705078125,-1.0681151151657104,-2.166747808456421,3.234863042831421,80.0,274047.0,1.0
1125938.2777445,278028.8125,244977.09375,283582.9375,261168.796875,262310.34375,229942.421875,237778.40625,241285.125,-0.160400390625,0.961669921875,-0.147705078125,-1.0375975370407104,-1.8615721464157104,3.234863042831421,80.0,274048.0,1.0
1125938.2808253,277986.875,244990.421875,283497.5625,261144.734375,262252.84375,229959.765625,237727.71875,241072.15625,-0.157470703125,0.964111328125,-0.150146484375,-1.1596678495407104,-1.6479490995407104,3.234863042831421,80.0,274049.0,1.0
1125938.2808344,278088.78125,245003.65625,283665.8125,261234.953125,262355.3125,229978.71875,237779.921875,241267.0625,-0.158203125,0.964599609375,-0.150146484375,-1.1291502714157104,-1.2512205839157104,3.021239995956421,80.0,274050.0,1.0
1125938.2902565,278203.3125,244999.625,283852.78125,261312.296875,262471.71875,229974.421875,237861.203125,241599.75,-0.15869140625,0.964599609375,-0.14794921875,-1.0986326932907104,-1.0986326932907104,2.899169683456421,80.0,274051.0,1.0
1125938.2927623,278163.375,244986.125,283793.3125,261271.25,262439.90625,229960.84375,237855.46875,241574.0,-0.15673828125,0.966064453125,-0.147705078125,-1.1291502714157104,-0.8239745497703552,2.990722417831421,80.0,274052.0,1.0
1125938.2953604,278027.28125,244990.59375,283583.375,261170.40625,262322.3125,229968.703125,237789.40625,241293.703125,-0.15869140625,0.96484375,-0.150634765625,-1.1291502714157104,-0.5493163466453552,2.868652105331421,80.0,274053.0,1.0
1125938.2978197,277977.125,245001.59375,283493.625,261141.96875,262266.625,229978.359375,237738.078125,241077.609375,-0.1591796875,0.96484375,-0.149658203125,-1.0681151151657104,-0.2746581733226776,2.777099370956421,80.0,274054.0,1.0
1125938.3003338,278083.34375,245014.109375,283661.8125,261232.265625,262366.03125,229988.015625,237779.75,241263.484375,-0.160400390625,0.963134765625,-0.15380859375,-1.0375975370407104,-0.0915527269244194,2.655029058456421,80.0,274055.0,1.0
1125938.302831,278199.9375,245010.171875,283854.5625,261314.703125,262486.46875,229985.515625,237869.875,241604.84375,-0.159423828125,0.9609375,-0.151123046875,-1.0681151151657104,0.1525878757238388,2.471923589706421,80.0,274056.0,1.0
1125938.3053158,278160.5,244990.15625,283796.28125,261270.890625,262448.28125,229963.703125,237867.0,241584.109375,-0.16162109375,0.961669921875,-0.153564453125,-0.9460448622703552,0.5798339247703552,2.471923589706421,80.0,274057.0,1.0
1125938.3096721,278025.6875,244988.8125,283583.5625,261164.328125,262316.15625,229961.109375,237785.828125,241294.953125,-0.161865234375,0.961669921875,-0.1533203125,-0.9460448622703552,0.7019042372703552,2.288818120956421,80.0,274058.0,1.0
1125938.3096904,277977.65625,244994.890625,283489.875,261133.203125,262249.28125,229968.53125,237724.40625,241068.765625,-0.161865234375,0.9619140625,-0.153076171875,-0.8544921278953552,0.9155272841453552,2.136230230331421,80.0,274059.0,1.0
1125938.32283,278084.25,245005.0,283654.03125,261222.96875,262343.25,229973.796875,237765.703125,241248.828125,-0.163818359375,0.962158203125,-0.151611328125,-0.8239745497703552,1.0681151151657104,2.075195074081421,80.0,274060.0,1.0
1125938.33232,278193.9375,244996.765625,283841.25,261300.84375,262456.53125,229963.34375,237842.953125,241581.421875,-0.16552734375,0.96044921875,-0.152099609375,-0.8544921278953552,1.1596678495407104,1.9226073026657104,80.0,274061.0,1.0
1125938.332358,278150.40625,244970.921875,283783.46875,261257.9375,262419.6875,229936.703125,237834.828125,241561.65625,-0.16650390625,0.96337890625,-0.15234375,-0.8239745497703552,1.2207030057907104,1.7700194120407104,80.0,274062.0,1.0
1125938.3347486,278018.96875,244968.515625,283579.71875,261158.234375,262298.0,229940.71875,237765.4375,241281.8125,-0.165771484375,0.96142578125,-0.151123046875,-0.7629393935203552,1.3122557401657104,1.7395018339157104,80.0,274063.0,1.0
1125938.3347843,277978.46875,244985.765625,283492.1875,261134.734375,262242.46875,229958.609375,237715.375,241063.03125,-0.168701171875,0.95947265625,-0.1513671875,-0.7019042372703552,1.4038084745407104,1.5869139432907104,80.0,274064.0,1.0
1125938.3373569,278085.3125,245002.9375,283659.84375,261228.515625,262345.9375,229973.890625,237762.765625,241244.53125,-0.167724609375,0.9580078125,-0.1533203125,-0.6408690810203552,1.5258787870407104,1.4343260526657104,80.0,274065.0,1.0
1125938.3373879,278191.25,244993.109375,283851.625,261313.453125,262471.90625,229971.828125,237853.78125,241591.4375,-0.168212890625,0.95751953125,-0.153564453125,-0.5798339247703552,1.5563963651657104,1.3427733182907104,80.0,274066.0,1.0
1125938.3504457,278162.8125,244980.859375,283807.4375,261280.734375,262447.03125,229960.75,237854.484375,241580.609375,-0.16943359375,0.958251953125,-0.153564453125,-0.5187987685203552,1.4953612089157104,1.2817381620407104,80.0,274067.0,1.0
1125938.3577792,278024.6875,244976.03125,283592.15625,261172.1875,262317.3125,229958.875,237776.609375,241293.171875,-0.172607421875,0.955078125,-0.153076171875,-0.3967284858226776,1.4343260526657104,1.2817381620407104,80.0,274068.0,1.0
1125938.3578115,277972.3125,244984.875,283492.03125,261139.015625,262252.6875,229968.96875,237719.21875,241066.609375,-0.17236328125,0.95556640625,-0.153564453125,-0.2136230319738388,1.4648436307907104,1.3427733182907104,80.0,274069.0,1.0
1125938.3578194,278081.03125,245004.1875,283657.15625,261229.765625,262353.0625,229986.40625,237769.90625,241245.78125,-0.172607421875,0.9560546875,-0.15283203125,0.0,1.4648436307907104,1.0986326932907104,80.0,274070.0,1.0
1125938.3647781,278206.0,245005.078125,283856.71875,261316.046875,262479.125,229991.0625,237860.84375,241591.796875,-0.17431640625,0.958740234375,-0.151611328125,0.0610351525247097,1.3732908964157104,1.1291502714157104,80.0,274071.0,1.0
1125938.3648106,278166.65625,244981.84375,283798.40625,261269.640625,262441.3125,229965.671875,237850.015625,241571.9375,-0.17529296875,0.95849609375,-0.15185546875,0.03051757626235485,1.2817381620407104,1.1901854276657104,80.0,274072.0,1.0
1125938.3797837,278036.75,244989.890625,283592.59375,261171.734375,262317.75,229971.03125,237782.421875,241293.625,-0.177001953125,0.958984375,-0.150146484375,0.1525878757238388,1.2817381620407104,1.0681151151657104,80.0,274073.0,1.0
1125938.3798198,277984.375,245005.4375,283495.5,261139.109375,262256.53125,229985.25,237732.359375,241069.5625,-0.17822265625,0.961181640625,-0.149169921875,0.0,1.0986326932907104,0.8239745497703552,80.0,274074.0,1.0
1125938.3823342,278090.6875,245022.515625,283657.0625,261228.25,262353.25,229997.859375,237776.890625,241240.875,-0.178466796875,0.960693359375,-0.1494140625,-0.0610351525247097,0.9155272841453552,0.8544921278953552,80.0,274075.0,1.0
1125938.3823654,278207.09375,245017.875,283852.59375,261312.296875,262474.9375,229990.875,237863.078125,241585.53125,-0.177490234375,0.95751953125,-0.149169921875,-0.1220703050494194,0.6408690810203552,0.7324218153953552,80.0,274076.0,1.0
1125938.391069,278174.71875,244999.09375,283804.125,261273.9375,262445.53125,229965.578125,237857.890625,241579.8125,-0.179443359375,0.95703125,-0.15087890625,-0.0915527269244194,0.4882812201976776,0.6408690810203552,80.0,274077.0,1.0
1125938.3910997,278030.6875,244994.53125,283592.875,261174.875,262325.90625,229967.1875,237792.265625,241308.8125,-0.179443359375,0.960205078125,-0.151123046875,-0.0915527269244194,0.3662109076976776,0.7019042372703552,80.0,274078.0,1.0
1125938.3934913,277977.9375,245003.203125,283492.1875,261142.6875,262260.1875,229976.03125,237737.28125,241080.828125,-0.177734375,0.958740234375,-0.1533203125,-0.03051757626235485,0.0915527269244194,0.6713866591453552,80.0,274079.0,1.0
1125938.3935218,278082.0,245014.5625,283651.34375,261229.671875,262352.90625,229989.8125,237779.921875,241247.578125,-0.177978515625,0.962158203125,-0.15380859375,-0.0610351525247097,-0.0915527269244194,0.6713866591453552,80.0,274080.0,1.0
1125938.4017125,278203.15625,245012.859375,283850.71875,261315.421875,262480.40625,229988.828125,237867.359375,241598.59375,-0.177490234375,0.96337890625,-0.152587890625,-0.1220703050494194,-0.2746581733226776,0.7629393935203552,80.0,274081.0,1.0
1125938.4135071,278175.15625,244995.25,283806.1875,261280.109375,262454.09375,229968.96875,237858.609375,241594.46875,-0.17578125,0.96435546875,-0.153076171875,-0.2746581733226776,-0.3967284858226776,0.8544921278953552,80.0,274082.0,1.0
1125938.4135449,278043.1875,244992.390625,283598.15625,261176.21875,262329.75,229966.015625,237784.21875,241313.734375,-0.17724609375,0.96484375,-0.154541015625,-0.4272460639476776,-0.6103515028953552,0.8544921278953552,80.0,274083.0,1.0
1125938.4160848,277989.71875,245003.921875,283495.0625,261139.109375,262262.0625,229975.59375,237730.84375,241079.84375,-0.177001953125,0.9609375,-0.153076171875,-0.3967284858226776,-0.7019042372703552,0.9155272841453552,80.0,274084.0,1.0
1125938.4161582,278090.6875,245016.171875,283649.5625,261225.296875,262351.75,229984.703125,237769.546875,241236.9375,-0.1767578125,0.9599609375,-0.151611328125,-0.5187987685203552,-0.8850097060203552,0.8239745497703552,80.0,274085.0,1.0
1125938.4216936,278210.9375,245012.0625,283850.28125,261313.1875,262477.625,229981.484375,237851.984375,241584.640625,-0.177490234375,0.95703125,-0.151611328125,-0.6103515028953552,-1.0986326932907104,0.9155272841453552,80.0,274086.0,1.0
1125938.4310372,278176.0625,244990.234375,283804.84375,261273.390625,262449.46875,229958.421875,237848.953125,241582.5,-0.178955078125,0.956787109375,-0.150146484375,-0.6103515028953552,-1.2207030057907104,0.9765624403953552,80.0,274087.0,1.0
1125938.4310685,278038.8125,244986.125,283597.59375,261171.03125,262327.25,229960.65625,237780.1875,241305.421875,-0.1806640625,0.956787109375,-0.14990234375,-0.6408690810203552,-1.2817381620407104,0.9460448622703552,80.0,274088.0,1.0
1125938.4624137,277983.75,245002.046875,283498.0,261139.5625,262265.5625,229977.921875,237728.875,241075.5625,-0.178955078125,0.957275390625,-0.15234375,-0.6713866591453552,-1.4953612089157104,0.8850097060203552,80.0,274089.0,1.0
1125938.4624571,278094.0625,245025.015625,283659.125,261230.296875,262362.65625,229998.203125,237777.6875,241241.046875,-0.17919921875,0.955810546875,-0.15087890625,-0.7324218153953552,-1.6174315214157104,0.7324218153953552,80.0,274090.0,1.0
1125938.4649469,278212.96875,245020.109375,283858.3125,261319.53125,262490.3125,229994.8125,237865.390625,241594.46875,-0.1787109375,0.958251953125,-0.15087890625,-0.7324218153953552,-1.7700194120407104,0.6408690810203552,80.0,274091.0,1.0
1125938.4649915,278175.34375,244990.859375,283811.5625,261277.515625,262460.90625,229972.109375,237855.296875,241591.875,-0.177490234375,0.9609375,-0.15478515625,-0.7629393935203552,-1.8310545682907104,0.6408690810203552,80.0,274092.0,1.0
1125938.4667561,278051.59375,244997.390625,283610.65625,261178.625,262338.6875,229978.359375,237787.875,241320.0,-0.177734375,0.962158203125,-0.151123046875,-0.8850097060203552,-1.9836424589157104,0.5798339247703552,80.0,274093.0,1.0
1125938.4692336,277989.90625,245008.296875,283499.71875,261138.03125,262263.21875,229987.65625,237728.515625,241078.15625,-0.175537109375,0.96240234375,-0.150634765625,-0.8850097060203552,-2.105712652206421,0.5493163466453552,80.0,274094.0,1.0
1125938.4717423,278085.5,245019.921875,283647.0625,261220.640625,262350.5625,230000.71875,237767.671875,241227.28125,-0.175537109375,0.9638671875,-0.1494140625,-1.0375975370407104,-2.166747808456421,0.4882812201976776,80.0,274095.0,1.0
1125938.4743311,278211.5625,245018.3125,283852.6875,261316.40625,262481.375,230002.6875,237859.671875,241583.5625,-0.17529296875,0.96337890625,-0.1513671875,-1.1596678495407104,-2.380370855331421,0.3662109076976776,80.0,274096.0,1.0
1125938.4767273,278183.375,244994.078125,283813.625,261282.609375,262454.71875,229979.703125,237855.03125,241587.953125,-0.1748046875,0.962158203125,-0.15478515625,-1.1596678495407104,-2.380370855331421,0.3967284858226776,80.0,274097.0,1.0
1125938.4820096,278051.34375,244995.609375,283609.0625,261179.96875,262333.59375,229983.640625,237789.84375,241319.71875,-0.17529296875,0.96630859375,-0.153564453125,-1.2817381620407104,-2.471923589706421,0.1831054538488388,80.0,274098.0,1.0
1125938.4867782,277987.40625,245005.796875,283496.65625,261138.9375,262262.96875,229997.859375,237729.40625,241080.203125,-0.1787109375,0.966552734375,-0.153076171875,-1.3732908964157104,-2.441406011581421,0.0,80.0,274099.0,1.0
1125938.4943117,278083.0625,245023.328125,283645.25,261222.25,262353.78125,230015.640625,237769.546875,241226.390625,-0.17919921875,0.967529296875,-0.1474609375,-1.5869139432907104,-2.593993902206421,0.0,80.0,274100.0,1.0
1125938.4967587,278200.8125,245018.671875,283846.0625,261308.265625,262477.1875,230009.75,237856.90625,241579.09375,-0.17919921875,0.967041015625,-0.149658203125,-1.7395018339157104,-2.655029058456421,0.0,80.0,274101.0,1.0
1125938.4998535,278177.125,244998.015625,283810.3125,261277.328125,262452.9375,229984.359375,237856.90625,241593.671875,-0.180419921875,0.967529296875,-0.14697265625,-1.9531248807907104,-2.716064214706421,-0.1220703050494194,80.0,274102.0,1.0
1125938.4998964,278054.65625,245000.25,283608.15625,261179.25,262334.65625,229987.75,237792.53125,241327.59375,-0.178955078125,0.9697265625,-0.14990234375,-2.105712652206421,-2.838134527206421,-0.2136230319738388,80.0,274103.0,1.0
1125938.5017501,277987.59375,245010.0,283494.4375,261138.21875,262265.8125,230002.40625,237734.328125,241087.984375,-0.178955078125,0.969970703125,-0.149658203125,-2.227782964706421,-3.082275152206421,-0.3662109076976776,80.0,274104.0,1.0
1125938.5043922,278078.59375,245022.421875,283638.09375,261222.078125,262353.96875,230016.71875,237775.546875,241233.09375,-0.17919921875,0.96630859375,-0.152099609375,-2.349853277206421,-3.112792730331421,-0.3967284858226776,80.0,274105.0,1.0
1125938.5067609,278198.40625,245017.0625,283841.96875,261312.640625,262483.96875,230017.15625,237871.390625,241591.078125,-0.18017578125,0.96728515625,-0.150146484375,-2.288818120956421,-3.051757574081421,-0.3356933295726776,80.0,274106.0,1.0
1125938.5117192,278171.84375,244991.84375,283808.34375,261280.1875,262462.6875,229989.71875,237863.34375,241602.609375,-0.177490234375,0.967041015625,-0.14892578125,-2.410888433456421,-3.143310308456421,-0.3662109076976776,80.0,274107.0,1.0
1125938.5148369,278037.9375,244984.609375,283600.375,261176.21875,262340.75,229983.640625,237783.5,241328.671875,-0.176513671875,0.966796875,-0.148681640625,-2.563476324081421,-3.265380620956421,-0.3662109076976776,80.0,274108.0,1.0
1125938.5148807,277974.4375,244994.71875,283484.15625,261134.015625,262269.84375,229997.046875,237727.890625,241086.90625,-0.176513671875,0.966796875,-0.149658203125,-2.685546636581421,-3.326415777206421,-0.3662109076976776,80.0,274109.0,1.0
1125938.5168753,278070.09375,245008.65625,283627.46875,261216.265625,262353.625,230012.515625,237768.65625,241227.09375,-0.175537109375,0.96630859375,-0.149169921875,-2.777099370956421,-3.356933355331421,-0.2441406100988388,80.0,274110.0,1.0
1125938.5205168,278197.4375,245012.328125,283838.1875,261310.59375,262486.75,230016.359375,237868.265625,241589.5625,-0.174560546875,0.962890625,-0.147216796875,-2.838134527206421,-3.326415777206421,-0.3051757514476776,80.0,274111.0,1.0
1125938.5274142,278173.8125,244993.546875,283808.34375,261277.515625,262469.5625,229991.6875,237870.578125,241610.75,-0.175537109375,0.9609375,-0.14990234375,-2.807616949081421,-3.204345464706421,-0.2746581733226776,80.0,274112.0,1.0
1125938.527457,278040.5,244988.625,283602.875,261171.109375,262344.84375,229987.65625,237793.15625,241334.390625,-0.177490234375,0.9599609375,-0.151611328125,-2.716064214706421,-3.234863042831421,-0.2136230319738388,80.0,274113.0,1.0
1125938.5330221,277980.0,245000.078125,283488.875,261132.9375,262268.125,230000.53125,237735.765625,241087.71875,-0.17529296875,0.960693359375,-0.149169921875,-2.777099370956421,-3.204345464706421,0.0,80.0,274114.0,1.0
1125938.5375371,278079.0625,245019.75,283634.34375,261219.21875,262352.625,230018.328125,237776.890625,241223.078125,-0.173583984375,0.957275390625,-0.1474609375,-2.838134527206421,-3.173827886581421,0.1831054538488388,80.0,274115.0,1.0
1125938.5375848,278201.09375,245017.953125,283843.46875,261309.15625,262482.28125,230017.703125,237868.4375,241579.546875,-0.1748046875,0.95703125,-0.146484375,-2.685546636581421,-3.143310308456421,0.1525878757238388,80.0,274116.0,1.0
1125938.5480173,278183.125,244997.296875,283819.34375,261280.640625,262466.1875,229994.984375,237871.921875,241607.34375,-0.173828125,0.95458984375,-0.14599609375,-2.624511480331421,-2.960204839706421,0.0610351525247097,80.0,274117.0,1.0
1125938.5510868,278053.65625,244994.0,283617.375,261181.390625,262346.09375,229992.390625,237803.078125,241339.9375,-0.1767578125,0.955322265625,-0.144775390625,-2.471923589706421,-2.838134527206421,-0.0610351525247097,80.0,274118.0,1.0
1125938.5511304,277975.53125,244996.671875,283495.5,261138.578125,262268.125,230001.609375,237743.71875,241090.671875,-0.1767578125,0.95654296875,-0.1455078125,-2.380370855331421,-2.838134527206421,0.03051757626235485,80.0,274119.0,1.0
1125938.5528769,278073.5,245011.15625,283637.3125,261218.859375,262347.53125,230013.59375,237777.25,241217.4375,-0.1767578125,0.9560546875,-0.141845703125,-2.227782964706421,-2.777099370956421,-0.03051757626235485,80.0,274120.0,1.0
1125938.57252,278199.03125,245008.125,283844.71875,261308.359375,262475.84375,230012.515625,237868.265625,241574.171875,-0.177490234375,0.957275390625,-0.141357421875,-2.075195074081421,-2.685546636581421,0.0,80.0,274121.0,1.0
1125938.5725644,278171.84375,244977.28125,283810.3125,261273.84375,262451.78125,229988.546875,237871.484375,241597.875,-0.1787109375,0.957763671875,-0.140380859375,-2.044677495956421,-2.624511480331421,-0.0610351525247097,80.0,274122.0,1.0
1125938.5754746,278048.46875,244981.125,283615.65625,261179.703125,262340.8125,229999.109375,237813.0,241338.234375,-0.17822265625,0.958984375,-0.141357421875,-1.9226073026657104,-2.563476324081421,-0.1831054538488388,80.0,274123.0,1.0
1125938.5755169,277980.4375,244993.90625,283496.84375,261139.5625,262269.84375,230013.5,237760.4375,241091.46875,-0.17626953125,0.958740234375,-0.140380859375,-1.7700194120407104,-2.624511480331421,-0.2746581733226776,80.0,274124.0,1.0
1125938.5755292,278075.65625,245006.25,283633.90625,261218.6875,262350.03125,230027.359375,237789.671875,241210.734375,-0.17724609375,0.95947265625,-0.140380859375,-1.8005369901657104,-2.593993902206421,-0.3051757514476776,80.0,274125.0,1.0
1125938.579119,278206.71875,245009.375,283848.40625,261313.8125,262486.21875,230027.0,237875.40625,241571.40625,-0.177490234375,0.95654296875,-0.1416015625,-1.8005369901657104,-2.563476324081421,-0.3662109076976776,80.0,274126.0,1.0
1125938.5880169,278189.375,244989.703125,283830.40625,261287.703125,262472.15625,230000.171875,237878.265625,241606.09375,-0.1767578125,0.95654296875,-0.140625,-1.8005369901657104,-2.471923589706421,-0.3662109076976776,80.0,274127.0,1.0
1125938.5956081,278061.78125,244986.390625,283629.15625,261187.484375,262354.34375,230000.265625,237812.296875,241343.859375,-0.177001953125,0.95703125,-0.1435546875,-1.6784666776657104,-2.319335699081421,-0.4577636420726776,80.0,274128.0,1.0
1125938.5956517,277986.5,244997.296875,283504.4375,261141.515625,262278.59375,230016.71875,237753.8125,241094.421875,-0.17578125,0.9560546875,-0.142333984375,-1.6174315214157104,-2.197265386581421,-0.5187987685203552,80.0,274129.0,1.0
1125938.595664,278075.65625,245007.40625,283637.21875,261220.640625,262355.03125,230032.359375,237788.234375,241216.015625,-0.176513671875,0.957275390625,-0.142333984375,-1.5258787870407104,-2.197265386581421,-0.4882812201976776,80.0,274130.0,1.0
1125938.5992651,278204.21875,244997.578125,283847.21875,261311.21875,262481.8125,230032.625,237873.265625,241570.515625,-0.178466796875,0.957763671875,-0.14013671875,-1.4648436307907104,-2.044677495956421,-0.6103515028953552,80.0,274131.0,1.0
1125938.6055214,278187.40625,244971.546875,283826.40625,261281.890625,262465.46875,230010.1875,237875.6875,241603.421875,-0.177978515625,0.95654296875,-0.14208984375,-1.3427733182907104,-2.075195074081421,-0.5187987685203552,80.0,274132.0,1.0
1125938.609772,278055.96875,244973.703125,283623.34375,261181.046875,262346.0,230012.609375,237811.03125,241344.21875,-0.1796875,0.959716796875,-0.1435546875,-1.2512205839157104,-1.9836424589157104,-0.6103515028953552,80.0,274133.0,1.0
1125938.6098118,277981.59375,244987.640625,283495.0625,261134.28125,262265.46875,230025.921875,237749.609375,241091.65625,-0.1796875,0.956787109375,-0.142333984375,-1.0681151151657104,-1.9531248807907104,-0.4882812201976776,80.0,274134.0,1.0
1125938.6179672,278065.625,245002.75,283624.59375,261210.28125,262341.8125,230043.09375,237782.15625,241205.109375,-0.180419921875,0.959228515625,-0.140380859375,-0.9460448622703552,-1.8005369901657104,-0.5187987685203552,80.0,274135.0,1.0
1125938.6248263,278191.625,244999.359375,283836.59375,261305.234375,262475.46875,230045.59375,237873.71875,241568.8125,-0.17919921875,0.956787109375,-0.14501953125,-0.8239745497703552,-1.7089842557907104,-0.3967284858226776,80.0,274136.0,1.0
1125938.6248695,278180.09375,244973.796875,283820.3125,261282.515625,262465.1875,230019.3125,237878.359375,241613.078125,-0.178955078125,0.957275390625,-0.14111328125,-0.7629393935203552,-1.6479490995407104,-0.3967284858226776,80.0,274137.0,1.0
1125938.6335883,278051.0625,244970.296875,283619.0625,261183.90625,262352.0,230021.1875,237815.6875,241356.46875,-0.181640625,0.95849609375,-0.140869140625,-0.7324218153953552,-1.6174315214157104,-0.4272460639476776,80.0,274138.0,1.0
1125938.6336314,277973.28125,244976.109375,283483.96875,261128.5625,262264.75,230028.609375,237749.53125,241094.59375,-0.17919921875,0.957275390625,-0.139892578125,-0.7324218153953552,-1.4648436307907104,-0.5187987685203552,80.0,274139.0,1.0
1125938.6397861,278064.21875,244995.34375,283616.375,261205.984375,262338.0625,230042.375,237781.359375,241202.0625,-0.1796875,0.95751953125,-0.142578125,-0.6408690810203552,-1.4038084745407104,-0.4882812201976776,80.0,274140.0,1.0
1125938.6398277,278200.90625,245000.515625,283838.90625,261308.359375,262475.46875,230045.0625,237870.765625,241566.3125,-0.181640625,0.9580078125,-0.142333984375,-0.4272460639476776,-1.3122557401657104,-0.3662109076976776,80.0,274141.0,1.0
1125938.6481674,278188.3125,244980.578125,283825.25,261284.578125,262465.46875,230022.53125,237874.515625,241609.5,-0.18017578125,0.9580078125,-0.139892578125,-0.3051757514476776,-1.2817381620407104,-0.3967284858226776,80.0,274142.0,1.0
1125938.6524086,278060.71875,244982.46875,283623.90625,261183.359375,262346.5625,230020.921875,237806.75,241350.390625,-0.1806640625,0.959716796875,-0.14404296875,-0.1831054538488388,-1.1596678495407104,-0.3662109076976776,80.0,274143.0,1.0
1125938.6524502,277992.5,245005.265625,283496.03125,261136.78125,262266.96875,230033.96875,237742.46875,241092.453125,-0.18017578125,0.96044921875,-0.140869140625,-0.1525878757238388,-1.0375975370407104,-0.2136230319738388,80.0,274144.0,1.0
1125938.6542283,278070.8125,245026.453125,283621.125,261211.265625,262342.625,230052.125,237774.5625,241195.8125,-0.181640625,0.961181640625,-0.139404296875,-0.1831054538488388,-1.0375975370407104,-0.1220703050494194,80.0,274145.0,1.0
1125938.6686038,278208.5,245035.65625,283842.21875,261308.171875,262478.875,230058.5625,237869.328125,241560.40625,-0.18115234375,0.963623046875,-0.14306640625,-0.1220703050494194,-0.9765624403953552,-0.0610351525247097,80.0,274146.0,1.0
1125938.668647,278198.3125,245017.234375,283833.5625,261286.0,262472.78125,230034.421875,237878.71875,241612.0,-0.179931640625,0.96337890625,-0.143310546875,-0.1525878757238388,-1.0070799589157104,0.0915527269244194,80.0,274147.0,1.0
1125938.6711232,278066.8125,245016.609375,283633.0,261186.3125,262355.84375,230030.84375,237813.1875,241354.234375,-0.181884765625,0.96240234375,-0.142333984375,0.03051757626235485,-0.8239745497703552,0.1525878757238388,80.0,274148.0,1.0
1125938.6711639,277990.8125,245026.1875,283499.625,261134.8125,262274.40625,230040.953125,237748.28125,241092.984375,-0.182861328125,0.9638671875,-0.1416015625,0.03051757626235485,-0.8239745497703552,0.2136230319738388,80.0,274149.0,1.0
1125938.6867669,278071.71875,245037.625,283621.125,261207.765625,262343.15625,230049.703125,237776.96875,241193.484375,-0.18115234375,0.963623046875,-0.13916015625,-0.03051757626235485,-0.7019042372703552,0.3356933295726776,80.0,274150.0,1.0
1125938.6905814,278197.6875,245034.234375,283837.40625,261304.328125,262479.0625,230049.265625,237868.96875,241558.53125,-0.18212890625,0.964111328125,-0.14306640625,0.0,-0.6103515028953552,0.2746581733226776,80.0,274151.0,1.0
1125938.6906291,278182.03125,245004.546875,283825.6875,261281.171875,262468.40625,230023.421875,237877.921875,241614.40625,-0.18408203125,0.965576171875,-0.1455078125,0.0610351525247097,-0.6103515028953552,0.3356933295726776,80.0,274152.0,1.0
1125938.6906446,278052.9375,244997.578125,283625.40625,261181.578125,262348.15625,230023.25,237815.953125,241362.546875,-0.181884765625,0.96533203125,-0.143798828125,0.0610351525247097,-0.5187987685203552,0.3967284858226776,80.0,274153.0,1.0
1125938.6929871,277977.9375,245005.890625,283489.6875,261131.328125,262265.8125,230038.890625,237754.984375,241102.015625,-0.183349609375,0.967529296875,-0.14404296875,0.0915527269244194,-0.4882812201976776,0.3967284858226776,80.0,274154.0,1.0
1125938.6956213,278057.21875,245008.296875,283602.15625,261197.40625,262325.28125,230040.765625,237767.671875,241184.09375,-0.185302734375,0.967041015625,-0.14111328125,-0.0610351525247097,-0.4882812201976776,0.4272460639476776,80.0,274155.0,1.0
1125938.6980428,278191.6875,245003.828125,283820.125,261294.671875,262457.59375,230031.640625,237852.53125,241543.953125,-0.18505859375,0.966064453125,-0.140625,-0.1525878757238388,-0.4577636420726776,0.5187987685203552,80.0,274156.0,1.0
1125938.7067263,278185.90625,244979.6875,283815.84375,261277.0625,262454.46875,230004.734375,237863.96875,241601.890625,-0.185546875,0.964599609375,-0.142578125,-0.3051757514476776,-0.4882812201976776,0.4882812201976776,80.0,274157.0,1.0
1125938.7097932,278058.65625,244976.921875,283620.40625,261179.703125,262343.40625,230004.015625,237803.34375,241351.640625,-0.18359375,0.9619140625,-0.14208984375,-0.4882812201976776,-0.5187987685203552,0.6713866591453552,80.0,274158.0,1.0
1125938.7098358,277978.46875,244985.0625,283483.0,261126.859375,262257.84375,230013.859375,237738.34375,241086.375,-0.18115234375,0.9560546875,-0.142822265625,-0.4882812201976776,-0.5493163466453552,0.7019042372703552,80.0,274159.0,1.0
1125938.718151,278063.40625,245004.546875,283603.78125,261197.578125,262325.28125,230030.03125,237766.515625,241176.140625,-0.1796875,0.955078125,-0.147216796875,-0.5187987685203552,-0.3967284858226776,0.8239745497703552,80.0,274160.0,1.0
1125938.7205306,278196.09375,245006.875,283823.53125,261296.734375,262460.28125,230029.328125,237855.03125,241539.578125,-0.178466796875,0.9521484375,-0.1513671875,-0.2136230319738388,-0.3967284858226776,0.9155272841453552,80.0,274161.0,1.0
1125938.72421,278188.40625,244982.46875,283822.8125,261279.484375,262455.96875,229999.375,237864.5,241602.15625,-0.178466796875,0.955810546875,-0.148193359375,-0.1220703050494194,-0.2441406100988388,0.9460448622703552,80.0,274162.0,1.0
1125938.7335991,278067.875,244983.71875,283631.84375,261183.09375,262345.375,229996.59375,237805.140625,241353.515625,-0.177734375,0.960205078125,-0.14697265625,0.0610351525247097,-0.2136230319738388,1.0375975370407104,80.0,274163.0,1.0
1125938.7336428,277979.8125,244989.703125,283490.84375,261129.984375,262262.0625,230011.171875,237742.90625,241087.359375,-0.17626953125,0.962158203125,-0.147216796875,0.1220703050494194,0.0,1.1291502714157104,80.0,274164.0,1.0
1125938.735483,278054.0,244998.90625,283601.0,261198.109375,262323.75,230021.90625,237765.625,241168.09375,-0.173828125,0.96142578125,-0.144775390625,-0.0915527269244194,0.0,1.3732908964157104,80.0,274165.0,1.0
1125938.7417587,278190.53125,244999.453125,283821.9375,261299.140625,262460.8125,230024.234375,237857.984375,241536.359375,-0.17138671875,0.9580078125,-0.14453125,-0.2441406100988388,0.1220703050494194,1.5563963651657104,80.0,274166.0,1.0
1125938.7510891,278190.1875,244979.515625,283826.03125,261286.1875,262462.96875,230003.125,237877.46875,241610.5625,-0.170654296875,0.954345703125,-0.150634765625,-0.2441406100988388,0.2746581733226776,1.7700194120407104,80.0,274167.0,1.0
1125938.7511318,278058.9375,244976.109375,283628.53125,261185.515625,262344.84375,230000.09375,237815.953125,241363.890625,-0.17138671875,0.952392578125,-0.15185546875,-0.2136230319738388,0.4272460639476776,1.6784666776657104,80.0,274168.0,1.0
1125938.7535128,277975.53125,244983.453125,283483.15625,261128.015625,262254.375,230011.171875,237741.5625,241092.546875,-0.174560546875,0.951416015625,-0.14990234375,0.0,0.4577636420726776,1.7089842557907104,80.0,274169.0,1.0
1125938.7535638,278049.8125,244992.03125,283591.0,261194.0,262315.875,230021.546875,237761.5,241167.640625,-0.17919921875,0.955078125,-0.148193359375,0.2746581733226776,0.5798339247703552,1.7395018339157104,80.0,274170.0,1.0
1125938.761873,278177.5625,244985.765625,283806.0,261287.609375,262447.75,230017.703125,237850.109375,241529.921875,-0.1826171875,0.957275390625,-0.145263671875,0.2746581733226776,0.6408690810203552,1.6479490995407104,80.0,274171.0,1.0
1125938.7661059,278173.5625,244962.53125,283806.0,261268.296875,262443.90625,229994.09375,237860.75,241600.546875,-0.1865234375,0.9609375,-0.14453125,0.1831054538488388,0.5798339247703552,1.5563963651657104,80.0,274172.0,1.0
1125938.7661485,278050.34375,244960.734375,283613.53125,261172.015625,262332.34375,230000.71875,237799.6875,241356.734375,-0.187744140625,0.96142578125,-0.142333984375,0.0,0.5187987685203552,1.3732908964157104,80.0,274173.0,1.0
1125938.7692821,277969.96875,244975.21875,283473.15625,261117.203125,262246.875,230018.328125,237737.015625,241088.4375,-0.1904296875,0.96142578125,-0.14453125,-0.1831054538488388,0.4882812201976776,1.1291502714157104,80.0,274174.0,1.0
1125938.7780177,278044.8125,244988.8125,283581.34375,261183.359375,262307.46875,230031.296875,237756.328125,241158.609375,-0.188720703125,0.960205078125,-0.145751953125,-0.3967284858226776,0.3662109076976776,1.1596678495407104,80.0,274175.0,1.0
1125938.7825335,278186.15625,244997.125,283808.0625,261288.421875,262448.5625,230037.109375,237851.453125,241528.21875,-0.189453125,0.9599609375,-0.1474609375,-0.3967284858226776,0.2136230319738388,1.0070799589157104,80.0,274176.0,1.0
1125938.7825793,278186.59375,244976.109375,283817.8125,261277.6875,262455.0,230014.75,237869.78125,241608.15625,-0.186767578125,0.961669921875,-0.148193359375,-0.4272460639476776,0.03051757626235485,0.8239745497703552,80.0,274177.0,1.0
1125938.7942537,278054.1875,244966.734375,283620.3125,261177.734375,262340.125,230009.65625,237799.78125,241356.03125,-0.18505859375,0.96484375,-0.149169921875,-0.4882812201976776,-0.1220703050494194,0.6103515028953552,80.0,274178.0,1.0
1125938.7974295,277972.65625,244978.703125,283475.9375,261118.8125,262249.90625,230024.3125,237727.265625,241079.3125,-0.1845703125,0.967529296875,-0.14501953125,-0.5798339247703552,-0.2746581733226776,0.6103515028953552,80.0,274179.0,1.0
1125938.797475,278049.90625,244997.125,283583.5625,261186.671875,262311.0625,230041.125,237751.578125,241147.96875,-0.183837890625,0.97021484375,-0.147216796875,-0.7324218153953552,-0.2746581733226776,0.5187987685203552,80.0,274180.0,1.0
1125938.7992664,278182.59375,244997.390625,283804.6875,261288.0625,262446.15625,230039.6875,237844.75,241515.4375,-0.180908203125,0.968994140625,-0.1455078125,-0.9155272841453552,-0.3051757514476776,0.6103515028953552,80.0,274181.0,1.0
1125938.8031212,278191.25,244981.75,283821.46875,261283.953125,262459.46875,230024.859375,237872.8125,241608.59375,-0.181640625,0.96923828125,-0.1455078125,-1.0070799589157104,-0.4272460639476776,0.7019042372703552,80.0,274182.0,1.0
1125938.8097822,278072.78125,244982.546875,283633.71875,261188.546875,262352.28125,230025.5625,237816.21875,241370.328125,-0.180419921875,0.966796875,-0.1474609375,-1.0986326932907104,-0.3967284858226776,0.8239745497703552,80.0,274183.0,1.0
1125938.8098252,277984.8125,244991.21875,283484.96875,261126.6875,262258.65625,230030.9375,237745.765625,241093.890625,-0.179443359375,0.96435546875,-0.148193359375,-1.2207030057907104,-0.4272460639476776,0.8850097060203552,80.0,274184.0,1.0
1125938.8180172,278052.40625,245002.21875,283582.84375,261186.578125,262310.0625,230037.453125,237754.09375,241147.53125,-0.177978515625,0.962890625,-0.1435546875,-1.3732908964157104,-0.4272460639476776,1.0681151151657104,80.0,274185.0,1.0
1125938.8210895,278185.1875,245000.796875,283802.15625,261287.25,262446.875,230039.25,237846.09375,241513.375,-0.176513671875,0.961181640625,-0.147216796875,-1.2512205839157104,-0.4272460639476776,1.2512205839157104,80.0,274186.0,1.0
1125938.8211325,278185.34375,244977.09375,283813.96875,261276.34375,262453.40625,230017.25,237864.234375,241599.390625,-0.17529296875,0.96044921875,-0.146240234375,-1.3122557401657104,-0.4882812201976776,1.3732908964157104,80.0,274187.0,1.0
1125938.829229,278070.03125,244978.53125,283629.0,261182.921875,262345.03125,230011.625,237802.640625,241366.484375,-0.175048828125,0.962646484375,-0.1455078125,-1.3732908964157104,-0.4577636420726776,1.5258787870407104,80.0,274188.0,1.0
1125938.8317599,277973.5625,244985.6875,283476.71875,261119.171875,262253.125,230019.046875,237737.09375,241095.140625,-0.175048828125,0.961181640625,-0.146484375,-1.3427733182907104,-0.4577636420726776,1.5869139432907104,80.0,274189.0,1.0
1125938.8342597,278041.0625,244997.578125,283576.40625,261182.734375,262309.90625,230029.6875,237757.125,241153.515625,-0.175537109375,0.96142578125,-0.14404296875,-1.3122557401657104,-0.5187987685203552,1.6784666776657104,80.0,274190.0,1.0
1125938.8485613,278178.5625,245000.703125,283803.0625,261287.53125,262449.625,230033.078125,237850.375,241519.8125,-0.177490234375,0.962158203125,-0.142333984375,-1.3732908964157104,-0.5187987685203552,1.7089842557907104,80.0,274191.0,1.0
1125938.8486061,278182.125,244973.796875,283818.1875,261282.703125,262458.65625,230008.140625,237870.046875,241611.28125,-0.177490234375,0.9609375,-0.1416015625,-1.3427733182907104,-0.4272460639476776,1.7395018339157104,80.0,274192.0,1.0
1125938.8531284,278058.9375,244968.78125,283628.1875,261184.4375,262350.40625,230003.578125,237807.546875,241374.0,-0.177978515625,0.962158203125,-0.141357421875,-1.4038084745407104,-0.5798339247703552,1.5563963651657104,80.0,274193.0,1.0
1125938.8567595,277974.71875,244979.875,283480.9375,261124.984375,262259.1875,230018.328125,237744.703125,241100.859375,-0.17822265625,0.96240234375,-0.14013671875,-1.4953612089157104,-0.5493163466453552,1.7395018339157104,80.0,274194.0,1.0
1125938.8655188,278041.84375,244989.96875,283575.78125,261182.65625,262307.21875,230021.015625,237753.734375,241147.265625,-0.17919921875,0.96240234375,-0.13916015625,-1.4648436307907104,-0.4577636420726776,1.6784666776657104,80.0,274195.0,1.0
1125938.8685911,278184.28125,244995.609375,283808.53125,261290.65625,262453.40625,230025.296875,237850.375,241518.296875,-0.178955078125,0.9619140625,-0.138671875,-1.4648436307907104,-0.5493163466453552,1.5869139432907104,80.0,274196.0,1.0
1125938.8686341,278188.75,244968.78125,283826.3125,261281.0,262464.9375,230004.5625,237870.9375,241614.59375,-0.176025390625,0.962646484375,-0.14208984375,-1.4648436307907104,-0.5493163466453552,1.4343260526657104,80.0,274197.0,1.0
1125938.873635,278065.5625,244963.59375,283637.9375,261185.0625,262353.53125,230001.78125,237809.875,241381.234375,-0.174072265625,0.9609375,-0.140869140625,-1.4953612089157104,-0.4882812201976776,1.4343260526657104,80.0,274198.0,1.0
1125938.8737598,277977.84375,244979.78125,283488.15625,261123.1875,262257.40625,230019.484375,237737.453125,241100.140625,-0.173095703125,0.963623046875,-0.143798828125,-1.4648436307907104,-0.5493163466453552,1.3732908964157104,80.0,274199.0,1.0
1125938.8779699,278039.53125,244994.0,283578.375,261179.25,262303.53125,230033.25,237744.609375,241136.796875,-0.173095703125,0.963623046875,-0.142822265625,-1.5563963651657104,-0.4272460639476776,1.2817381620407104,80.0,274200.0,1.0
1125938.8830185,278178.03125,245001.328125,283805.46875,261287.34375,262444.90625,230042.28125,237841.265625,241506.765625,-0.172119140625,0.961181640625,-0.14208984375,-1.5258787870407104,-0.4272460639476776,1.0986326932907104,80.0,274201.0,1.0
1125938.8880163,278194.5625,244979.6875,283830.59375,261284.21875,262458.5625,230024.671875,237862.09375,241607.890625,-0.172119140625,0.96142578125,-0.138427734375,-1.6174315214157104,-0.4577636420726776,0.9765624403953552,80.0,274202.0,1.0
1125938.8907105,278071.71875,244977.1875,283644.0,261189.265625,262351.8125,230026.546875,237803.796875,241374.625,-0.173583984375,0.9619140625,-0.14013671875,-1.5258787870407104,-0.3662109076976776,1.0375975370407104,80.0,274203.0,1.0
1125938.8936046,277977.75,244988.625,283489.78125,261127.484375,262262.5,230045.953125,237743.53125,241102.5625,-0.17236328125,0.959716796875,-0.14013671875,-1.3732908964157104,-0.3051757514476776,0.9155272841453552,80.0,274204.0,1.0
1125938.8936703,278045.625,245001.953125,283582.40625,261188.1875,262315.25,230063.75,237756.234375,241142.515625,-0.173095703125,0.958740234375,-0.141845703125,-1.3732908964157104,-0.1525878757238388,0.8850097060203552,80.0,274205.0,1.0
1125938.8965266,278187.0625,245004.546875,283811.46875,261290.921875,262454.90625,230075.71875,237844.296875,241505.609375,-0.174072265625,0.957275390625,-0.14306640625,-1.3122557401657104,-0.1525878757238388,0.8544921278953552,80.0,274206.0,1.0
1125938.9042266,278199.75,244986.03125,283838.75,261286.890625,262470.125,230059.625,237870.671875,241615.484375,-0.17529296875,0.958251953125,-0.141845703125,-1.3427733182907104,-0.0915527269244194,0.7934569716453552,80.0,274207.0,1.0
1125938.911199,278071.625,244975.484375,283648.03125,261186.21875,262356.75,230050.78125,237809.25,241384.453125,-0.17431640625,0.958740234375,-0.141357421875,-1.1596678495407104,-0.0610351525247097,0.6408690810203552,80.0,274208.0,1.0
1125938.9112426,277979.0,244984.515625,283490.21875,261122.296875,262260.8125,230061.234375,237743.0,241109.078125,-0.1728515625,0.95703125,-0.142333984375,-1.0986326932907104,-0.03051757626235485,0.6713866591453552,80.0,274209.0,1.0
1125938.9130068,278040.0625,244996.046875,283576.25,261180.0625,262305.6875,230078.765625,237753.734375,241144.84375,-0.175048828125,0.959228515625,-0.141357421875,-0.9765624403953552,0.03051757626235485,0.6713866591453552,80.0,274210.0,1.0
1125938.9267249,278179.1875,245003.5625,283805.375,261285.734375,262448.21875,230089.140625,237849.9375,241508.28125,-0.173583984375,0.95703125,-0.1376953125,-0.8850097060203552,0.03051757626235485,0.5187987685203552,80.0,274211.0,1.0
1125938.9341702,278195.09375,244985.59375,283836.15625,261283.046875,262464.75,230065.53125,237873.796875,241615.65625,-0.174072265625,0.956787109375,-0.13818359375,-0.8239745497703552,0.03051757626235485,0.4882812201976776,80.0,274212.0,1.0
1125938.9342145,278080.5625,244983.890625,283655.53125,261190.34375,262362.65625,230067.328125,237819.984375,241392.5,-0.173828125,0.958740234375,-0.140380859375,-0.6408690810203552,0.0610351525247097,0.5493163466453552,80.0,274213.0,1.0
1125938.9342269,277974.71875,244987.734375,283491.84375,261122.921875,262267.34375,230085.828125,237753.453125,241115.703125,-0.1767578125,0.959716796875,-0.14111328125,-0.4882812201976776,0.0610351525247097,0.5187987685203552,80.0,274214.0,1.0
1125938.9386932,278034.71875,244998.734375,283573.46875,261179.703125,262312.75,230100.3125,237763.75,241143.6875,-0.17626953125,0.9619140625,-0.1396484375,-0.4577636420726776,0.0,0.3967284858226776,80.0,274215.0,1.0
1125938.9387367,278170.875,244999.8125,283798.40625,261282.078125,262451.4375,230101.65625,237855.65625,241505.15625,-0.1767578125,0.9609375,-0.140380859375,-0.4577636420726776,0.03051757626235485,0.3662109076976776,80.0,274216.0,1.0
1125938.9416876,278185.0,244977.015625,283830.40625,261279.921875,262470.03125,230078.40625,237883.1875,241619.328125,-0.17919921875,0.960693359375,-0.141357421875,-0.3051757514476776,0.0,0.3662109076976776,80.0,274217.0,1.0
1125938.9504804,278070.5625,244969.859375,283651.6875,261189.796875,262367.375,230072.421875,237829.09375,241399.75,-0.179931640625,0.96240234375,-0.14013671875,-0.2441406100988388,-0.0610351525247097,0.4272460639476776,80.0,274218.0,1.0
1125938.9598791,277979.09375,244972.53125,283492.65625,261126.953125,262269.40625,230078.9375,237756.046875,241118.734375,-0.177978515625,0.9619140625,-0.1396484375,-0.1831054538488388,-0.1220703050494194,0.4882812201976776,80.0,274219.0,1.0
1125938.9599241,278036.3125,244982.109375,283571.78125,261177.734375,262309.625,230086.90625,237761.78125,241138.140625,-0.180419921875,0.96240234375,-0.1396484375,-0.0915527269244194,-0.1525878757238388,0.5493163466453552,80.0,274220.0,1.0
1125938.9668112,278177.40625,244990.59375,283802.15625,261287.703125,262452.21875,230098.078125,237857.625,241503.375,-0.180908203125,0.96142578125,-0.140380859375,-0.0915527269244194,-0.0915527269244194,0.4882812201976776,80.0,274221.0,1.0
1125938.9668549,278198.0625,244968.96875,283837.5625,261289.484375,262470.28125,230076.625,237876.84375,241618.96875,-0.179443359375,0.962890625,-0.140869140625,-0.0915527269244194,-0.1220703050494194,0.4272460639476776,80.0,274222.0,1.0
1125938.9668675,278081.65625,244960.46875,283655.1875,261194.71875,262362.375,230072.59375,237818.546875,241397.953125,-0.180419921875,0.96240234375,-0.13623046875,-0.0610351525247097,-0.2136230319738388,0.4882812201976776,80.0,274223.0,1.0
1125938.9692691,277986.5,244970.578125,283494.4375,261127.84375,262266.53125,230087.796875,237750.78125,241117.125,-0.178955078125,0.96337890625,-0.13525390625,-0.1220703050494194,-0.2441406100988388,0.6713866591453552,80.0,274224.0,1.0
1125938.9730254,278045.875,244984.515625,283575.34375,261184.890625,262313.65625,230102.640625,237761.421875,241139.75,-0.179931640625,0.963134765625,-0.137939453125,-0.0610351525247097,-0.3051757514476776,0.6408690810203552,80.0,274225.0,1.0
1125938.9867461,278188.40625,244988.625,283806.625,261293.15625,262457.15625,230112.921875,237853.328125,241504.359375,-0.1796875,0.96484375,-0.14013671875,0.03051757626235485,-0.3662109076976776,0.6408690810203552,80.0,274226.0,1.0
1125938.9918832,278202.25,244968.96875,283842.21875,261292.703125,262476.8125,230092.796875,237875.328125,241624.25,-0.180419921875,0.9638671875,-0.139892578125,-0.1525878757238388,-0.3662109076976776,0.6408690810203552,80.0,274227.0,1.0
1125938.9919331,278075.28125,244966.1875,283655.625,261196.15625,262370.40625,230092.4375,237821.140625,241406.359375,-0.179443359375,0.962646484375,-0.138427734375,0.0915527269244194,-0.3356933295726776,0.6103515028953552,80.0,274228.0,1.0
1125938.9919474,277979.625,244982.640625,283490.59375,261127.03125,262270.65625,230106.390625,237751.3125,241116.234375,-0.179931640625,0.96533203125,-0.14111328125,0.03051757626235485,-0.3356933295726776,0.7324218153953552,80.0,274229.0,1.0
1125938.9942199,278037.21875,245000.609375,283570.15625,261182.734375,262312.40625,230118.1875,237760.96875,241131.875,-0.17822265625,0.964599609375,-0.139892578125,0.03051757626235485,-0.4882812201976776,0.8850097060203552,80.0,274230.0,1.0
1125939.0004452,278172.75,244998.203125,283796.625,261285.46875,262451.34375,230116.9375,237850.921875,241493.890625,-0.1806640625,0.964111328125,-0.138916015625,0.0610351525247097,-0.4882812201976776,0.9460448622703552,80.0,274231.0,1.0
1125939.0046722,278196.875,244975.578125,283841.875,261292.0,262475.46875,230092.4375,237876.125,241618.4375,-0.1787109375,0.9638671875,-0.138427734375,-0.03051757626235485,-0.5187987685203552,0.9155272841453552,80.0,274232.0,1.0
1125939.004705,278078.34375,244965.828125,283661.96875,261195.609375,262365.40625,230076.0,237813.546875,241395.71875,-0.17822265625,0.96142578125,-0.13818359375,0.0915527269244194,-0.4882812201976776,0.9155272841453552,80.0,274233.0,1.0
1125939.0105017,277976.0625,244972.453125,283495.0625,261122.390625,262265.5625,230083.59375,237742.828125,241109.078125,-0.1767578125,0.962158203125,-0.14013671875,0.0610351525247097,-0.5187987685203552,1.0681151151657104,80.0,274234.0,1.0
1125939.0217268,278039.0,244991.140625,283576.78125,261180.859375,262313.03125,230099.6875,237751.40625,241122.5,-0.176025390625,0.963134765625,-0.13818359375,0.0610351525247097,-0.5798339247703552,1.0681151151657104,80.0,274235.0,1.0
