Time,FZ,C3,CZ,C4,PZ,PO7,OZ,PO8,AccX,AccY,AccZ,Gyro1,Gyro2,Gyro3,Battery,Counter,Validation
473187.8103641,261240.234375,262946.90625,281800.09375,272131.53125,275798.0,253147.015625,242191.796875,240212.515625,0.025390625,0.918701171875,-0.50146484375,35.522457122802734,11.688231468200684,9.277342796325684,86.66667175292969,925461.0,1.0
473187.8288889,261908.71875,263150.21875,282363.0,272996.34375,276454.25,253156.40625,242456.171875,240288.953125,0.032470703125,0.92236328125,-0.50244140625,34.637447357177734,13.916014671325684,10.467528343200684,86.66667175292969,925462.0,1.0
473187.8289024,262794.46875,263230.34375,282004.5625,271873.59375,275697.4375,253139.6875,241588.390625,239953.59375,0.04052734375,0.924560546875,-0.50390625,33.660884857177734,16.143796920776367,11.413573265075684,86.66667175292969,925463.0,1.0
473187.8289046,262617.53125,263062.96875,281206.78125,270327.8125,274582.34375,253131.8125,240810.46875,239671.515625,0.048583984375,0.92578125,-0.502685546875,32.653804779052734,18.341062545776367,12.359618186950684,86.66667175292969,925464.0,1.0
473187.8314433,261709.25,262909.46875,281096.34375,270480.53125,274641.625,253152.203125,241165.40625,239825.203125,0.054931640625,0.924072265625,-0.49951171875,31.677244186401367,20.599363327026367,13.305663108825684,86.66667175292969,925465.0,1.0
473187.8338738,261272.6875,262966.78125,281827.71875,272157.53125,275810.71875,253180.453125,242182.6875,240209.65625,0.056640625,0.92724609375,-0.50146484375,30.670164108276367,22.918699264526367,14.129637718200684,86.66667175292969,925466.0,1.0
473187.8363918,261932.6875,263156.75,282377.1875,273013.96875,276455.40625,253161.140625,242435.703125,240281.265625,0.058837890625,0.928466796875,-0.498291015625,29.388425827026367,25.207517623901367,15.014647483825684,86.66667175292969,925467.0,1.0
473187.8390097,262806.0,263228.09375,282004.375,271890.75,275691.53125,253112.78125,241578.5625,239947.15625,0.0615234375,0.9296875,-0.5,28.045652389526367,27.343748092651367,15.808104515075684,86.66667175292969,925468.0,1.0
473187.841223,262633.0,263068.34375,281210.34375,270353.5625,274584.40625,253082.46875,240821.109375,239677.859375,0.058349609375,0.93212890625,-0.498046875,26.611326217651367,29.510496139526367,16.479490280151367,86.66667175292969,925469.0,1.0
473187.8439265,261745.640625,262927.6875,281120.5,270518.09375,274661.46875,253104.546875,241187.671875,239841.734375,0.0546875,0.93359375,-0.498779296875,25.207517623901367,31.494138717651367,17.028806686401367,86.66667175292969,925470.0,1.0
473187.8439427,261292.4375,262965.0625,281838.6875,272171.03125,275817.0625,253112.5,242182.140625,240209.296875,0.05078125,0.93359375,-0.5,23.803709030151367,33.294673919677734,17.486570358276367,86.66667175292969,925471.0,1.0
473187.851541,261941.453125,263158.375,282386.78125,273033.625,276469.90625,253094.625,242449.109375,240294.671875,0.045166015625,0.930908203125,-0.498779296875,22.369382858276367,34.851070404052734,17.822263717651367,86.66667175292969,925472.0,1.0
473187.8515595,262782.59375,263204.3125,281983.90625,271896.28125,275684.65625,253028.203125,241581.328125,239946.34375,0.03759765625,0.9267578125,-0.4970703125,20.751951217651367,36.254878997802734,18.096921920776367,86.66667175292969,925473.0,1.0
473187.8515624,262622.375,263047.5,281201.84375,270372.0,274583.5,253018.625,240828.96875,239683.84375,0.025390625,0.925048828125,-0.494873046875,19.317625045776367,37.506099700927734,18.096921920776367,86.66667175292969,925474.0,1.0
473187.8515657,261730.53125,262898.8125,281111.03125,270521.21875,274657.71875,253052.96875,241182.125,239832.53125,0.012451171875,0.923828125,-0.49560546875,17.822263717651367,38.299556732177734,18.035886764526367,86.66667175292969,925475.0,1.0
473187.8552998,261298.796875,262966.40625,281853.625,272188.46875,275842.71875,253107.234375,242199.578125,240217.96875,0.003173828125,0.92431640625,-0.49609375,16.265867233276367,38.848873138427734,17.883298873901367,86.66667175292969,925476.0,1.0
473187.855319,261949.84375,263168.90625,282403.65625,273054.8125,276499.84375,253133.15625,242477.28125,240307.8125,-0.006103515625,0.921875,-0.500244140625,14.648436546325684,39.001461029052734,17.486570358276367,86.66667175292969,925477.0,1.0
473187.8553227,262797.875,263229.25,282009.8125,271939.03125,275723.90625,253116.53125,241623.53125,239974.78125,-0.013427734375,0.92041015625,-0.50146484375,13.183592796325684,39.123531341552734,16.967771530151367,86.66667175292969,925478.0,1.0
473187.8576656,262613.59375,263052.96875,281202.65625,270395.875,274597.4375,253102.5,240842.375,239686.890625,-0.019775390625,0.919921875,-0.500244140625,11.962889671325684,38.940425872802734,16.387937545776367,86.66667175292969,925479.0,1.0
473187.8627233,261735.0,262917.59375,281121.5625,270543.90625,274678.09375,253144.15625,241197.78125,239845.9375,-0.019775390625,0.91650390625,-0.50244140625,10.711668968200684,38.543697357177734,15.716551780700684,86.66667175292969,925480.0,1.0
473187.8650667,261301.734375,262988.21875,281867.84375,272200.71875,275870.0625,253186.984375,242220.0625,240240.21875,-0.01708984375,0.912841796875,-0.501708984375,9.582518577575684,37.902828216552734,14.923094749450684,86.66667175292969,925481.0,1.0
473187.8676104,261937.6875,263173.375,282402.875,273061.1875,276516.125,253190.203125,242486.578125,240318.453125,-0.016357421875,0.911376953125,-0.5,8.392333030700684,37.109371185302734,14.251708030700684,86.66667175292969,925482.0,1.0
473187.8702591,262785.09375,263226.75,282004.1875,271954.84375,275727.375,253166.421875,241624.6875,239980.234375,-0.01806640625,0.909912109375,-0.49951171875,7.904052257537842,36.682125091552734,13.885497093200684,86.66667175292969,925483.0,1.0
473187.8702903,262609.21875,263052.96875,281204.625,270415.25,274597.90625,253140.140625,240839.25,239690.828125,-0.016845703125,0.904541015625,-0.498291015625,6.774901866912842,35.797115325927734,13.153075218200684,86.66667175292969,925484.0,1.0
473187.8727413,261741.984375,262927.4375,281135.875,270560.375,274690.0625,253174.109375,241201.53125,239855.78125,-0.021240234375,0.9033203125,-0.4990234375,5.615233898162842,34.790035247802734,12.298583030700684,86.66667175292969,925485.0,1.0
473187.8776691,261323.109375,263008.15625,281892.71875,272218.40625,275893.6875,253228.109375,242244.546875,240257.578125,-0.021484375,0.900146484375,-0.49755859375,4.638671398162842,33.660884857177734,11.413573265075684,86.66667175292969,925486.0,1.0
473187.8777072,261946.09375,263180.8125,282413.78125,273072.34375,276526.59375,253227.3125,242506.515625,240331.59375,-0.0185546875,0.8994140625,-0.501708984375,3.814697027206421,32.379146575927734,10.559081077575684,86.66667175292969,925487.0,1.0
473187.8801475,262781.96875,263221.65625,282004.90625,271970.0625,275728.71875,253185.640625,241634.078125,239975.578125,-0.012939453125,0.8984375,-0.50537109375,2.929687261581421,31.005857467651367,9.704588890075684,86.66667175292969,925488.0,1.0
473187.8826187,262619.25,263055.375,281214.8125,270440.5625,274604.4375,253163.296875,240849.53125,239680.265625,-0.00537109375,0.897216796875,-0.50537109375,2.197265386581421,29.663084030151367,9.094237327575684,86.66667175292969,925489.0,1.0
473187.8876178,261760.9375,262934.21875,281154.03125,270585.03125,274703.9375,253193.6875,241218.78125,239842.640625,0.001953125,0.894775390625,-0.50439453125,1.3732908964157104,28.167722702026367,8.514403343200684,86.66667175292969,925490.0,1.0
473187.8901052,261340.1875,263020.0625,281911.21875,272235.21875,275919.15625,253227.390625,242270.921875,240242.734375,0.0166015625,0.88818359375,-0.505126953125,0.6103515028953552,26.916501998901367,7.904052257537842,86.66667175292969,925491.0,1.0
473187.895105,261963.703125,263195.46875,282433.34375,273088.96875,276561.53125,253220.421875,242542.640625,240326.59375,0.02685546875,0.885986328125,-0.505859375,-0.1525878757238388,25.878904342651367,7.629394054412842,86.66667175292969,925492.0,1.0
473187.8976825,262799.84375,263227.03125,282019.84375,271991.40625,275756.15625,253188.40625,241667.15625,239991.234375,0.036376953125,0.885498046875,-0.507568359375,-0.6713866591453552,24.902341842651367,7.385253429412842,86.66667175292969,925493.0,1.0
473187.897722,262647.21875,263064.21875,281239.3125,270477.21875,274642.0625,253180.546875,240892.0,239713.265625,0.04345703125,0.881591796875,-0.5087890625,-1.1291502714157104,23.895261764526367,7.385253429412842,86.66667175292969,925494.0,1.0
473187.9002381,261782.484375,262940.46875,281173.15625,270603.46875,274733.625,253215.859375,241252.671875,239862.921875,0.048583984375,0.87744140625,-0.509765625,-1.6479490995407104,23.010251998901367,7.293700695037842,86.66667175292969,925495.0,1.0
473187.9024925,261373.09375,263040.625,281945.1875,272254.1875,275961.1875,253282.109375,242315.1875,240278.046875,0.054931640625,0.87060546875,-0.5068359375,-2.105712652206421,22.186277389526367,7.232665538787842,86.66667175292969,925496.0,1.0
473187.9025349,261976.671875,263194.40625,282452.125,273096.5625,276589.96875,253260.03125,242571.6875,240346.890625,0.055908203125,0.8671875,-0.506591796875,-2.471923589706421,21.179197311401367,7.293700695037842,86.66667175292969,925497.0,1.0
473187.9090303,262811.46875,263225.5,282039.0625,272013.59375,275787.28125,253221.21875,241696.046875,240002.140625,0.058837890625,0.86376953125,-0.50390625,-2.563476324081421,20.294187545776367,7.415771007537842,86.66667175292969,925498.0,1.0
473187.9113675,262658.75,263062.78125,281257.90625,270500.8125,274667.375,253206.203125,240916.59375,239710.3125,0.06396484375,0.859619140625,-0.50830078125,-2.746581792831421,19.348142623901367,7.446288585662842,86.66667175292969,925499.0,1.0
473187.9190658,261799.296875,262944.40625,281201.0625,270630.46875,274769.03125,253227.84375,241280.296875,239860.515625,0.066650390625,0.855224609375,-0.5078125,-2.899169683456421,18.493650436401367,7.507323741912842,86.66667175292969,925500.0,1.0
473187.9191084,261361.203125,263016.84375,281948.75,272253.46875,275978.875,253250.28125,242316.34375,240249.796875,0.06787109375,0.85009765625,-0.505126953125,-2.929687261581421,17.669675827026367,7.629394054412842,86.66667175292969,925501.0,1.0
473187.9214418,261996.703125,263210.65625,282486.8125,273130.1875,276641.5625,253263.6875,242606.109375,240347.25,0.0732421875,0.847900390625,-0.500244140625,-2.990722417831421,16.754148483276367,7.629394054412842,86.66667175292969,925502.0,1.0
473187.9239485,262845.09375,263256.4375,282086.09375,272063.5625,275846.375,253231.859375,241744.046875,240012.6875,0.069580078125,0.8505859375,-0.50048828125,-3.051757574081421,15.960692405700684,7.812499523162842,86.66667175292969,925503.0,1.0
473187.9239839,262690.3125,263091.9375,281303.0625,270550.90625,274719.75,253200.65625,240960.046875,239719.25,0.069580078125,0.852294921875,-0.5,-3.143310308456421,15.014647483825684,7.843017101287842,86.66667175292969,925504.0,1.0
473187.9290109,261823.515625,262969.4375,281237.8125,270671.0625,274816.59375,253214.515625,241319.640625,239865.34375,0.069091796875,0.855224609375,-0.498046875,-3.265380620956421,13.977049827575684,7.781981945037842,86.66667175292969,925505.0,1.0
473187.931394,261382.296875,263045.0,281980.0625,272286.375,276028.0625,253247.6875,242363.546875,240261.140625,0.06982421875,0.857421875,-0.49560546875,-3.479003667831421,12.908934593200684,7.690429210662842,86.66667175292969,925506.0,1.0
473187.9352601,261996.34375,263217.71875,282497.53125,273143.15625,276670.34375,253247.875,242640.625,240349.296875,0.072509765625,0.860595703125,-0.495849609375,-3.631591558456421,11.810301780700684,7.690429210662842,86.66667175292969,925507.0,1.0
473187.9565684,262834.90625,263251.53125,282088.9375,272070.1875,275863.8125,253210.234375,241763.984375,240006.15625,0.072509765625,0.865966796875,-0.495849609375,-3.814697027206421,10.711668968200684,7.659911632537842,86.66667175292969,925508.0,1.0
473187.9566104,262685.9375,263090.25,281307.71875,270557.6875,274736.75,253193.0625,240968.625,239711.390625,0.075927734375,0.869384765625,-0.4951171875,-3.997802495956421,9.521483421325684,7.598876476287842,86.66667175292969,925509.0,1.0
473187.9590566,261829.859375,262977.84375,281251.375,270681.25,274840.90625,253221.40625,241328.578125,239865.796875,0.07861328125,0.87060546875,-0.4892578125,-4.333495616912842,8.361815452575684,7.598876476287842,86.66667175292969,925510.0,1.0
473187.9590982,261404.015625,263072.96875,282015.1875,272315.15625,276069.09375,253275.859375,242389.75,240273.03125,0.080078125,0.87109375,-0.487060546875,-4.669188976287842,7.263183116912842,7.568358898162842,86.66667175292969,925511.0,1.0
473187.9639037,262019.5,263245.53125,282537.5,273175.78125,276715.3125,253276.390625,242663.6875,240355.03125,0.080078125,0.868896484375,-0.485107421875,-4.943847179412842,6.164550304412842,7.446288585662842,86.66667175292969,925512.0,1.0
473187.9663676,262839.28125,263251.34375,282106.125,272080.03125,275883.03125,253212.734375,241751.734375,239993.375,0.0810546875,0.8681640625,-0.48291015625,-5.401610851287842,5.035399913787842,7.385253429412842,86.66667175292969,925513.0,1.0
473187.9690413,262681.65625,263076.125,281318.4375,270558.75,274748.625,253192.171875,240942.34375,239701.28125,0.08447265625,0.86572265625,-0.483642578125,-5.859374523162842,3.875732183456421,7.293700695037842,86.66667175292969,925514.0,1.0
473187.9714935,261819.5,262958.4375,281259.4375,270676.78125,274850.84375,253227.03125,241305.59375,239857.125,0.087890625,0.86328125,-0.48095703125,-5.950927257537842,2.777099370956421,7.232665538787842,86.66667175292969,925515.0,1.0
473187.9738737,261385.515625,263044.1875,282011.78125,272297.625,276075.78125,253271.296875,242363.90625,240261.59375,0.08837890625,0.864501953125,-0.484375,-6.286620616912842,1.8005369901657104,7.019042491912842,86.66667175292969,925516.0,1.0
473187.9803146,262013.515625,263225.15625,282541.53125,273167.65625,276732.40625,253272.015625,242645.90625,240349.578125,0.090576171875,0.866455078125,-0.4853515625,-6.439208507537842,0.6713866591453552,6.774901866912842,86.66667175292969,925517.0,1.0
473187.9803555,262876.1875,263267.71875,282152.875,272116.21875,275941.96875,253235.53125,241770.78125,240013.9375,0.093994140625,0.8720703125,-0.484619140625,-6.744384288787842,-0.2746581733226776,6.744384288787842,86.66667175292969,925518.0,1.0
473187.9826593,262741.71875,263107.65625,281389.53125,270622.96875,274834.28125,253206.03125,240981.59375,239734.09375,0.099853515625,0.876953125,-0.48681640625,-6.866454601287842,-1.2817381620407104,6.683349132537842,86.66667175292969,925519.0,1.0
473187.9863755,261882.53125,262987.78125,281340.34375,270754.375,274950.78125,253213.359375,241348.6875,239892.96875,0.10595703125,0.880859375,-0.487060546875,-6.744384288787842,-2.197265386581421,6.652831554412842,86.66667175292969,925520.0,1.0
473188.0064442,261449.796875,263078.0,282101.375,272391.5,276193.625,253268.4375,242415.953125,240295.84375,0.10888671875,0.8857421875,-0.482666015625,-6.866454601287842,-3.082275152206421,6.439208507537842,86.66667175292969,925521.0,1.0
473188.0064839,262069.828125,263255.09375,282629.875,273262.78125,276856.9375,253273.171875,242698.03125,240375.234375,0.107177734375,0.892333984375,-0.481689453125,-6.988524913787842,-3.845214605331421,6.378173351287842,86.66667175292969,925522.0,1.0
473188.0085579,262935.84375,263300.34375,282243.34375,272210.28125,276067.75,253238.75,241823.359375,240036.734375,0.10791015625,0.90087890625,-0.4794921875,-7.415771007537842,-4.577636241912842,6.134032726287842,86.66667175292969,925523.0,1.0
473188.0085944,262808.34375,263144.96875,281481.625,270718.71875,274961.59375,253215.6875,241034.515625,239749.203125,0.10986328125,0.9130859375,-0.47705078125,-8.331297874450684,-5.249022960662842,5.767821788787842,86.66667175292969,925524.0,1.0
473188.0151777,261957.453125,263036.9375,281431.1875,270857.5625,275082.40625,253252.515625,241411.1875,239906.296875,0.10986328125,0.92431640625,-0.47265625,-9.613036155700684,-5.523681163787842,5.249022960662842,86.66667175292969,925525.0,1.0
473188.0177542,261502.90625,263108.75,282165.40625,272475.90625,276301.1875,253281.484375,242464.40625,240294.9375,0.11181640625,0.931640625,-0.47021484375,-10.864256858825684,-5.981444835662842,4.760741710662842,86.66667175292969,925526.0,1.0
473188.0202673,262104.875,263272.625,282676.09375,273329.75,276947.0625,253273.265625,242733.96875,240365.671875,0.109375,0.934814453125,-0.469482421875,-12.023924827575684,-6.530761241912842,4.394530773162842,86.66667175292969,925527.0,1.0
473188.0225891,262968.28125,263317.78125,282286.1875,272268.21875,276156.53125,253244.921875,241858.046875,240029.3125,0.108154296875,0.9365234375,-0.46826171875,-13.214110374450684,-7.019042491912842,4.119872570037842,86.66667175292969,925528.0,1.0
473188.0253374,262817.46875,263141.125,281497.875,270745.8125,275023.3125,253218.359375,241053.46875,239726.5,0.106689453125,0.932861328125,-0.468994140625,-14.160155296325684,-7.598876476287842,3.845214605331421,86.66667175292969,925529.0,1.0
473188.0253765,261957.359375,263024.15625,281434.6875,270873.03125,275130.84375,253255.921875,241427.109375,239890.28125,0.104736328125,0.93017578125,-0.469970703125,-14.892577171325684,-7.965087413787842,3.387450933456421,86.66667175292969,925530.0,1.0
473188.0276107,261511.484375,263108.03125,282175.3125,272500.40625,276354.75,253311.796875,242496.40625,240303.703125,0.1064453125,0.92724609375,-0.470458984375,-15.502928733825684,-8.483885765075684,2.929687261581421,86.66667175292969,925531.0,1.0
473188.0565004,262105.78125,263264.9375,282672.59375,273336.0,276979.875,253297.84375,242755.0625,240366.734375,0.108642578125,0.927001953125,-0.471923828125,-16.357419967651367,-8.972167015075684,2.380370855331421,86.66667175292969,925532.0,1.0
473188.0589284,262951.3125,263291.75,282261.5,272241.9375,276149.8125,253235.984375,241855.453125,240015.453125,0.111083984375,0.9267578125,-0.46630859375,-17.120359420776367,-9.216307640075684,1.8615721464157104,86.66667175292969,925533.0,1.0
473188.0589693,262806.28125,263124.46875,281476.875,270715.9375,275009.09375,253194.140625,241057.234375,239731.5,0.11083984375,0.924560546875,-0.462158203125,-17.669675827026367,-9.429930686950684,1.2512205839157104,86.66667175292969,925534.0,1.0
473188.0614974,261948.234375,263027.03125,281415.90625,270848.09375,275116.09375,253233.75,241437.5625,239905.75,0.1162109375,0.9228515625,-0.45654296875,-18.768308639526367,-9.490965843200684,0.6408690810203552,86.66667175292969,925535.0,1.0
473188.0640028,261460.796875,263090.25,282117.65625,272441.03125,276302.1875,253254.484375,242475.3125,240282.25,0.11962890625,0.9189453125,-0.450439453125,-19.744871139526367,-9.582518577575684,0.1831054538488388,86.66667175292969,925536.0,1.0
473188.0640433,262059.109375,263255.8125,282617.53125,273275.21875,276923.03125,253238.296875,242737.1875,240361.109375,0.125,0.914306640625,-0.443115234375,-20.660398483276367,-9.582518577575684,-0.1220703050494194,86.66667175292969,925537.0,1.0
473188.0665403,262929.75,263301.40625,282228.25,272192.9375,276108.59375,253187.25,241839.625,240015.453125,0.129638671875,0.906494140625,-0.4453125,-21.392820358276367,-9.399413108825684,-0.3662109076976776,86.66667175292969,925538.0,1.0
473188.0665815,262792.25,263136.28125,281446.375,270663.8125,274967.34375,253158.640625,241028.625,239717.46875,0.134521484375,0.904052734375,-0.449462890625,-22.186277389526367,-8.697508811950684,-0.7019042372703552,86.66667175292969,925539.0,1.0
473188.0690039,261904.875,263007.0,281351.0625,270768.875,275044.5625,253187.4375,241393.84375,239867.21875,0.1337890625,0.902099609375,-0.444580078125,-23.345945358276367,-7.995604991912842,-1.0070799589157104,86.66667175292969,925540.0,1.0
473188.0751415,261420.03125,263067.78125,282049.6875,272372.28125,276234.21875,253229.8125,242458.140625,240258.203125,0.12744140625,0.897216796875,-0.43359375,-24.353025436401367,-7.690429210662842,-1.2207030057907104,86.66667175292969,925541.0,1.0
473188.0751828,262044.890625,263255.8125,282578.375,273243.90625,276884.9375,253257.703125,242750.59375,240350.640625,0.124267578125,0.895263671875,-0.427001953125,-25.634763717651367,-7.293700695037842,-1.7700194120407104,86.66667175292969,925542.0,1.0
473188.1089293,262927.15625,263311.0625,282205.0,272172.375,276083.40625,253243.75,241860.28125,240000.796875,0.120849609375,0.892333984375,-0.421630859375,-26.885984420776367,-6.683349132537842,-2.258300542831421,86.66667175292969,925543.0,1.0
473188.1089696,262782.15625,263134.125,281414.03125,270631.71875,274925.21875,253218.28125,241032.109375,239687.328125,0.11669921875,0.88818359375,-0.42138671875,-27.709959030151367,-6.134032726287842,-2.532958745956421,86.66667175292969,925544.0,1.0
473188.1128672,261883.6875,262996.28125,281306.1875,270732.46875,274991.5625,253238.21875,241387.765625,239839.5,0.112060546875,0.884521484375,-0.4228515625,-28.503416061401367,-5.493163585662842,-2.777099370956421,86.66667175292969,925545.0,1.0
473188.1129074,261389.53125,263056.1875,281997.125,272331.0625,276172.71875,253278.0,242445.0,240230.390625,0.10546875,0.879638671875,-0.42431640625,-29.144285202026367,-5.126952648162842,-3.051757574081421,86.66667175292969,925546.0,1.0
473188.1129171,262000.359375,263224.15625,282509.96875,273181.0625,276800.53125,253268.796875,242712.15625,240301.46875,0.095703125,0.875732421875,-0.427490234375,-29.571531295776367,-4.852294445037842,-3.448486089706421,86.66667175292969,925547.0,1.0
473188.1161603,262894.34375,263270.125,282144.5625,272106.46875,275993.4375,253216.75,241806.1875,239946.703125,0.090576171875,0.87158203125,-0.4296875,-29.785154342651367,-4.608153820037842,-3.936767339706421,86.66667175292969,925548.0,1.0
473188.1162028,262759.875,263100.4375,281365.375,270569.5,274840.71875,253185.734375,240977.03125,239641.640625,0.086669921875,0.86865234375,-0.430419921875,-29.693601608276367,-4.455565929412842,-4.486083507537842,86.66667175292969,925549.0,1.0
473188.1162121,261857.21875,262968.90625,281259.4375,270676.59375,274918.59375,253216.390625,241348.421875,239797.03125,0.084716796875,0.8681640625,-0.4287109375,-29.754636764526367,-4.211425304412842,-5.004882335662842,86.66667175292969,925550.0,1.0
473188.1162215,261350.28125,263027.03125,281948.125,272284.84375,276106.90625,253245.546875,242413.4375,240183.09375,0.085693359375,0.868896484375,-0.42529296875,-29.724119186401367,-4.058837413787842,-5.584716320037842,86.66667175292969,925551.0,1.0
473188.1277796,261957.546875,263200.5625,282467.5,273141.5625,276745.1875,253238.75,242685.6875,240250.78125,0.08642578125,0.866455078125,-0.423095703125,-29.541013717651367,-3.753661870956421,-5.950927257537842,86.66667175292969,925552.0,1.0
473188.1301229,262881.46875,263275.5,282132.75,272088.5,275965.1875,253213.53125,241789.03125,239917.828125,0.08642578125,0.869384765625,-0.41552734375,-29.296873092651367,-3.601073980331421,-6.286620616912842,86.66667175292969,925553.0,1.0
473188.1352756,262765.875,263118.84375,281371.90625,270566.53125,274831.53125,253196.015625,240972.203125,239630.296875,0.083740234375,0.8701171875,-0.414794921875,-29.174802780151367,-3.234863042831421,-6.530761241912842,86.66667175292969,925554.0,1.0
473188.1376483,261833.984375,262960.0625,281233.15625,270640.84375,274870.84375,253204.5,241311.140625,239761.453125,0.082763671875,0.86767578125,-0.40869140625,-29.083250045776367,-2.960204839706421,-6.958007335662842,86.66667175292969,925555.0,1.0
473188.1401293,261313.0,263010.125,281903.4375,272237.90625,276049.40625,253250.8125,242376.34375,240152.25,0.07958984375,0.867431640625,-0.41015625,-28.961179733276367,-2.532958745956421,-7.293700695037842,86.66667175292969,925556.0,1.0
473188.1426166,261963.265625,263218.34375,282461.59375,273133.78125,276725.15625,253287.921875,242689.265625,240268.125,0.07568359375,0.86767578125,-0.407470703125,-29.052732467651367,-2.166747808456421,-7.507323741912842,86.66667175292969,925557.0,1.0
473188.1468206,262859.21875,263256.53125,282097.09375,272043.4375,275907.34375,253229.09375,241760.140625,239907.984375,0.071044921875,0.865966796875,-0.405029296875,-28.930662155151367,-1.8005369901657104,-7.690429210662842,86.66667175292969,925558.0,1.0
473188.1755955,262730.71875,263089.34375,281318.71875,270500.90625,274755.53125,253198.421875,240928.84375,239616.34375,0.0673828125,0.86083984375,-0.403564453125,-28.778074264526367,-1.5869139432907104,-7.843017101287842,86.66667175292969,925559.0,1.0
473188.1913894,261802.234375,262936.1875,281181.21875,270584.59375,274809.0,253211.125,241293.703125,239769.671875,0.066650390625,0.85498046875,-0.401611328125,-28.533933639526367,-1.3122557401657104,-7.904052257537842,86.66667175292969,925560.0,1.0
473188.1940495,261280.8125,262984.125,281853.09375,272193.65625,275997.21875,253234.640625,242377.140625,240169.859375,0.06396484375,0.84716796875,-0.4033203125,-27.770994186401367,-1.2512205839157104,-7.934569835662842,86.66667175292969,925561.0,1.0
473188.1940901,261897.90625,263156.3125,282382.03125,273060.1875,276641.65625,253216.9375,242657.515625,240263.921875,0.057373046875,0.837890625,-0.403564453125,-26.519773483276367,-1.1596678495407104,-7.720946788787842,86.66667175292969,925562.0,1.0
473188.1990295,262821.9375,263211.125,282042.1875,271988.8125,275836.0,253168.46875,241731.453125,239922.921875,0.052490234375,0.835205078125,-0.40234375,-25.543210983276367,-1.0070799589157104,-7.812499523162842,86.66667175292969,925563.0,1.0
473188.2013824,262712.5,263058.6875,281275.875,270453.09375,274682.3125,253148.359375,240895.40625,239638.703125,0.05078125,0.83642578125,-0.40380859375,-24.719236373901367,-0.8850097060203552,-7.904052257537842,86.66667175292969,925564.0,1.0
473188.20391,261791.6875,262925.46875,281145.0,270546.15625,274742.5625,253192.609375,241266.96875,239802.125,0.05224609375,0.83984375,-0.406494140625,-23.651121139526367,-0.8850097060203552,-7.843017101287842,86.66667175292969,925565.0,1.0
473188.2063878,261268.5625,262986.71875,281827.15625,272163.53125,275943.125,253251.984375,242363.46875,240210.0,0.0537109375,0.843505859375,-0.40576171875,-22.430418014526367,-0.6103515028953552,-7.537841320037842,86.66667175292969,925566.0,1.0
473188.2089501,261887.625,263163.46875,282365.65625,273036.9375,276595.4375,253241.609375,242641.4375,240287.078125,0.0517578125,0.850341796875,-0.400390625,-21.514890670776367,-0.2136230319738388,-7.476806163787842,86.66667175292969,925567.0,1.0
473188.2114887,262826.5,263223.53125,282040.21875,271972.71875,275799.625,253196.1875,241709.453125,239933.921875,0.048095703125,0.858642578125,-0.398193359375,-20.782468795776367,-0.0610351525247097,-7.202147960662842,86.66667175292969,925568.0,1.0
473188.2139272,262713.5625,263060.5625,281270.0,270429.375,274643.75,253185.015625,240861.875,239628.6875,0.040771484375,0.86328125,-0.393310546875,-20.294187545776367,-0.3662109076976776,-6.988524913787842,86.66667175292969,925569.0,1.0
473188.2163719,261776.578125,262915.28125,281128.71875,270515.65625,274698.3125,253210.671875,241225.765625,239778.34375,0.038818359375,0.86474609375,-0.395751953125,-19.775388717651367,-0.4577636420726776,-6.683349132537842,86.66667175292969,925570.0,1.0
473188.2180817,261250.234375,262973.375,281807.78125,272139.125,275903.5,253252.25,242328.0625,240188.109375,0.03759765625,0.86767578125,-0.389892578125,-19.439695358276367,-0.3051757514476776,-6.439208507537842,86.66667175292969,925571.0,1.0
473188.2252699,261878.0625,263152.09375,282356.375,273024.5,276570.9375,253237.953125,242616.484375,240273.578125,0.035400390625,0.8740234375,-0.394775390625,-19.287107467651367,-0.2441406100988388,-6.195067882537842,86.66667175292969,925572.0,1.0
473188.2328361,262840.6875,263223.8125,282052.46875,271981.40625,275794.875,253192.171875,241696.9375,239947.78125,0.033203125,0.877685546875,-0.40087890625,-18.829343795776367,-0.2441406100988388,-5.737304210662842,86.66667175292969,925573.0,1.0
473188.2328781,262719.65625,263044.5625,281271.59375,270428.3125,274623.28125,253131.1875,240835.234375,239642.625,0.0302734375,0.87890625,-0.409912109375,-18.310544967651367,-0.2441406100988388,-5.310058116912842,86.66667175292969,925574.0,1.0
473188.2328878,261778.09375,262892.65625,281120.5,270512.09375,274675.25,253145.234375,241206.09375,239799.09375,0.028076171875,0.880126953125,-0.414794921875,-17.303464889526367,-0.3356933295726776,-4.852294445037842,86.66667175292969,925575.0,1.0
473188.2427567,261234.5,262938.6875,281783.0,272129.28125,275874.625,253180.90625,242311.703125,240210.546875,0.025146484375,0.87890625,-0.41748046875,-16.174314498901367,-0.4272460639476776,-4.455565929412842,86.66667175292969,925576.0,1.0
473188.2453146,261865.09375,263128.25,282342.15625,273029.25,276551.8125,253180.09375,242618.546875,240316.9375,0.02294921875,0.878173828125,-0.418701171875,-15.106200218200684,-0.7324218153953552,-4.028319835662842,86.66667175292969,925577.0,1.0
473188.2453545,262806.28125,263191.625,282026.53125,271968.25,275758.21875,253125.734375,241686.203125,239976.03125,0.021484375,0.87451171875,-0.42041015625,-13.854979515075684,-0.9460448622703552,-3.448486089706421,86.66667175292969,925578.0,1.0
473188.2476322,262680.9375,263015.5,281238.0625,270403.28125,274580.90625,253089.796875,240822.0,239669.0,0.024169921875,0.876708984375,-0.4208984375,-12.542723655700684,-1.1901854276657104,-2.868652105331421,86.66667175292969,925579.0,1.0
473188.2502676,261735.625,262864.5,281078.46875,270475.875,274624.53125,253121.53125,241189.109375,239824.21875,0.02783203125,0.880615234375,-0.4248046875,-11.016844749450684,-1.3122557401657104,-2.075195074081421,86.66667175292969,925580.0,1.0
473188.2526835,261201.421875,262921.78125,281749.90625,272102.90625,275834.75,253170.53125,242307.140625,240242.8125,0.029541015625,0.8935546875,-0.432861328125,-9.582518577575684,-1.4648436307907104,-1.3427733182907104,86.66667175292969,925581.0,1.0
473188.2552469,261845.515625,263120.1875,282321.3125,273015.3125,276523.375,253188.59375,242619.53125,240344.65625,0.02880859375,0.9033203125,-0.434326171875,-8.392333030700684,-1.6174315214157104,-0.5493163466453552,86.66667175292969,925582.0,1.0
473188.2577714,262806.625,263194.21875,282023.40625,271968.15625,275744.0,253176.34375,241691.5625,239996.40625,0.02685546875,0.9091796875,-0.43408203125,-7.324218273162842,-1.8310545682907104,0.3051757514476776,86.66667175292969,925583.0,1.0
473188.2677748,262694.53125,263021.9375,281249.875,270414.46875,274583.25,253161.59375,240829.59375,239689.390625,0.0263671875,0.915283203125,-0.432861328125,-6.408690929412842,-2.014159917831421,1.1291502714157104,86.66667175292969,925584.0,1.0
473188.2701115,261754.140625,262873.6875,281098.59375,270497.15625,274637.78125,253195.203125,241200.28125,239841.46875,0.0263671875,0.91650390625,-0.43212890625,-5.432128429412842,-2.349853277206421,1.9836424589157104,86.66667175292969,925585.0,1.0
473188.2777759,261209.65625,262929.84375,281768.25,272125.25,275847.4375,253242.421875,242315.625,240243.796875,0.0283203125,0.917724609375,-0.436279296875,-4.516601085662842,-2.441406011581421,2.746581792831421,86.66667175292969,925586.0,1.0
473188.2778167,261849.890625,263127.96875,282342.40625,273043.125,276540.34375,253254.9375,242630.078125,240347.78125,0.02685546875,0.92333984375,-0.439453125,-3.540038824081421,-2.563476324081421,3.540038824081421,86.66667175292969,925587.0,1.0
473188.2852962,262811.1875,263194.65625,282034.3125,271985.6875,275750.90625,253214.34375,241687.28125,239995.078125,0.025390625,0.927490234375,-0.44775390625,-2.410888433456421,-2.746581792831421,4.333495616912842,86.66667175292969,925588.0,1.0
473188.2853366,262708.8125,263027.84375,281258.625,270432.0625,274586.1875,253187.515625,240824.328125,239689.84375,0.019287109375,0.932373046875,-0.449462890625,-1.4648436307907104,-2.929687261581421,4.943847179412842,86.66667175292969,925589.0,1.0
473188.2876413,261767.015625,262869.84375,281101.625,270511.65625,274634.09375,253206.46875,241195.71875,239845.3125,0.013671875,0.935302734375,-0.45166015625,-0.4272460639476776,-3.356933355331421,5.615233898162842,86.66667175292969,925590.0,1.0
473188.2902358,261228.421875,262922.34375,281777.28125,272149.59375,275853.53125,253254.125,242320.015625,240260.515625,0.00439453125,0.935302734375,-0.45263671875,0.4882812201976776,-3.936767339706421,6.195067882537842,86.66667175292969,925591.0,1.0
473188.2927306,261862.59375,263113.84375,282343.75,273055.4375,276544.8125,253267.359375,242629.265625,240357.796875,-0.003173828125,0.93505859375,-0.454345703125,1.4953612089157104,-4.394530773162842,6.744384288787842,86.66667175292969,925592.0,1.0
473188.2951167,262838.75,263202.875,282053.625,272006.78125,275774.3125,253251.890625,241712.578125,240029.671875,-0.01171875,0.935546875,-0.46044921875,2.441406011581421,-5.126952648162842,7.232665538787842,86.66667175292969,925593.0,1.0
473188.2977967,262718.46875,263021.84375,281262.28125,270429.46875,274593.25,253197.796875,240838.984375,239709.953125,-0.014892578125,0.9365234375,-0.462890625,3.601073980331421,-5.981444835662842,7.720946788787842,86.66667175292969,925594.0,1.0
473188.3001624,261769.609375,262857.25,281098.21875,270503.25,274633.75,253194.578125,241203.140625,239846.390625,-0.015869140625,0.938232421875,-0.46630859375,4.577636241912842,-6.835937023162842,8.178709983825684,86.66667175292969,925595.0,1.0
473188.3001978,261245.5,262920.90625,281785.6875,272157.09375,275858.53125,253241.796875,242332.796875,240258.640625,-0.01806640625,0.93994140625,-0.470703125,5.584716320037842,-7.934569835662842,8.575438499450684,86.66667175292969,925596.0,1.0
473188.3052951,261880.46875,263117.5,282356.09375,273070.28125,276548.40625,253263.421875,242642.953125,240353.765625,-0.019287109375,0.939453125,-0.470703125,6.622313976287842,-9.094237327575684,9.063719749450684,86.66667175292969,925597.0,1.0
473188.3053369,262823.09375,263179.65625,282036.75,271990.875,275750.28125,253234.375,241697.203125,239994.71875,-0.020263671875,0.93994140625,-0.47412109375,7.812499523162842,-10.223387718200684,9.338377952575684,86.66667175292969,925598.0,1.0
473188.3077817,262712.65625,263015.125,281262.65625,270427.96875,274586.375,253210.3125,240839.96875,239690.109375,-0.017333984375,0.940185546875,-0.4755859375,8.636473655700684,-11.230467796325684,9.857176780700684,86.66667175292969,925599.0,1.0
473188.3126563,261777.921875,262869.3125,281118.15625,270521.9375,274646.53125,253229.8125,241222.453125,239849.96875,-0.016845703125,0.94189453125,-0.47705078125,9.552000999450684,-12.207030296325684,10.345458030700684,86.66667175292969,925600.0,1.0
473188.3126955,261245.328125,262921.25,281798.125,272175.0625,275864.15625,253270.40625,242348.0,240258.90625,-0.015869140625,0.941650390625,-0.47705078125,10.406493186950684,-13.183592796325684,10.711668968200684,86.66667175292969,925601.0,1.0
473188.3177741,261882.078125,263118.59375,282369.4375,273089.34375,276558.59375,253290.0625,242666.640625,240361.46875,-0.0107421875,0.9404296875,-0.475830078125,11.199950218200684,-14.099120140075684,11.291502952575684,86.66667175292969,925602.0,1.0
473188.3202278,262812.28125,263177.78125,282039.96875,271993.28125,275756.6875,253237.59375,241721.25,240005.984375,-0.009033203125,0.9365234375,-0.475830078125,12.054442405700684,-15.075682640075684,11.718749046325684,86.66667175292969,925603.0,1.0
473188.3264823,262704.8125,263018.25,281268.28125,270431.8125,274599.15625,253205.40625,240868.75,239706.015625,-0.009521484375,0.932861328125,-0.477294921875,12.908934593200684,-15.991209983825684,12.115477561950684,86.66667175292969,925604.0,1.0
473188.3340134,261786.0625,262880.3125,281135.53125,270545.4375,274671.75,253238.03125,241259.734375,239867.578125,-0.0078125,0.930419921875,-0.48193359375,13.854979515075684,-16.815183639526367,12.634276390075684,86.66667175292969,925605.0,1.0
473188.3340536,261245.40625,262920.1875,281804.71875,272196.25,275876.25,253262.796875,242368.203125,240258.828125,-0.0048828125,0.92626953125,-0.483642578125,14.648436546325684,-17.669675827026367,13.000487327575684,86.66667175292969,925606.0,1.0
473188.3364915,261883.25,263119.28125,282379.53125,273112.59375,276571.65625,253260.828125,242682.640625,240362.453125,-0.0029296875,0.925048828125,-0.488037109375,15.502928733825684,-18.524168014526367,13.427733421325684,86.66667175292969,925607.0,1.0
473188.3565679,262825.78125,263189.84375,282065.09375,272022.4375,275786.375,253205.140625,241750.484375,240006.609375,-0.0009765625,0.922119140625,-0.489501953125,16.326902389526367,-19.226072311401367,13.641356468200684,86.66667175292969,925608.0,1.0
473188.3566096,262706.15625,263018.09375,281283.84375,270445.9375,274626.25,253159.265625,240890.484375,239689.21875,-0.0009765625,0.9189453125,-0.490234375,17.089841842651367,-19.989011764526367,13.977049827575684,86.66667175292969,925609.0,1.0
473188.3604025,261790.703125,262876.28125,281154.28125,270571.625,274701.34375,253188.765625,241279.40625,239857.03125,-0.00244140625,0.914306640625,-0.489501953125,17.852781295776367,-20.660398483276367,14.251708030700684,86.66667175292969,925610.0,1.0
473188.3604448,261264.546875,262925.0,281834.84375,272245.25,275909.84375,253215.0625,242389.21875,240262.578125,-0.0009765625,0.90478515625,-0.49169921875,18.707273483276367,-21.392820358276367,14.343260765075684,86.66667175292969,925611.0,1.0
473188.3604539,261903.09375,263126.4375,282405.625,273153.625,276599.53125,253218.359375,242701.328125,240368.703125,-0.00341796875,0.89990234375,-0.49072265625,19.439695358276367,-22.094724655151367,14.404295921325684,86.66667175292969,925612.0,1.0
473188.3604633,262840.53125,263203.6875,282089.84375,272048.28125,275821.0625,253175.1875,241778.46875,240027.171875,-0.007080078125,0.89306640625,-0.489990234375,20.141599655151367,-22.888181686401367,14.526366233825684,86.66667175292969,925613.0,1.0
473188.3653048,262732.6875,263049.28125,281323.1875,270482.125,274683.625,253150.859375,240942.34375,239738.828125,-0.0087890625,0.889892578125,-0.489990234375,20.935056686401367,-23.620603561401367,14.495848655700684,86.66667175292969,925614.0,1.0
473188.365345,261808.5,262891.125,281184.34375,270601.75,274748.8125,253165.171875,241317.046875,239896.546875,-0.01025390625,0.884521484375,-0.490234375,21.759031295776367,-24.383543014526367,14.556883811950684,86.66667175292969,925615.0,1.0
473188.3676292,261296.375,262943.53125,281879.125,272293.53125,275966.0,253208.984375,242427.84375,240313.1875,-0.01220703125,0.877685546875,-0.4892578125,22.460935592651367,-25.177000045776367,14.556883811950684,86.66667175292969,925616.0,1.0
473188.3952396,261914.265625,263129.5625,282428.53125,273180.34375,276636.90625,253204.421875,242719.296875,240401.421875,-0.01171875,0.87255859375,-0.49169921875,23.040769577026367,-25.848386764526367,14.556883811950684,86.66667175292969,925617.0,1.0
473188.3990962,262832.75,263201.09375,282096.71875,272053.03125,275853.25,253160.25,241791.171875,240048.453125,-0.011474609375,0.870361328125,-0.48974609375,23.803709030151367,-26.611326217651367,14.282225608825684,86.66667175292969,925618.0,1.0
473188.3991377,262714.09375,263042.125,281327.90625,270481.875,274717.53125,253126.546875,240955.390625,239750.71875,-0.010986328125,0.86767578125,-0.489990234375,24.566648483276367,-27.435300827026367,14.068602561950684,86.66667175292969,925619.0,1.0
473188.3991475,261804.296875,262892.375,281206.0625,270629.65625,274794.875,253144.421875,241338.234375,239919.875,-0.010009765625,0.864990234375,-0.491455078125,25.146482467651367,-28.228757858276367,13.885497093200684,86.66667175292969,925620.0,1.0
473188.4015833,261299.765625,262941.71875,281900.3125,272330.71875,276001.6875,253179.390625,242440.625,240334.1875,-0.01123046875,0.859375,-0.489501953125,25.665281295776367,-28.839109420776367,13.641356468200684,86.66667175292969,925621.0,1.0
473188.4016226,261930.359375,263141.46875,282462.125,273230.96875,276682.0625,253185.46875,242744.6875,240428.15625,-0.0107421875,0.858154296875,-0.487060546875,26.214597702026367,-29.388425827026367,13.427733421325684,86.66667175292969,925622.0,1.0
473188.403912,262845.625,263218.4375,282131.15625,272093.875,275905.5625,253152.46875,241826.484375,240073.65625,-0.010009765625,0.856689453125,-0.486083984375,26.641843795776367,-30.029294967651367,13.214110374450684,86.66667175292969,925623.0,1.0
473188.4089185,262721.34375,263058.84375,281359.5625,270514.78125,274770.8125,253131.546875,240990.796875,239774.6875,-0.011474609375,0.855224609375,-0.482666015625,26.947019577026367,-30.639646530151367,12.969969749450684,86.66667175292969,925624.0,1.0
473188.4113671,261818.328125,262908.375,281236.0,270666.84375,274838.59375,253155.421875,241365.234375,239934.546875,-0.0126953125,0.857421875,-0.484130859375,27.343748092651367,-31.249998092651367,12.725829124450684,86.66667175292969,925625.0,1.0
473188.4189496,261310.5,262943.15625,281917.5625,272362.71875,276022.875,253176.703125,242442.40625,240335.53125,-0.011474609375,0.861328125,-0.4853515625,27.618406295776367,-31.890867233276367,12.481688499450684,86.66667175292969,925626.0,1.0
473188.4189899,261924.734375,263131.53125,282457.5,273229.4375,276678.5,253171.515625,242723.953125,240424.140625,-0.0087890625,0.8642578125,-0.48486328125,27.618406295776367,-32.379146575927734,12.207030296325684,86.66667175292969,925627.0,1.0
473188.4213784,262842.75,263225.25,282131.875,272082.25,275914.25,253152.5625,241824.703125,240097.265625,-0.00927734375,0.866455078125,-0.484375,27.618406295776367,-32.928462982177734,11.932372093200684,86.66667175292969,925628.0,1.0
473188.4240254,262719.1875,263068.15625,281362.6875,270504.65625,274790.9375,253148.890625,240999.5625,239812.421875,-0.00439453125,0.86962890625,-0.480712890625,27.557371139526367,-33.294673919677734,11.566161155700684,86.66667175292969,925629.0,1.0
473188.4240722,261807.25,262902.40625,281227.6875,270651.125,274838.6875,253169.28125,241352.625,239961.546875,0.001708984375,0.870849609375,-0.483642578125,27.557371139526367,-33.630367279052734,11.291502952575684,86.66667175292969,925630.0,1.0
473188.4305804,261295.390625,262927.875,281900.125,272341.0,275994.4375,253196.375,242406.640625,240346.890625,0.00439453125,0.874755859375,-0.48046875,27.374265670776367,-33.782955169677734,11.047362327575684,86.66667175292969,925631.0,1.0
473188.4452363,261906.9375,263116.0625,282435.59375,273197.15625,276637.28125,253207.1875,242684.34375,240428.703125,0.010498046875,0.87841796875,-0.47802734375,26.977537155151367,-33.874507904052734,10.742186546325684,86.66667175292969,925632.0,1.0
473188.4501298,262807.4375,263203.96875,282094.125,272021.5625,275865.5,253183.671875,241781.78125,240079.296875,0.0126953125,0.880615234375,-0.47802734375,26.489255905151367,-33.935543060302734,10.620116233825684,86.66667175292969,925633.0,1.0
473188.4526275,262682.71875,263051.25,281323.90625,270438.875,274748.71875,253160.25,240967.375,239776.921875,0.01416015625,0.883544921875,-0.47705078125,25.817869186401367,-34.088130950927734,10.559081077575684,86.66667175292969,925634.0,1.0
473188.4552821,261780.515625,262884.96875,281192.03125,270597.75,274795.03125,253173.296875,241321.609375,239920.421875,0.015380859375,0.885498046875,-0.476318359375,25.207517623901367,-33.966060638427734,10.528563499450684,86.66667175292969,925635.0,1.0
473188.4553249,261286.359375,262917.3125,281868.375,272302.5625,275943.28125,253204.234375,242365.609375,240307.109375,0.017822265625,0.885009765625,-0.478271484375,24.658201217651367,-33.874507904052734,10.345458030700684,86.66667175292969,925636.0,1.0
473188.4576812,261896.203125,263108.65625,282398.5625,273153.09375,276577.8125,253211.296875,242633.03125,240384.34375,0.01806640625,0.886474609375,-0.477783203125,23.925779342651367,-33.905025482177734,10.223387718200684,86.66667175292969,925637.0,1.0
473188.4601056,262804.9375,263215.75,282070.90625,271981.03125,275825.71875,253203.078125,241754.609375,240046.65625,0.019287109375,0.8876953125,-0.479736328125,23.162839889526367,-33.813472747802734,10.192870140075684,86.66667175292969,925638.0,1.0
473188.465286,262680.65625,263068.25,281308.59375,270406.3125,274721.28125,253185.828125,240959.953125,239769.5,0.01904296875,0.89111328125,-0.476806640625,22.491453170776367,-33.782955169677734,10.131834983825684,86.66667175292969,925639.0,1.0
473188.4676809,261781.671875,262896.65625,281178.6875,270576.5625,274765.0,253191.359375,241307.5625,239932.21875,0.02099609375,0.892822265625,-0.479248046875,21.575925827026367,-33.599849700927734,9.887694358825684,86.66667175292969,925640.0,1.0
473188.4739288,261291.015625,262922.34375,281852.28125,272282.78125,275896.4375,253224.71875,242331.546875,240326.953125,0.0224609375,0.8955078125,-0.48046875,20.782468795776367,-33.325191497802734,9.857176780700684,86.66667175292969,925641.0,1.0
473188.4739691,261903.265625,263113.03125,282380.40625,273123.21875,276524.4375,253222.75,242596.015625,240403.578125,0.025146484375,0.900390625,-0.4794921875,19.927976608276367,-33.203121185302734,9.582518577575684,86.66667175292969,925642.0,1.0
473188.481494,262796.28125,263212.71875,282040.6875,271934.09375,275776.46875,253182.15625,241723.484375,240053.359375,0.0244140625,0.90234375,-0.479736328125,18.981931686401367,-32.897945404052734,9.429930686950684,86.66667175292969,925643.0,1.0
473188.506567,262681.1875,263071.46875,281288.59375,270374.3125,274696.78125,253172.765625,240948.515625,239773.703125,0.024658203125,0.90478515625,-0.48046875,17.944334030151367,-32.653804779052734,9.216307640075684,86.66667175292969,925644.0,1.0
473188.506607,261776.40625,262888.71875,281150.34375,270547.21875,274732.46875,253178.9375,241285.578125,239918.984375,0.02734375,0.9072265625,-0.478515625,16.998289108276367,-32.562252044677734,9.063719749450684,86.66667175292969,925645.0,1.0
473188.509031,261272.859375,262897.375,281805.8125,272245.0625,275840.375,253193.0625,242287.828125,240295.484375,0.028564453125,0.90966796875,-0.477294921875,15.960692405700684,-32.165523529052734,8.880614280700684,86.66667175292969,925646.0,1.0
473188.5090714,261885.03125,263095.25,282337.59375,273084.15625,276469.0,253189.9375,242556.5,240384.625,0.0302734375,0.913330078125,-0.478759765625,14.801024436950684,-31.890867233276367,8.758543968200684,86.66667175292969,925647.0,1.0
473188.5113942,262780.34375,263206.75,282012.6875,271892.09375,275739.71875,253182.78125,241700.875,240045.40625,0.03125,0.91748046875,-0.478759765625,13.549803733825684,-31.494138717651367,8.636473655700684,86.66667175292969,925648.0,1.0
473188.5139913,262648.125,263055.46875,281253.1875,270319.6875,274656.71875,253171.78125,240917.578125,239739.375,0.035400390625,0.92041015625,-0.477294921875,12.329100608825684,-31.036375045776367,8.453368186950684,86.66667175292969,925649.0,1.0
473188.529358,261750.03125,262877.4375,281122.1875,270511.1875,274692.125,253187.78125,241258.75,239887.78125,0.040283203125,0.920654296875,-0.478271484375,11.138915061950684,-30.609128952026367,8.331297874450684,86.66667175292969,925650.0,1.0
473188.5343011,261244.609375,262878.15625,281767.96875,272207.25,275779.0625,253200.484375,242247.859375,240267.140625,0.04541015625,0.92236328125,-0.47998046875,9.948729515075684,-30.242918014526367,8.117674827575684,86.66667175292969,925651.0,1.0
473188.53934,261861.34375,263074.78125,282300.84375,273042.84375,276405.34375,253199.328125,242515.8125,240355.46875,0.047607421875,0.92578125,-0.480224609375,8.728026390075684,-29.663084030151367,7.934569835662842,86.66667175292969,925652.0,1.0
473188.5702823,262770.34375,263203.25,281998.90625,271863.9375,275703.3125,253186.09375,241684.15625,240031.640625,0.05126953125,0.92822265625,-0.47900390625,7.446288585662842,-28.930662155151367,7.965087413787842,86.66667175292969,925653.0,1.0
473188.5726578,262647.21875,263065.84375,281257.65625,270310.9375,274646.09375,253160.421875,240926.25,239754.5625,0.05517578125,0.927490234375,-0.478515625,6.256103038787842,-28.259275436401367,7.873534679412842,86.66667175292969,925654.0,1.0
473188.5751159,261720.25,262862.4375,281094.9375,270480.0,274655.03125,253135.390625,241241.40625,239879.375,0.058837890625,0.9296875,-0.479736328125,5.004882335662842,-27.404783248901367,7.843017101287842,86.66667175292969,925655.0,1.0
473188.5777839,261225.203125,262871.5625,281741.25,272184.1875,275735.25,253150.59375,242231.046875,240264.90625,0.05859375,0.9306640625,-0.478759765625,3.631591558456421,-26.580808639526367,7.659911632537842,86.66667175292969,925656.0,1.0
473188.5801117,261848.828125,263082.0,282280.46875,273021.125,276365.375,253159.359375,242500.796875,240359.234375,0.05859375,0.92822265625,-0.479248046875,2.288818120956421,-25.726316452026367,7.476806163787842,86.66667175292969,925657.0,1.0
473188.5827324,262750.9375,263209.3125,281976.46875,271829.15625,275671.9375,253135.65625,241668.328125,240029.671875,0.061279296875,0.929443359375,-0.48193359375,0.9460448622703552,-24.810789108276367,7.415771007537842,86.66667175292969,925658.0,1.0
473188.5852176,262617.0,263052.59375,281219.1875,270259.96875,274607.5625,253098.5625,240899.953125,239743.296875,0.063232421875,0.92822265625,-0.483154296875,-0.3356933295726776,-23.956296920776367,7.385253429412842,86.66667175292969,925659.0,1.0
473188.5877449,261703.265625,262852.875,281058.96875,270443.34375,274616.3125,253102.9375,241222.0,239891.265625,0.064208984375,0.926025390625,-0.482421875,-1.4953612089157104,-23.101804733276367,7.293700695037842,86.66667175292969,925660.0,1.0
473188.5927432,261205.625,262860.625,281696.28125,272143.78125,275677.5625,253125.109375,242200.296875,240271.703125,0.067626953125,0.92724609375,-0.480224609375,-2.777099370956421,-22.216794967651367,7.232665538787842,86.66667175292969,925661.0,1.0
473188.5977543,261835.859375,263078.78125,282240.6875,272981.78125,276308.25,253144.0625,242474.421875,240365.578125,0.0693359375,0.92431640625,-0.4765625,-4.028319835662842,-21.240232467651367,6.988524913787842,86.66667175292969,925662.0,1.0
473188.6002686,262747.90625,263216.21875,281950.71875,271798.84375,275631.09375,253135.125,241656.515625,240038.96875,0.070068359375,0.923583984375,-0.47607421875,-5.126952648162842,-20.172117233276367,6.835937023162842,86.66667175292969,925663.0,1.0
473188.602655,262617.0,263066.53125,281206.59375,270240.46875,274581.71875,253135.9375,240900.140625,239751.4375,0.07177734375,0.921142578125,-0.477783203125,-6.347655773162842,-19.134519577026367,6.774901866912842,86.66667175292969,925664.0,1.0
473188.6051112,261681.1875,262844.09375,281023.9375,270405.6875,274568.75,253144.6875,241203.859375,239872.765625,0.07470703125,0.920166015625,-0.475341796875,-7.507323741912842,-18.066404342651367,6.683349132537842,86.66667175292969,925665.0,1.0
473188.607727,261161.90625,262830.15625,281634.84375,272082.53125,275601.75,253165.53125,242161.765625,240240.671875,0.076171875,0.919921875,-0.48046875,-8.483885765075684,-16.967771530151367,6.439208507537842,86.66667175292969,925666.0,1.0
473188.6102286,261782.125,263035.34375,282171.125,272910.15625,276222.6875,253179.65625,242425.59375,240327.21875,0.079345703125,0.921142578125,-0.477294921875,-9.582518577575684,-15.899657249450684,6.195067882537842,86.66667175292969,925667.0,1.0
473188.6126426,262721.96875,263192.53125,281915.6875,271751.0,275578.78125,253191.0,241631.125,240023.765625,0.08154296875,0.92236328125,-0.474853515625,-10.528563499450684,-14.648436546325684,6.072997570037842,86.66667175292969,925668.0,1.0
473188.6176329,262605.46875,263050.625,281188.09375,270208.8125,274551.75,253178.125,240887.625,239754.03125,0.086669921875,0.921630859375,-0.474365234375,-11.627196311950684,-13.488768577575684,5.950927257537842,86.66667175292969,925669.0,1.0
473188.6176731,261659.09375,262820.59375,280994.4375,270377.25,274531.8125,253161.328125,241185.4375,239883.40625,0.088134765625,0.921630859375,-0.4755859375,-13.092040061950684,-11.535643577575684,5.767821788787842,86.66667175292969,925670.0,1.0
473188.6201952,261145.90625,262816.75,281607.21875,272068.40625,275565.09375,253190.5625,242150.859375,240268.484375,0.09033203125,0.9169921875,-0.471435546875,-14.099120140075684,-10.162352561950684,5.706786632537842,86.66667175292969,925671.0,1.0
473188.6202088,261773.0,263029.34375,282154.40625,272902.65625,276193.625,253203.078125,242420.421875,240350.46875,0.092529296875,0.916015625,-0.467529296875,-15.075682640075684,-8.911131858825684,5.584716320037842,86.66667175292969,925672.0,1.0
473188.6225599,262731.28125,263198.0625,281926.9375,271760.5625,275579.3125,253206.46875,241636.578125,240041.109375,0.090087890625,0.913818359375,-0.4677734375,-15.960692405700684,-7.537841320037842,5.493163585662842,86.66667175292969,925673.0,1.0
473188.622574,262631.125,263064.21875,281218.5625,270235.5625,274578.125,253191.09375,240907.65625,239772.1875,0.08984375,0.911865234375,-0.46728515625,-16.845701217651367,-6.225585460662842,5.249022960662842,86.66667175292969,925674.0,1.0
473188.6274905,261695.484375,262844.625,281031.28125,270415.0,274571.78125,253194.40625,241225.484375,239918.09375,0.08984375,0.90673828125,-0.468017578125,-17.608640670776367,-4.882812023162842,5.035399913787842,86.66667175292969,925675.0,1.0
473188.6302097,261147.78125,262812.4375,281609.09375,272077.96875,275577.25,253213.453125,242172.84375,240279.921875,0.089599609375,0.90283203125,-0.46875,-18.371580123901367,-3.540038824081421,4.852294445037842,86.66667175292969,925676.0,1.0
473188.6352208,261791.59375,263038.375,282175.6875,272928.59375,276223.3125,253233.5625,242458.40625,240378.625,0.087890625,0.89892578125,-0.46826171875,-18.920896530151367,-2.258300542831421,4.669188976287842,86.66667175292969,925677.0,1.0
473188.635234,262768.0,263218.28125,281969.40625,271800.90625,275626.71875,253235.796875,241683.875,240075.0,0.08740234375,0.893798828125,-0.464599609375,-19.470212936401367,-1.2512205839157104,4.455565929412842,86.66667175292969,925678.0,1.0
473188.6402397,262663.0625,263075.65625,281256.40625,270266.9375,274617.65625,253205.140625,240938.3125,239787.828125,0.083740234375,0.888671875,-0.464111328125,-19.958494186401367,-0.0610351525247097,4.089354991912842,86.66667175292969,925679.0,1.0
473188.6427731,261698.078125,262833.375,281038.25,270416.59375,274582.53125,253195.03125,241228.078125,239903.78125,0.08154296875,0.884033203125,-0.460205078125,-20.202634811401367,1.0375975370407104,3.845214605331421,86.66667175292969,925680.0,1.0
473188.6427868,261136.609375,262798.40625,281603.03125,272067.875,275575.9375,253214.96875,242174.28125,240266.15625,0.081298828125,0.882568359375,-0.461181640625,-20.507810592651367,2.075195074081421,3.631591558456421,86.66667175292969,925681.0,1.0
473188.6452125,261781.5,263030.96875,282173.1875,272922.21875,276226.09375,253248.765625,242464.9375,240372.375,0.08203125,0.8828125,-0.457763671875,-20.629880905151367,2.685546636581421,3.509521245956421,86.66667175292969,925682.0,1.0
473188.6465884,262778.375,263218.90625,281986.75,271812.0625,275646.46875,253259.765625,241695.765625,240086.0,0.07958984375,0.881591796875,-0.45703125,-20.904539108276367,3.479003667831421,3.143310308456421,86.66667175292969,925683.0,1.0
473188.653949,262675.21875,263067.53125,281269.8125,270274.28125,274636.0,253226.046875,240939.484375,239801.59375,0.076904296875,0.882080078125,-0.455078125,-21.118162155151367,4.516601085662842,2.807616949081421,86.66667175292969,925684.0,1.0
473188.6564992,261711.140625,262826.9375,281048.25,270422.0625,274602.90625,253219.703125,241233.8125,239924.359375,0.077880859375,0.881591796875,-0.453125,-21.392820358276367,5.279540538787842,2.716064214706421,86.66667175292969,925685.0,1.0
473188.6565185,261140.890625,262793.125,281603.21875,272065.96875,275588.53125,253229.984375,242182.0625,240291.90625,0.07470703125,0.880615234375,-0.452880859375,-21.606443405151367,6.225585460662842,2.380370855331421,86.66667175292969,925686.0,1.0
473188.6589651,261787.3125,263024.96875,282171.65625,272922.0625,276235.9375,253244.65625,242468.0625,240392.578125,0.073974609375,0.876953125,-0.44970703125,-21.697996139526367,6.958007335662842,2.258300542831421,86.66667175292969,925687.0,1.0
473188.6614548,262788.125,263202.625,281989.34375,271812.34375,275655.40625,253237.3125,241684.328125,240081.890625,0.0712890625,0.872802734375,-0.450439453125,-21.697996139526367,7.659911632537842,2.044677495956421,86.66667175292969,925688.0,1.0
473188.6664214,262704.96875,263067.34375,281294.9375,270291.96875,274660.5625,253222.125,240938.9375,239805.265625,0.0703125,0.870361328125,-0.448974609375,-21.728513717651367,8.361815452575684,1.8615721464157104,86.66667175292969,925689.0,1.0
473188.673992,261733.671875,262829.53125,281066.125,270433.78125,274621.3125,253225.96875,241241.5,239938.5625,0.069580078125,0.86865234375,-0.44873046875,-21.545408248901367,8.911131858825684,1.7395018339157104,86.66667175292969,925690.0,1.0
473188.6740181,261151.890625,262795.375,281612.875,272075.375,275606.6875,253239.109375,242200.03125,240308.53125,0.06640625,0.867919921875,-0.448974609375,-21.301267623901367,9.552000999450684,1.4038084745407104,86.66667175292969,925691.0,1.0
473188.6764904,261807.515625,263037.65625,282196.96875,272950.5,276271.25,253253.140625,242499.265625,240413.046875,0.0673828125,0.86474609375,-0.447998046875,-20.996091842651367,9.979247093200684,1.1901854276657104,86.66667175292969,925692.0,1.0
473188.6789933,262829.09375,263233.5625,282042.1875,271868.3125,275712.09375,253240.71875,241725.984375,240109.515625,0.0634765625,0.8662109375,-0.4453125,-20.629880905151367,10.681151390075684,1.0375975370407104,86.66667175292969,925693.0,1.0
473188.6825696,262749.78125,263104.625,281353.40625,270355.28125,274722.53125,253210.234375,240980.96875,239844.78125,0.060791015625,0.865478515625,-0.44287109375,-20.294187545776367,10.955809593200684,0.8239745497703552,86.66667175292969,925694.0,1.0
473188.706499,261739.125,262834.625,281087.15625,270456.75,274648.59375,253170.53125,241249.453125,239952.0625,0.06005859375,0.864501953125,-0.441162109375,-19.836423873901367,11.169432640075684,0.7934569716453552,86.66667175292969,925695.0,1.0
473188.7065393,261147.328125,262795.5625,281622.25,272083.6875,275628.84375,253181.96875,242207.0,240322.125,0.059814453125,0.86474609375,-0.4404296875,-19.348142623901367,11.383055686950684,0.7324218153953552,86.66667175292969,925696.0,1.0
473188.7140593,261811.0,263046.78125,282215.65625,272967.75,276304.5,253213.171875,242522.78125,240443.359375,0.058349609375,0.8671875,-0.43896484375,-18.951414108276367,11.627196311950684,0.7019042372703552,86.66667175292969,925697.0,1.0
473188.7140996,262829.09375,263227.21875,282051.65625,271879.46875,275734.96875,253200.390625,241733.953125,240138.390625,0.05712890625,0.869384765625,-0.43505859375,-18.463132858276367,11.779784202575684,0.6408690810203552,86.66667175292969,925698.0,1.0
473188.7163777,262751.28125,263087.28125,281361.28125,270361.34375,274743.71875,253182.15625,240980.25,239858.375,0.05419921875,0.87109375,-0.43310546875,-18.035886764526367,11.962889671325684,0.6408690810203552,86.66667175292969,925699.0,1.0
473188.7188731,261751.09375,262832.03125,281106.90625,270474.8125,274689.375,253181.890625,241271.359375,239983.359375,0.056884765625,0.86962890625,-0.431640625,-17.486570358276367,12.054442405700684,0.5187987685203552,86.66667175292969,925700.0,1.0
473188.7215132,261152.078125,262800.46875,281638.96875,272103.34375,275672.03125,253214.78125,242239.1875,240363.421875,0.055419921875,0.869384765625,-0.430908203125,-16.937253952026367,11.932372093200684,0.5493163466453552,86.66667175292969,925701.0,1.0
473188.7264822,261788.375,263025.59375,282210.71875,272966.3125,276321.75,253238.390625,242527.96875,240460.171875,0.0546875,0.867919921875,-0.43212890625,-16.296384811401367,11.962889671325684,0.5187987685203552,86.66667175292969,925702.0,1.0
473188.7290304,262836.21875,263226.21875,282078.40625,271907.375,275778.25,253250.015625,241756.125,240170.125,0.052978515625,0.86865234375,-0.4306640625,-15.533446311950684,11.932372093200684,0.5798339247703552,86.66667175292969,925703.0,1.0
473188.7314096,262763.375,263090.59375,281390.59375,270389.59375,274786.90625,253211.5625,240998.21875,239890.734375,0.052734375,0.869140625,-0.433349609375,-14.678954124450684,11.749266624450684,0.5187987685203552,86.66667175292969,925704.0,1.0
473188.7314517,261763.078125,262844.28125,281131.6875,270493.40625,274730.03125,253205.3125,241294.0625,240013.125,0.050537109375,0.869873046875,-0.43212890625,-13.916014671325684,11.566161155700684,0.5493163466453552,86.66667175292969,925705.0,1.0
473188.7338779,261148.9375,262803.5,281646.46875,272103.53125,275700.1875,253223.1875,242257.25,240375.234375,0.052001953125,0.873046875,-0.430419921875,-12.939452171325684,11.444090843200684,0.5493163466453552,86.66667175292969,925706.0,1.0
473188.736382,261797.859375,263039.46875,282229.9375,272981.40625,276360.65625,253236.6875,242559.09375,240470.71875,0.05322265625,0.87744140625,-0.4228515625,-12.145995140075684,11.383055686950684,0.5493163466453552,86.66667175292969,925707.0,1.0
473188.7389634,262839.53125,263224.625,282090.375,271919.4375,275801.5,253227.9375,241767.125,240156.8125,0.054931640625,0.88232421875,-0.4208984375,-11.535643577575684,11.138915061950684,0.6408690810203552,86.66667175292969,925708.0,1.0
473188.7565673,262769.96875,263083.0,281398.375,270402.125,274805.59375,253195.921875,241000.984375,239866.328125,0.054931640625,0.888427734375,-0.419921875,-10.833739280700684,10.772704124450684,0.8239745497703552,86.66667175292969,925709.0,1.0
473188.7566086,261763.53125,262834.1875,281129.53125,270498.9375,274743.28125,253172.046875,241291.5625,239987.03125,0.055419921875,0.889892578125,-0.417724609375,-10.314940452575684,10.681151390075684,1.0070799589157104,86.66667175292969,925710.0,1.0
473188.7588984,261124.265625,262773.65625,281621.34375,272082.6875,275693.5,253158.375,242237.75,240342.421875,0.05615234375,0.891357421875,-0.420166015625,-9.704588890075684,10.437010765075684,1.0681151151657104,86.66667175292969,925711.0,1.0
473188.7613849,261770.40625,263009.3125,282205.375,272961.125,276353.9375,253180.71875,242539.953125,240446.046875,0.05615234375,0.8916015625,-0.42041015625,-9.246825218200684,10.101317405700684,1.2512205839157104,86.66667175292969,925712.0,1.0
473188.7639913,262839.28125,263217.65625,282093.875,271930.25,275818.125,253194.21875,241768.375,240154.65625,0.05712890625,0.89208984375,-0.42041015625,-8.544920921325684,9.887694358825684,1.5258787870407104,86.66667175292969,925713.0,1.0
473188.7663654,262792.96875,263101.875,281426.625,270435.65625,274837.15625,253196.1875,241018.78125,239889.578125,0.0576171875,0.89013671875,-0.421630859375,-7.904052257537842,9.796141624450684,1.7395018339157104,86.66667175292969,925714.0,1.0
473188.7702794,261775.15625,262843.125,281149.28125,270518.4375,274761.15625,253180.8125,241296.5625,240001.0625,0.057861328125,0.890380859375,-0.422119140625,-7.141112804412842,9.521483421325684,1.8615721464157104,86.66667175292969,925715.0,1.0
473188.7703222,261148.5,262802.71875,281657.65625,272119.1875,275729.625,253208.890625,242267.078125,240371.390625,0.0576171875,0.889892578125,-0.421142578125,-6.347655773162842,9.216307640075684,2.105712652206421,86.66667175292969,925716.0,1.0
473188.8114054,261786.765625,263029.25,282234.40625,272997.6875,276384.875,253224.0,242563.828125,240465.625,0.0556640625,0.89208984375,-0.42236328125,-5.676269054412842,8.941649436950684,2.288818120956421,86.66667175292969,925717.0,1.0
473188.8114185,262854.46875,263230.96875,282118.90625,271969.4375,275844.9375,253229.0,241788.484375,240166.46875,0.0576171875,0.89306640625,-0.4208984375,-4.943847179412842,8.636473655700684,2.532958745956421,86.66667175292969,925718.0,1.0
473188.8114206,262802.71875,263100.6875,281444.875,270464.34375,274856.09375,253208.4375,241027.1875,239889.21875,0.056884765625,0.89208984375,-0.419921875,-4.333495616912842,8.422850608825684,2.685546636581421,86.66667175292969,925719.0,1.0
473188.8138314,261773.0,262828.46875,281152.875,270525.5,274770.71875,253188.859375,241298.890625,239992.296875,0.0576171875,0.888427734375,-0.423828125,-3.540038824081421,8.117674827575684,2.868652105331421,86.66667175292969,925720.0,1.0
473188.8138443,261136.609375,262775.0,281647.28125,272110.15625,275729.6875,253198.421875,242258.765625,240350.640625,0.05810546875,0.88818359375,-0.4208984375,-2.716064214706421,7.812499523162842,2.990722417831421,86.66667175292969,925721.0,1.0
473188.8226293,261793.390625,263019.96875,282245.15625,273012.53125,276407.125,253232.140625,242575.8125,240468.03125,0.056884765625,0.886962890625,-0.4228515625,-2.014159917831421,7.507323741912842,3.173827886581421,86.66667175292969,925722.0,1.0
473188.8226446,262856.78125,263212.1875,282122.75,271976.03125,275858.1875,253235.984375,241786.609375,240156.8125,0.054443359375,0.88720703125,-0.420166015625,-1.2817381620407104,7.202147960662842,3.356933355331421,86.66667175292969,925723.0,1.0
473188.8226466,262813.0625,263089.34375,281451.125,270466.84375,274866.9375,253241.34375,241028.4375,239883.046875,0.054443359375,0.88720703125,-0.421875,-0.4272460639476776,6.835937023162842,3.417968511581421,86.66667175292969,925724.0,1.0
473188.8226483,261799.375,262837.84375,281174.59375,270539.90625,274790.9375,253235.53125,241313.015625,240003.5625,0.052490234375,0.88525390625,-0.423828125,0.3356933295726776,6.530761241912842,3.509521245956421,86.66667175292969,925725.0,1.0
473188.8226504,261144.296875,262772.75,281655.15625,272112.21875,275736.40625,253225.96875,242261.890625,240351.09375,0.0498046875,0.884521484375,-0.42333984375,1.0681151151657104,6.042479991912842,3.387450933456421,86.66667175292969,925726.0,1.0
473188.8250067,261785.96875,263003.0625,282237.5625,273003.40625,276401.0625,253238.03125,242568.296875,240460.34375,0.04833984375,0.88427734375,-0.42333984375,1.8005369901657104,5.645751476287842,3.417968511581421,86.66667175292969,925727.0,1.0
473188.8276719,262860.625,263210.65625,282127.40625,271982.9375,275862.46875,253246.078125,241792.421875,240174.78125,0.048583984375,0.884033203125,-0.425048828125,2.746581792831421,5.279540538787842,3.417968511581421,86.66667175292969,925728.0,1.0
473188.8301938,262808.0625,263084.5,281448.96875,270468.46875,274862.90625,253224.890625,241022.265625,239895.734375,0.0478515625,0.8828125,-0.426025390625,3.387450933456421,4.760741710662842,3.204345464706421,86.66667175292969,925729.0,1.0
473188.8325607,261791.59375,262832.84375,281172.09375,270539.1875,274786.46875,253212.015625,241303.984375,240010.453125,0.04931640625,0.8818359375,-0.427734375,4.028319835662842,4.364013195037842,3.021239995956421,86.66667175292969,925730.0,1.0
473188.8350418,261154.484375,262791.4375,281671.34375,272131.875,275752.21875,253222.390625,242270.84375,240375.234375,0.050048828125,0.8818359375,-0.428955078125,4.760741710662842,3.936767339706421,2.960204839706421,86.66667175292969,925731.0,1.0
473188.8375598,261801.25,263032.46875,282260.625,273030.9375,276422.53125,253246.4375,242584.484375,240480.46875,0.050048828125,0.880859375,-0.431396484375,5.584716320037842,3.601073980331421,2.716064214706421,86.66667175292969,925732.0,1.0
473188.837573,262850.1875,263217.46875,282125.625,271984.625,275862.90625,253227.03125,241785.171875,240162.359375,0.048583984375,0.878662109375,-0.432373046875,6.317138195037842,3.295898199081421,2.410888433456421,86.66667175292969,925733.0,1.0
473188.856277,262800.28125,263095.15625,281445.65625,270468.90625,274865.75,253212.109375,241013.78125,239873.203125,0.0498046875,0.878662109375,-0.43212890625,7.019042491912842,2.929687261581421,2.166747808456421,86.66667175292969,925734.0,1.0
473188.8590073,261792.578125,262850.28125,281174.3125,270545.78125,274795.125,253220.0625,241299.15625,239986.40625,0.050537109375,0.880126953125,-0.43212890625,7.720946788787842,2.441406011581421,1.9226073026657104,86.66667175292969,925735.0,1.0
473188.8590126,261135.078125,262781.59375,281655.40625,272115.34375,275737.3125,253225.421875,242247.140625,240330.078125,0.050048828125,0.88134765625,-0.434326171875,8.361815452575684,2.166747808456421,1.5869139432907104,86.66667175292969,925736.0,1.0
473188.8590145,261777.296875,263014.5,282241.3125,273012.1875,276405.09375,253244.203125,242559.265625,240442.640625,0.0517578125,0.88134765625,-0.4375,8.941649436950684,1.9531248807907104,1.2512205839157104,86.66667175292969,925737.0,1.0
473188.8663032,262849.71875,263223.375,282131.25,271994.90625,275869.0,253256.8125,241792.0625,240165.75,0.052490234375,0.880615234375,-0.438232421875,9.521483421325684,1.6174315214157104,0.9460448622703552,86.66667175292969,925738.0,1.0
473188.8713357,262794.03125,263091.21875,281443.96875,270470.6875,274863.71875,253242.953125,241021.46875,239887.25,0.052978515625,0.881103515625,-0.437255859375,10.131834983825684,1.4038084745407104,0.7019042372703552,86.66667175292969,925739.0,1.0
473188.8762743,261778.8125,262835.59375,281157.5,270530.15625,274779.9375,253227.9375,241293.703125,239990.15625,0.053466796875,0.881591796875,-0.43896484375,10.681151390075684,1.0986326932907104,0.4882812201976776,86.66667175292969,925740.0,1.0
473188.8788604,261141.34375,262786.875,281654.875,272115.25,275741.9375,253236.25,242253.765625,240346.265625,0.052978515625,0.882080078125,-0.43994140625,11.047362327575684,0.9155272841453552,0.0915527269244194,86.66667175292969,925741.0,1.0
473188.8814554,261784.265625,263022.5625,282243.34375,273017.53125,276413.84375,253263.421875,242569.09375,240455.421875,0.051513671875,0.884033203125,-0.43896484375,11.352538108825684,0.7019042372703552,-0.1831054538488388,86.66667175292969,925742.0,1.0
473188.8830404,262838.125,263215.0625,282112.46875,271981.6875,275857.90625,253262.4375,241785.0,240155.46875,0.052734375,0.886962890625,-0.442626953125,11.779784202575684,0.5798339247703552,-0.3967284858226776,86.66667175292969,925743.0,1.0
473188.9117802,262784.46875,263081.65625,281424.125,270457.8125,274851.90625,253240.71875,241014.484375,239882.234375,0.052978515625,0.885986328125,-0.444091796875,12.054442405700684,0.4272460639476776,-0.6103515028953552,86.66667175292969,925744.0,1.0
473188.9302204,261781.765625,262829.78125,281152.59375,270526.40625,274776.71875,253246.890625,241293.703125,239999.984375,0.052734375,0.8828125,-0.442626953125,12.298583030700684,0.3662109076976776,-0.8850097060203552,86.66667175292969,925745.0,1.0
473188.9328144,261150.46875,262774.8125,281657.90625,272115.34375,275738.46875,253268.609375,242251.171875,240359.3125,0.051025390625,0.884521484375,-0.44482421875,12.451170921325684,0.3051757514476776,-1.0986326932907104,86.66667175292969,925746.0,1.0
473188.9328603,261800.0,263012.90625,282252.375,273021.5625,276416.625,253305.53125,242572.140625,240479.296875,0.04833984375,0.887451171875,-0.446533203125,12.817381858825684,0.2136230319738388,-1.4038084745407104,86.66667175292969,925747.0,1.0
473188.9352413,262842.21875,263197.15625,282111.5625,271973.71875,275851.46875,253291.328125,241785.453125,240175.578125,0.05078125,0.888671875,-0.44873046875,13.183592796325684,0.2136230319738388,-1.5869139432907104,86.66667175292969,925748.0,1.0
473188.9400867,262788.03125,263067.53125,281422.15625,270444.84375,274839.375,253267.8125,241014.3125,239891.546875,0.048583984375,0.8896484375,-0.44873046875,13.305663108825684,0.1831054538488388,-1.7700194120407104,86.66667175292969,925749.0,1.0
473188.9425645,261805.8125,262833.375,281167.625,270527.75,274775.375,253271.65625,241300.140625,240019.65625,0.046875,0.889892578125,-0.45068359375,13.519286155700684,0.0610351525247097,-2.014159917831421,86.66667175292969,925750.0,1.0
473188.9451205,261162.890625,262765.78125,281660.875,272104.6875,275718.78125,253251.796875,242236.140625,240363.421875,0.04345703125,0.89111328125,-0.449462890625,13.580321311950684,0.0,-2.380370855331421,86.66667175292969,925751.0,1.0
473188.9475684,261800.71875,262994.84375,282246.125,273007.71875,276387.90625,253265.84375,242550.5,240469.203125,0.04296875,0.888916015625,-0.451416015625,13.610838890075684,-0.0610351525247097,-2.563476324081421,86.66667175292969,925752.0,1.0
473188.9500634,262839.0,263184.375,282102.375,271967.1875,275831.1875,253254.671875,241773.28125,240168.25,0.0419921875,0.88525390625,-0.451171875,13.702391624450684,-0.0610351525247097,-2.838134527206421,86.66667175292969,925753.0,1.0
473188.9525675,262776.0625,263049.46875,281404.8125,270436.09375,274818.03125,253228.828125,240999.296875,239876.78125,0.0419921875,0.882568359375,-0.453369140625,13.580321311950684,-0.2746581733226776,-3.112792730331421,86.66667175292969,925754.0,1.0
473188.9552845,261793.65625,262811.1875,281152.78125,270519.875,274751.59375,253237.765625,241282.359375,239992.125,0.040771484375,0.879638671875,-0.456787109375,13.610838890075684,-0.4577636420726776,-3.448486089706421,86.66667175292969,925755.0,1.0
473188.9575889,261191.046875,262782.84375,281688.84375,272136.0,275739.0,253272.640625,242254.65625,240365.125,0.0419921875,0.879150390625,-0.4580078125,13.671874046325684,-0.4882812201976776,-3.570556402206421,86.66667175292969,925756.0,1.0
473188.960177,261828.890625,263017.28125,282277.4375,273040.34375,276415.09375,253302.140625,242568.734375,240471.171875,0.041259765625,0.875,-0.4638671875,13.916014671325684,-0.5493163466453552,-3.784179449081421,86.66667175292969,925757.0,1.0
473188.9625942,262851.0625,263199.125,282119.625,271986.9375,275845.84375,253302.859375,241783.03125,240160.390625,0.041015625,0.87451171875,-0.46875,14.160155296325684,-0.4272460639476776,-3.967284917831421,86.66667175292969,925758.0,1.0
473188.9641681,262773.03125,263056.09375,281408.21875,270442.34375,274820.6875,253267.890625,241000.09375,239859.171875,0.038330078125,0.872802734375,-0.47314453125,14.495848655700684,-0.5187987685203552,-4.211425304412842,86.66667175292969,925759.0,1.0
473188.9715094,261800.359375,262826.75,281168.875,270537.84375,274766.625,253270.671875,241290.21875,239981.21875,0.03759765625,0.87109375,-0.472412109375,14.953612327575684,-0.4882812201976776,-4.608153820037842,86.66667175292969,925760.0,1.0
473188.9715487,261201.6875,262799.21875,281715.21875,272161.65625,275761.875,253296.0625,242276.203125,240360.03125,0.039794921875,0.867919921875,-0.46875,15.197752952575684,-0.4882812201976776,-4.760741710662842,86.66667175292969,925761.0,1.0
473188.9739991,261810.5625,263004.3125,282276.875,273044.53125,276416.53125,253290.703125,242571.515625,240439.328125,0.0390625,0.862548828125,-0.466064453125,15.350340843200684,-0.4882812201976776,-4.974364757537842,86.66667175292969,925762.0,1.0
473188.9765678,262838.28125,263191.90625,282120.78125,271995.1875,275854.5,253302.40625,241790.71875,240135.171875,0.0400390625,0.856201171875,-0.463623046875,15.441893577575684,-0.3662109076976776,-5.157470226287842,86.66667175292969,925763.0,1.0
473188.9766091,262768.71875,263052.5,281410.4375,270445.40625,274826.59375,253287.125,241013.15625,239843.078125,0.040771484375,0.849365234375,-0.466796875,15.686034202575684,-0.0915527269244194,-5.340575695037842,86.66667175292969,925764.0,1.0
473188.9789477,261807.34375,262821.46875,281172.8125,270533.09375,274766.25,253287.5625,241287.0,239957.25,0.037353515625,0.842529296875,-0.468505859375,16.082761764526367,-0.1220703050494194,-5.584716320037842,86.66667175292969,925765.0,1.0
473188.9789889,261202.765625,262774.09375,281706.90625,272138.03125,275741.5,253282.828125,242234.453125,240306.75,0.0380859375,0.8388671875,-0.473876953125,16.723630905151367,0.0915527269244194,-5.981444835662842,86.66667175292969,925766.0,1.0
473188.9816914,261824.6875,262993.15625,282282.4375,273032.65625,276403.5625,253289.53125,242543.265625,240412.0625,0.0390625,0.836669921875,-0.4814453125,17.425535202026367,0.2441406100988388,-6.347655773162842,86.66667175292969,925767.0,1.0
473188.9838491,262835.875,263172.5,282110.9375,271974.15625,275833.875,253286.671875,241767.75,240109.609375,0.03369140625,0.838623046875,-0.480712890625,18.218992233276367,0.4882812201976776,-6.591796398162842,86.66667175292969,925768.0,1.0
473188.986364,262766.21875,263041.25,281405.15625,270433.59375,274814.53125,253274.0625,241001.171875,239816.078125,0.030029296875,0.839111328125,-0.48095703125,18.829343795776367,0.7019042372703552,-7.110595226287842,86.66667175292969,925769.0,1.0
473188.9892266,261768.796875,262793.40625,281150.96875,270499.84375,274734.5,253267.984375,241260.359375,239919.25,0.026611328125,0.836181640625,-0.47509765625,20.019529342651367,1.0681151151657104,-7.934569835662842,86.66667175292969,925770.0,1.0
473188.9892651,261177.828125,262768.46875,281713.09375,272131.15625,275735.59375,253294.265625,242226.578125,240287.171875,0.02392578125,0.835693359375,-0.473876953125,20.812986373901367,1.1901854276657104,-8.331297874450684,86.66667175292969,925771.0,1.0
473189.0064605,261800.453125,263003.0625,282304.5,273045.15625,276419.21875,253323.953125,242546.296875,240394.09375,0.025390625,0.833251953125,-0.473388671875,22.033689498901367,1.4343260526657104,-9.155272483825684,86.66667175292969,925772.0,1.0
473189.0110633,262769.90625,263181.34375,282117.75,271979.78125,275838.25,253331.46875,241768.734375,240085.46875,0.02783203125,0.8408203125,-0.47119140625,23.101804733276367,1.7700194120407104,-10.192870140075684,86.66667175292969,925773.0,1.0
473189.0111035,262676.71875,263035.53125,281386.21875,270414.90625,274797.53125,253300.4375,240987.484375,239779.421875,0.0234375,0.849609375,-0.476318359375,23.406980514526367,2.075195074081421,-10.345458030700684,86.66667175292969,925774.0,1.0
473189.0364594,261737.421875,262812.625,281160.5625,270508.5,274745.0625,253299.28125,241270.828125,239899.578125,0.01708984375,0.86083984375,-0.479248046875,23.345945358276367,1.9226073026657104,-10.223387718200684,86.66667175292969,925775.0,1.0
473189.0438887,261171.109375,262791.09375,281735.96875,272146.625,275751.875,253309.296875,242236.953125,240266.875,0.013671875,0.86376953125,-0.483154296875,22.979734420776367,1.7395018339157104,-10.101317405700684,86.66667175292969,925776.0,1.0
473189.0463683,261788.203125,263009.25,282314.34375,273050.625,276424.125,253313.9375,242550.5,240375.953125,0.010009765625,0.862060546875,-0.483642578125,22.796628952026367,1.5869139432907104,-9.979247093200684,86.66667175292969,925777.0,1.0
473189.049191,262760.6875,263168.75,282107.46875,271979.09375,275837.0,253301.953125,241775.796875,240075.265625,0.009033203125,0.86181640625,-0.482177734375,23.010251998901367,1.5258787870407104,-10.162352561950684,86.66667175292969,925778.0,1.0
473189.0492308,262682.8125,263031.6875,281383.8125,270427.40625,274805.21875,253281.125,241008.859375,239795.515625,0.00830078125,0.86181640625,-0.484130859375,23.590085983276367,1.5258787870407104,-10.528563499450684,86.66667175292969,925779.0,1.0
473189.051463,261719.625,262792.15625,281142.75,270496.625,274727.28125,253264.765625,241263.40625,239898.875,0.007080078125,0.8681640625,-0.48095703125,24.261472702026367,1.2512205839157104,-10.864256858825684,86.66667175292969,925780.0,1.0
473189.0540076,261167.984375,262777.5,281734.625,272141.8125,275739.96875,253294.71875,242228.90625,240268.65625,0.005615234375,0.8779296875,-0.483154296875,24.261472702026367,1.1901854276657104,-10.986327171325684,86.66667175292969,925781.0,1.0
473189.0588831,261792.3125,262998.78125,282316.84375,273048.125,276412.59375,253319.125,242548.53125,240379.875,0.004638671875,0.8837890625,-0.483154296875,24.291990280151367,1.0681151151657104,-11.108397483825684,86.66667175292969,925782.0,1.0
473189.063983,262750.40625,263145.40625,282087.78125,271961.46875,275805.4375,253308.578125,241770.875,240070.984375,0.00537109375,0.8896484375,-0.476806640625,23.864744186401367,0.7019042372703552,-11.138915061950684,86.66667175292969,925783.0,1.0
473189.0665028,262660.8125,262993.9375,281348.40625,270398.71875,274761.875,253282.203125,241001.34375,239783.09375,0.009765625,0.892822265625,-0.47705078125,23.529050827026367,0.7019042372703552,-11.169432640075684,86.66667175292969,925784.0,1.0
473189.0688989,261737.953125,262768.90625,281139.53125,270490.90625,274705.625,253268.4375,241268.671875,239899.578125,0.008056640625,0.89892578125,-0.474853515625,23.132322311401367,0.6713866591453552,-11.138915061950684,86.66667175292969,925785.0,1.0
473189.0705857,261218.328125,262770.96875,281761.09375,272157.8125,275741.25,253301.0625,242243.21875,240287.171875,0.007568359375,0.903564453125,-0.473876953125,22.613523483276367,0.5493163466453552,-11.108397483825684,86.66667175292969,925786.0,1.0
473189.0777237,261809.390625,262965.15625,282315.6875,273040.25,276393.625,253295.25,242535.296875,240377.640625,0.006591796875,0.90673828125,-0.472900390625,21.850584030151367,0.4882812201976776,-11.138915061950684,86.66667175292969,925787.0,1.0
473189.0802647,262730.65625,263098.28125,282053.375,271929.71875,275765.09375,253264.765625,241743.15625,240056.765625,0.010986328125,0.91455078125,-0.473876953125,20.812986373901367,0.3967284858226776,-11.322020530700684,86.66667175292969,925788.0,1.0
473189.0803071,262642.3125,262963.71875,281311.28125,270371.53125,274721.09375,253245.546875,240982.484375,239776.46875,0.0146484375,0.925537109375,-0.47705078125,19.165037155151367,0.7324218153953552,-11.566161155700684,86.66667175292969,925789.0,1.0
473189.0827517,261721.421875,262742.1875,281102.15625,270458.0,274659.21875,253232.84375,241241.859375,239894.125,0.019775390625,0.9345703125,-0.478759765625,17.303464889526367,1.0681151151657104,-11.657713890075684,86.66667175292969,925790.0,1.0
473189.0851077,261193.375,262731.28125,281713.1875,272098.625,275673.28125,253254.125,242182.140625,240261.328125,0.02587890625,0.937255859375,-0.482177734375,15.869139671325684,1.6784666776657104,-11.352538108825684,86.66667175292969,925791.0,1.0
473189.0877095,261801.796875,262948.625,282283.40625,272997.34375,276339.90625,253269.234375,242488.359375,240374.0625,0.026611328125,0.936279296875,-0.49267578125,14.495848655700684,2.349853277206421,-10.864256858825684,86.66667175292969,925792.0,1.0
473189.0902631,262739.75,263104.0,282035.84375,271912.375,275736.84375,253265.21875,241729.5625,240077.78125,0.0185546875,0.93359375,-0.492431640625,13.671874046325684,2.807616949081421,-10.314940452575684,86.66667175292969,925793.0,1.0
473189.0903061,262642.75,262964.71875,281285.375,270346.25,274688.125,253239.734375,240970.234375,239779.515625,0.01513671875,0.921142578125,-0.491455078125,13.977049827575684,2.380370855331421,-9.460448265075684,86.66667175292969,925794.0,1.0
473189.0951417,261739.125,262761.5625,281094.125,270441.0,274638.03125,253236.25,241236.046875,239887.421875,0.01904296875,0.916259765625,-0.49658203125,15.014647483825684,2.319335699081421,-8.636473655700684,86.66667175292969,925795.0,1.0
473189.0975924,261208.75,262742.34375,281702.90625,272073.21875,275643.78125,253240.625,242159.078125,240233.515625,0.01708984375,0.92138671875,-0.50390625,15.289305686950684,2.258300542831421,-8.087157249450684,86.66667175292969,925796.0,1.0
473189.1002817,261803.484375,262948.96875,282265.1875,272966.125,276304.21875,253252.421875,242456.625,240323.109375,0.011474609375,0.93017578125,-0.50830078125,14.526366233825684,2.288818120956421,-7.904052257537842,86.66667175292969,925797.0,1.0
473189.1003223,262731.71875,263107.84375,282017.15625,271887.0,275700.65625,253263.421875,241707.65625,240028.953125,0.0078125,0.931640625,-0.5,13.763426780700684,2.563476324081421,-7.446288585662842,86.66667175292969,925798.0,1.0
473189.1052296,262626.9375,262964.25,281261.03125,270317.1875,274646.1875,253235.890625,240948.234375,239744.640625,0.0068359375,0.931884765625,-0.492431640625,12.939452171325684,2.593993902206421,-6.896972179412842,86.66667175292969,925799.0,1.0
473189.107803,261744.65625,262776.15625,281087.6875,270426.96875,274611.5,253248.046875,241226.296875,239888.859375,0.0087890625,0.93359375,-0.487060546875,11.901854515075684,2.593993902206421,-6.683349132537842,86.66667175292969,925800.0,1.0
473189.1138577,261226.09375,262764.15625,281708.0,272064.09375,275625.375,253249.84375,242150.140625,240250.953125,0.00634765625,0.93701171875,-0.48828125,10.864256858825684,2.746581792831421,-6.134032726287842,86.66667175292969,925801.0,1.0
473189.1163861,261811.1875,262958.625,282262.65625,272953.15625,276281.34375,253255.296875,242441.25,240341.25,0.0029296875,0.93603515625,-0.49072265625,9.521483421325684,2.868652105331421,-5.615233898162842,86.66667175292969,925802.0,1.0
473189.1314414,262726.0,263103.28125,281997.9375,271867.21875,275671.5,253274.6875,241690.5,240046.484375,0.0,0.932373046875,-0.491943359375,8.148192405700684,2.899169683456421,-5.187987804412842,86.66667175292969,925803.0,1.0
473189.1314826,262612.34375,262946.65625,281227.34375,270285.96875,274605.40625,253251.890625,240925.0,239750.015625,-0.00634765625,0.927001953125,-0.495361328125,7.049560070037842,2.899169683456421,-4.669188976287842,86.66667175292969,925804.0,1.0
473189.13406,261711.140625,262732.78125,281032.25,270366.8125,274545.6875,253243.578125,241178.546875,239864.09375,-0.0087890625,0.92529296875,-0.500244140625,5.920409679412842,2.624511480331421,-4.425048351287842,86.66667175292969,925805.0,1.0
473189.1341006,261200.796875,262723.59375,281663.375,272011.90625,275569.84375,253256.09375,242109.09375,240233.4375,-0.01025390625,0.92578125,-0.50244140625,4.974364757537842,2.410888433456421,-3.936767339706421,86.66667175292969,925806.0,1.0
473189.1363542,261800.90625,262936.1875,282236.125,272923.5625,276248.25,253280.765625,242421.40625,240340.8125,-0.0107421875,0.92578125,-0.5048828125,4.058837413787842,2.197265386581421,-3.631591558456421,86.66667175292969,925807.0,1.0
473189.1388146,262711.0625,263077.28125,281969.6875,271842.8125,275640.65625,253288.90625,241670.5625,240033.34375,-0.012939453125,0.92431640625,-0.505126953125,3.051757574081421,2.044677495956421,-3.265380620956421,86.66667175292969,925808.0,1.0
473189.1425856,262606.8125,262927.875,281212.3125,270276.6875,274590.03125,253273.0,240911.5,239735.796875,-0.015625,0.918701171875,-0.5048828125,2.014159917831421,1.8005369901657104,-2.990722417831421,86.66667175292969,925809.0,1.0
473189.146318,261727.234375,262734.75,281045.3125,270380.03125,274554.4375,253265.75,241183.203125,239860.6875,-0.015869140625,0.916259765625,-0.506591796875,1.0986326932907104,1.5563963651657104,-2.746581792831421,86.66667175292969,925810.0,1.0
473189.1564813,261226.546875,262739.40625,281692.0625,272041.9375,275597.125,253276.03125,242132.25,240240.9375,-0.015625,0.91259765625,-0.507568359375,0.1831054538488388,1.3122557401657104,-2.471923589706421,86.66667175292969,925811.0,1.0
473189.1564939,261807.875,262938.5,282253.46875,272943.34375,276269.4375,253274.0625,242437.40625,240346.4375,-0.01318359375,0.911865234375,-0.5087890625,-0.7934569716453552,1.1596678495407104,-2.136230230331421,86.66667175292969,925812.0,1.0
473189.1587868,262712.21875,263077.625,281984.875,271861.25,275663.09375,253260.390625,241681.734375,240046.75,-0.010009765625,0.90771484375,-0.50830078125,-1.5258787870407104,0.7934569716453552,-1.9531248807907104,86.66667175292969,925813.0,1.0
473189.1587957,262625.21875,262948.78125,281244.5,270310.375,274628.65625,253248.859375,240936.96875,239769.234375,-0.006591796875,0.907958984375,-0.508056640625,-2.197265386581421,0.6713866591453552,-1.6174315214157104,86.66667175292969,925814.0,1.0
473189.183824,261740.734375,262745.75,281069.4375,270408.46875,274588.59375,253233.296875,241200.015625,239885.109375,-0.002685546875,0.90673828125,-0.512939453125,-2.868652105331421,0.6408690810203552,-1.2512205839157104,86.66667175292969,925815.0,1.0
473189.1889383,261242.828125,262748.0625,281718.09375,272075.1875,275633.5,253237.40625,242147.09375,240256.3125,0.002197265625,0.90625,-0.51025390625,-3.631591558456421,0.6408690810203552,-0.9155272841453552,86.66667175292969,925816.0,1.0
473189.191448,261827.8125,262952.28125,282288.40625,272989.46875,276315.9375,253237.140625,242456.625,240361.546875,0.00439453125,0.904296875,-0.51220703125,-4.455565929412842,0.5798339247703552,-0.5493163466453552,86.66667175292969,925817.0,1.0
473189.1939012,262727.4375,263089.6875,282016.71875,271901.125,275704.40625,253220.78125,241694.34375,240052.5625,0.00537109375,0.903076171875,-0.507080078125,-5.340575695037842,0.7324218153953552,-0.1220703050494194,86.66667175292969,925818.0,1.0
473189.1989535,262647.59375,262967.9375,281280.625,270350.53125,274676.40625,253216.125,240951.640625,239775.75,0.0087890625,0.90185546875,-0.5087890625,-6.195067882537842,0.8850097060203552,0.3662109076976776,86.66667175292969,925819.0,1.0
473189.2015084,261773.71875,262779.0,281112.625,270453.15625,274646.4375,253231.421875,241225.3125,239900.21875,0.00830078125,0.900146484375,-0.50830078125,-7.110595226287842,1.1596678495407104,0.8544921278953552,86.66667175292969,925820.0,1.0
473189.203839,261273.578125,262779.0,281759.5,272117.125,275694.5625,253256.359375,242176.953125,240274.921875,0.0078125,0.8955078125,-0.51171875,-7.934569835662842,1.3427733182907104,1.3427733182907104,86.66667175292969,925821.0,1.0
473189.2063557,261854.546875,262970.4375,282321.84375,273023.53125,276370.3125,253264.140625,242482.828125,240364.0625,0.008056640625,0.8896484375,-0.513916015625,-8.819579124450684,1.5563963651657104,1.7700194120407104,86.66667175292969,925822.0,1.0
473189.2116202,262748.6875,263091.75,282038.4375,271924.8125,275749.625,253239.109375,241714.546875,240041.390625,0.0087890625,0.885498046875,-0.5166015625,-9.338377952575684,1.7089842557907104,2.319335699081421,86.66667175292969,925823.0,1.0
473189.2116615,262659.65625,262951.84375,281287.5,270359.84375,274706.09375,253217.203125,240959.328125,239761.0,0.009033203125,0.88330078125,-0.521484375,-9.704588890075684,1.9836424589157104,2.807616949081421,86.66667175292969,925824.0,1.0
473189.2140162,261796.515625,262769.1875,281127.125,270472.3125,274687.5625,253234.8125,241246.0625,239896.453125,0.00830078125,0.879638671875,-0.523681640625,-9.857176780700684,2.197265386581421,3.234863042831421,86.66667175292969,925825.0,1.0
473189.2188506,261298.4375,262771.0625,281774.40625,272140.625,275737.9375,253255.203125,242203.25,240270.625,0.006103515625,0.877197265625,-0.521728515625,-10.070799827575684,2.288818120956421,3.540038824081421,86.66667175292969,925826.0,1.0
473189.2214488,261871.359375,262957.90625,282334.03125,273046.59375,276412.9375,253258.515625,242507.59375,240362.53125,0.005126953125,0.875732421875,-0.519287109375,-10.467528343200684,2.349853277206421,3.723144292831421,86.66667175292969,925827.0,1.0
473189.2214882,262770.96875,263089.78125,282064.09375,271959.84375,275802.3125,253236.421875,241744.3125,240065.53125,0.001220703125,0.8740234375,-0.517578125,-10.803221702575684,2.471923589706421,4.028319835662842,86.66667175292969,925828.0,1.0
473189.2238562,262677.625,262949.875,281313.625,270391.3125,274757.84375,253196.375,240984.453125,239788.90625,0.00244140625,0.8720703125,-0.51708984375,-11.077879905700684,2.593993902206421,4.425048351287842,86.66667175292969,925829.0,1.0
473189.2277449,261800.625,262758.28125,281141.875,270490.4375,274728.96875,253185.734375,241260.625,239914.25,0.001953125,0.869873046875,-0.51904296875,-11.230467796325684,2.746581792831421,4.638671398162842,86.66667175292969,925830.0,1.0
473189.2277859,261293.15625,262755.84375,281784.25,272155.5625,275776.09375,253195.921875,242215.40625,240285.46875,0.001953125,0.86865234375,-0.523193359375,-11.535643577575684,2.899169683456421,4.852294445037842,86.66667175292969,925831.0,1.0
473189.2976108,261882.796875,262959.25,282363.78125,273082.09375,276469.90625,253206.03125,242537.71875,240399.015625,0.001708984375,0.8662109375,-0.52294921875,-11.657713890075684,2.899169683456421,4.974364757537842,86.66667175292969,925832.0,1.0
473189.3016675,262798.875,263099.1875,282111.03125,272004.65625,275870.34375,253191.8125,241778.390625,240095.484375,0.002197265625,0.862548828125,-0.518310546875,-11.932372093200684,2.899169683456421,5.035399913787842,86.66667175292969,925833.0,1.0
473189.3017068,262716.4375,262966.78125,281369.9375,270440.125,274831.875,253169.640625,241018.421875,239814.734375,0.005615234375,0.86376953125,-0.520751953125,-11.901854515075684,3.082275152206421,5.096435070037842,86.66667175292969,925834.0,1.0
473189.3017163,261822.09375,262762.375,281178.53125,270520.59375,274785.21875,253168.75,241281.28125,239932.9375,0.007568359375,0.8662109375,-0.523193359375,-11.810301780700684,3.082275152206421,5.187987804412842,86.66667175292969,925835.0,1.0
473189.3017255,261296.640625,262754.4375,281805.09375,272174.0,275819.46875,253189.390625,242237.3125,240302.90625,0.006591796875,0.8681640625,-0.524169921875,-11.840819358825684,3.265380620956421,5.432128429412842,86.66667175292969,925836.0,1.0
473189.3053697,261890.484375,262967.46875,282389.625,273112.5,276520.0625,253212.203125,242571.78125,240423.6875,0.006103515625,0.870361328125,-0.51904296875,-11.962889671325684,3.387450933456421,5.523681163787842,86.66667175292969,925837.0,1.0
473189.3054109,262804.21875,263102.65625,282131.59375,272031.28125,275909.6875,253206.109375,241801.8125,240116.125,0.0048828125,0.871337890625,-0.515869140625,-12.084959983825684,3.387450933456421,5.554198741912842,86.66667175292969,925838.0,1.0
473189.3054198,262705.0625,262953.90625,281369.6875,270440.84375,274843.15625,253177.953125,241015.390625,239813.3125,0.005126953125,0.8720703125,-0.511474609375,-12.329100608825684,3.570556402206421,5.584716320037842,86.66667175292969,925839.0,1.0
473189.3054292,261799.296875,262740.65625,281161.625,270505.84375,274776.4375,253160.609375,241268.671875,239923.71875,0.00732421875,0.875732421875,-0.5087890625,-12.451170921325684,3.448486089706421,5.676269054412842,86.66667175292969,925840.0,1.0
473189.307816,261271.4375,262735.65625,281776.5625,272154.59375,275806.6875,253171.6875,242225.59375,240298.4375,0.007568359375,0.87646484375,-0.50830078125,-12.664793968200684,3.509521245956421,5.737304210662842,86.66667175292969,925841.0,1.0
473189.3078571,261866.25,262954.6875,282353.875,273084.5,276496.8125,253190.375,242554.96875,240418.953125,0.009765625,0.8798828125,-0.5078125,-12.878417015075684,3.662109136581421,5.676269054412842,86.66667175292969,925842.0,1.0
473189.3101088,262787.15625,263095.4375,282098.25,271997.3125,275880.25,253175.71875,241774.71875,240104.5,0.0107421875,0.881591796875,-0.505615234375,-13.244627952575684,3.784179449081421,5.767821788787842,86.66667175292969,925843.0,1.0
473189.3127569,262705.78125,262958.53125,281347.3125,270412.40625,274818.375,253157.65625,240991.609375,239811.703125,0.0107421875,0.884033203125,-0.503173828125,-13.702391624450684,3.936767339706421,5.828856945037842,86.66667175292969,925844.0,1.0
473189.3127971,261795.53125,262747.4375,281130.15625,270467.03125,274743.28125,253149.4375,241245.34375,239926.671875,0.012451171875,0.88427734375,-0.5029296875,-13.916014671325684,4.058837413787842,5.859374523162842,86.66667175292969,925845.0,1.0
473189.3151001,261271.15625,262754.15625,281747.6875,272118.03125,275772.625,253186.53125,242215.3125,240314.703125,0.011962890625,0.88037109375,-0.5029296875,-14.190672874450684,4.119872570037842,5.981444835662842,86.66667175292969,925846.0,1.0
473189.3177942,261848.28125,262957.03125,282309.59375,273031.3125,276441.28125,253195.125,242528.515625,240416.359375,0.011962890625,0.8779296875,-0.503662109375,-14.373778343200684,4.211425304412842,5.950927257537842,86.66667175292969,925847.0,1.0
473189.3201624,262784.90625,263104.625,282070.625,271956.625,275836.90625,253183.578125,241756.390625,240104.78125,0.010009765625,0.87744140625,-0.501708984375,-14.648436546325684,4.089354991912842,5.859374523162842,86.66667175292969,925848.0,1.0
473189.3226907,262713.3125,262974.8125,281334.8125,270387.625,274790.21875,253175.546875,240986.0625,239804.09375,0.01416015625,0.876953125,-0.498291015625,-14.984129905700684,4.211425304412842,5.706786632537842,86.66667175292969,925849.0,1.0
473189.3277505,261803.140625,262766.21875,281125.875,270455.0625,274730.125,253171.78125,241247.03125,239914.34375,0.01513671875,0.876220703125,-0.498779296875,-15.106200218200684,4.241942882537842,5.737304210662842,86.66667175292969,925850.0,1.0
473189.330201,261250.59375,262751.75,281726.9375,272098.0,275752.6875,253190.65625,242205.390625,240279.296875,0.017822265625,0.87939453125,-0.495849609375,-15.258788108825684,4.272460460662842,5.462646007537842,86.66667175292969,925851.0,1.0
473189.3325839,261837.90625,262963.8125,282308.09375,273036.40625,276446.375,253203.078125,242532.265625,240375.671875,0.01904296875,0.878662109375,-0.494873046875,-15.380858421325684,4.364013195037842,5.554198741912842,86.66667175292969,925852.0,1.0
473189.3352293,262811.65625,263135.9375,282108.0,272004.65625,275879.46875,253200.9375,241782.9375,240061.5,0.01904296875,0.878173828125,-0.49462890625,-15.594481468200684,4.425048351287842,5.584716320037842,86.66667175292969,925853.0,1.0
473189.3376593,262738.5,262989.375,281365.5625,270429.9375,274825.09375,253157.203125,240995.265625,239748.578125,0.018310546875,0.876708984375,-0.492431640625,-15.747069358825684,4.455565929412842,5.523681163787842,86.66667175292969,925854.0,1.0
473189.3377002,261801.4375,262757.65625,281130.15625,270472.75,274742.8125,253125.296875,241237.375,239844.78125,0.01904296875,0.873291015625,-0.490478515625,-15.777586936950684,4.516601085662842,5.462646007537842,86.66667175292969,925855.0,1.0
473189.3402036,261257.125,262754.96875,281741.34375,272127.59375,275781.46875,253155.25,242217.015625,240227.4375,0.017822265625,0.87158203125,-0.48974609375,-15.716551780700684,4.455565929412842,5.340575695037842,86.66667175292969,925856.0,1.0
473189.3402383,261841.40625,262954.96875,282323.8125,273064.125,276477.3125,253157.5625,242544.609375,240337.046875,0.017822265625,0.871826171875,-0.4873046875,-15.838622093200684,4.486083507537842,5.218505382537842,86.66667175292969,925857.0,1.0
473189.3425919,262805.46875,263104.28125,282118.28125,272021.09375,275904.03125,253147.5625,241782.671875,240043.359375,0.018798828125,0.86865234375,-0.4853515625,-15.808104515075684,4.547118663787842,4.943847179412842,86.66667175292969,925858.0,1.0
473189.345195,262736.71875,262962.28125,281380.21875,270443.15625,274854.6875,253115.90625,240999.46875,239755.734375,0.019775390625,0.86669921875,-0.4853515625,-15.533446311950684,4.516601085662842,4.730224132537842,86.66667175292969,925859.0,1.0
473189.3489946,261812.4375,262747.71875,281148.3125,270488.5625,274776.96875,253100.53125,241255.625,239872.859375,0.01904296875,0.86376953125,-0.48583984375,-15.350340843200684,4.455565929412842,4.638671398162842,86.66667175292969,925860.0,1.0
473189.3551708,261251.84375,262739.75,281734.53125,272122.5625,275792.1875,253136.015625,242227.65625,240256.046875,0.02001953125,0.8623046875,-0.486572265625,-14.953612327575684,4.394530773162842,4.516601085662842,86.66667175292969,925861.0,1.0
473189.3552118,261848.546875,262964.1875,282324.375,273067.59375,276490.90625,253174.5625,242570.171875,240388.46875,0.021484375,0.861328125,-0.488037109375,-14.556883811950684,4.180907726287842,4.425048351287842,86.66667175292969,925862.0,1.0
473189.3901834,262833.8125,263134.9375,282132.125,272031.125,275920.84375,253182.515625,241807.796875,240103.796875,0.020263671875,0.86083984375,-0.489501953125,-13.977049827575684,4.028319835662842,4.119872570037842,86.66667175292969,925863.0,1.0
473189.3902236,262759.6875,262985.09375,281387.8125,270443.0625,274857.53125,253143.890625,241002.421875,239797.390625,0.02001953125,0.86083984375,-0.48974609375,-13.336180686950684,4.028319835662842,3.936767339706421,86.66667175292969,925864.0,1.0
473189.3926553,261820.75,262757.1875,281144.8125,270478.84375,274767.6875,253132.625,241250.078125,239903.609375,0.017822265625,0.861572265625,-0.492431640625,-12.756346702575684,3.967284917831421,3.753661870956421,86.66667175292969,925865.0,1.0
473189.3926906,261249.796875,262739.59375,281724.4375,272107.90625,275776.8125,253164.71875,242222.640625,240283.59375,0.018798828125,0.8583984375,-0.48828125,-12.084959983825684,3.814697027206421,3.723144292831421,86.66667175292969,925866.0,1.0
473189.3952474,261841.578125,262948.96875,282310.9375,273048.3125,276470.78125,253171.609375,242556.3125,240393.734375,0.01806640625,0.854736328125,-0.485595703125,-11.169432640075684,3.723144292831421,3.540038824081421,86.66667175292969,925867.0,1.0
473189.3976144,262842.21875,263129.84375,282139.90625,272028.625,275916.84375,253162.484375,241797.78125,240100.9375,0.016357421875,0.8525390625,-0.48486328125,-10.375975608825684,3.509521245956421,3.265380620956421,86.66667175292969,925868.0,1.0
473189.4000803,262799.03125,263008.0625,281428.40625,270470.15625,274886.3125,253138.25,241016.90625,239810.984375,0.018310546875,0.85400390625,-0.48193359375,-9.704588890075684,3.295898199081421,2.960204839706421,86.66667175292969,925869.0,1.0
473189.4024599,261858.390625,262779.0,281183.0,270503.40625,274801.65625,253121.984375,241269.296875,239915.953125,0.019287109375,0.855712890625,-0.479736328125,-9.155272483825684,3.051757574081421,2.716064214706421,86.66667175292969,925870.0,1.0
473189.4050446,261266.6875,262749.875,281746.15625,272119.1875,275802.65625,253124.484375,242236.234375,240282.78125,0.02294921875,0.85693359375,-0.47802734375,-8.636473655700684,2.899169683456421,2.441406011581421,86.66667175292969,925871.0,1.0
473189.4075738,261855.96875,262960.875,282336.4375,273068.5,276504.875,253129.5,242575.8125,240394.28125,0.025634765625,0.8564453125,-0.47998046875,-7.904052257537842,2.746581792831421,2.288818120956421,86.66667175292969,925872.0,1.0
473189.4100569,262858.9375,263139.15625,282171.21875,272060.53125,275958.5,253122.34375,241824.421875,240104.5,0.02734375,0.857421875,-0.48095703125,-7.324218273162842,2.685546636581421,2.166747808456421,86.66667175292969,925873.0,1.0
473189.4126677,262806.8125,263001.625,281447.28125,270493.9375,274918.0625,253084.25,241033.359375,239804.546875,0.02880859375,0.859130859375,-0.480712890625,-6.652831554412842,2.532958745956421,2.075195074081421,86.66667175292969,925874.0,1.0
473189.4151692,261867.78125,262781.59375,281206.78125,270531.84375,274838.6875,253079.609375,241288.078125,239911.828125,0.028564453125,0.857421875,-0.48046875,-5.889892101287842,2.441406011581421,2.014159917831421,86.66667175292969,925875.0,1.0
473189.4177116,261275.1875,262758.71875,281770.5,272150.28125,275844.6875,253093.546875,242254.5625,240275.90625,0.0283203125,0.85498046875,-0.4794921875,-5.096435070037842,2.319335699081421,1.8920897245407104,86.66667175292969,925876.0,1.0
473189.417726,261868.765625,262975.25,282364.9375,273103.5625,276551.34375,253118.046875,242597.625,240397.671875,0.028564453125,0.85302734375,-0.477294921875,-4.302978038787842,2.288818120956421,1.8615721464157104,86.66667175292969,925877.0,1.0
473189.420153,262869.65625,263144.5,282193.375,272085.375,275995.34375,253122.15625,241835.515625,240105.765625,0.0322265625,0.851806640625,-0.4775390625,-3.479003667831421,2.197265386581421,1.9226073026657104,86.66667175292969,925878.0,1.0
473189.4226401,262828.375,263015.03125,281475.09375,270522.28125,274955.875,253094.265625,241045.96875,239814.015625,0.033447265625,0.853759765625,-0.48193359375,-2.532958745956421,2.136230230331421,1.9836424589157104,86.66667175292969,925879.0,1.0
473189.4564983,261893.96875,262799.40625,281233.6875,270560.625,274877.84375,253106.78125,241308.46875,239939.8125,0.0341796875,0.853515625,-0.478759765625,-1.5563963651657104,2.105712652206421,1.9531248807907104,86.66667175292969,925880.0,1.0
473189.4565271,261280.8125,262757.375,281778.71875,272159.6875,275864.34375,253128.25,242264.21875,240296.734375,0.03369140625,0.85595703125,-0.476806640625,-0.5798339247703552,1.9836424589157104,1.9531248807907104,86.66667175292969,925881.0,1.0
473189.4588561,261870.90625,262974.28125,282370.6875,273110.875,276564.59375,253167.3125,242605.3125,240405.625,0.03369140625,0.857421875,-0.478515625,0.03051757626235485,2.014159917831421,2.105712652206421,86.66667175292969,925882.0,1.0
473189.4588809,262858.40625,263131.625,282184.96875,272077.875,275991.75,253165.4375,241827.640625,240091.8125,0.037109375,0.86083984375,-0.477294921875,0.6713866591453552,2.014159917831421,1.9836424589157104,86.66667175292969,925883.0,1.0
473189.4613256,262807.875,262989.65625,281456.5625,270502.53125,274941.03125,253144.421875,241028.078125,239797.578125,0.03955078125,0.866943359375,-0.477294921875,1.1596678495407104,2.075195074081421,2.105712652206421,86.66667175292969,925884.0,1.0
473189.463958,261860.0,262761.5625,281198.0,270519.875,274842.0625,253137.359375,241272.515625,239911.390625,0.039306640625,0.868896484375,-0.47509765625,1.4648436307907104,2.258300542831421,2.105712652206421,86.66667175292969,925885.0,1.0
473189.4665004,261266.78125,262737.96875,281755.28125,272131.0625,275838.0625,253160.96875,242242.40625,240289.84375,0.03955078125,0.872314453125,-0.47314453125,1.7395018339157104,2.258300542831421,2.075195074081421,86.66667175292969,925886.0,1.0
473189.4689101,261845.609375,262943.53125,282335.53125,273075.375,276528.5625,253170.71875,242577.234375,240401.703125,0.036376953125,0.87255859375,-0.468505859375,2.014159917831421,2.410888433456421,2.197265386581421,86.66667175292969,925887.0,1.0
473189.4713681,262844.28125,263114.375,282162.4375,272059.28125,275969.59375,253169.28125,241810.921875,240105.046875,0.033935546875,0.873291015625,-0.469482421875,2.258300542831421,2.349853277206421,2.136230230331421,86.66667175292969,925888.0,1.0
473189.4740013,262801.90625,262981.53125,281439.9375,270489.28125,274924.59375,253150.859375,241015.65625,239809.46875,0.03271484375,0.873779296875,-0.46923828125,2.655029058456421,2.471923589706421,2.258300542831421,86.66667175292969,925889.0,1.0
473189.4764294,261847.65625,262744.21875,281173.6875,270500.03125,274817.3125,253132.265625,241254.109375,239905.21875,0.0302734375,0.875244140625,-0.47119140625,2.868652105331421,2.502441167831421,2.136230230331421,86.66667175292969,925890.0,1.0
473189.4788644,261247.015625,262713.5625,281727.21875,272108.28125,275807.5625,253141.125,242222.203125,240275.546875,0.029541015625,0.8759765625,-0.47314453125,3.143310308456421,2.349853277206421,2.044677495956421,86.66667175292969,925891.0,1.0
473189.4815118,261843.8125,262937.71875,282327.03125,273072.875,276516.21875,253152.734375,242573.03125,240400.625,0.0244140625,0.878173828125,-0.472900390625,3.356933355331421,2.288818120956421,1.9226073026657104,86.66667175292969,925892.0,1.0
473189.483912,262846.4375,263110.71875,282155.75,272058.75,275960.09375,253139.0625,241809.046875,240097.171875,0.02490234375,0.87939453125,-0.47265625,3.723144292831421,2.197265386581421,1.7089842557907104,86.66667175292969,925893.0,1.0
473189.4839513,262793.9375,262972.5625,281427.0625,270479.90625,274907.96875,253102.3125,241007.96875,239792.296875,0.02490234375,0.882080078125,-0.471435546875,3.997802495956421,2.136230230331421,1.4648436307907104,86.66667175292969,925894.0,1.0
473189.4927678,261849.453125,262756.9375,281177.53125,270505.46875,274818.1875,253108.9375,241259.90625,239903.78125,0.025146484375,0.88232421875,-0.467529296875,4.150390148162842,2.014159917831421,1.4343260526657104,86.66667175292969,925895.0,1.0
473189.4952803,261246.9375,262730.375,281736.875,272118.03125,275816.15625,253141.65625,242234.625,240280.28125,0.02587890625,0.8818359375,-0.467041015625,4.394530773162842,1.8615721464157104,1.3122557401657104,86.66667175292969,925896.0,1.0
473189.4953215,261824.234375,262937.625,282325.6875,273069.9375,276515.3125,253168.203125,242578.484375,240395.609375,0.0244140625,0.885009765625,-0.466552734375,4.547118663787842,1.7395018339157104,1.3122557401657104,86.66667175292969,925897.0,1.0
473189.4975894,262830.40625,263115.375,282163.78125,272063.5625,275968.78125,253186.0,241829.078125,240110.046875,0.02490234375,0.886474609375,-0.465576171875,4.516601085662842,1.6479490995407104,1.2512205839157104,86.66667175292969,925898.0,1.0
473189.5013741,262800.03125,262994.65625,281456.5625,270510.3125,274941.3125,253169.109375,241050.515625,239837.265625,0.0234375,0.8857421875,-0.463134765625,4.516601085662842,1.4648436307907104,1.1901854276657104,86.66667175292969,925899.0,1.0
473189.5340335,261842.828125,262755.9375,281189.25,270517.0,274832.25,253146.390625,241283.421875,239938.203125,0.02490234375,0.8828125,-0.46240234375,4.577636241912842,1.3732908964157104,1.0681151151657104,86.66667175292969,925900.0,1.0
473189.5340733,261226.90625,262710.875,281730.34375,272111.21875,275812.125,253139.15625,242228.375,240285.109375,0.021728515625,0.876953125,-0.46435546875,4.608153820037842,1.2817381620407104,1.0375975370407104,86.66667175292969,925901.0,1.0
473189.5364422,261808.953125,262920.09375,282322.5625,273069.21875,276515.9375,253141.75,242577.5,240400.984375,0.017578125,0.87353515625,-0.46533203125,4.608153820037842,1.2207030057907104,1.0375975370407104,86.66667175292969,925902.0,1.0
473189.5364823,262817.09375,263103.65625,282167.53125,272072.40625,275976.65625,253154.4375,241840.171875,240121.5,0.012451171875,0.866455078125,-0.46337890625,4.913329601287842,1.0070799589157104,1.2207030057907104,86.66667175292969,925903.0,1.0
473189.5439697,262769.96875,262971.78125,281445.75,270501.53125,274931.9375,253130.5625,241035.953125,239808.125,0.010009765625,0.858154296875,-0.462646484375,5.279540538787842,0.7324218153953552,1.4648436307907104,86.66667175292969,925904.0,1.0
473189.5464856,261827.28125,262747.90625,281192.90625,270520.75,274833.03125,253109.015625,241264.109375,239901.1875,0.00537109375,0.847412109375,-0.461181640625,5.767821788787842,0.2746581733226776,1.9226073026657104,86.66667175292969,925905.0,1.0
473189.548924,261221.359375,262715.25,281746.6875,272124.0,275816.96875,253105.625,242221.21875,240267.046875,0.00146484375,0.839599609375,-0.46240234375,6.439208507537842,-0.2136230319738388,2.258300542831421,86.66667175292969,925906.0,1.0
473189.5513622,261781.140625,262908.90625,282317.125,273061.8125,276496.53125,253089.078125,242546.03125,240366.921875,0.002197265625,0.8349609375,-0.461669921875,7.171630382537842,-0.8239745497703552,2.716064214706421,86.66667175292969,925907.0,1.0
473189.5538888,262789.28125,263090.59375,282154.125,272062.125,275951.0625,253089.34375,241799.65625,240075.0,0.005126953125,0.834228515625,-0.4609375,7.904052257537842,-1.2817381620407104,3.326415777206421,86.66667175292969,925908.0,1.0
473189.5589914,262764.625,262972.84375,281445.21875,270503.15625,274918.0625,253077.546875,241018.0625,239793.1875,0.009765625,0.836181640625,-0.463134765625,8.819579124450684,-1.7089842557907104,3.814697027206421,86.66667175292969,925909.0,1.0
473189.5615003,261821.109375,262745.03125,281185.9375,270511.03125,274808.28125,253075.40625,241254.546875,239903.875,0.013916015625,0.839111328125,-0.464111328125,9.796141624450684,-2.227782964706421,4.577636241912842,86.66667175292969,925910.0,1.0
473189.5638779,261220.109375,262716.53125,281739.1875,272114.71875,275792.65625,253094.8125,242214.59375,240278.140625,0.016845703125,0.84423828125,-0.46142578125,10.711668968200684,-2.532958745956421,5.279540538787842,86.66667175292969,925911.0,1.0
473189.5663805,261815.296875,262939.9375,282340.625,273085.21875,276506.90625,253118.40625,242573.65625,240407.15625,0.017578125,0.848388671875,-0.46044921875,11.596678733825684,-2.960204839706421,6.011962413787842,86.66667175292969,925912.0,1.0
473189.5689524,262794.9375,263095.0625,282149.3125,272059.46875,275939.09375,253089.984375,241801.8125,240095.5625,0.01806640625,0.854736328125,-0.459716796875,12.390135765075684,-3.204345464706421,6.713866710662842,86.66667175292969,925913.0,1.0
473189.5714419,262764.875,262974.90625,281438.59375,270504.03125,274908.6875,253085.59375,241019.59375,239813.125,0.020263671875,0.859130859375,-0.45947265625,13.031004905700684,-3.387450933456421,7.263183116912842,86.66667175292969,925914.0,1.0
473189.5714833,261814.671875,262732.96875,281169.125,270505.75,274789.78125,253075.671875,241240.328125,239902.984375,0.018798828125,0.865966796875,-0.456298828125,13.702391624450684,-3.662109136581421,7.690429210662842,86.66667175292969,925915.0,1.0
473189.5738654,261216.171875,262695.9375,281720.40625,272105.78125,275768.9375,253090.515625,242190.109375,240264.640625,0.019287109375,0.871826171875,-0.4580078125,14.160155296325684,-3.875732183456421,8.239745140075684,86.66667175292969,925916.0,1.0
473189.5764939,261806.625,262915.90625,282318.625,273070.46875,276477.9375,253112.859375,242543.171875,240387.84375,0.01953125,0.880859375,-0.45458984375,14.587401390075684,-3.936767339706421,8.666991233825684,86.66667175292969,925917.0,1.0
473189.5789833,262808.78125,263096.6875,282150.8125,272066.96875,275937.125,253116.796875,241799.484375,240099.59375,0.0205078125,0.88818359375,-0.453369140625,15.075682640075684,-3.997802495956421,9.124754905700684,86.66667175292969,925918.0,1.0
473189.606563,262775.78125,262970.78125,281435.3125,270502.875,274906.0,253102.046875,241015.203125,239809.015625,0.021728515625,0.892333984375,-0.45556640625,15.411375999450684,-4.028319835662842,9.216307640075684,86.66667175292969,925919.0,1.0
473189.6066037,261835.859375,262736.375,281181.375,270516.75,274801.84375,253090.515625,241246.328125,239909.328125,0.02490234375,0.89892578125,-0.451904296875,15.624999046325684,-4.119872570037842,9.490965843200684,86.66667175292969,925920.0,1.0
473189.6115267,261250.59375,262714.1875,281748.40625,272133.5,275793.90625,253115.546875,242205.125,240281.984375,0.02734375,0.906494140625,-0.44970703125,15.441893577575684,-4.089354991912842,9.735106468200684,86.66667175292969,925921.0,1.0
473189.611565,261834.609375,262929.65625,282341.875,273096.3125,276500.9375,253145.671875,242555.515625,240402.953125,0.031982421875,0.912353515625,-0.452880859375,15.014647483825684,-4.089354991912842,10.101317405700684,86.66667175292969,925922.0,1.0
473189.6138385,262812.90625,263091.3125,282159.75,272075.09375,275947.40625,253143.0,241803.421875,240104.0625,0.031982421875,0.915283203125,-0.451904296875,14.648436546325684,-4.028319835662842,10.253905296325684,86.66667175292969,925923.0,1.0
473189.6180726,262763.28125,262948.25,281430.375,270496.96875,274904.125,253112.15625,241013.234375,239804.1875,0.031494140625,0.91748046875,-0.451416015625,14.038084983825684,-3.875732183456421,10.467528343200684,86.66667175292969,925924.0,1.0
473189.6255837,261838.546875,262722.15625,281181.46875,270520.59375,274803.1875,253106.15625,241248.828125,239911.65625,0.0302734375,0.91552734375,-0.45361328125,13.458250999450684,-3.845214605331421,10.589598655700684,86.66667175292969,925925.0,1.0
473189.6454583,261251.765625,262693.625,281740.0,272130.34375,275779.78125,253121.625,242190.734375,240275.0,0.03125,0.915771484375,-0.453125,13.000487327575684,-3.692626714706421,10.528563499450684,86.66667175292969,925926.0,1.0
473189.6755313,261829.15625,262908.03125,282327.84375,273086.375,276478.5625,253142.28125,242536.5625,240387.75,0.03271484375,0.913330078125,-0.4580078125,12.359618186950684,-3.509521245956421,10.467528343200684,86.66667175292969,925927.0,1.0
473189.6942783,262823.90625,263091.59375,282162.1875,272080.65625,275947.84375,253157.484375,241808.421875,240099.234375,0.033203125,0.9130859375,-0.457275390625,11.840819358825684,-3.265380620956421,10.406493186950684,86.66667175292969,925928.0,1.0
473189.7013545,262789.375,262965.25,281450.125,270517.90625,274924.5,253151.21875,241039.078125,239807.5,0.033447265625,0.913330078125,-0.456787109375,11.199950218200684,-3.173827886581421,10.253905296325684,86.66667175292969,925929.0,1.0
473189.7063849,261854.0,262727.59375,281193.1875,270529.78125,274812.5625,253140.9375,241262.421875,239905.390625,0.03662109375,0.910888671875,-0.45751953125,10.772704124450684,-2.960204839706421,9.948729515075684,86.66667175292969,925930.0,1.0
473189.7088259,261258.015625,262684.0625,281740.71875,272126.4375,275775.65625,253145.40625,242191.53125,240268.390625,0.0390625,0.910400390625,-0.462646484375,10.284422874450684,-2.716064214706421,9.704588890075684,86.66667175292969,925931.0,1.0
473189.7139983,261832.90625,262894.625,282325.25,273077.8125,276470.15625,253162.484375,242531.28125,240387.921875,0.041259765625,0.91015625,-0.46533203125,9.918211936950684,-2.502441167831421,9.552000999450684,86.66667175292969,925932.0,1.0
473189.7163806,262818.71875,263074.15625,282153.5,272064.1875,275937.75,253164.1875,241803.5,240096.8125,0.040771484375,0.9091796875,-0.46728515625,9.521483421325684,-2.319335699081421,9.277342796325684,86.66667175292969,925933.0,1.0
473189.7189899,262778.65625,262949.15625,281440.03125,270497.15625,274914.84375,253145.40625,241031.65625,239811.25,0.0419921875,0.91064453125,-0.468017578125,9.094237327575684,-1.9836424589157104,9.063719749450684,86.66667175292969,925934.0,1.0
473189.7237927,261861.25,262728.125,281199.09375,270525.3125,274818.8125,253144.6875,241267.15625,239934.640625,0.042236328125,0.908935546875,-0.46875,8.605956077575684,-1.7395018339157104,8.789061546325684,86.66667175292969,925935.0,1.0
473189.7263125,261281.265625,262700.15625,281759.5,272139.46875,275793.625,253166.515625,242206.375,240311.75,0.044677734375,0.91015625,-0.469970703125,8.026122093200684,-1.5258787870407104,8.422850608825684,86.66667175292969,925936.0,1.0
473189.7288141,261853.203125,262911.875,282339.46875,273089.0625,276483.125,253184.296875,242544.78125,240436.65625,0.048095703125,0.9091796875,-0.468505859375,7.568358898162842,-1.3122557401657104,8.026122093200684,86.66667175292969,925937.0,1.0
473189.7338297,262819.78125,263075.84375,282151.4375,272060.0,275931.75,253172.953125,241801.1875,240142.5,0.050048828125,0.9111328125,-0.47216796875,6.958007335662842,-1.0681151151657104,7.629394054412842,86.66667175292969,925938.0,1.0
473189.7363335,262772.3125,262940.46875,281432.875,270489.03125,274902.59375,253135.21875,241021.375,239848.625,0.05126953125,0.911376953125,-0.475341796875,6.378173351287842,-0.6713866591453552,7.232665538787842,86.66667175292969,925939.0,1.0
473189.7388251,261853.109375,262715.625,281191.75,270517.625,274803.96875,253112.328125,241252.40625,239958.59375,0.0517578125,0.912109375,-0.47265625,5.767821788787842,-0.2746581733226776,6.835937023162842,86.66667175292969,925940.0,1.0
473189.7412047,261277.328125,262692.03125,281760.1875,272139.03125,275782.1875,253135.84375,242196.0,240329.546875,0.053955078125,0.9140625,-0.47412109375,5.035399913787842,-0.03051757626235485,6.408690929412842,86.66667175292969,925941.0,1.0
473189.7462131,261840.234375,262893.4375,282334.1875,273083.53125,276468.03125,253154.4375,242528.78125,240438.171875,0.055419921875,0.907958984375,-0.47509765625,4.364013195037842,0.4272460639476776,6.011962413787842,86.66667175292969,925942.0,1.0
473189.7486832,262803.875,263057.78125,282144.28125,272049.4375,275919.6875,253147.46875,241782.9375,240139.015625,0.05712890625,0.901611328125,-0.476318359375,3.875732183456421,0.7934569716453552,5.615233898162842,86.66667175292969,925943.0,1.0
473189.7536885,262777.03125,262945.5625,281442.4375,270493.65625,274911.1875,253141.296875,241021.46875,239852.921875,0.058837890625,0.89892578125,-0.474853515625,3.356933355331421,1.0681151151657104,5.218505382537842,86.66667175292969,925944.0,1.0
473189.7562342,261871.171875,262735.5625,281214.1875,270532.46875,274825.96875,253158.46875,241270.734375,239972.984375,0.06005859375,0.895751953125,-0.4814453125,2.868652105331421,1.5563963651657104,4.791259288787842,86.66667175292969,925945.0,1.0
473189.7587282,261283.59375,262703.0,281768.4375,272140.46875,275794.0625,253191.90625,242204.5,240344.828125,0.0634765625,0.8916015625,-0.485107421875,2.532958745956421,1.8310545682907104,4.455565929412842,86.66667175292969,925946.0,1.0
473189.7637085,261849.890625,262914.28125,282345.46875,273088.96875,276484.125,253223.90625,242543.53125,240467.765625,0.064208984375,0.891845703125,-0.48681640625,2.258300542831421,2.288818120956421,4.119872570037842,86.66667175292969,925947.0,1.0
473189.7664653,262830.875,263096.59375,282171.9375,272074.5625,275954.75,253241.609375,241820.765625,240192.125,0.065673828125,0.88818359375,-0.48779296875,2.075195074081421,2.655029058456421,3.631591558456421,86.66667175292969,925948.0,1.0
