Time,FZ,C3,CZ,C4,PZ,PO7,OZ,PO8,AccX,AccY,AccZ,Gyro1,Gyro2,Gyro3,Battery,Counter,Validation
1163242.6052792,303627.53125,314175.34375,344039.125,326230.78125,307178.78125,297364.125,318128.28125,310012.375,-0.134765625,0.954833984375,0.376220703125,-9.643553733825684,-1.0986326932907104,1.5563963651657104,100.0,164126.0,1.0
1163242.6053049,302685.28125,314347.4375,343883.9375,325871.5625,307476.96875,297889.40625,318828.34375,311084.625,-0.1357421875,0.955322265625,0.375,-9.674071311950684,-1.0375975370407104,1.6174315214157104,100.0,164127.0,1.0
1163242.6078069,302547.59375,314392.59375,344042.0,325917.40625,307639.0625,298152.53125,319129.375,311632.875,-0.134521484375,0.9541015625,0.37646484375,-9.582518577575684,-1.0681151151657104,1.7089842557907104,100.0,164128.0,1.0
1163242.6078336,303448.28125,314265.8125,344371.28125,326375.0,307472.03125,297817.78125,318659.34375,310959.8125,-0.13525390625,0.95654296875,0.379638671875,-9.490965843200684,-1.2207030057907104,1.8005369901657104,100.0,164129.0,1.0
1163242.6209543,304124.03125,314133.3125,344375.65625,326571.78125,307190.78125,297333.65625,318038.34375,309956.65625,-0.134765625,0.95556640625,0.376708984375,-9.429930686950684,-1.1291502714157104,1.8920897245407104,100.0,164130.0,1.0
1163242.6253143,303649.96875,314181.84375,344055.59375,326250.625,307188.4375,297373.53125,318135.96875,310017.28125,-0.134521484375,0.954833984375,0.38037109375,-9.307860374450684,-1.2207030057907104,1.7700194120407104,100.0,164131.0,1.0
1163242.6253408,302684.46875,314341.4375,343870.0625,325864.65625,307469.09375,297880.1875,318818.5,311070.21875,-0.134521484375,0.953857421875,0.379150390625,-9.216307640075684,-1.2817381620407104,1.8920897245407104,100.0,164132.0,1.0
1163242.627213,302529.53125,314385.875,344017.78125,325904.1875,307628.78125,298144.5625,319124.375,311632.40625,-0.13427734375,0.954833984375,0.381103515625,-9.216307640075684,-1.3732908964157104,2.075195074081421,100.0,164133.0,1.0
1163242.6415577,303431.5625,314262.9375,344359.125,326368.3125,307471.78125,297823.40625,318666.0625,310975.0,-0.135009765625,0.95849609375,0.383544921875,-9.185790061950684,-1.4343260526657104,2.136230230331421,100.0,164134.0,1.0
1163242.6415848,304134.75,314139.125,344389.34375,326585.1875,307201.21875,297347.6875,318054.78125,309978.3125,-0.134033203125,0.95947265625,0.38134765625,-9.063719749450684,-1.4648436307907104,2.288818120956421,100.0,164135.0,1.0
1163242.6441379,303686.09375,314195.4375,344078.46875,326277.1875,307203.28125,297386.65625,318149.375,310031.5,-0.13134765625,0.95751953125,0.383544921875,-9.094237327575684,-1.5258787870407104,2.227782964706421,100.0,164136.0,1.0
1163242.6441674,302697.34375,314336.4375,343869.4375,325865.84375,307464.71875,297875.625,318808.65625,311057.25,-0.134521484375,0.96044921875,0.384521484375,-9.124754905700684,-1.4343260526657104,2.349853277206421,100.0,164137.0,1.0
1163242.6459924,302520.6875,314385.78125,344012.125,325894.09375,307632.875,298150.5625,319126.34375,311631.96875,-0.134521484375,0.959228515625,0.38623046875,-9.033202171325684,-1.5258787870407104,2.441406011581421,100.0,164138.0,1.0
1163242.654715,303422.1875,314270.09375,344360.75,326363.28125,307480.53125,297834.78125,318677.34375,310993.875,-0.129638671875,0.95849609375,0.385986328125,-8.972167015075684,-1.6479490995407104,2.593993902206421,100.0,164139.0,1.0
1163242.6641645,304127.40625,314130.71875,344388.0,326581.25,307192.8125,297339.1875,318044.96875,309977.9375,-0.13134765625,0.95703125,0.38330078125,-9.033202171325684,-1.6479490995407104,2.624511480331421,100.0,164140.0,1.0
1163242.6642177,303677.96875,314174.15625,344069.0,326266.28125,307179.59375,297362.34375,318118.4375,309998.0625,-0.1318359375,0.956787109375,0.38623046875,-8.941649436950684,-1.6784666776657104,2.746581792831421,100.0,164141.0,1.0
1163242.666653,302702.34375,314339.84375,343863.375,325869.59375,307461.9375,297870.34375,318802.9375,311041.4375,-0.13134765625,0.9580078125,0.388671875,-8.911131858825684,-1.5563963651657104,2.807616949081421,100.0,164142.0,1.0
1163242.6667087,302504.0625,314386.78125,343986.125,325880.75,307626.34375,298143.84375,319126.78125,311625.71875,-0.1328125,0.95849609375,0.391357421875,-8.850096702575684,-1.5869139432907104,2.807616949081421,100.0,164143.0,1.0
1163242.6685148,303398.9375,314262.9375,344342.5,326349.4375,307475.15625,297828.78125,318679.28125,310993.15625,-0.1318359375,0.957763671875,0.392578125,-8.819579124450684,-1.5563963651657104,2.838134527206421,100.0,164144.0,1.0
1163242.6722572,304138.875,314133.125,344410.34375,326596.1875,307204.8125,297347.40625,318061.6875,309990.71875,-0.131103515625,0.95751953125,0.39208984375,-8.758543968200684,-1.6784666776657104,2.777099370956421,100.0,164145.0,1.0
1163242.6866555,303707.84375,314178.28125,344101.375,326291.6875,307193.28125,297366.1875,318132.40625,310005.5625,-0.1318359375,0.957763671875,0.39306640625,-8.697508811950684,-1.6784666776657104,2.807616949081421,100.0,164146.0,1.0
1163242.686705,302702.71875,314327.0625,343867.375,325865.125,307455.5,297857.46875,318793.75,311025.6875,-0.12890625,0.9580078125,0.391357421875,-8.544920921325684,-1.6479490995407104,2.899169683456421,100.0,164147.0,1.0
1163242.6886046,302479.5625,314373.8125,343973.78125,325859.75,307615.375,298134.375,319115.25,311612.65625,-0.12890625,0.95751953125,0.393798828125,-8.575438499450684,-1.6174315214157104,2.777099370956421,100.0,164148.0,1.0
1163242.6910827,303375.40625,314261.875,344340.625,326335.5625,307475.8125,297836.375,318684.5625,311003.15625,-0.12841796875,0.956298828125,0.39599609375,-8.605956077575684,-1.5563963651657104,2.899169683456421,100.0,164149.0,1.0
1163242.6947677,304123.46875,314128.84375,344416.4375,326589.5,307200.78125,297351.34375,318061.125,309996.34375,-0.129638671875,0.953369140625,0.3994140625,-8.453368186950684,-1.5869139432907104,2.929687261581421,100.0,164150.0,1.0
1163242.7042268,303699.96875,314165.6875,344099.9375,326279.53125,307177.90625,297354.21875,318111.28125,309984.375,-0.128173828125,0.954345703125,0.39794921875,-8.514403343200684,-1.6174315214157104,2.777099370956421,100.0,164151.0,1.0
1163242.7042803,302694.40625,314317.3125,343855.59375,325850.1875,307442.09375,297845.3125,318771.84375,311000.65625,-0.126220703125,0.953857421875,0.3984375,-8.392333030700684,-1.6174315214157104,2.807616949081421,100.0,164152.0,1.0
1163242.7060322,302467.21875,314372.03125,343958.6875,325847.6875,307612.59375,298135.28125,319112.21875,311609.8125,-0.125244140625,0.953857421875,0.39990234375,-8.178709983825684,-1.5258787870407104,2.838134527206421,100.0,164153.0,1.0
1163242.717337,303372.1875,314268.125,344341.34375,326338.71875,307485.28125,297848.09375,318700.3125,311025.78125,-0.128173828125,0.95458984375,0.401611328125,-8.117674827575684,-1.5563963651657104,2.807616949081421,100.0,164154.0,1.0
1163242.7204034,304138.78125,314136.25,344431.09375,326605.3125,307208.75,297358.6875,318072.75,310015.9375,-0.129150390625,0.952880859375,0.403076171875,-8.087157249450684,-1.4953612089157104,2.807616949081421,100.0,164155.0,1.0
1163242.7204533,303723.46875,314169.53125,344116.3125,326299.09375,307180.75,297352.6875,318109.5,309987.40625,-0.12744140625,0.953369140625,0.400146484375,-7.904052257537842,-1.4038084745407104,2.777099370956421,100.0,164156.0,1.0
1163242.722359,302712.09375,314324.375,343856.46875,325861.4375,307442.28125,297839.59375,318769.40625,310996.1875,-0.1259765625,0.952392578125,0.400146484375,-8.026122093200684,-1.2512205839157104,2.838134527206421,100.0,164157.0,1.0
1163242.7310881,302459.0,314377.5625,343943.28125,325840.53125,307610.09375,298128.21875,319111.84375,311609.53125,-0.126220703125,0.955078125,0.40234375,-7.934569835662842,-1.2512205839157104,2.838134527206421,100.0,164158.0,1.0
1163242.734187,303357.0,314273.21875,344334.1875,326333.96875,307488.21875,297848.09375,318707.28125,311038.75,-0.126953125,0.95361328125,0.404052734375,-7.781981945037842,-1.3427733182907104,2.899169683456421,100.0,164159.0,1.0
1163242.7342385,304146.28125,314145.90625,344452.5625,326622.40625,307222.34375,297368.15625,318083.21875,310033.46875,-0.125,0.95361328125,0.400390625,-7.659911632537842,-1.2207030057907104,3.021239995956421,100.0,164160.0,1.0
1163242.7372562,303749.125,314177.65625,344139.46875,326321.71875,307191.46875,297359.03125,318112.71875,309985.1875,-0.12353515625,0.94970703125,0.400634765625,-7.598876476287842,-1.0986326932907104,2.899169683456421,100.0,164161.0,1.0
1163242.7460393,302721.84375,314325.8125,343862.75,325869.0625,307445.5625,297840.9375,318763.96875,310980.46875,-0.123291015625,0.950439453125,0.40234375,-7.446288585662842,-1.1291502714157104,2.929687261581421,100.0,164162.0,1.0
1163242.7529287,302460.0625,314386.78125,343948.125,325845.34375,307624.5625,298142.25,319122.5,311614.8125,-0.123291015625,0.949951171875,0.402587890625,-7.324218273162842,-1.0070799589157104,2.929687261581421,100.0,164163.0,1.0
1163242.7529853,303345.71875,314278.25,344328.09375,326326.90625,307495.46875,297861.875,318717.65625,311049.84375,-0.123291015625,0.9501953125,0.404052734375,-7.232665538787842,-0.9460448622703552,2.960204839706421,100.0,164164.0,1.0
1163242.7548316,304150.40625,314147.625,344453.71875,326623.375,307225.625,297378.0,318090.90625,310042.5,-0.1240234375,0.95068359375,0.405517578125,-7.171630382537842,-0.9155272841453552,3.021239995956421,100.0,164165.0,1.0
1163242.7585468,303757.4375,314169.4375,344133.65625,326319.40625,307177.1875,297345.1875,318093.0625,309969.1875,-0.12158203125,0.951171875,0.402587890625,-7.080077648162842,-0.8239745497703552,2.960204839706421,100.0,164166.0,1.0
1163242.7691817,302723.0,314313.65625,343843.4375,325859.40625,307428.21875,297816.53125,318738.40625,310955.875,-0.1220703125,0.95263671875,0.404052734375,-6.988524913787842,-0.8850097060203552,2.960204839706421,100.0,164167.0,1.0
1163242.7692316,302443.0625,314379.0,343922.65625,325830.4375,307613.75,298125.25,319108.625,311605.59375,-0.12109375,0.950927734375,0.404296875,-6.958007335662842,-0.8850097060203552,2.899169683456421,100.0,164168.0,1.0
1163242.7710856,303343.75,314288.0625,344331.6875,326337.625,307506.90625,297867.84375,318730.875,311076.3125,-0.11962890625,0.949951171875,0.40478515625,-6.835937023162842,-0.7324218153953552,2.960204839706421,100.0,164169.0,1.0
1163242.7748307,304167.8125,314162.53125,344484.46875,326654.5625,307245.75,297389.53125,318107.1875,310073.15625,-0.12109375,0.951416015625,0.40625,-6.744384288787842,-0.7324218153953552,2.990722417831421,100.0,164170.0,1.0
1163242.7892396,303781.6875,314180.25,344167.09375,326346.75,307192.03125,297352.25,318101.1875,309981.53125,-0.121337890625,0.952880859375,0.404052734375,-6.805419445037842,-0.6408690810203552,3.021239995956421,100.0,164171.0,1.0
1163242.7892895,302731.40625,314315.6875,343854.6875,325864.84375,307428.5,297815.71875,318734.625,310948.375,-0.1181640625,0.951904296875,0.4052734375,-6.713866710662842,-0.6713866591453552,3.082275152206421,100.0,164172.0,1.0
1163242.7916099,302431.1875,314379.625,343914.96875,325816.375,307607.9375,298124.4375,319104.34375,311598.4375,-0.118408203125,0.951171875,0.406494140625,-6.683349132537842,-0.5493163466453552,2.929687261581421,100.0,164173.0,1.0
1163242.7916599,303316.21875,314288.25,344314.59375,326313.125,307498.40625,297865.34375,318727.21875,311074.6875,-0.119140625,0.94970703125,0.408447265625,-6.500243663787842,-0.5798339247703552,2.960204839706421,100.0,164174.0,1.0
1163242.7935276,304153.625,314156.375,344479.5625,326640.71875,307235.03125,297384.53125,318104.59375,310070.46875,-0.11767578125,0.94970703125,0.4111328125,-6.378173351287842,-0.4882812201976776,2.929687261581421,100.0,164175.0,1.0
1163242.796081,303792.84375,314172.65625,344177.625,326349.25,307184.40625,297345.625,318096.625,309969.4375,-0.11962890625,0.947998046875,0.411376953125,-6.225585460662842,-0.2746581733226776,2.899169683456421,100.0,164176.0,1.0
1163242.8047997,302755.65625,314326.25,343873.90625,325875.3125,307435.03125,297821.4375,318737.84375,310941.9375,-0.1181640625,0.951904296875,0.41064453125,-6.225585460662842,-0.2136230319738388,2.929687261581421,100.0,164177.0,1.0
1163242.809184,302439.9375,314395.625,343926.5625,325820.78125,307620.90625,298142.25,319121.875,311608.375,-0.11962890625,0.95166015625,0.40966796875,-6.225585460662842,-0.1525878757238388,2.990722417831421,100.0,164178.0,1.0
1163242.8092341,303311.5,314296.3125,344324.875,326311.0,307507.625,297880.8125,318747.78125,311093.28125,-0.11962890625,0.95166015625,0.40869140625,-6.195067882537842,-0.1831054538488388,2.990722417831421,100.0,164179.0,1.0
1163242.8148347,304158.625,314163.0,344492.96875,326643.03125,307238.875,297391.84375,318113.4375,310082.5625,-0.11962890625,0.952880859375,0.41162109375,-6.347655773162842,-0.1220703050494194,2.899169683456421,100.0,164180.0,1.0
1163242.8185829,303808.15625,314181.84375,344182.5625,326354.15625,307183.09375,297347.5,318091.71875,309962.21875,-0.11669921875,0.95361328125,0.41162109375,-6.286620616912842,-0.03051757626235485,2.899169683456421,100.0,164181.0,1.0
1163242.8272923,302759.65625,314326.15625,343861.75,325870.21875,307426.53125,297814.9375,318726.875,310921.1875,-0.114501953125,0.95263671875,0.4091796875,-6.317138195037842,0.0610351525247097,2.899169683456421,100.0,164182.0,1.0
1163242.8316135,302429.21875,314396.625,343912.53125,325808.6875,307615.90625,298138.75,319119.09375,311599.78125,-0.113037109375,0.953369140625,0.4091796875,-6.378173351287842,0.2441406100988388,2.990722417831421,100.0,164183.0,1.0
1163242.8316606,303294.40625,314298.71875,344310.40625,326299.90625,307505.84375,297884.40625,318750.5625,311099.0,-0.110595703125,0.955810546875,0.412109375,-6.347655773162842,0.4882812201976776,3.082275152206421,100.0,164184.0,1.0
1163242.8379032,304164.59375,314173.90625,344504.25,326657.4375,307250.21875,297407.0625,318128.0,310101.9375,-0.10888671875,0.955810546875,0.412109375,-6.317138195037842,0.7629393935203552,3.143310308456421,100.0,164185.0,1.0
1163242.8379588,303835.3125,314189.53125,344216.6875,326384.65625,307198.0,297356.90625,318106.375,309979.8125,-0.1083984375,0.956787109375,0.41064453125,-6.347655773162842,0.9460448622703552,3.204345464706421,100.0,164186.0,1.0
1163242.8397857,302761.625,314317.75,343856.40625,325867.0,307411.78125,297795.78125,318709.59375,310908.40625,-0.106689453125,0.956298828125,0.41064453125,-6.408690929412842,1.2817381620407104,3.417968511581421,100.0,164187.0,1.0
1163242.8485805,302415.90625,314392.59375,343893.3125,325797.6875,307603.125,298128.375,319112.21875,311599.4375,-0.105712890625,0.95654296875,0.41259765625,-6.469726085662842,1.6784666776657104,3.631591558456421,100.0,164188.0,1.0
1163242.8529239,303284.75,314298.8125,344304.15625,326297.75,307503.34375,297887.15625,318762.0,311117.625,-0.10546875,0.957763671875,0.4091796875,-6.591796398162842,2.014159917831421,3.875732183456421,100.0,164189.0,1.0
1163242.8529748,304167.8125,314167.375,344511.125,326663.34375,307247.1875,297405.25,318136.0625,310115.1875,-0.106689453125,0.959716796875,0.40966796875,-6.591796398162842,2.319335699081421,4.089354991912842,100.0,164190.0,1.0
1163242.8560833,303846.3125,314179.96875,344206.25,326385.46875,307186.375,297344.90625,318096.1875,309967.125,-0.106201171875,0.960693359375,0.4111328125,-6.683349132537842,2.624511480331421,4.241942882537842,100.0,164191.0,1.0
1163242.8711833,302791.21875,314329.125,343869.34375,325890.875,307428.40625,297810.46875,318727.5625,310914.46875,-0.10498046875,0.958251953125,0.410888671875,-6.744384288787842,2.899169683456421,4.425048351287842,100.0,164192.0,1.0
1163242.8966783,302417.15625,314394.75,343893.9375,325799.59375,307613.46875,298137.0625,319122.125,311601.75,-0.10546875,0.959228515625,0.413330078125,-6.774901866912842,3.326415777206421,4.394530773162842,100.0,164193.0,1.0
1163242.8967286,303265.1875,314295.5,344293.875,326283.90625,307505.65625,297889.59375,318762.90625,311123.4375,-0.103515625,0.958251953125,0.410888671875,-6.958007335662842,3.723144292831421,4.608153820037842,100.0,164194.0,1.0
1163242.8985798,304162.46875,314165.6875,344510.9375,326660.65625,307248.78125,297402.65625,318129.53125,310119.21875,-0.100830078125,0.95703125,0.411865234375,-7.019042491912842,4.211425304412842,4.791259288787842,100.0,164195.0,1.0
1163242.9010845,303871.53125,314190.34375,344233.78125,326408.1875,307196.65625,297346.0,318091.53125,309964.71875,-0.102294921875,0.958251953125,0.411865234375,-7.110595226287842,4.608153820037842,4.913329601287842,100.0,164196.0,1.0
1163242.9035809,302796.40625,314319.53125,343869.71875,325889.4375,307416.625,297787.03125,318696.8125,310879.875,-0.102294921875,0.956787109375,0.41259765625,-7.110595226287842,5.035399913787842,5.065917491912842,100.0,164197.0,1.0
1163242.9061456,302405.0,314389.46875,343879.375,325789.125,307604.8125,298123.1875,319102.28125,311582.15625,-0.1044921875,0.95654296875,0.4140625,-7.141112804412842,5.432128429412842,5.065917491912842,100.0,164198.0,1.0
1163242.9085461,303264.375,314312.40625,344311.03125,326297.125,307527.375,297912.125,318783.0,311145.59375,-0.10595703125,0.95751953125,0.41796875,-7.232665538787842,5.828856945037842,5.126952648162842,100.0,164199.0,1.0
1163242.9110676,304176.5,314181.9375,344547.96875,326689.4375,307276.0625,297433.25,318158.6875,310149.78125,-0.108154296875,0.95751953125,0.416015625,-7.110595226287842,6.072997570037842,5.218505382537842,100.0,164200.0,1.0
1163242.9135804,303883.25,314188.375,344258.71875,326425.4375,307206.9375,297356.1875,318096.28125,309969.4375,-0.1103515625,0.954833984375,0.41455078125,-7.080077648162842,6.256103038787842,5.218505382537842,100.0,164201.0,1.0
1163242.9161427,302810.90625,314329.125,343881.875,325899.1875,307426.0,297799.0,318701.75,310880.875,-0.110595703125,0.953369140625,0.41845703125,-7.110595226287842,6.500243663787842,5.249022960662842,100.0,164202.0,1.0
1163242.918538,302410.53125,314408.6875,343874.375,325788.84375,307618.3125,298141.625,319116.84375,311595.9375,-0.111328125,0.9521484375,0.4189453125,-7.110595226287842,6.652831554412842,5.432128429412842,100.0,164203.0,1.0
1163242.9210835,303243.71875,314310.4375,344281.96875,326277.0,307524.0625,297913.53125,318786.6875,311155.0625,-0.110107421875,0.950927734375,0.41845703125,-7.049560070037842,6.835937023162842,5.340575695037842,100.0,164204.0,1.0
1163242.9241771,304162.1875,314173.375,344526.9375,326675.5,307264.71875,297426.09375,318155.90625,310152.03125,-0.109375,0.9541015625,0.41845703125,-7.049560070037842,7.202147960662842,5.279540538787842,100.0,164205.0,1.0
1163242.9242298,303886.65625,314176.03125,344249.34375,326423.1875,307189.78125,297340.0,318085.8125,309956.9375,-0.106689453125,0.955322265625,0.42041015625,-6.988524913787842,7.476806163787842,5.340575695037842,100.0,164206.0,1.0
1163242.9261601,302815.8125,314319.71875,343883.03125,325902.3125,307415.53125,297783.71875,318692.875,310864.84375,-0.10546875,0.952880859375,0.41845703125,-7.080077648162842,7.751464366912842,5.279540538787842,100.0,164207.0,1.0
1163242.9291979,302396.40625,314399.28125,343866.84375,325778.21875,307608.5625,298128.3125,319111.84375,311585.375,-0.103759765625,0.950439453125,0.41943359375,-6.927489757537842,8.026122093200684,5.310058116912842,100.0,164208.0,1.0
1163242.9292483,303227.53125,314311.21875,344279.375,326274.15625,307524.4375,297914.71875,318796.59375,311169.75,-0.100830078125,0.947998046875,0.417236328125,-6.927489757537842,8.331297874450684,5.462646007537842,100.0,164209.0,1.0
1163242.9372552,304152.8125,314166.375,344529.4375,326682.46875,307262.46875,297417.5,318155.375,310162.21875,-0.097412109375,0.946533203125,0.41552734375,-6.866454601287842,8.666991233825684,5.584716320037842,100.0,164210.0,1.0
1163242.9398587,303888.4375,314164.78125,344237.625,326426.0625,307174.84375,297315.78125,318062.03125,309938.34375,-0.096923828125,0.94384765625,0.41796875,-6.683349132537842,9.033202171325684,5.767821788787842,100.0,164211.0,1.0
1163242.9492297,302815.09375,314304.6875,343852.90625,325893.375,307392.03125,297753.78125,318658.375,310832.5,-0.09228515625,0.940673828125,0.416259765625,-6.591796398162842,9.399413108825684,5.889892101287842,100.0,164212.0,1.0
1163242.9492803,302381.9375,314388.03125,343838.875,325764.71875,307593.375,298109.34375,319089.84375,311567.34375,-0.088623046875,0.9423828125,0.412109375,-6.408690929412842,9.918211936950684,6.103515148162842,100.0,164213.0,1.0
1163242.9510679,303213.6875,314310.96875,344271.96875,326269.6875,307530.4375,297916.9375,318800.1875,311177.6875,-0.084716796875,0.94287109375,0.41015625,-6.195067882537842,10.406493186950684,6.317138195037842,100.0,164214.0,1.0
1163242.9547635,304164.78125,314181.40625,344550.5625,326702.84375,307286.34375,297438.625,318179.875,310189.125,-0.0810546875,0.9462890625,0.41064453125,-5.920409679412842,10.986327171325684,6.500243663787842,100.0,164215.0,1.0
1163242.9766314,303911.21875,314172.375,344266.59375,326448.75,307188.875,297322.5625,318070.15625,309945.3125,-0.082763671875,0.948974609375,0.41162109375,-5.706786632537842,11.596678733825684,6.591796398162842,100.0,164216.0,1.0
1163242.9766705,302834.84375,314309.0,343874.0,325905.71875,307400.25,297752.34375,318654.875,310824.625,-0.080810546875,0.949951171875,0.409912109375,-5.737304210662842,12.145995140075684,6.591796398162842,100.0,164217.0,1.0
1163242.9796037,302383.4375,314391.96875,343841.28125,325758.90625,307596.125,298104.15625,319088.5,311562.84375,-0.079345703125,0.949951171875,0.412353515625,-5.706786632537842,12.908934593200684,6.652831554412842,100.0,164218.0,1.0
1163242.9796351,303204.8125,314316.59375,344272.125,326261.28125,307534.28125,297917.28125,318809.375,311190.3125,-0.082763671875,0.949462890625,0.412353515625,-5.493163585662842,13.519286155700684,6.561278820037842,100.0,164219.0,1.0
1163242.9796465,304164.0625,314183.65625,344562.34375,326703.9375,307290.71875,297442.1875,318190.96875,310201.28125,-0.0849609375,0.951416015625,0.412109375,-5.462646007537842,14.099120140075684,6.408690929412842,100.0,164220.0,1.0
1163242.9841018,303932.40625,314177.5625,344289.21875,326463.875,307199.8125,297330.78125,318082.59375,309952.90625,-0.08935546875,0.9521484375,0.4150390625,-5.554198741912842,14.678954124450684,6.256103038787842,100.0,164221.0,1.0
1163242.9841293,302865.53125,314323.9375,343897.0625,325925.46875,307415.09375,297763.875,318666.40625,310827.9375,-0.091796875,0.955810546875,0.416015625,-5.676269054412842,15.045165061950684,6.072997570037842,100.0,164222.0,1.0
1163242.9860836,302380.59375,314393.21875,343836.0,325753.09375,307598.28125,298107.90625,319089.125,311556.875,-0.09423828125,0.956787109375,0.417236328125,-5.767821788787842,15.472411155700684,5.859374523162842,100.0,164223.0,1.0
1163242.9922621,303181.21875,314309.96875,344254.96875,326249.65625,307534.53125,297924.71875,318818.0625,311198.96875,-0.097412109375,0.95703125,0.415283203125,-5.981444835662842,15.747069358825684,5.615233898162842,100.0,164224.0,1.0
1163243.0010846,304165.25,314189.625,344569.5,326720.5625,307307.0,297460.0625,318211.15625,310227.375,-0.100830078125,0.957275390625,0.417724609375,-6.225585460662842,16.082761764526367,5.340575695037842,100.0,164225.0,1.0
1163243.0210156,303945.125,314171.84375,344294.84375,326478.90625,307202.46875,297323.71875,318074.71875,309946.46875,-0.099853515625,0.95703125,0.4169921875,-6.408690929412842,16.357419967651367,4.974364757537842,100.0,164226.0,1.0
1163243.0210667,302854.0,314295.75,343866.3125,325901.3125,307387.28125,297727.84375,318623.40625,310781.96875,-0.101806640625,0.955810546875,0.417236328125,-6.530761241912842,16.632078170776367,4.669188976287842,100.0,164227.0,1.0
1163243.0210804,302370.75,314381.78125,343824.46875,325739.21875,307593.0,298102.09375,319077.78125,311541.5,-0.102783203125,0.95361328125,0.417236328125,-6.683349132537842,16.784666061401367,4.211425304412842,100.0,164228.0,1.0
1163243.0235833,303169.5,314308.375,344259.25,326245.0,307542.9375,297933.21875,318824.3125,311206.5625,-0.104736328125,0.951171875,0.419677734375,-6.896972179412842,16.906736373901367,3.845214605331421,100.0,164229.0,1.0
1163243.0278535,304146.09375,314172.03125,344561.1875,326706.625,307296.8125,297449.34375,318201.40625,310222.90625,-0.10400390625,0.951171875,0.420654296875,-6.927489757537842,17.181394577026367,3.540038824081421,100.0,164230.0,1.0
1163243.0279217,303942.875,314157.8125,344291.90625,326475.9375,307189.34375,297313.8125,318066.59375,309936.53125,-0.106201171875,0.951171875,0.419189453125,-6.988524913787842,17.333982467651367,3.417968511581421,100.0,164231.0,1.0
1163243.0279342,302862.84375,314289.6875,343865.96875,325905.875,307378.625,297722.75,318622.78125,310772.84375,-0.10546875,0.953369140625,0.421630859375,-7.049560070037842,17.547605514526367,3.082275152206421,100.0,164232.0,1.0
1163243.0279471,302357.78125,314373.71875,343783.34375,325716.4375,307568.6875,298083.25,319059.375,311520.84375,-0.10302734375,0.95263671875,0.4228515625,-7.110595226287842,17.700193405151367,2.960204839706421,100.0,164233.0,1.0
1163243.0297559,303137.59375,314291.03125,344208.65625,326214.25,307515.84375,297908.8125,318804.65625,311191.375,-0.104248046875,0.9521484375,0.420166015625,-7.141112804412842,17.944334030151367,2.868652105331421,100.0,164234.0,1.0
1163243.0435275,304132.34375,314155.84375,344541.96875,326703.3125,307285.90625,297439.6875,318197.3125,310224.71875,-0.104736328125,0.951416015625,0.419677734375,-7.232665538787842,18.188474655151367,2.593993902206421,100.0,164235.0,1.0
1163243.0466413,303955.9375,314149.40625,344296.46875,326490.875,307191.46875,297316.9375,318066.78125,309935.375,-0.103271484375,0.9501953125,0.420654296875,-7.202147960662842,18.371580123901367,2.655029058456421,100.0,164236.0,1.0
1163243.0466971,302879.375,314289.78125,343872.3125,325914.1875,307385.125,297730.625,318620.75,310757.46875,-0.101806640625,0.947509765625,0.42138671875,-7.202147960662842,18.432615280151367,2.624511480331421,100.0,164237.0,1.0
1163243.0528908,302353.3125,314375.59375,343785.75,325708.90625,307580.9375,298097.28125,319066.25,311511.1875,-0.10107421875,0.94580078125,0.42138671875,-7.141112804412842,18.646238327026367,2.777099370956421,100.0,164238.0,1.0
1163243.0529433,303120.15625,314291.75,344204.625,326202.96875,307528.09375,297929.1875,318821.53125,311202.90625,-0.1015625,0.94482421875,0.421875,-7.019042491912842,18.798826217651367,2.777099370956421,100.0,164239.0,1.0
1163243.0666794,304117.5,314147.0625,344535.96875,326696.25,307283.75,297443.875,318200.15625,310231.84375,-0.10205078125,0.9443359375,0.421142578125,-6.988524913787842,18.981931686401367,2.868652105331421,100.0,164240.0,1.0
1163243.0667302,303957.90625,314138.5,344299.84375,326496.25,307182.28125,297305.3125,318056.65625,309927.875,-0.1025390625,0.944580078125,0.422119140625,-6.896972179412842,19.165037155151367,2.960204839706421,100.0,164241.0,1.0
1163243.0697658,302880.375,314279.3125,343862.28125,325912.0625,307371.46875,297712.65625,318603.9375,310738.78125,-0.1083984375,0.944091796875,0.421142578125,-6.744384288787842,19.348142623901367,3.051757574081421,100.0,164242.0,1.0
1163243.0698155,302346.6875,314373.8125,343767.875,325699.0,307575.03125,298089.40625,319061.96875,311502.25,-0.110595703125,0.94189453125,0.423828125,-6.469726085662842,19.500730514526367,3.112792730331421,100.0,164243.0,1.0
1163243.0698294,303112.75,314296.9375,344201.0625,326201.28125,307535.53125,297939.28125,318837.28125,311217.3125,-0.110595703125,0.941650390625,0.422607421875,-6.347655773162842,19.531248092651367,3.234863042831421,100.0,164244.0,1.0
1163243.0722514,304128.40625,314153.96875,344561.46875,326715.5625,307304.6875,297464.90625,318229.125,310262.0,-0.1142578125,0.943603515625,0.427978515625,-6.317138195037842,19.683835983276367,3.295898199081421,100.0,164245.0,1.0
1163243.0823155,303982.3125,314144.40625,344321.5625,326512.6875,307198.28125,297319.875,318070.34375,309935.46875,-0.117431640625,0.943359375,0.428466796875,-6.256103038787842,19.744871139526367,3.448486089706421,100.0,164246.0,1.0
1163243.0853652,302905.125,314288.15625,343869.8125,325911.59375,307376.71875,297719.71875,318601.4375,310725.75,-0.119384765625,0.945556640625,0.429443359375,-6.164550304412842,19.683835983276367,3.356933355331421,100.0,164247.0,1.0
1163243.0854056,302353.65625,314383.46875,343760.71875,325682.0,307572.8125,298090.5625,319052.84375,311488.65625,-0.12109375,0.9462890625,0.42724609375,-6.195067882537842,19.592283248901367,3.417968511581421,100.0,164248.0,1.0
1163243.0873412,303087.53125,314291.28125,344169.9375,326163.8125,307515.84375,297920.59375,318817.53125,311201.75,-0.12109375,0.9443359375,0.42724609375,-6.195067882537842,19.561765670776367,3.387450933456421,100.0,164249.0,1.0
1163243.0960823,304107.65625,314144.9375,344542.9375,326697.84375,307286.96875,297445.0625,318212.875,310255.90625,-0.122314453125,0.943603515625,0.4248046875,-6.195067882537842,19.500730514526367,3.295898199081421,100.0,164250.0,1.0
1163243.0998623,303971.5,314127.3125,344302.53125,326500.0,307169.84375,297288.5,318041.28125,309916.0625,-0.122314453125,0.94482421875,0.427978515625,-6.225585460662842,19.470212936401367,3.356933355331421,100.0,164251.0,1.0
1163243.1035872,302900.84375,314278.59375,343852.8125,325898.8125,307357.5,297695.03125,318579.53125,310699.46875,-0.124267578125,0.94482421875,0.4267578125,-6.225585460662842,19.348142623901367,3.356933355331421,100.0,164252.0,1.0
1163243.1129232,302347.875,314382.125,343754.375,325672.625,307570.21875,298087.4375,319050.59375,311479.09375,-0.125732421875,0.94384765625,0.428955078125,-6.225585460662842,19.317625045776367,3.326415777206421,100.0,164253.0,1.0
1163243.1129764,303081.8125,314298.90625,344180.5,326165.78125,307534.71875,297942.875,318838.25,311222.40625,-0.12646484375,0.94140625,0.425537109375,-6.286620616912842,19.195554733276367,3.265380620956421,100.0,164254.0,1.0
1163243.1147749,304100.5,314139.9375,344552.5,326696.875,307293.75,297455.59375,318222.59375,310269.3125,-0.126953125,0.940185546875,0.4248046875,-6.195067882537842,19.042966842651367,3.326415777206421,100.0,164255.0,1.0
1163243.1260382,303991.4375,314125.875,344327.65625,326515.90625,307173.5,297291.71875,318044.0625,309917.6875,-0.127685546875,0.940185546875,0.42626953125,-6.225585460662842,18.829343795776367,3.265380620956421,100.0,164256.0,1.0
1163243.1291915,302925.53125,314274.9375,343867.9375,325908.375,307350.28125,297682.59375,318563.0625,310680.40625,-0.12890625,0.940185546875,0.427734375,-6.103515148162842,18.798826217651367,3.326415777206421,100.0,164257.0,1.0
1163243.1292407,302345.28125,314379.8125,343743.46875,325657.34375,307558.78125,298075.0,319031.75,311458.4375,-0.126953125,0.939453125,0.427001953125,-5.950927257537842,18.737791061401367,3.265380620956421,100.0,164258.0,1.0
1163243.1316526,303072.3125,314314.28125,344178.78125,326158.375,307539.0,297954.9375,318844.96875,311230.09375,-0.126708984375,0.937255859375,0.42626953125,-5.889892101287842,18.676755905151367,3.356933355331421,100.0,164259.0,1.0
1163243.1316931,304102.75,314158.0625,344578.4375,326712.0625,307308.875,297477.40625,318243.625,310293.8125,-0.129638671875,0.93603515625,0.423828125,-5.645751476287842,18.432615280151367,3.387450933456421,100.0,164260.0,1.0
1163243.1397946,304000.90625,314134.46875,344356.0,326531.71875,307181.75,297300.84375,318050.5,309922.15625,-0.129638671875,0.935791015625,0.42529296875,-5.584716320037842,18.280027389526367,3.356933355331421,100.0,164261.0,1.0
1163243.1435643,302937.59375,314289.9375,343889.84375,325916.34375,307358.9375,297694.75,318564.78125,310674.34375,-0.1298828125,0.9365234375,0.426513671875,-5.493163585662842,18.066404342651367,3.448486089706421,100.0,164262.0,1.0
1163243.1478925,302335.53125,314387.40625,343740.25,325640.53125,307557.15625,298079.84375,319025.65625,311444.3125,-0.130859375,0.9365234375,0.426513671875,-5.340575695037842,17.944334030151367,3.662109136581421,100.0,164263.0,1.0
1163243.1479434,303050.25,314310.59375,344166.625,326136.65625,307535.78125,297956.71875,318843.90625,311232.0625,-0.130126953125,0.93798828125,0.422607421875,-5.157470226287842,17.944334030151367,3.784179449081421,100.0,164264.0,1.0
1163243.1610819,304088.15625,314147.34375,344565.21875,326701.0625,307302.15625,297471.96875,318241.1875,310301.78125,-0.12841796875,0.939697265625,0.42333984375,-5.035399913787842,17.791746139526367,3.906249761581421,100.0,164265.0,1.0
1163243.1635803,303994.375,314111.6875,344336.875,326521.0,307157.15625,297276.25,318026.8125,309906.40625,-0.128173828125,0.93994140625,0.4228515625,-5.004882335662842,17.608640670776367,4.028319835662842,100.0,164266.0,1.0
1163243.1666757,302927.75,314259.5625,343856.03125,325893.09375,307321.21875,297654.8125,318526.84375,310635.34375,-0.130859375,0.9423828125,0.42578125,-4.882812023162842,17.517087936401367,4.119872570037842,100.0,164267.0,1.0
1163243.1667252,302332.84375,314380.875,343724.4375,325631.40625,307546.25,298068.46875,319021.0,311435.375,-0.133544921875,0.94091796875,0.426025390625,-4.821776866912842,17.395017623901367,4.180907726287842,100.0,164268.0,1.0
1163243.1685601,303045.0625,314323.03125,344166.90625,326135.84375,307545.53125,297968.25,318864.1875,311248.9375,-0.134521484375,0.942626953125,0.426025390625,-4.821776866912842,17.242429733276367,4.333495616912842,100.0,164269.0,1.0
1163243.182904,304088.0625,314160.75,344587.21875,326712.875,307318.875,297491.4375,318267.5,310324.75,-0.134765625,0.944091796875,0.424560546875,-4.852294445037842,17.120359420776367,4.364013195037842,100.0,164270.0,1.0
1163243.1829548,304013.96875,314120.78125,344375.21875,326547.90625,307177.625,297292.34375,318048.34375,309922.96875,-0.137451171875,0.944580078125,0.4228515625,-4.913329601287842,16.845701217651367,4.302978038787842,100.0,164271.0,1.0
1163243.184638,302950.65625,314265.09375,343879.90625,325911.15625,307332.65625,297658.90625,318531.3125,310629.09375,-0.138916015625,0.943359375,0.4287109375,-4.913329601287842,16.601560592651367,4.333495616912842,100.0,164272.0,1.0
1163243.1911919,302333.1875,314381.6875,343714.875,325622.09375,307538.125,298058.28125,319006.71875,311417.40625,-0.135498046875,0.94189453125,0.4228515625,-5.004882335662842,16.265867233276367,4.241942882537842,100.0,164273.0,1.0
1163243.1935065,303029.6875,314321.34375,344148.40625,326118.6875,307535.78125,297960.9375,318858.5625,311248.6875,-0.13525390625,0.942626953125,0.4228515625,-5.035399913787842,16.082761764526367,4.272460460662842,100.0,164274.0,1.0
1163243.1961931,304080.5625,314155.40625,344581.75,326712.78125,307315.59375,297488.21875,318273.125,310339.3125,-0.131591796875,0.943115234375,0.42041015625,-5.065917491912842,15.930174827575684,4.455565929412842,100.0,164275.0,1.0
1163243.2029246,304028.8125,314126.59375,344388.1875,326568.46875,307183.96875,297298.34375,318057.375,309931.4375,-0.129638671875,0.945068359375,0.422119140625,-5.096435070037842,15.777586936950684,4.638671398162842,100.0,164276.0,1.0
1163243.2029793,302975.21875,314282.0,343906.71875,325937.34375,307347.5,297671.78125,318539.5625,310631.6875,-0.130615234375,0.944580078125,0.42333984375,-5.157470226287842,15.472411155700684,4.821776866912842,100.0,164277.0,1.0
1163243.2061826,302336.25,314393.75,343733.71875,325630.34375,307554.03125,298074.5625,319016.0,311419.09375,-0.130859375,0.94482421875,0.423095703125,-5.249022960662842,15.411375999450684,4.974364757537842,100.0,164278.0,1.0
1163243.2229346,303004.1875,314317.40625,344144.90625,326105.09375,307537.65625,297969.34375,318856.40625,311245.8125,-0.1318359375,0.944580078125,0.427734375,-5.279540538787842,15.258788108825684,5.126952648162842,100.0,164279.0,1.0
1163243.2229851,304066.8125,314151.8125,344587.75,326711.4375,307317.8125,297496.625,318269.8125,310342.625,-0.13232421875,0.94140625,0.42724609375,-5.401610851287842,15.197752952575684,5.126952648162842,100.0,164280.0,1.0
1163243.2247828,304034.96875,314120.4375,344401.78125,326577.15625,307181.1875,297297.25,318045.75,309926.34375,-0.131591796875,0.941162109375,0.427734375,-5.493163585662842,14.923094749450684,5.187987804412842,100.0,164281.0,1.0
1163243.2279336,302974.59375,314264.65625,343894.125,325926.28125,307326.21875,297652.03125,318509.59375,310604.3125,-0.133056640625,0.939453125,0.427490234375,-5.401610851287842,14.709471702575684,5.279540538787842,100.0,164282.0,1.0
1163243.2280306,302322.125,314382.5,343700.03125,325604.3125,307529.875,298056.78125,318993.03125,311400.0625,-0.132568359375,0.940185546875,0.429931640625,-5.401610851287842,14.495848655700684,5.432128429412842,100.0,164283.0,1.0
1163243.2298575,302984.0,314316.875,344115.21875,326082.1875,307529.25,297967.8125,318860.4375,311255.84375,-0.13330078125,0.93994140625,0.431640625,-5.371093273162842,14.373778343200684,5.493163585662842,100.0,164284.0,1.0
1163243.2335859,304055.09375,314155.125,344576.125,326706.0625,307320.59375,297504.875,318286.0,310365.34375,-0.135009765625,0.93994140625,0.433349609375,-5.462646007537842,14.129637718200684,5.554198741912842,100.0,164285.0,1.0
1163243.2479338,304046.40625,314121.6875,344410.0,326591.71875,307188.625,297304.15625,318058.53125,309939.75,-0.13720703125,0.94189453125,0.434326171875,-5.462646007537842,13.732909202575684,5.523681163787842,100.0,164286.0,1.0
1163243.2479883,302992.3125,314266.53125,343903.6875,325936.375,307330.78125,297654.8125,318514.875,310600.9375,-0.14013671875,0.940185546875,0.43896484375,-5.371093273162842,13.427733421325684,5.554198741912842,100.0,164287.0,1.0
1163243.2503975,302337.5625,314394.09375,343726.125,325619.0625,307550.53125,298074.75,319015.90625,311413.625,-0.14013671875,0.94091796875,0.4404296875,-5.584716320037842,13.031004905700684,5.462646007537842,100.0,164288.0,1.0
1163243.2504446,302984.78125,314327.3125,344136.25,326093.0,307550.28125,297989.71875,318886.8125,311283.8125,-0.140869140625,0.939453125,0.43896484375,-5.645751476287842,12.664793968200684,5.554198741912842,100.0,164289.0,1.0
1163243.2610832,304051.96875,314155.5625,344584.0,326711.1875,307325.78125,297507.0,318296.53125,310382.96875,-0.141845703125,0.9384765625,0.435791015625,-5.493163585662842,12.176512718200684,5.401610851287842,100.0,164290.0,1.0
1163243.2709987,304047.75,314113.8125,344414.375,326593.4375,307181.1875,297288.40625,318048.875,309933.40625,-0.14208984375,0.93798828125,0.43505859375,-5.493163585662842,11.779784202575684,5.371093273162842,100.0,164291.0,1.0
1163243.2710557,302996.96875,314260.53125,343901.625,325937.625,307319.59375,297637.09375,318495.65625,310586.4375,-0.142333984375,0.936279296875,0.438720703125,-5.371093273162842,11.230467796325684,5.218505382537842,100.0,164292.0,1.0
1163243.2710723,302326.5,314387.9375,343707.625,325605.03125,307536.78125,298057.9375,318995.625,311402.8125,-0.14501953125,0.935546875,0.435302734375,-5.187987804412842,10.894774436950684,5.187987804412842,100.0,164293.0,1.0
1163243.2741852,302963.0625,314328.21875,344122.65625,326075.40625,307548.3125,297987.46875,318880.5625,311287.40625,-0.1435546875,0.935791015625,0.4345703125,-4.943847179412842,10.589598655700684,5.065917491912842,100.0,164294.0,1.0
1163243.2742358,304044.1875,314159.15625,344591.40625,326712.25,307337.3125,297520.78125,318303.15625,310400.84375,-0.14599609375,0.935546875,0.433837890625,-4.760741710662842,10.162352561950684,4.882812023162842,100.0,164295.0,1.0
1163243.276002,304069.9375,314122.75,344438.34375,326615.59375,307196.9375,297304.0625,318056.65625,309950.59375,-0.1455078125,0.935546875,0.43359375,-4.486083507537842,9.735106468200684,4.882812023162842,100.0,164296.0,1.0
1163243.2923329,303034.3125,314272.59375,343933.375,325964.53125,307338.65625,297650.9375,318506.21875,310594.75,-0.14453125,0.936279296875,0.432861328125,-4.272460460662842,9.338377952575684,4.730224132537842,100.0,164297.0,1.0
1163243.3003589,302333.1875,314387.40625,343707.4375,325599.3125,307534.34375,298053.71875,318987.65625,311390.9375,-0.14453125,0.937255859375,0.43310546875,-4.058837413787842,8.850096702575684,4.638671398162842,100.0,164298.0,1.0
1163243.3004138,302946.4375,314321.5,344103.25,326054.375,307536.5,297977.28125,318869.28125,311279.0,-0.143310546875,0.9384765625,0.434814453125,-3.875732183456421,8.483885765075684,4.486083507537842,100.0,164299.0,1.0
1163243.3004271,304034.34375,314158.34375,344583.8125,326702.84375,307333.0,297517.5625,318301.71875,310401.1875,-0.14013671875,0.937744140625,0.43359375,-3.631591558456421,8.087157249450684,4.486083507537842,100.0,164300.0,1.0
1163243.3004421,304076.375,314121.25,344442.53125,326622.40625,307192.46875,297299.3125,318051.84375,309941.5625,-0.13818359375,0.9365234375,0.43603515625,-3.417968511581421,7.690429210662842,4.516601085662842,100.0,164301.0,1.0
1163243.3029255,303042.1875,314272.15625,343935.6875,325973.03125,307331.6875,297642.46875,318497.875,310579.46875,-0.13818359375,0.936767578125,0.43359375,-3.204345464706421,7.446288585662842,4.455565929412842,100.0,164302.0,1.0
1163243.3029763,302333.375,314394.65625,343708.0625,325603.875,307538.46875,298059.90625,318997.75,311389.78125,-0.137939453125,0.938232421875,0.435546875,-2.868652105331421,7.080077648162842,4.547118663787842,100.0,164303.0,1.0
1163243.3160471,302930.875,314329.75,344099.84375,326051.53125,307546.4375,297993.125,318892.875,311295.09375,-0.1357421875,0.937255859375,0.437255859375,-2.655029058456421,6.774901866912842,4.486083507537842,100.0,164304.0,1.0
1163243.3216982,304015.21875,314152.25,344581.75,326700.71875,307335.15625,297521.84375,318314.59375,310419.625,-0.133544921875,0.938232421875,0.437255859375,-2.532958745956421,6.439208507537842,4.486083507537842,100.0,164305.0,1.0
1163243.3217474,304066.4375,314103.1875,344432.09375,326613.0,307180.125,297279.65625,318040.125,309933.875,-0.135009765625,0.93896484375,0.439208984375,-2.410888433456421,6.164550304412842,4.516601085662842,100.0,164306.0,1.0
1163243.3235981,303059.1875,314270.8125,343942.59375,325976.34375,307329.625,297633.6875,318492.78125,310572.84375,-0.137451171875,0.939208984375,0.43798828125,-2.319335699081421,5.889892101287842,4.516601085662842,100.0,164307.0,1.0
1163243.3273312,302343.84375,314400.375,343718.71875,325605.5625,307543.03125,298060.0,318998.9375,311392.1875,-0.1357421875,0.939453125,0.436767578125,-2.136230230331421,5.615233898162842,4.669188976287842,100.0,164308.0,1.0
1163243.3366773,302922.3125,314335.28125,344105.5625,326044.71875,307553.75,298000.71875,318900.03125,311309.9375,-0.1337890625,0.940185546875,0.43798828125,-2.044677495956421,5.249022960662842,4.760741710662842,100.0,164309.0,1.0
1163243.3367333,304008.6875,314157.625,344586.125,326700.09375,307342.5,297532.5,318325.34375,310434.375,-0.136962890625,0.940673828125,0.436279296875,-2.044677495956421,4.852294445037842,4.638671398162842,100.0,164310.0,1.0
1163243.3428913,304073.875,314101.75,344437.28125,326620.34375,307175.375,297278.03125,318037.34375,309930.46875,-0.138671875,0.9404296875,0.43701171875,-2.014159917831421,4.486083507537842,4.638671398162842,100.0,164311.0,1.0
1163243.3429415,303050.875,314248.46875,343923.53125,325967.5,307300.75,297604.71875,318461.3125,310537.53125,-0.13671875,0.939453125,0.437255859375,-1.9531248807907104,4.058837413787842,4.791259288787842,100.0,164312.0,1.0
1163243.3560845,302324.25,314384.8125,343698.59375,325592.96875,307520.84375,298039.875,318979.15625,311370.90625,-0.1337890625,0.939453125,0.4345703125,-1.8615721464157104,3.814697027206421,4.821776866912842,100.0,164313.0,1.0
1163243.3597101,302900.46875,314336.96875,344086.25,326031.40625,307548.03125,298000.8125,318902.53125,311317.71875,-0.1337890625,0.9384765625,0.434326171875,-1.8920897245407104,3.387450933456421,4.760741710662842,100.0,164314.0,1.0
1163243.3597564,304002.25,314166.5625,344574.25,326691.9375,307345.09375,297541.34375,318336.875,310453.84375,-0.1337890625,0.939453125,0.434326171875,-1.7089842557907104,3.112792730331421,4.699706554412842,100.0,164315.0,1.0
1163243.3597687,304095.3125,314113.1875,344451.03125,326638.75,307190.6875,297293.3125,318053.71875,309949.875,-0.132568359375,0.93896484375,0.432861328125,-1.5563963651657104,2.838134527206421,4.577636241912842,100.0,164316.0,1.0
1163243.3623308,303072.78125,314251.3125,343937.9375,325983.5,307308.6875,297606.78125,318464.1875,310536.90625,-0.129638671875,0.938720703125,0.43212890625,-1.5258787870407104,2.655029058456421,4.547118663787842,100.0,164317.0,1.0
1163243.3673545,302335.0,314385.96875,343703.6875,325598.875,307525.59375,298040.21875,318979.71875,311371.0,-0.12939453125,0.939697265625,0.434326171875,-1.4343260526657104,2.288818120956421,4.577636241912842,100.0,164318.0,1.0
1163243.3698115,302890.75,314332.0625,344084.8125,326023.46875,307549.90625,298001.34375,318907.90625,311322.34375,-0.12744140625,0.939453125,0.4345703125,-1.3732908964157104,1.9836424589157104,4.455565929412842,100.0,164319.0,1.0
1163243.3784808,303997.875,314169.15625,344586.84375,326695.71875,307356.4375,297548.9375,318349.5625,310466.28125,-0.12548828125,0.940185546875,0.435302734375,-1.3427733182907104,1.6479490995407104,4.302978038787842,100.0,164320.0,1.0
1163243.3815603,304094.875,314108.28125,344454.53125,326636.4375,307187.46875,297284.03125,318045.3125,309940.3125,-0.123291015625,0.941650390625,0.43603515625,-1.3732908964157104,1.5869139432907104,4.272460460662842,100.0,164321.0,1.0
1163243.3815954,303085.8125,314252.21875,343937.40625,325986.34375,307303.40625,297595.6875,318449.875,310521.71875,-0.120361328125,0.942626953125,0.43359375,-1.3427733182907104,1.3732908964157104,4.211425304412842,100.0,164322.0,1.0
1163243.383496,302339.46875,314393.65625,343704.9375,325599.03125,307527.75,298037.71875,318974.875,311367.25,-0.12060546875,0.942626953125,0.43408203125,-1.2817381620407104,1.2817381620407104,4.150390148162842,100.0,164323.0,1.0
1163243.3922159,302881.875,314343.0625,344084.1875,326020.6875,307561.4375,298011.0,318915.0625,311336.84375,-0.1181640625,0.9443359375,0.435302734375,-1.4648436307907104,1.1291502714157104,3.997802495956421,100.0,164324.0,1.0
1163243.3986132,303991.875,314176.5,344589.96875,326697.84375,307366.375,297559.75,318359.40625,310484.53125,-0.115234375,0.9423828125,0.43115234375,-1.4953612089157104,0.9460448622703552,3.997802495956421,100.0,164325.0,1.0
1163243.4073363,304120.25,314123.28125,344477.875,326663.96875,307204.625,297298.6875,318059.4375,309958.0,-0.114013671875,0.94287109375,0.432861328125,-1.5869139432907104,0.9155272841453552,3.936767339706421,100.0,164326.0,1.0
1163243.4098095,303107.46875,314257.21875,343955.90625,326006.375,307312.375,297599.90625,318449.875,310516.15625,-0.113525390625,0.9423828125,0.43408203125,-1.6479490995407104,0.9155272841453552,3.692626714706421,100.0,164327.0,1.0
1163243.4123569,302344.71875,314393.65625,343717.8125,325605.125,307531.0625,298042.8125,318975.40625,311361.59375,-0.115234375,0.941650390625,0.4345703125,-1.6784666776657104,0.8239745497703552,3.601073980331421,100.0,164328.0,1.0
1163243.4148619,302881.25,314352.71875,344097.53125,326023.8125,307571.90625,298030.3125,318931.6875,311351.6875,-0.115478515625,0.94384765625,0.43505859375,-1.6479490995407104,0.7324218153953552,3.540038824081421,100.0,164329.0,1.0
1163243.4173332,303989.8125,314181.15625,344600.4375,326700.90625,307375.3125,297576.5625,318374.78125,310500.53125,-0.114990234375,0.942138671875,0.434814453125,-1.7700194120407104,0.7324218153953552,3.448486089706421,100.0,164330.0,1.0
1163243.4198557,304115.4375,314107.125,344477.59375,326654.40625,307191.3125,297289.9375,318046.03125,309943.96875,-0.1142578125,0.94091796875,0.434814453125,-1.8920897245407104,0.6713866591453552,3.295898199081421,100.0,164331.0,1.0
1163243.4242252,303116.3125,314247.75,343962.15625,326006.5625,307300.03125,297589.71875,318434.84375,310498.46875,-0.113525390625,0.94140625,0.433837890625,-2.014159917831421,0.6408690810203552,3.204345464706421,100.0,164332.0,1.0
1163243.4242757,302340.71875,314391.96875,343705.84375,325598.875,307520.78125,298036.125,318966.21875,311352.46875,-0.111572265625,0.941162109375,0.433837890625,-1.9836424589157104,0.7019042372703552,3.051757574081421,100.0,164333.0,1.0
1163243.4453869,302852.46875,314345.375,344063.90625,325999.59375,307555.625,298020.84375,318921.6875,311347.375,-0.11181640625,0.941650390625,0.4345703125,-2.044677495956421,0.6408690810203552,2.838134527206421,100.0,164334.0,1.0
1163243.4454383,303957.1875,314164.15625,344559.75,326669.78125,307351.34375,297555.03125,318355.28125,310489.0,-0.1123046875,0.939697265625,0.431640625,-1.9836424589157104,0.5493163466453552,2.685546636581421,100.0,164335.0,1.0
1163243.4473617,304112.84375,314100.40625,344463.71875,326652.34375,307184.0625,297277.3125,318039.5,309937.625,-0.11181640625,0.940185546875,0.433349609375,-2.044677495956421,0.5493163466453552,2.716064214706421,100.0,164336.0,1.0
1163243.4498156,303138.5,314253.28125,343971.0,326024.625,307310.125,297590.78125,318442.28125,310495.96875,-0.110595703125,0.9404296875,0.43408203125,-2.075195074081421,0.5798339247703552,2.624511480331421,100.0,164337.0,1.0
1163243.4523571,302356.34375,314402.875,343723.4375,325613.0,307538.375,298046.5,318982.5625,311362.125,-0.10986328125,0.93896484375,0.4326171875,-2.014159917831421,0.5798339247703552,2.624511480331421,100.0,164338.0,1.0
1163243.4547983,302835.21875,314348.4375,344060.6875,325987.59375,307562.34375,298026.46875,318930.4375,311359.375,-0.10888671875,0.940185546875,0.43212890625,-2.014159917831421,0.6408690810203552,2.624511480331421,100.0,164339.0,1.0
1163243.457358,303937.34375,314167.90625,344554.9375,326658.96875,307355.8125,297563.6875,318364.9375,310502.3125,-0.109375,0.940185546875,0.433349609375,-2.044677495956421,0.8239745497703552,2.563476324081421,100.0,164340.0,1.0
1163243.4598083,304109.0,314099.0625,344459.71875,326650.65625,307179.9375,297277.59375,318035.21875,309931.53125,-0.108642578125,0.94091796875,0.43212890625,-2.014159917831421,0.8239745497703552,2.471923589706421,100.0,164341.0,1.0
1163243.4636003,303139.46875,314243.90625,343953.125,326017.375,307292.34375,297573.78125,318418.40625,310470.75,-0.109619140625,0.940673828125,0.433349609375,-2.166747808456421,0.8850097060203552,2.319335699081421,100.0,164342.0,1.0
1163243.4723571,302351.34375,314394.1875,343698.40625,325599.5625,307520.6875,298029.9375,318964.3125,311340.0625,-0.111572265625,0.939697265625,0.431884765625,-2.227782964706421,1.0070799589157104,2.319335699081421,100.0,164343.0,1.0
1163243.4753877,302824.03125,314345.65625,344040.03125,325976.34375,307556.53125,298020.84375,318931.34375,311356.5,-0.1123046875,0.939697265625,0.435546875,-2.136230230331421,1.0986326932907104,2.136230230331421,100.0,164344.0,1.0
1163243.475444,303930.375,314162.53125,344548.5,326656.46875,307355.8125,297564.3125,318372.625,310508.3125,-0.111572265625,0.93994140625,0.43505859375,-2.105712652206421,1.0986326932907104,2.044677495956421,100.0,164345.0,1.0
1163243.4773559,304127.40625,314101.125,344477.0625,326666.5625,307189.78125,297289.03125,318051.125,309940.5625,-0.1123046875,0.939697265625,0.43310546875,-2.166747808456421,1.0986326932907104,1.9836424589157104,100.0,164346.0,1.0
1163243.5022247,303167.90625,314251.3125,343981.65625,326039.625,307306.0,297588.1875,318433.78125,310471.65625,-0.1123046875,0.9384765625,0.43359375,-2.136230230331421,1.0375975370407104,1.9226073026657104,100.0,164347.0,1.0
1163243.5022752,302355.375,314396.78125,343708.4375,325600.75,307527.28125,298040.78125,318973.96875,311338.09375,-0.11181640625,0.93701171875,0.432373046875,-2.227782964706421,1.1291502714157104,1.8310545682907104,100.0,164348.0,1.0
1163243.5022907,302809.5625,314351.0,344033.6875,325962.84375,307557.59375,298031.1875,318939.65625,311361.875,-0.111083984375,0.938720703125,0.43359375,-2.319335699081421,1.0986326932907104,1.8005369901657104,100.0,164349.0,1.0
1163243.5054351,303932.25,314179.71875,344550.90625,326657.15625,307361.625,297577.8125,318383.34375,310525.375,-0.113037109375,0.938720703125,0.432861328125,-2.288818120956421,1.1901854276657104,1.8005369901657104,100.0,164350.0,1.0
1163243.5054877,304145.03125,314108.71875,344484.21875,326676.5625,307187.625,297286.1875,318043.4375,309940.375,-0.11376953125,0.938232421875,0.4345703125,-2.380370855331421,1.0986326932907104,1.7089842557907104,100.0,164351.0,1.0
1163243.5073555,303177.03125,314239.25,343972.875,326034.375,307285.90625,297561.625,318405.625,310445.4375,-0.11376953125,0.937744140625,0.43212890625,-2.502441167831421,1.1291502714157104,1.5563963651657104,100.0,164352.0,1.0
1163243.5098366,302355.5625,314385.4375,343694.65625,325589.375,307511.125,298016.09375,318953.40625,311316.375,-0.11279296875,0.938232421875,0.434326171875,-2.471923589706421,1.1901854276657104,1.4648436307907104,100.0,164353.0,1.0
1163243.534858,302798.28125,314348.5,344025.0,325952.46875,307557.15625,298029.21875,318942.96875,311363.46875,-0.111572265625,0.93896484375,0.43310546875,-2.655029058456421,1.1901854276657104,1.4038084745407104,100.0,164354.0,1.0
1163243.5373652,303923.65625,314183.5625,344558.59375,326656.0,307374.59375,297594.09375,318405.0,310544.96875,-0.114013671875,0.939208984375,0.434326171875,-2.655029058456421,1.1596678495407104,1.3732908964157104,100.0,164355.0,1.0
1163243.5435601,304148.6875,314113.1875,344491.53125,326679.6875,307191.03125,297291.0,318052.46875,309948.625,-0.114990234375,0.93896484375,0.4365234375,-2.624511480331421,1.0681151151657104,1.2817381620407104,100.0,164356.0,1.0
1163243.5461803,303200.53125,314255.96875,343983.8125,326053.21875,307291.53125,297568.59375,318413.125,310450.375,-0.115478515625,0.9384765625,0.43896484375,-2.593993902206421,1.1596678495407104,1.2207030057907104,100.0,164357.0,1.0
1163243.5486195,302355.375,314394.5625,343686.78125,325589.28125,307505.5625,298012.78125,318947.53125,311310.28125,-0.11572265625,0.94091796875,0.44091796875,-2.807616949081421,1.0375975370407104,1.1596678495407104,100.0,164358.0,1.0
1163243.5536047,302784.875,314356.1875,344010.53125,325942.28125,307554.21875,298029.78125,318943.40625,311369.28125,-0.1162109375,0.94140625,0.439453125,-2.960204839706421,1.1291502714157104,1.0070799589157104,100.0,164359.0,1.0
1163243.5561388,303915.6875,314187.125,344548.9375,326653.875,307374.3125,297595.4375,318410.8125,310557.375,-0.116943359375,0.944091796875,0.44189453125,-3.021239995956421,1.0681151151657104,1.0681151151657104,100.0,164360.0,1.0
1163243.5585154,304157.1875,314110.25,344496.8125,326691.9375,307192.46875,297290.5625,318055.78125,309950.59375,-0.1181640625,0.9443359375,0.43896484375,-3.082275152206421,1.0375975370407104,0.9765624403953552,100.0,164361.0,1.0
1163243.5611375,303207.15625,314241.65625,343983.875,326057.4375,307285.375,297560.75,318402.65625,310431.21875,-0.11767578125,0.94482421875,0.44189453125,-3.173827886581421,1.0681151151657104,0.9765624403953552,100.0,164362.0,1.0
1163243.5666756,302362.96875,314398.3125,343689.03125,325595.90625,307511.65625,298019.5625,318950.8125,311307.15625,-0.118408203125,0.9453125,0.442138671875,-3.356933355331421,0.9765624403953552,0.9155272841453552,100.0,164363.0,1.0
1163243.5667261,302780.40625,314370.0625,344010.1875,325940.03125,307567.15625,298046.125,318959.78125,311384.21875,-0.119384765625,0.9453125,0.441650390625,-3.448486089706421,0.9460448622703552,0.9765624403953552,100.0,164364.0,1.0
1163243.5686083,303907.125,314195.71875,344547.5,326648.15625,307386.46875,297612.0625,318429.125,310575.90625,-0.118408203125,0.945556640625,0.44384765625,-3.479003667831421,0.9155272841453552,1.0070799589157104,100.0,164365.0,1.0
1163243.5711411,304169.96875,314114.53125,344512.09375,326704.1875,307204.71875,297300.46875,318066.9375,309963.71875,-0.11962890625,0.9453125,0.443603515625,-3.692626714706421,1.0375975370407104,0.8850097060203552,100.0,164366.0,1.0
1163243.5736071,303237.71875,314254.28125,344013.21875,326084.25,307303.59375,297567.1875,318412.5,310439.0,-0.119384765625,0.94287109375,0.440185546875,-3.814697027206421,1.0070799589157104,0.9155272841453552,100.0,164367.0,1.0
1163243.5761324,302378.09375,314406.71875,343706.375,325609.78125,307527.84375,298025.3125,318960.84375,311315.46875,-0.1201171875,0.9404296875,0.443115234375,-3.875732183456421,0.8850097060203552,0.8850097060203552,100.0,164368.0,1.0
1163243.5791867,302756.90625,314356.375,343993.28125,325921.625,307558.6875,298033.96875,318949.9375,311381.375,-0.120361328125,0.939453125,0.441650390625,-3.875732183456421,0.9460448622703552,0.9460448622703552,100.0,164369.0,1.0
1163243.5792406,303886.8125,314181.59375,344533.90625,326631.78125,307371.0,297596.59375,318411.4375,310571.4375,-0.12109375,0.935302734375,0.443359375,-3.997802495956421,0.9765624403953552,0.9765624403953552,100.0,164370.0,1.0
1163243.5836049,304172.9375,314106.65625,344518.28125,326702.78125,307194.625,297290.65625,318048.71875,309952.0,-0.121337890625,0.934814453125,0.44384765625,-3.875732183456421,0.8850097060203552,1.0681151151657104,100.0,164371.0,1.0
1163243.5860875,303247.125,314243.28125,344011.4375,326080.59375,307285.90625,297546.625,318380.78125,310410.125,-0.120849609375,0.932861328125,0.443115234375,-3.875732183456421,0.8544921278953552,0.9765624403953552,100.0,164372.0,1.0
1163243.5891812,302373.59375,314393.21875,343685.625,325591.96875,307507.71875,298002.6875,318931.0625,311285.25,-0.123779296875,0.93212890625,0.445556640625,-3.784179449081421,0.7629393935203552,1.0070799589157104,100.0,164373.0,1.0
1163243.5892316,302737.5,314348.78125,343966.90625,325898.09375,307549.90625,298025.9375,318938.75,311370.28125,-0.12060546875,0.930908203125,0.446044921875,-3.509521245956421,0.6713866591453552,1.1901854276657104,100.0,164374.0,1.0
1163243.6022989,303866.4375,314175.15625,344507.0,326610.9375,307367.4375,297591.40625,318408.03125,310571.875,-0.12158203125,0.9306640625,0.447998046875,-3.265380620956421,0.6713866591453552,1.1901854276657104,100.0,164375.0,1.0
1163243.6053406,304170.59375,314098.625,344501.03125,326698.84375,307187.90625,297276.53125,318041.03125,309948.53125,-0.121337890625,0.931640625,0.447509765625,-3.143310308456421,0.7019042372703552,1.2817381620407104,100.0,164376.0,1.0
1163243.6053763,303249.8125,314228.09375,343997.65625,326077.09375,307275.625,297530.53125,318371.1875,310393.6875,-0.12158203125,0.93359375,0.45068359375,-2.960204839706421,0.6103515028953552,1.2512205839157104,100.0,164377.0,1.0
1163243.6072578,302367.15625,314383.8125,343671.59375,325586.53125,307499.03125,297994.1875,318926.40625,311273.34375,-0.121826171875,0.9365234375,0.4462890625,-2.838134527206421,0.4577636420726776,1.3732908964157104,100.0,164378.0,1.0
1163243.6097832,302737.40625,314361.125,343974.84375,325905.96875,307567.53125,298045.25,318962.625,311394.25,-0.12158203125,0.935302734375,0.448486328125,-2.746581792831421,0.4882812201976776,1.4953612089157104,100.0,164379.0,1.0
1163243.619202,303873.21875,314191.25,344536.40625,326632.40625,307394.4375,297619.3125,318440.65625,310608.0,-0.12060546875,0.936279296875,0.448486328125,-2.624511480331421,0.4577636420726776,1.6174315214157104,100.0,164380.0,1.0
1163243.6192599,304191.15625,314113.0,344535.4375,326727.90625,307210.875,297300.125,318064.53125,309970.6875,-0.120361328125,0.93896484375,0.449462890625,-2.624511480331421,0.4882812201976776,1.6784666776657104,100.0,164381.0,1.0
1163243.6236069,303277.25,314242.65625,344030.8125,326109.09375,307290.53125,297545.375,318383.4375,310398.96875,-0.120361328125,0.93994140625,0.450927734375,-2.502441167831421,0.4577636420726776,1.7395018339157104,100.0,164382.0,1.0
1163243.6260437,302381.9375,314397.6875,343692.96875,325601.28125,307505.84375,298006.71875,318933.75,311275.40625,-0.120361328125,0.93896484375,0.452392578125,-2.349853277206421,0.4577636420726776,1.8005369901657104,100.0,164383.0,1.0
1163243.6397766,302732.125,314375.78125,343975.3125,325901.78125,307568.25,298059.0,318971.125,311402.28125,-0.12158203125,0.94091796875,0.45166015625,-2.410888433456421,0.3967284858226776,1.7395018339157104,100.0,164384.0,1.0
1163243.644691,303872.96875,314209.46875,344542.3125,326633.125,307405.625,297639.96875,318460.34375,310628.09375,-0.1220703125,0.942626953125,0.450439453125,-2.380370855331421,0.4272460639476776,1.7395018339157104,100.0,164385.0,1.0
1163243.6447255,304214.5,314125.0,344558.0625,326744.625,307224.5625,297315.125,318080.4375,309987.40625,-0.12109375,0.94287109375,0.452392578125,-2.380370855331421,0.3051757514476776,1.7089842557907104,100.0,164386.0,1.0
1163243.6447373,303296.125,314237.90625,344042.625,326115.375,307289.5625,297542.0625,318376.75,310389.21875,-0.119384765625,0.943603515625,0.451416015625,-2.227782964706421,0.3356933295726776,1.7395018339157104,100.0,164387.0,1.0
1163243.6479068,302391.03125,314394.375,343698.3125,325602.96875,307509.9375,298007.0625,318931.6875,311268.09375,-0.1171875,0.944091796875,0.45166015625,-2.288818120956421,0.2136230319738388,1.7395018339157104,100.0,164388.0,1.0
1163243.647956,302728.03125,314379.34375,343973.5,325900.875,307580.21875,298070.4375,318985.6875,311414.4375,-0.1162109375,0.944580078125,0.450439453125,-2.441406011581421,0.3051757514476776,1.8310545682907104,100.0,164389.0,1.0
1163243.6498586,303859.5625,314202.5,344528.46875,326622.21875,307398.90625,297638.71875,318461.21875,310632.75,-0.117431640625,0.943115234375,0.450439453125,-2.410888433456421,0.1831054538488388,1.7395018339157104,100.0,164390.0,1.0
1163243.6636096,304203.78125,314107.5625,344535.09375,326727.96875,307198.90625,297292.34375,318052.8125,309962.65625,-0.115234375,0.9384765625,0.451416015625,-2.410888433456421,0.1831054538488388,1.7700194120407104,100.0,164391.0,1.0
1163243.6684425,303306.3125,314231.65625,344026.8125,326110.90625,307269.71875,297519.53125,318343.84375,310358.8125,-0.113525390625,0.93359375,0.451416015625,-2.380370855331421,0.1831054538488388,1.9226073026657104,100.0,164392.0,1.0
1163243.6684804,302395.5,314395.71875,343681.96875,325597.53125,307497.6875,297989.8125,318909.25,311248.3125,-0.11279296875,0.927490234375,0.44677734375,-2.258300542831421,0.2441406100988388,1.8920897245407104,100.0,164393.0,1.0
1163243.6684921,302712.8125,314382.5,343962.0625,325889.0,307576.5625,298063.5625,318974.6875,311411.9375,-0.110107421875,0.922607421875,0.449462890625,-2.044677495956421,0.3051757514476776,1.9531248807907104,100.0,164394.0,1.0
1163243.67107,303836.9375,314200.8125,344517.75,326610.21875,307396.03125,297635.5,318452.84375,310636.6875,-0.109375,0.9228515625,0.443603515625,-1.7700194120407104,0.3662109076976776,2.105712652206421,100.0,164395.0,1.0
1163243.6747483,304206.625,314107.1875,344549.75,326742.8125,307204.28125,297295.375,318056.9375,309971.3125,-0.109375,0.9208984375,0.439453125,-1.4038084745407104,0.4882812201976776,2.166747808456421,100.0,164396.0,1.0
1163243.6886107,303332.15625,314240.96875,344054.78125,326141.5625,307284.65625,297528.90625,318357.875,310368.5625,-0.109130859375,0.923095703125,0.441650390625,-1.0070799589157104,0.5798339247703552,2.288818120956421,100.0,164397.0,1.0
1163243.6959537,302408.65625,314404.21875,343692.96875,325611.46875,307503.96875,297996.15625,318917.21875,311254.3125,-0.109375,0.926513671875,0.443115234375,-0.7629393935203552,0.6408690810203552,2.349853277206421,100.0,164398.0,1.0
1163243.6959988,302706.46875,314387.84375,343958.3125,325881.3125,307578.15625,298071.34375,318981.65625,311424.1875,-0.111572265625,0.931396484375,0.442138671875,-0.5798339247703552,0.6713866591453552,2.349853277206421,100.0,164399.0,1.0
1163243.696011,303839.4375,314214.21875,344531.0625,326614.34375,307411.6875,297659.4375,318475.71875,310666.8125,-0.1123046875,0.93505859375,0.43896484375,-0.4577636420726776,0.6713866591453552,2.227782964706421,100.0,164400.0,1.0
1163243.6991402,304214.3125,314111.21875,344561.375,326744.625,307210.71875,297306.65625,318064.96875,309981.4375,-0.11181640625,0.933837890625,0.438720703125,-0.3967284858226776,0.7629393935203552,2.227782964706421,100.0,164401.0,1.0
1163243.6991765,303332.6875,314226.46875,344049.96875,326131.46875,307267.3125,297513.0,318334.625,310345.5,-0.1142578125,0.93701171875,0.438720703125,-0.3967284858226776,0.7019042372703552,2.075195074081421,100.0,164402.0,1.0
1163243.7110548,302405.96875,314396.6875,343690.09375,325604.5,307496.8125,297991.5,318905.84375,311238.3125,-0.1162109375,0.937744140625,0.4365234375,-0.3662109076976776,0.7629393935203552,1.9226073026657104,100.0,164403.0,1.0
1163243.7159556,302691.8125,314389.0,343951.4375,325872.0,307582.375,298084.3125,318992.84375,311428.65625,-0.1181640625,0.94140625,0.43896484375,-0.3967284858226776,0.7019042372703552,1.8615721464157104,100.0,164404.0,1.0
1163243.7159872,303829.6875,314222.53125,344525.25,326612.28125,307423.40625,297676.0625,318495.375,310684.34375,-0.12109375,0.94287109375,0.444580078125,-0.4577636420726776,0.6408690810203552,1.7089842557907104,100.0,164405.0,1.0
1163243.7159984,304216.90625,314108.625,344561.28125,326752.03125,307213.84375,297305.65625,318068.90625,309989.375,-0.123046875,0.941162109375,0.4453125,-0.6103515028953552,0.5493163466453552,1.3732908964157104,100.0,164406.0,1.0
1163243.7185054,303352.15625,314222.625,344059.0,326150.15625,307268.46875,297508.78125,318337.5,310344.6875,-0.1240234375,0.9423828125,0.445556640625,-0.7629393935203552,0.3967284858226776,1.0070799589157104,100.0,164407.0,1.0
1163243.724774,302414.90625,314393.40625,343692.40625,325613.625,307496.09375,297985.78125,318908.28125,311238.03125,-0.124267578125,0.94580078125,0.44580078125,-0.8850097060203552,0.03051757626235485,0.7019042372703552,100.0,164408.0,1.0
1163243.7310616,302684.46875,314390.25,343946.78125,325869.40625,307581.375,298080.65625,318997.0625,311438.40625,-0.123779296875,0.9443359375,0.444580078125,-1.0986326932907104,-0.0915527269244194,0.4882812201976776,100.0,164409.0,1.0
1163243.7378406,303814.59375,314215.28125,344517.46875,326602.53125,307415.09375,297669.71875,318492.53125,310689.25,-0.127685546875,0.944580078125,0.4453125,-1.2512205839157104,-0.1831054538488388,0.2441406100988388,100.0,164410.0,1.0
1163243.7378754,304220.5,314106.03125,344559.21875,326753.09375,307208.5625,297303.59375,318066.5,309983.46875,-0.125732421875,0.944580078125,0.445068359375,-1.4038084745407104,-0.3356933295726776,-0.03051757626235485,100.0,164411.0,1.0
1163243.7516249,303370.3125,314227.0,344064.8125,326161.0625,307268.0,297508.625,318334.375,310331.09375,-0.1259765625,0.94287109375,0.447265625,-1.4343260526657104,-0.4882812201976776,-0.1525878757238388,100.0,164412.0,1.0
1163243.7516486,302419.84375,314396.875,343696.1875,325616.90625,307495.5625,297984.8125,318907.1875,311227.125,-0.12548828125,0.94189453125,0.4443359375,-1.4953612089157104,-0.7019042372703552,-0.1831054538488388,100.0,164413.0,1.0
1163243.7540481,302666.59375,314387.6875,343936.0625,325857.59375,307581.125,298083.40625,319000.34375,311436.53125,-0.123779296875,0.94287109375,0.4462890625,-1.6479490995407104,-0.7629393935203552,-0.2441406100988388,100.0,164414.0,1.0
1163243.7540688,303788.28125,314210.03125,344495.28125,326584.03125,307412.59375,297669.90625,318494.75,310691.9375,-0.121337890625,0.94287109375,0.448486328125,-1.7089842557907104,-0.8544921278953552,-0.1831054538488388,100.0,164415.0,1.0
1163243.7572497,304226.65625,314110.34375,344564.21875,326765.4375,307215.25,297309.25,318075.71875,309995.71875,-0.1201171875,0.942626953125,0.444091796875,-1.8310545682907104,-0.9460448622703552,-0.1831054538488388,100.0,164416.0,1.0
1163243.771597,303378.53125,314214.3125,344063.375,326171.0625,307263.09375,297495.28125,318327.65625,310326.375,-0.119140625,0.941162109375,0.44873046875,-1.8920897245407104,-0.9155272841453552,-0.0915527269244194,100.0,164417.0,1.0
1163243.7716296,302418.59375,314382.5,343685.8125,325620.125,307492.4375,297974.25,318903.625,311224.4375,-0.1181640625,0.939453125,0.448486328125,-1.8920897245407104,-0.8544921278953552,0.1220703050494194,100.0,164418.0,1.0
1163243.7735479,302643.0,314375.78125,343915.03125,325848.3125,307578.4375,298078.21875,319000.53125,311439.21875,-0.1171875,0.93994140625,0.4501953125,-1.8310545682907104,-0.9155272841453552,0.1525878757238388,100.0,164419.0,1.0
1163243.7760606,303774.53125,314209.125,344491.625,326587.53125,307420.90625,297678.3125,318507.09375,310708.5,-0.11767578125,0.939208984375,0.451171875,-1.8920897245407104,-0.9155272841453552,0.4577636420726776,100.0,164420.0,1.0
1163243.7785722,304216.28125,314096.90625,344556.625,326762.9375,307213.65625,297304.59375,318069.0,309988.9375,-0.117431640625,0.93603515625,0.45166015625,-1.8310545682907104,-0.8850097060203552,0.6408690810203552,100.0,164421.0,1.0
1163243.7878667,303383.71875,314205.5625,344063.375,326176.34375,307260.15625,297488.15625,318315.21875,310307.3125,-0.119140625,0.9326171875,0.45068359375,-1.7089842557907104,-0.8544921278953552,0.8544921278953552,100.0,164422.0,1.0
1163243.7878988,302418.84375,314380.96875,343685.90625,325621.65625,307492.0625,297975.21875,318898.6875,311212.375,-0.12158203125,0.931640625,0.448974609375,-1.5258787870407104,-0.9460448622703552,1.0375975370407104,100.0,164423.0,1.0
1163243.7897986,302635.40625,314382.125,343917.0,325843.65625,307584.875,298093.6875,319013.5,311451.28125,-0.12109375,0.932373046875,0.451904296875,-1.3732908964157104,-1.0375975370407104,1.2207030057907104,100.0,164424.0,1.0
1163243.7961203,303768.71875,314218.96875,344504.40625,326585.1875,307433.875,297699.40625,318527.46875,310731.8125,-0.122314453125,0.9326171875,0.45263671875,-1.4343260526657104,-1.0986326932907104,1.1596678495407104,100.0,164425.0,1.0
1163243.8078607,304241.21875,314120.625,344594.53125,326786.375,307239.75,297335.875,318097.875,310018.34375,-0.12255859375,0.931884765625,0.453125,-1.3427733182907104,-1.2512205839157104,1.2207030057907104,100.0,164426.0,1.0
1163243.80791,303408.9375,314217.625,344092.6875,326193.875,307275.09375,297503.625,318326.9375,310314.90625,-0.12158203125,0.933349609375,0.4521484375,-1.2817381620407104,-1.3732908964157104,1.2512205839157104,100.0,164427.0,1.0
1163243.8103049,302419.03125,314373.09375,343684.71875,325612.375,307484.375,297966.125,318886.53125,311198.34375,-0.124267578125,0.93017578125,0.451904296875,-1.2207030057907104,-1.5258787870407104,1.2817381620407104,100.0,164428.0,1.0
1163243.8103562,302617.96875,314377.21875,343908.0625,325825.15625,307580.5,298090.5625,319011.34375,311449.75,-0.123779296875,0.930419921875,0.4521484375,-1.1291502714157104,-1.6479490995407104,1.3122557401657104,100.0,164429.0,1.0
1163243.8161483,303742.4375,314208.15625,344483.40625,326560.25,307423.21875,297694.6875,318525.78125,310732.71875,-0.122802734375,0.931884765625,0.4521484375,-1.1291502714157104,-1.7700194120407104,1.2817381620407104,100.0,164430.0,1.0
1163243.8211697,304226.03125,314099.4375,344577.625,326768.40625,307222.34375,297319.625,318085.71875,310007.4375,-0.123779296875,0.931396484375,0.4521484375,-1.0986326932907104,-1.9226073026657104,1.0986326932907104,100.0,164431.0,1.0
1163243.8235672,303414.9375,314204.3125,344087.96875,326191.90625,307259.6875,297491.71875,318311.9375,310295.5,-0.124755859375,0.932861328125,0.45263671875,-1.1291502714157104,-2.044677495956421,1.0986326932907104,100.0,164432.0,1.0
1163243.8279528,302429.84375,314377.5625,343693.84375,325621.46875,307486.0,297972.8125,318890.46875,311194.6875,-0.120361328125,0.9345703125,0.449462890625,-1.0070799589157104,-2.044677495956421,0.9460448622703552,100.0,164433.0,1.0
1163243.8280041,302597.5625,314371.125,343892.4375,325807.8125,307571.5625,298087.4375,319007.5,311446.0,-0.120361328125,0.933837890625,0.451416015625,-1.1596678495407104,-2.105712652206421,0.8239745497703552,100.0,164434.0,1.0
1163243.8361365,303720.71875,314201.09375,344465.78125,326543.96875,307415.71875,297692.15625,318526.3125,310740.5,-0.1162109375,0.93310546875,0.448974609375,-1.0070799589157104,-2.136230230331421,0.7324218153953552,100.0,164435.0,1.0
1163243.8403747,304216.1875,314087.96875,344563.34375,326757.40625,307208.46875,297310.5,318075.09375,310001.375,-0.11572265625,0.930908203125,0.449951171875,-1.0681151151657104,-2.166747808456421,0.7019042372703552,100.0,164436.0,1.0
1163243.8404236,303403.75,314179.53125,344068.28125,326176.6875,307234.65625,297463.5625,318281.15625,310261.375,-0.114013671875,0.929931640625,0.447265625,-0.9765624403953552,-2.227782964706421,0.6713866591453552,100.0,164437.0,1.0
1163243.8486092,302407.3125,314348.96875,343663.1875,325596.1875,307454.15625,297934.71875,318849.71875,311154.8125,-0.11181640625,0.927734375,0.4462890625,-0.8544921278953552,-2.136230230331421,0.6103515028953552,100.0,164438.0,1.0
1163243.8529294,302581.3125,314365.84375,343879.46875,325796.4375,307563.40625,298077.5,318993.46875,311440.8125,-0.109619140625,0.926513671875,0.447509765625,-0.7629393935203552,-1.9531248807907104,0.6713866591453552,100.0,164439.0,1.0
1163243.8529863,303703.09375,314197.875,344453.4375,326530.65625,307409.28125,297688.59375,318517.375,310741.46875,-0.106201171875,0.92626953125,0.448486328125,-0.5187987685203552,-1.8005369901657104,0.6103515028953552,100.0,164440.0,1.0
1163243.8611818,304220.3125,314086.1875,344565.125,326760.96875,307205.34375,297305.40625,318067.03125,309998.5,-0.1044921875,0.9267578125,0.44921875,-0.4272460639476776,-1.6174315214157104,0.7629393935203552,100.0,164441.0,1.0
1163243.8641822,303435.59375,314190.8125,344089.21875,326199.3125,307241.90625,297464.1875,318281.0625,310261.53125,-0.105712890625,0.928466796875,0.449462890625,-0.2441406100988388,-1.4953612089157104,0.8544921278953552,100.0,164442.0,1.0
1163243.8642314,302432.78125,314365.0625,343683.84375,325617.28125,307470.0625,297947.25,318862.03125,311165.53125,-0.105224609375,0.927001953125,0.44775390625,-0.1525878757238388,-1.2512205839157104,0.9155272841453552,100.0,164443.0,1.0
1163243.8685632,302578.53125,314375.78125,343879.625,325797.875,307574.15625,298088.15625,319008.5,311458.53125,-0.107421875,0.929443359375,0.446533203125,-0.1220703050494194,-1.0681151151657104,1.0681151151657104,100.0,164444.0,1.0
1163243.8723539,303706.21875,314222.34375,344473.375,326545.78125,307437.4375,297715.78125,318547.6875,310779.28125,-0.105712890625,0.933837890625,0.4453125,0.0610351525247097,-0.9460448622703552,1.0986326932907104,100.0,164445.0,1.0
1163243.881152,304230.59375,314101.125,344583.375,326777.34375,307224.65625,297323.71875,318083.5625,310022.09375,-0.10595703125,0.935302734375,0.44677734375,0.2441406100988388,-0.6713866591453552,1.2817381620407104,100.0,164446.0,1.0
1163243.885439,303460.15625,314194.375,344112.375,326222.375,307254.96875,297473.65625,318287.78125,310271.65625,-0.107666015625,0.9404296875,0.446533203125,0.2136230319738388,-0.5798339247703552,1.1901854276657104,100.0,164447.0,1.0
1163243.8854895,302442.90625,314361.03125,343695.71875,325626.21875,307469.1875,297945.8125,318857.125,311164.5625,-0.109130859375,0.94384765625,0.447021484375,0.2136230319738388,-0.4577636420726776,1.1596678495407104,100.0,164448.0,1.0
1163243.8885488,302568.59375,314376.59375,343879.625,325790.28125,307573.6875,298090.75,319010.90625,311464.5,-0.109130859375,0.94287109375,0.44873046875,0.0,-0.3967284858226776,1.0986326932907104,100.0,164449.0,1.0
1163243.9029129,303693.4375,314224.5,344466.40625,326532.28125,307437.0,297721.9375,318555.1875,310788.78125,-0.11328125,0.943359375,0.44970703125,-0.0610351525247097,-0.2746581733226776,1.0070799589157104,100.0,164450.0,1.0
1163243.9029629,304238.0,314105.15625,344589.15625,326780.65625,307222.34375,297324.71875,318084.90625,310024.0625,-0.11572265625,0.94287109375,0.448486328125,-0.1525878757238388,-0.1525878757238388,0.9460448622703552,100.0,164451.0,1.0
1163243.9054512,303475.8125,314197.6875,344120.59375,326232.40625,307247.53125,297464.28125,318276.875,310255.46875,-0.116455078125,0.943115234375,0.447021484375,-0.3662109076976776,-0.1831054538488388,0.7934569716453552,100.0,164452.0,1.0
1163243.9055057,302466.59375,314378.03125,343711.375,325643.5625,307475.4375,297950.09375,318860.71875,311159.71875,-0.115234375,0.939453125,0.448974609375,-0.4577636420726776,-0.1525878757238388,0.6408690810203552,100.0,164453.0,1.0
1163243.9073288,302566.0,314383.8125,343878.28125,325786.0,307572.90625,298093.4375,319011.0,311461.28125,-0.113525390625,0.937255859375,0.447265625,-0.6103515028953552,-0.2136230319738388,0.4882812201976776,100.0,164454.0,1.0
1163243.9161767,303681.09375,314224.9375,344463.28125,326523.59375,307435.75,297724.4375,318557.0625,310790.84375,-0.10791015625,0.935546875,0.447021484375,-0.6408690810203552,-0.2746581733226776,0.4882812201976776,100.0,164455.0,1.0
1163243.9211425,304243.09375,314108.375,344594.90625,326784.125,307223.84375,297328.09375,318087.96875,310025.15625,-0.1064453125,0.935302734375,0.445556640625,-0.5187987685203552,-0.2441406100988388,0.5798339247703552,100.0,164456.0,1.0
1163243.9236072,303496.03125,314199.03125,344133.90625,326243.3125,307245.65625,297463.5625,318276.6875,310246.96875,-0.105712890625,0.9365234375,0.444091796875,-0.4882812201976776,-0.1220703050494194,0.5798339247703552,100.0,164457.0,1.0
1163243.9286304,302470.875,314372.75,343714.875,325642.03125,307466.15625,297940.09375,318855.53125,311146.65625,-0.10888671875,0.936767578125,0.443359375,-0.5798339247703552,-0.03051757626235485,0.6408690810203552,100.0,164458.0,1.0
1163243.9311818,302560.65625,314391.15625,343878.375,325783.3125,307575.3125,298098.0,319024.125,311472.28125,-0.112060546875,0.9404296875,0.445068359375,-0.6103515028953552,0.0610351525247097,0.6713866591453552,100.0,164459.0,1.0
1163243.9404525,303666.0,314229.6875,344451.03125,326514.21875,307433.15625,297725.59375,318563.875,310803.625,-0.11279296875,0.9404296875,0.4462890625,-0.6103515028953552,0.0,0.5798339247703552,100.0,164460.0,1.0
1163243.9405029,304239.25,314106.65625,344588.1875,326778.40625,307217.9375,297321.5,318082.0625,310022.8125,-0.11181640625,0.939697265625,0.4453125,-0.6103515028953552,0.1220703050494194,0.5798339247703552,100.0,164461.0,1.0
1163243.942367,303488.6875,314182.65625,344113.53125,326230.34375,307224.375,297434.9375,318246.3125,310215.21875,-0.11279296875,0.937255859375,0.44580078125,-0.7019042372703552,0.0610351525247097,0.5493163466453552,100.0,164462.0,1.0
1163243.9461907,302460.875,314358.78125,343694.65625,325628.8125,307449.875,297918.1875,318830.5625,311117.53125,-0.113037109375,0.93603515625,0.444091796875,-0.7629393935203552,0.0610351525247097,0.5798339247703552,100.0,164463.0,1.0
1163243.9553549,302546.15625,314387.40625,343870.53125,325772.65625,307575.03125,298095.75,319021.1875,311470.15625,-0.114990234375,0.933349609375,0.443359375,-0.6103515028953552,0.1220703050494194,0.6713866591453552,100.0,164464.0,1.0
1163243.9554139,303648.5625,314230.0625,344446.03125,326504.71875,307438.875,297732.125,318573.4375,310815.15625,-0.11474609375,0.930908203125,0.441650390625,-0.6408690810203552,0.0610351525247097,0.7324218153953552,100.0,164465.0,1.0
1163243.9578182,304230.40625,314098.25,344590.34375,326774.84375,307217.9375,297317.90625,318085.8125,310023.71875,-0.1142578125,0.934814453125,0.444580078125,-0.5798339247703552,0.0915527269244194,0.6408690810203552,100.0,164466.0,1.0
1163243.9578614,303509.625,314181.15625,344134.8125,326243.125,307232.0625,297436.71875,318251.65625,310214.34375,-0.11474609375,0.936279296875,0.443603515625,-0.5187987685203552,-0.03051757626235485,0.6713866591453552,100.0,164467.0,1.0
1163243.9634882,302477.6875,314363.25,343708.875,325637.125,307457.28125,297920.5,318833.875,311119.65625,-0.11767578125,0.935791015625,0.44580078125,-0.4882812201976776,-0.0915527269244194,0.5798339247703552,100.0,164468.0,1.0
1163243.971095,302533.90625,314390.96875,343861.125,325761.40625,307577.53125,298099.40625,319023.34375,311475.875,-0.11865234375,0.939208984375,0.44580078125,-0.6103515028953552,-0.0915527269244194,0.5493163466453552,100.0,164469.0,1.0
1163243.9858776,303638.53125,314239.71875,344445.9375,326497.3125,307453.0,297747.15625,318587.84375,310837.6875,-0.117431640625,0.938232421875,0.448486328125,-0.4882812201976776,-0.2136230319738388,0.5493163466453552,100.0,164470.0,1.0
1163243.9858999,304247.3125,314113.46875,344610.0,326791.09375,307241.90625,297337.9375,318106.03125,310051.0,-0.11865234375,0.939697265625,0.446044921875,-0.4882812201976776,-0.4272460639476776,0.4882812201976776,100.0,164471.0,1.0
1163243.9859068,303536.625,314191.875,344148.21875,326261.53125,307243.53125,297441.21875,318254.53125,310218.0,-0.118896484375,0.939453125,0.44384765625,-0.4882812201976776,-0.3967284858226776,0.3967284858226776,100.0,164472.0,1.0
1163243.9890308,302493.40625,314368.625,343712.71875,325645.8125,307460.96875,297920.4375,318835.5,311115.5625,-0.1181640625,0.939208984375,0.446533203125,-0.4577636420726776,-0.4272460639476776,0.2746581733226776,100.0,164473.0,1.0
1163243.9890499,302524.71875,314390.34375,343849.5,325748.625,307576.03125,298099.15625,319027.4375,311476.125,-0.121337890625,0.93896484375,0.448486328125,-0.5187987685203552,-0.5493163466453552,0.1831054538488388,100.0,164474.0,1.0
1163243.991007,303618.875,314232.09375,344430.03125,326477.46875,307445.9375,297745.53125,318590.6875,310840.90625,-0.121337890625,0.93896484375,0.44775390625,-0.5493163466453552,-0.7324218153953552,0.1220703050494194,100.0,164475.0,1.0
1163243.9972152,304243.8125,314103.8125,344600.25,326781.4375,307227.875,297332.21875,318096.53125,310047.21875,-0.118896484375,0.939697265625,0.448486328125,-0.5493163466453552,-0.7629393935203552,0.1525878757238388,100.0,164476.0,1.0
1163244.0065517,303539.5625,314173.71875,344136.9375,326256.625,307221.0625,297425.75,318234.40625,310198.15625,-0.11669921875,0.940673828125,0.444091796875,-0.6408690810203552,-0.7934569716453552,0.2136230319738388,100.0,164477.0,1.0
1163244.0065725,302482.96875,314344.75,343688.5625,325628.375,307430.125,297894.78125,318806.78125,311087.125,-0.114990234375,0.943359375,0.4453125,-0.8239745497703552,-0.7934569716453552,0.2441406100988388,100.0,164478.0,1.0
1163244.0084421,302507.28125,314380.15625,343825.1875,325729.84375,307555.90625,298083.59375,319008.9375,311461.84375,-0.11376953125,0.942138671875,0.4453125,-0.7629393935203552,-0.7934569716453552,0.2441406100988388,100.0,164479.0,1.0
1163244.0210651,303609.75,314235.84375,344414.75,326468.0625,307439.40625,297748.125,318591.84375,310846.0,-0.113037109375,0.9404296875,0.446044921875,-0.9155272841453552,-0.7934569716453552,0.2441406100988388,100.0,164480.0,1.0
1163244.0240701,304247.3125,314106.3125,344600.53125,326783.5,307225.71875,297335.71875,318103.0625,310049.90625,-0.114013671875,0.939208984375,0.4453125,-0.9155272841453552,-0.7324218153953552,0.3662109076976776,100.0,164481.0,1.0
1163244.0240899,303564.96875,314182.125,344150.09375,326271.8125,307222.15625,297428.15625,318232.96875,310189.3125,-0.112548828125,0.9375,0.44775390625,-0.9460448622703552,-0.7324218153953552,0.4577636420726776,100.0,164482.0,1.0
1163244.0260087,302497.25,314345.5625,343686.96875,325633.09375,307423.03125,297888.34375,318794.375,311066.84375,-0.1103515625,0.93701171875,0.449951171875,-0.9460448622703552,-0.7934569716453552,0.6408690810203552,100.0,164483.0,1.0
1163244.0397104,302495.1875,314373.375,343806.9375,325717.15625,307545.53125,298076.71875,319000.09375,311452.875,-0.112060546875,0.937744140625,0.448486328125,-0.9460448622703552,-0.7324218153953552,0.6408690810203552,100.0,164484.0,1.0
1163244.043388,303582.40625,314220.75,344389.71875,326448.0625,307426.1875,297736.875,318581.21875,310837.84375,-0.11279296875,0.936767578125,0.450927734375,-0.9460448622703552,-0.7019042372703552,0.8544921278953552,100.0,164485.0,1.0
1163244.043408,304239.09375,314092.53125,344588.8125,326778.84375,307216.53125,297323.1875,318090.09375,310037.03125,-0.113525390625,0.93896484375,0.45068359375,-0.8850097060203552,-0.6408690810203552,0.9155272841453552,100.0,164486.0,1.0
1163244.0434148,303570.59375,314168.96875,344149.125,326276.46875,307216.59375,297412.40625,318220.8125,310172.3125,-0.1123046875,0.935791015625,0.449462890625,-0.8239745497703552,-0.6713866591453552,0.9765624403953552,100.0,164487.0,1.0
1163244.0465475,302513.25,314349.5,343704.84375,325650.90625,307440.46875,297896.28125,318806.875,311071.3125,-0.112060546875,0.93798828125,0.4501953125,-0.8544921278953552,-0.7019042372703552,1.0986326932907104,100.0,164488.0,1.0
1163244.0465681,302498.78125,314388.5625,343818.65625,325726.8125,307568.96875,298099.0625,319026.5625,311472.75,-0.114501953125,0.939697265625,0.451416015625,-0.7324218153953552,-0.6103515028953552,1.0681151151657104,100.0,164489.0,1.0
1163244.0497103,303586.25,314242.65625,344407.75,326461.625,307456.65625,297769.875,318618.40625,310873.53125,-0.1123046875,0.9384765625,0.4501953125,-0.6408690810203552,-0.7019042372703552,1.0070799589157104,100.0,164490.0,1.0
1163244.0635464,304254.71875,314107.5625,344612.40625,326798.0625,307243.875,297349.03125,318121.75,310065.46875,-0.112548828125,0.93994140625,0.450439453125,-0.6408690810203552,-0.6408690810203552,1.0375975370407104,100.0,164491.0,1.0
1163244.0666082,303589.625,314173.8125,344162.4375,326289.0,307227.15625,297420.1875,318230.75,310172.40625,-0.1142578125,0.938720703125,0.448486328125,-0.6408690810203552,-0.6408690810203552,1.0681151151657104,100.0,164492.0,1.0
1163244.0666438,302526.21875,314357.28125,343711.1875,325656.71875,307446.84375,297899.59375,318814.375,311068.4375,-0.11376953125,0.939697265625,0.4501953125,-0.6713866591453552,-0.6408690810203552,1.0070799589157104,100.0,164493.0,1.0
1163244.0778926,302492.6875,314394.375,343824.84375,325724.3125,307577.71875,298107.71875,319043.53125,311484.53125,-0.11376953125,0.938232421875,0.4482421875,-0.5798339247703552,-0.7324218153953552,1.0375975370407104,100.0,164494.0,1.0
1163244.0779253,303561.65625,314237.03125,344400.34375,326442.875,307452.8125,297768.15625,318624.84375,310884.0,-0.11474609375,0.939453125,0.447021484375,-0.7019042372703552,-0.7934569716453552,0.9460448622703552,100.0,164495.0,1.0
1163244.0816115,304243.09375,314104.34375,344603.84375,326786.0,307230.90625,297339.5625,318114.25,310063.5,-0.113037109375,0.93896484375,0.4453125,-0.5493163466453552,-0.7934569716453552,0.8544921278953552,100.0,164496.0,1.0
1163244.0816437,303602.78125,314176.75,344171.65625,326299.53125,307223.21875,297415.71875,318226.1875,310169.09375,-0.114013671875,0.93701171875,0.444580078125,-0.5493163466453552,-0.7934569716453552,0.8544921278953552,100.0,164497.0,1.0
1163244.0928259,302526.59375,314350.3125,343707.0,325655.53125,307435.125,297885.03125,318802.59375,311059.0625,-0.112060546875,0.935546875,0.44384765625,-0.5493163466453552,-0.8239745497703552,0.7934569716453552,100.0,164498.0,1.0
1163244.0928543,302470.4375,314383.90625,343797.46875,325702.5625,307561.625,298091.8125,319030.9375,311478.09375,-0.111328125,0.93505859375,0.44384765625,-0.4882812201976776,-0.7019042372703552,0.7629393935203552,100.0,164499.0,1.0
1163244.0991284,303550.65625,314243.0,344389.71875,326435.875,307459.71875,297776.65625,318637.375,310901.25,-0.111083984375,0.934814453125,0.446533203125,-0.3662109076976776,-0.7324218153953552,0.6103515028953552,100.0,164500.0,1.0
1163244.0991645,304242.84375,314106.21875,344605.4375,326788.0625,307238.6875,297348.21875,318123.71875,310073.6875,-0.114013671875,0.934814453125,0.446044921875,-0.3662109076976776,-0.6713866591453552,0.5798339247703552,100.0,164501.0,1.0
1163244.1041641,303609.40625,314167.09375,344172.53125,326302.03125,307217.59375,297405.96875,318214.75,310152.71875,-0.114013671875,0.934326171875,0.44677734375,-0.2441406100988388,-0.7019042372703552,0.4272460639476776,100.0,164502.0,1.0
1163244.1041971,302526.9375,314336.4375,343702.34375,325651.96875,307424.46875,297867.3125,318779.625,311033.3125,-0.111572265625,0.9326171875,0.447998046875,-0.3051757514476776,-0.7934569716453552,0.3967284858226776,100.0,164503.0,1.0
1163244.1061115,302467.65625,314389.625,343797.46875,325700.96875,307569.75,298098.15625,319030.75,311477.21875,-0.11083984375,0.93505859375,0.4453125,-0.2746581733226776,-0.7324218153953552,0.2746581733226776,100.0,164504.0,1.0
1163244.1272953,303526.0625,314235.9375,344366.09375,326412.28125,307451.75,297768.875,318624.65625,310895.875,-0.111572265625,0.93310546875,0.447021484375,-0.2746581733226776,-0.7629393935203552,0.2746581733226776,100.0,164505.0,1.0
1163244.1304555,304233.71875,314092.625,344590.15625,326776.96875,307228.3125,297333.65625,318107.0,310066.8125,-0.1103515625,0.93359375,0.446533203125,-0.1831054538488388,-0.7324218153953552,0.2136230319738388,100.0,164506.0,1.0
1163244.1305095,303617.625,314150.21875,344161.09375,326301.875,307203.375,297385.3125,318192.65625,310135.3125,-0.112060546875,0.93505859375,0.444580078125,-0.1220703050494194,-0.7934569716453552,0.1220703050494194,100.0,164507.0,1.0
1163244.1329489,302538.46875,314330.28125,343701.8125,325659.5625,307423.40625,297863.21875,318775.3125,311025.25,-0.11181640625,0.9345703125,0.447998046875,-0.0610351525247097,-0.7324218153953552,0.0915527269244194,100.0,164508.0,1.0
1163244.1329982,302450.0625,314375.78125,343784.6875,325687.09375,307558.5,298090.65625,319025.65625,311472.46875,-0.113525390625,0.934814453125,0.44580078125,-0.03051757626235485,-0.7324218153953552,0.03051757626235485,100.0,164509.0,1.0
1163244.1348787,303507.28125,314230.0625,344354.375,326399.84375,307444.0625,297770.3125,318626.625,310903.21875,-0.11474609375,0.935546875,0.4501953125,0.0,-0.8239745497703552,-0.0610351525247097,100.0,164510.0,1.0
1163244.1491833,304239.34375,314097.46875,344588.0,326780.03125,307227.25,297339.28125,318112.09375,310072.8125,-0.115478515625,0.9365234375,0.447509765625,-0.0610351525247097,-0.8239745497703552,0.0915527269244194,100.0,164511.0,1.0
1163244.1492355,303643.375,314161.28125,344175.125,326319.125,307209.46875,297393.8125,318199.375,310131.4375,-0.11376953125,0.93896484375,0.447509765625,-0.1525878757238388,-0.8544921278953552,0.2136230319738388,100.0,164512.0,1.0
1163244.1766204,302556.71875,314340.46875,343714.6875,325670.28125,307427.0625,297868.40625,318779.875,311018.46875,-0.11376953125,0.939453125,0.447021484375,-0.2136230319738388,-0.8239745497703552,0.1525878757238388,100.0,164513.0,1.0
1163244.1766662,302450.59375,314388.3125,343789.15625,325687.375,307569.3125,298100.5,319035.6875,311478.90625,-0.11328125,0.937744140625,0.449462890625,-0.3051757514476776,-0.9155272841453552,0.1831054538488388,100.0,164514.0,1.0
1163244.1785522,303505.21875,314246.40625,344363.0625,326398.4375,307462.9375,297789.09375,318645.9375,310920.5625,-0.11474609375,0.939208984375,0.44775390625,-0.3051757514476776,-0.8850097060203552,0.1525878757238388,100.0,164515.0,1.0
1163244.1810945,304243.8125,314106.75,344604.28125,326785.28125,307242.71875,297351.875,318125.59375,310082.1875,-0.11572265625,0.939697265625,0.44384765625,-0.2441406100988388,-0.8544921278953552,0.1525878757238388,100.0,164516.0,1.0
1163244.1834856,303648.03125,314153.78125,344174.5,326314.21875,307203.8125,297381.75,318184.53125,310112.9375,-0.1162109375,0.938232421875,0.442138671875,-0.3051757514476776,-0.9460448622703552,0.2136230319738388,100.0,164517.0,1.0
1163244.1860934,302557.78125,314333.65625,343696.34375,325657.4375,307412.40625,297848.71875,318757.625,310992.25,-0.1162109375,0.9375,0.44580078125,-0.3356933295726776,-0.8544921278953552,0.2136230319738388,100.0,164518.0,1.0
1163244.1885518,302448.875,314392.59375,343774.0625,325678.25,307565.84375,298096.03125,319033.71875,311476.9375,-0.11669921875,0.93701171875,0.44580078125,-0.4272460639476776,-0.9460448622703552,0.0610351525247097,100.0,164519.0,1.0
1163244.1910938,303496.90625,314255.15625,344356.4375,326396.0,307471.59375,297799.5625,318658.46875,310939.5,-0.1171875,0.937744140625,0.444091796875,-0.5493163466453552,-1.0070799589157104,0.03051757626235485,100.0,164520.0,1.0
1163244.1936198,304240.0625,314102.71875,344600.4375,326782.59375,307238.875,297348.5,318120.40625,310084.34375,-0.11767578125,0.9384765625,0.444091796875,-0.6408690810203552,-1.0986326932907104,0.0915527269244194,100.0,164521.0,1.0
1163244.1961822,303671.53125,314156.03125,344194.25,326333.875,307208.90625,297382.1875,318183.625,310111.78125,-0.116943359375,0.936279296875,0.447265625,-0.6103515028953552,-1.0986326932907104,0.2136230319738388,100.0,164522.0,1.0
1163244.1986369,302584.34375,314342.0625,343724.25,325679.15625,307423.9375,297857.40625,318761.71875,310991.8125,-0.115234375,0.934814453125,0.44677734375,-0.5187987685203552,-1.1291502714157104,0.2746581733226776,100.0,164523.0,1.0
1163244.2011782,302448.96875,314400.8125,343782.375,325678.25,307572.34375,298108.4375,319038.25,311480.15625,-0.114501953125,0.934326171875,0.446044921875,-0.6103515028953552,-1.2512205839157104,0.2136230319738388,100.0,164524.0,1.0
1163244.203531,303483.78125,314257.40625,344349.28125,326385.03125,307468.65625,297805.28125,318663.75,310947.375,-0.1162109375,0.932861328125,0.4462890625,-0.5798339247703552,-1.3122557401657104,0.03051757626235485,100.0,164525.0,1.0
1163244.2129601,304243.09375,314107.03125,344603.03125,326785.28125,307239.6875,297353.40625,318128.1875,310093.625,-0.116943359375,0.93359375,0.446533203125,-0.5798339247703552,-1.2817381620407104,-0.03051757626235485,100.0,164526.0,1.0
1163244.2130164,303688.78125,314164.6875,344202.40625,326347.46875,307208.1875,297382.5625,318182.0,310110.8125,-0.1162109375,0.93310546875,0.448486328125,-0.6103515028953552,-1.2512205839157104,0.0915527269244194,100.0,164527.0,1.0
1163244.2148799,302599.8125,314351.71875,343727.03125,325692.46875,307424.84375,297857.03125,318758.875,310989.75,-0.113525390625,0.93505859375,0.450439453125,-0.7324218153953552,-1.3427733182907104,0.1220703050494194,100.0,164528.0,1.0
1163244.2179503,302435.125,314396.875,343762.6875,325668.59375,307566.28125,298099.5,319033.53125,311477.28125,-0.114013671875,0.932373046875,0.447998046875,-0.7019042372703552,-1.3122557401657104,0.0915527269244194,100.0,164529.0,1.0
1163244.2180002,303455.6875,314255.15625,344325.875,326365.34375,307467.84375,297800.625,318663.90625,310951.75,-0.11376953125,0.9326171875,0.4501953125,-0.6408690810203552,-1.2512205839157104,0.1220703050494194,100.0,164530.0,1.0
1163244.2197936,304238.28125,314112.03125,344604.375,326787.09375,307247.4375,297357.6875,318135.4375,310106.25,-0.113037109375,0.932861328125,0.449951171875,-0.7019042372703552,-1.2512205839157104,0.1525878757238388,100.0,164531.0,1.0
1163244.2248577,303697.28125,314155.84375,344207.125,326353.0,307205.78125,297374.3125,318173.78125,310102.9375,-0.11572265625,0.936279296875,0.44921875,-0.7019042372703552,-1.1901854276657104,0.1220703050494194,100.0,164532.0,1.0
1163244.2279305,302602.21875,314339.03125,343728.1875,325692.03125,307417.6875,297848.0,318748.78125,310974.125,-0.114501953125,0.936279296875,0.4482421875,-0.6713866591453552,-1.2512205839157104,0.1525878757238388,100.0,164533.0,1.0
1163244.22798,302433.5,314406.53125,343775.125,325672.8125,307576.28125,298114.4375,319050.34375,311491.25,-0.115478515625,0.9365234375,0.448486328125,-0.6408690810203552,-1.2512205839157104,0.2441406100988388,100.0,164534.0,1.0
1163244.2385721,303450.25,314268.59375,344346.0625,326373.75,307483.5,297824.21875,318692.625,310982.6875,-0.116455078125,0.93603515625,0.44677734375,-0.7019042372703552,-1.1596678495407104,0.2136230319738388,100.0,164535.0,1.0
1163244.244225,304232.5625,314111.03125,344612.6875,326787.875,307246.28125,297358.25,318138.5625,310110.71875,-0.1142578125,0.934814453125,0.448974609375,-0.7019042372703552,-1.1596678495407104,0.2441406100988388,100.0,164536.0,1.0
1163244.2442776,303706.40625,314156.03125,344215.4375,326362.03125,307198.8125,297365.5625,318164.65625,310088.53125,-0.115478515625,0.935302734375,0.452392578125,-0.7019042372703552,-1.2512205839157104,0.1831054538488388,100.0,164537.0,1.0
1163244.2461816,302605.0,314338.9375,343723.25,325695.96875,307404.53125,297832.625,318738.03125,310955.6875,-0.115234375,0.934326171875,0.455078125,-0.7019042372703552,-1.1291502714157104,0.1220703050494194,100.0,164538.0,1.0
1163244.2485886,302410.96875,314397.5,343752.0625,325657.59375,307559.84375,298100.125,319038.8125,311475.15625,-0.116455078125,0.936279296875,0.454345703125,-0.7629393935203552,-1.1901854276657104,0.1220703050494194,100.0,164539.0,1.0
1163244.2523086,303417.0,314250.875,344307.28125,326344.25,307461.5,297809.03125,318675.90625,310969.8125,-0.11572265625,0.934326171875,0.45361328125,-0.7629393935203552,-1.2512205839157104,0.03051757626235485,100.0,164540.0,1.0
1163244.2617051,304230.875,314112.3125,344601.6875,326789.03125,307243.78125,297364.75,318144.28125,310119.125,-0.114990234375,0.935791015625,0.453125,-0.8544921278953552,-1.2512205839157104,0.0915527269244194,100.0,164541.0,1.0
1163244.2617562,303727.15625,314159.875,344227.53125,326379.125,307201.59375,297374.25,318174.875,310091.84375,-0.115478515625,0.937255859375,0.452880859375,-0.9460448622703552,-1.2512205839157104,0.0610351525247097,100.0,164542.0,1.0
1163244.2635638,302616.53125,314333.65625,343730.15625,325699.875,307398.46875,297829.5,318734.71875,310943.8125,-0.113525390625,0.936767578125,0.452392578125,-0.8239745497703552,-1.2512205839157104,0.0610351525247097,100.0,164543.0,1.0
1163244.2748289,302406.5,314400.09375,343747.40625,325644.09375,307554.28125,298101.125,319036.5625,311468.34375,-0.113037109375,0.93701171875,0.4501953125,-0.8850097060203552,-1.3427733182907104,0.1220703050494194,100.0,164544.0,1.0
1163244.2779581,303410.8125,314270.28125,344317.09375,326336.65625,307471.6875,297829.9375,318692.15625,310983.5,-0.111572265625,0.937744140625,0.449951171875,-0.9155272841453552,-1.1901854276657104,0.0610351525247097,100.0,164545.0,1.0
1163244.2780089,304230.5,314118.5625,344616.625,326786.71875,307249.59375,297378.4375,318151.34375,310126.09375,-0.113525390625,0.9365234375,0.44921875,-1.0070799589157104,-1.2207030057907104,0.0610351525247097,100.0,164546.0,1.0
1163244.2798068,303739.125,314158.4375,344233.34375,326380.09375,307197.46875,297368.0625,318165.375,310081.125,-0.1142578125,0.93701171875,0.451171875,-0.8850097060203552,-1.2817381620407104,0.0915527269244194,100.0,164547.0,1.0
1163244.2886072,302630.5625,314335.625,343734.25,325702.5625,307402.65625,297826.5625,318731.0625,310937.09375,-0.11376953125,0.93798828125,0.4521484375,-0.9460448622703552,-1.1901854276657104,0.0915527269244194,100.0,164548.0,1.0
1163244.292906,302408.9375,314409.75,343749.46875,325647.3125,307566.8125,298112.28125,319050.4375,311483.8125,-0.1142578125,0.937744140625,0.45166015625,-1.0681151151657104,-1.2207030057907104,0.2136230319738388,100.0,164549.0,1.0
1163244.2929536,303397.5,314268.3125,344310.65625,326335.65625,307477.84375,297836.65625,318709.0625,311005.6875,-0.113525390625,0.93701171875,0.45263671875,-1.0681151151657104,-1.1291502714157104,0.1831054538488388,100.0,164550.0,1.0
1163244.3061437,304230.40625,314114.71875,344619.5625,326793.34375,307255.125,297378.4375,318162.4375,310140.21875,-0.114990234375,0.939697265625,0.454833984375,-1.0681151151657104,-1.0375975370407104,0.1831054538488388,100.0,164551.0,1.0
1163244.3097421,303753.34375,314152.09375,344244.875,326392.625,307201.0625,297360.5625,318163.6875,310075.9375,-0.114013671875,0.938720703125,0.454345703125,-0.9765624403953552,-1.0070799589157104,0.2136230319738388,100.0,164552.0,1.0
1163244.3097901,302641.125,314332.15625,343738.1875,325712.59375,307399.96875,297815.5625,318722.84375,310924.84375,-0.114990234375,0.937255859375,0.456787109375,-1.0986326932907104,-1.0681151151657104,0.3051757514476776,100.0,164553.0,1.0
1163244.3098018,302395.78125,314402.4375,343735.78125,325639.0,307560.46875,298098.34375,319040.5,311477.75,-0.1142578125,0.938232421875,0.455322265625,-1.0681151151657104,-1.0070799589157104,0.3662109076976776,100.0,164554.0,1.0
1163244.3122726,303378.71875,314267.6875,344288.6875,326317.25,307472.65625,297828.4375,318703.53125,311010.3125,-0.114990234375,0.9365234375,0.4521484375,-1.1901854276657104,-1.0375975370407104,0.3967284858226776,100.0,164555.0,1.0
1163244.3148347,304227.71875,314118.46875,344614.75,326792.1875,307255.59375,297377.90625,318165.125,310148.71875,-0.114501953125,0.935302734375,0.4541015625,-1.1596678495407104,-0.9765624403953552,0.3967284858226776,100.0,164556.0,1.0
1163244.3186101,303768.71875,314154.78125,344254.78125,326409.15625,307204.34375,297362.53125,318166.71875,310078.25,-0.1142578125,0.93359375,0.455810546875,-1.2512205839157104,-0.9460448622703552,0.4882812201976776,100.0,164557.0,1.0
1163244.3273347,302652.5625,314333.9375,343742.9375,325723.125,307398.90625,297816.09375,318722.9375,310916.71875,-0.114501953125,0.937255859375,0.454345703125,-1.1291502714157104,-0.8850097060203552,0.5493163466453552,100.0,164558.0,1.0
1163244.3392362,302402.84375,314416.1875,343748.9375,325651.4375,307568.4375,298112.46875,319057.84375,311488.21875,-0.1123046875,0.935302734375,0.453125,-1.0681151151657104,-0.9460448622703552,0.6408690810203552,100.0,164559.0,1.0
1163244.3392921,303389.625,314287.8125,344313.09375,326335.125,307493.5,297855.15625,318730.625,311037.59375,-0.112548828125,0.93359375,0.451416015625,-1.0070799589157104,-0.8850097060203552,0.6713866591453552,100.0,164560.0,1.0
1163244.3411394,304237.5625,314123.84375,344629.3125,326801.65625,307260.0625,297386.5,318170.75,310155.3125,-0.1142578125,0.93359375,0.4521484375,-0.9155272841453552,-0.8239745497703552,0.7324218153953552,100.0,164561.0,1.0
1163244.3442282,303789.375,314159.15625,344270.78125,326422.125,307203.09375,297365.9375,318163.0625,310069.9375,-0.1171875,0.9345703125,0.453369140625,-0.8239745497703552,-0.8544921278953552,0.8239745497703552,100.0,164562.0,1.0
1163244.3442773,302666.40625,314335.09375,343752.5,325731.0,307398.09375,297812.5,318716.03125,310907.6875,-0.117431640625,0.931640625,0.453125,-0.7934569716453552,-0.8850097060203552,0.7629393935203552,100.0,164563.0,1.0
1163244.3461973,302375.40625,314397.5,343720.9375,325621.84375,307550.71875,298095.5,319038.0,311468.34375,-0.1181640625,0.932373046875,0.455078125,-0.6103515028953552,-0.8544921278953552,0.7324218153953552,100.0,164564.0,1.0
1163244.3548828,303345.375,314268.40625,344274.625,326297.9375,307475.0,297841.3125,318717.375,311025.34375,-0.11767578125,0.93017578125,0.455810546875,-0.6713866591453552,-0.9765624403953552,0.6408690810203552,100.0,164565.0,1.0
1163244.3579203,304220.5,314115.4375,344614.65625,326790.375,307256.3125,297382.46875,318169.5,310156.125,-0.11669921875,0.932373046875,0.453125,-0.5187987685203552,-0.9765624403953552,0.4882812201976776,100.0,164566.0,1.0
1163244.3579732,303792.6875,314145.125,344264.1875,326420.78125,307196.9375,297349.90625,318151.25,310059.03125,-0.115234375,0.931396484375,0.4541015625,-0.3967284858226776,-0.9765624403953552,0.4577636420726776,100.0,164567.0,1.0
1163244.3711331,302677.5,314325.53125,343750.90625,325730.8125,307394.09375,297799.375,318704.78125,310894.4375,-0.11328125,0.93017578125,0.452392578125,-0.2746581733226776,-0.9460448622703552,0.3967284858226776,100.0,164568.0,1.0
1163244.3741373,302380.125,314400.53125,343724.78125,325623.53125,307558.9375,298101.125,319045.875,311474.96875,-0.11279296875,0.9296875,0.4521484375,-0.1831054538488388,-0.9460448622703552,0.4272460639476776,100.0,164569.0,1.0
1163244.3741729,303332.78125,314271.625,344264.8125,326287.03125,307479.46875,297851.40625,318728.125,311038.75,-0.113037109375,0.93017578125,0.449951171875,-0.2746581733226776,-0.9460448622703552,0.4882812201976776,100.0,164570.0,1.0
1163244.3760921,304212.0,314112.21875,344598.75,326780.09375,307248.0625,297380.9375,318165.03125,310159.0,-0.11083984375,0.929931640625,0.4501953125,-0.1525878757238388,-0.9460448622703552,0.5187987685203552,100.0,164571.0,1.0
1163244.3785453,303804.75,314139.5625,344264.34375,326427.40625,307186.21875,297338.21875,318138.21875,310049.46875,-0.10888671875,0.9296875,0.450439453125,-0.1831054538488388,-0.9155272841453552,0.5493163466453552,100.0,164572.0,1.0
1163244.3873799,302681.875,314311.59375,343749.46875,325736.90625,307379.9375,297780.59375,318687.25,310874.6875,-0.105712890625,0.925048828125,0.44775390625,-0.03051757626235485,-0.7324218153953552,0.6103515028953552,100.0,164573.0,1.0
1163244.3917012,302365.28125,314386.59375,343706.71875,325616.375,307546.59375,298085.1875,319031.90625,311465.59375,-0.10546875,0.924560546875,0.44775390625,0.1220703050494194,-0.6103515028953552,0.7934569716453552,100.0,164574.0,1.0
1163244.3917523,303323.75,314270.28125,344260.6875,326288.8125,307485.90625,297852.5625,318734.625,311057.25,-0.10400390625,0.927490234375,0.4482421875,0.4577636420726776,-0.5493163466453552,0.9155272841453552,100.0,164575.0,1.0
1163244.3998668,304223.53125,314115.59375,344617.25,326798.0625,307265.0625,297389.78125,318183.0,310181.4375,-0.10693359375,0.932373046875,0.446044921875,0.6713866591453552,-0.3051757514476776,0.8850097060203552,100.0,164576.0,1.0
1163244.4066684,303833.0,314149.5,344285.53125,326451.34375,307201.21875,297346.96875,318149.46875,310054.5625,-0.109375,0.93408203125,0.447265625,0.6713866591453552,-0.2746581733226776,1.0375975370407104,100.0,164577.0,1.0
1163244.4067118,302708.96875,314327.0625,343765.46875,325756.84375,307390.59375,297789.34375,318693.875,310875.9375,-0.111572265625,0.93603515625,0.44775390625,0.6408690810203552,-0.1525878757238388,1.1901854276657104,100.0,164578.0,1.0
1163244.4085267,302363.875,314395.53125,343705.125,325611.375,307546.53125,298086.90625,319032.09375,311465.40625,-0.11376953125,0.9375,0.4462890625,0.5493163466453552,-0.1525878757238388,1.1291502714157104,100.0,164579.0,1.0
1163244.4148562,303305.40625,314275.46875,344251.3125,326271.28125,307480.8125,297852.46875,318733.3125,311064.3125,-0.11376953125,0.93701171875,0.447021484375,0.6103515028953552,-0.1831054538488388,0.9460448622703552,100.0,164580.0,1.0
1163244.4192278,304221.65625,314124.09375,344624.84375,326797.1875,307268.90625,297394.1875,318184.4375,310197.875,-0.11328125,0.934814453125,0.44970703125,0.5798339247703552,-0.2746581733226776,0.8544921278953552,100.0,164581.0,1.0
1163244.4192938,303839.4375,314142.6875,344291.1875,326453.15625,307194.875,297336.78125,318133.5625,310052.5,-0.11474609375,0.9365234375,0.448974609375,0.5798339247703552,-0.2746581733226776,0.8239745497703552,100.0,164582.0,1.0
1163244.429859,302708.78125,314317.125,343759.28125,325751.03125,307378.78125,297774.4375,318673.3125,310861.375,-0.1162109375,0.938720703125,0.44775390625,0.5798339247703552,-0.3967284858226776,0.6713866591453552,100.0,164583.0,1.0
1163244.4329635,302359.9375,314398.75,343705.28125,325609.84375,307544.5625,298087.96875,319032.375,311471.125,-0.1220703125,0.941650390625,0.451416015625,0.4272460639476776,-0.4272460639476776,0.5187987685203552,100.0,164584.0,1.0
1163244.4330163,303295.65625,314283.15625,344256.21875,326270.3125,307487.0625,297864.375,318746.0,311079.875,-0.11962890625,0.943115234375,0.449462890625,0.3051757514476776,-0.5798339247703552,0.3662109076976776,100.0,164585.0,1.0
1163244.4348578,304217.53125,314129.1875,344627.34375,326799.875,307270.25,297404.375,318195.5,310207.4375,-0.119140625,0.9462890625,0.450439453125,0.0610351525247097,-0.7019042372703552,0.2136230319738388,100.0,164586.0,1.0
1163244.4448822,303857.21875,314151.0,344301.1875,326471.375,307194.78125,297341.875,318143.46875,310054.28125,-0.12109375,0.947021484375,0.452880859375,-0.1831054538488388,-0.8544921278953552,-0.03051757626235485,100.0,164587.0,1.0
1163244.4479511,302727.9375,314319.1875,343765.90625,325766.6875,307375.3125,297772.0,318676.53125,310854.3125,-0.118896484375,0.947265625,0.451904296875,-0.3356933295726776,-0.9155272841453552,-0.0915527269244194,100.0,164588.0,1.0
1163244.4480011,302354.9375,314397.96875,343700.375,325608.25,307545.71875,298089.21875,319037.09375,311467.90625,-0.11865234375,0.94677734375,0.4501953125,-0.6103515028953552,-1.0070799589157104,-0.1220703050494194,100.0,164589.0,1.0
1163244.4498885,303282.625,314288.875,344249.59375,326263.0625,307495.1875,297874.75,318757.71875,311089.4375,-0.1171875,0.946533203125,0.44921875,-0.7629393935203552,-1.1291502714157104,-0.1220703050494194,100.0,164590.0,1.0
1163244.4654557,304206.4375,314119.625,344618.3125,326787.53125,307264.875,297398.5625,318185.5,310196.09375,-0.11669921875,0.944580078125,0.45068359375,-0.9460448622703552,-1.2207030057907104,-0.2441406100988388,100.0,164591.0,1.0
1163244.4655061,303856.4375,314135.1875,344297.4375,326463.78125,307181.65625,297324.53125,318117.28125,310022.5625,-0.115234375,0.942626953125,0.450927734375,-1.0986326932907104,-1.1901854276657104,-0.3051757514476776,100.0,164592.0,1.0
1163244.4673057,302730.15625,314308.53125,343764.03125,325761.59375,307365.46875,297758.59375,318653.375,310822.3125,-0.11474609375,0.945068359375,0.45068359375,-1.2512205839157104,-1.2817381620407104,-0.3051757514476776,100.0,164593.0,1.0
1163244.4697994,302355.625,314398.40625,343701.0,325609.59375,307549.75,298093.96875,319037.625,311461.375,-0.11376953125,0.946044921875,0.452880859375,-1.4038084745407104,-1.3732908964157104,-0.0610351525247097,100.0,164594.0,1.0
1163244.4741443,303266.875,314284.21875,344242.0,326259.3125,307497.25,297882.0625,318768.4375,311099.90625,-0.11572265625,0.944580078125,0.454833984375,-1.4953612089157104,-1.2817381620407104,0.03051757626235485,100.0,164595.0,1.0
1163244.4741791,304218.875,314131.25,344642.8125,326814.78125,307286.34375,297423.78125,318218.03125,310228.0,-0.114501953125,0.942138671875,0.455322265625,-1.5258787870407104,-1.2207030057907104,0.0915527269244194,100.0,164596.0,1.0
1163244.4873829,303894.0625,314150.75,344340.625,326509.03125,307210.96875,297356.71875,318152.0625,310047.21875,-0.11572265625,0.940185546875,0.455078125,-1.5869139432907104,-1.1291502714157104,0.2746581733226776,100.0,164597.0,1.0
1163244.4947632,302746.4375,314305.25,343777.53125,325780.71875,307367.4375,297761.8125,318658.1875,310815.6875,-0.114013671875,0.935546875,0.455810546875,-1.7089842557907104,-1.2207030057907104,0.4882812201976776,100.0,164598.0,1.0
1163244.4948207,302342.9375,314389.71875,343692.40625,325605.375,307541.6875,298087.0,319032.1875,311454.59375,-0.11572265625,0.931640625,0.457275390625,-1.7700194120407104,-1.1901854276657104,0.6408690810203552,100.0,164599.0,1.0
1163244.4948383,303240.15625,314275.28125,344227.6875,326242.59375,307490.375,297878.5,318765.5625,311100.4375,-0.113525390625,0.92822265625,0.456298828125,-1.7089842557907104,-1.2207030057907104,0.7629393935203552,100.0,164600.0,1.0
1163244.5004832,304197.96875,314114.4375,344629.3125,326797.1875,307275.53125,297415.28125,318205.8125,310223.1875,-0.11474609375,0.927734375,0.454833984375,-1.5258787870407104,-1.1596678495407104,0.7934569716453552,100.0,164601.0,1.0
1163244.5005334,303887.96875,314129.46875,344321.84375,326492.75,307190.6875,297328.8125,318118.8125,310024.96875,-0.114990234375,0.925537109375,0.455078125,-1.2817381620407104,-1.1901854276657104,0.9765624403953552,100.0,164602.0,1.0
1163244.506182,302748.59375,314291.75,343767.625,325776.15625,307358.21875,297742.9375,318635.5625,310801.90625,-0.114013671875,0.924072265625,0.456298828125,-1.1596678495407104,-1.1291502714157104,1.0986326932907104,100.0,164603.0,1.0
1163244.5154514,302325.0625,314376.84375,343667.5625,325583.65625,307534.34375,298074.28125,319018.78125,311448.5,-0.113037109375,0.921875,0.452880859375,-1.0986326932907104,-1.0681151151657104,1.2817381620407104,100.0,164604.0,1.0
1163244.5155022,303217.15625,314268.59375,344195.78125,326217.75,307488.9375,297873.3125,318763.6875,311109.28125,-0.11083984375,0.921875,0.455322265625,-0.8239745497703552,-1.0986326932907104,1.2207030057907104,100.0,164605.0,1.0
1163244.5173592,304192.0625,314114.34375,344615.46875,326792.34375,307279.5625,297415.53125,318215.8125,310237.84375,-0.109619140625,0.924560546875,0.458984375,-0.5798339247703552,-1.1291502714157104,1.3732908964157104,100.0,164606.0,1.0
1163244.519882,303894.0625,314120.15625,344317.5625,326499.625,307188.09375,297322.21875,318123.0,310022.5625,-0.11083984375,0.9248046875,0.458251953125,-0.4272460639476776,-1.0681151151657104,1.4343260526657104,100.0,164607.0,1.0
1163244.5236124,302750.71875,314277.78125,343761.0,325779.0,307350.71875,297727.5625,318630.21875,310787.0,-0.111572265625,0.927978515625,0.45703125,-0.4882812201976776,-1.0986326932907104,1.4953612089157104,100.0,164608.0,1.0
1163244.5379099,302324.15625,314378.1875,343670.5,325588.40625,307542.21875,298078.75,319029.3125,311454.0625,-0.110595703125,0.928466796875,0.4580078125,-0.3662109076976776,-1.0986326932907104,1.4343260526657104,100.0,164609.0,1.0
1163244.5379592,303206.6875,314279.5,344202.21875,326220.15625,307507.09375,297895.75,318786.3125,311132.8125,-0.111083984375,0.927734375,0.45849609375,-0.1831054538488388,-0.9765624403953552,1.3122557401657104,100.0,164610.0,1.0
1163244.5427684,304183.21875,314117.3125,344620.03125,326792.09375,307290.375,297427.34375,318221.875,310251.25,-0.11279296875,0.92919921875,0.458740234375,-0.1831054538488388,-0.9155272841453552,1.2207030057907104,100.0,164611.0,1.0
1163244.5428158,303910.96875,314125.625,344343.03125,326516.4375,307199.96875,297330.4375,318124.09375,310027.46875,-0.112060546875,0.9306640625,0.459716796875,-0.0915527269244194,-0.8239745497703552,1.0070799589157104,100.0,164612.0,1.0
1163244.5523828,302781.46875,314295.6875,343794.15625,325802.25,307368.5,297745.28125,318639.25,310792.25,-0.113037109375,0.9326171875,0.4580078125,-0.1525878757238388,-0.8239745497703552,0.9155272841453552,100.0,164613.0,1.0
1163244.5554166,302322.90625,314386.96875,343678.5625,325586.96875,307548.21875,298088.0625,319036.84375,311455.5625,-0.112548828125,0.933349609375,0.456787109375,-0.0915527269244194,-0.7324218153953552,0.7629393935203552,100.0,164614.0,1.0
1163244.5554684,303190.15625,314283.0625,344202.75,326211.3125,307508.96875,297904.5,318799.09375,311144.25,-0.109375,0.932373046875,0.4541015625,-0.03051757626235485,-0.7629393935203552,0.7019042372703552,100.0,164615.0,1.0
1163244.5579507,304179.625,314121.0625,344632.53125,326794.6875,307292.96875,297435.9375,318235.46875,310263.96875,-0.109375,0.93408203125,0.4541015625,-0.0610351525247097,-0.7019042372703552,0.5493163466453552,100.0,164616.0,1.0
1163244.5580022,303924.8125,314130.625,344356.4375,326528.4375,307198.1875,297327.375,318121.03125,310022.375,-0.109130859375,0.932373046875,0.45361328125,-0.0915527269244194,-0.6103515028953552,0.4272460639476776,100.0,164617.0,1.0
1163244.56618,302801.15625,314300.15625,343811.15625,325817.46875,307369.75,297742.25,318634.3125,310782.5,-0.10791015625,0.931884765625,0.452392578125,-0.0915527269244194,-0.5798339247703552,0.3662109076976776,100.0,164618.0,1.0
1163244.5729568,302328.09375,314389.90625,343683.21875,325584.8125,307545.625,298087.71875,319030.84375,311448.25,-0.105224609375,0.93359375,0.451416015625,-0.0610351525247097,-0.3967284858226776,0.3356933295726776,100.0,164619.0,1.0
1163244.5730085,303183.375,314290.03125,344199.625,326195.90625,307507.90625,297911.65625,318799.09375,311147.84375,-0.104248046875,0.933837890625,0.448974609375,0.03051757626235485,-0.2746581733226776,0.3662109076976776,100.0,164620.0,1.0
1163244.5867022,304169.625,314118.125,344620.90625,326775.625,307282.5,297432.53125,318225.90625,310259.84375,-0.1044921875,0.93408203125,0.4541015625,0.0,-0.2441406100988388,0.3356933295726776,100.0,164621.0,1.0
1163244.5867526,303922.59375,314113.1875,344346.34375,326511.625,307180.40625,297311.46875,318101.0,309999.5625,-0.105712890625,0.934814453125,0.4521484375,-0.03051757626235485,-0.1220703050494194,0.4882812201976776,100.0,164622.0,1.0
1163244.5892661,302794.4375,314278.25,343785.21875,325792.53125,307341.78125,297713.90625,318600.96875,310744.53125,-0.104248046875,0.935546875,0.449462890625,-0.03051757626235485,0.0,0.5187987685203552,100.0,164623.0,1.0
1163244.5893171,302323.09375,314391.78125,343664.875,325573.75,307536.78125,298079.84375,319020.125,311436.0,-0.104736328125,0.937744140625,0.45458984375,0.03051757626235485,0.1220703050494194,0.4882812201976776,100.0,164624.0,1.0
1163244.6028683,303162.09375,314288.6875,344178.15625,326178.03125,307501.71875,297905.0625,318792.9375,311145.15625,-0.106201171875,0.93896484375,0.45263671875,0.0610351525247097,0.3356933295726776,0.4882812201976776,100.0,164625.0,1.0
1163244.6029123,304165.5,314118.28125,344619.84375,326773.9375,307288.125,297433.6875,318229.65625,310266.71875,-0.10693359375,0.93896484375,0.45361328125,-0.0610351525247097,0.3967284858226776,0.5493163466453552,100.0,164626.0,1.0
1163244.6053866,303942.78125,314120.78125,344364.9375,326526.625,307192.03125,297316.40625,318108.25,310005.3125,-0.111328125,0.938720703125,0.4541015625,0.0,0.3662109076976776,0.5493163466453552,100.0,164627.0,1.0
1163244.6054211,302826.375,314295.3125,343819.09375,325816.65625,307361.1875,297727.40625,318615.28125,310754.53125,-0.112548828125,0.939208984375,0.452880859375,-0.1220703050494194,0.3662109076976776,0.5798339247703552,100.0,164628.0,1.0
1163244.6072602,302319.25,314387.9375,343675.0625,325563.8125,307539.8125,298081.34375,319023.4375,311435.71875,-0.1142578125,0.937744140625,0.451171875,-0.1525878757238388,0.3356933295726776,0.4882812201976776,100.0,164629.0,1.0
1163244.6097656,303139.03125,314280.21875,344173.4375,326158.71875,307498.5,297906.75,318798.5625,311152.3125,-0.115478515625,0.93701171875,0.45263671875,-0.3051757514476776,0.3051757514476776,0.4272460639476776,100.0,164630.0,1.0
1163244.618632,304155.3125,314118.8125,344620.1875,326767.40625,307286.25,297440.5,318237.625,310275.5625,-0.113525390625,0.93701171875,0.449462890625,-0.1831054538488388,0.3662109076976776,0.3051757514476776,100.0,164631.0,1.0
1163244.6217043,303949.40625,314118.8125,344368.78125,326532.28125,307185.59375,297315.5,318101.1875,309995.46875,-0.112548828125,0.935546875,0.44873046875,-0.1831054538488388,0.3356933295726776,0.3051757514476776,100.0,164632.0,1.0
1163244.6217538,302824.65625,314277.4375,343808.28125,325814.0625,307341.25,297708.25,318593.71875,310726.8125,-0.11181640625,0.933349609375,0.45361328125,-0.2441406100988388,0.2441406100988388,0.4882812201976776,100.0,164633.0,1.0
1163244.6236104,302314.15625,314384.46875,343658.34375,325561.5,307529.25,298073.84375,319017.25,311427.21875,-0.1083984375,0.932373046875,0.44921875,-0.2136230319738388,0.3662109076976776,0.5493163466453552,100.0,164634.0,1.0
1163244.6348935,303140.71875,314301.9375,344175.5625,326167.84375,307517.1875,297929.8125,318826.90625,311180.65625,-0.10888671875,0.93310546875,0.449462890625,-0.1220703050494194,0.3662109076976776,0.6713866591453552,100.0,164635.0,1.0
1163244.6406814,304161.75,314131.875,344635.75,326785.65625,307307.71875,297461.3125,318267.5,310306.4375,-0.111328125,0.9365234375,0.449951171875,-0.0610351525247097,0.4272460639476776,0.8850097060203552,100.0,164636.0,1.0
1163244.655386,303958.4375,314110.875,344372.71875,326543.1875,307180.125,297306.1875,318097.96875,309993.40625,-0.115966796875,0.937744140625,0.453369140625,-0.0610351525247097,0.4272460639476776,0.9155272841453552,100.0,164637.0,1.0
1163244.6554326,302834.3125,314269.84375,343800.96875,325818.1875,307327.1875,297691.8125,318577.90625,310709.90625,-0.1171875,0.93798828125,0.45068359375,-0.1220703050494194,0.4272460639476776,0.8544921278953552,100.0,164638.0,1.0
1163244.6578629,302308.96875,314380.53125,343652.375,325558.34375,307524.0625,298068.3125,319013.40625,311420.6875,-0.116455078125,0.936279296875,0.44921875,-0.1525878757238388,0.3662109076976776,0.8544921278953552,100.0,164639.0,1.0
1163244.657898,303116.21875,314295.6875,344156.96875,326151.125,307506.71875,297926.25,318821.09375,311177.5,-0.11474609375,0.933349609375,0.44921875,-0.0915527269244194,0.3356933295726776,0.7629393935203552,100.0,164640.0,1.0
1163244.6597936,304146.5625,314131.25,344625.75,326773.9375,307299.5,297461.6875,318261.21875,310304.90625,-0.116455078125,0.9326171875,0.451171875,-0.0610351525247097,0.2746581733226776,0.8544921278953552,100.0,164641.0,1.0
1163244.6623387,303968.1875,314118.28125,344382.65625,326549.71875,307182.1875,297312.71875,318098.78125,309991.34375,-0.115966796875,0.93408203125,0.453857421875,-0.0610351525247097,0.2441406100988388,0.8544921278953552,100.0,164642.0,1.0
