Time,FZ,C3,CZ,C4,PZ,PO7,OZ,PO8,AccX,AccY,AccZ,Gyro1,Gyro2,Gyro3,Battery,Counter,Validation
484114.4537816,286220.0,306497.15625,313469.28125,327112.78125,319410.90625,272010.8125,261988.828125,273184.375,-0.052490234375,0.83837890625,-0.52294921875,-2.777099370956421,-2.075195074081421,5.462646007537842,60.0,1363065.0,1.0
484114.4562524,289107.65625,307204.96875,315163.90625,327652.09375,319941.71875,271999.71875,261926.78125,273178.28125,-0.049560546875,0.838134765625,-0.5185546875,-2.624511480331421,-1.2817381620407104,5.157470226287842,60.0,1363066.0,1.0
484114.4587699,291445.65625,306090.25,312239.3125,325337.78125,317493.03125,271773.25,259456.734375,272371.40625,-0.0478515625,0.83984375,-0.520263671875,-2.471923589706421,-0.5187987685203552,4.730224132537842,60.0,1363067.0,1.0
484114.4612956,289967.5,304646.96875,308700.03125,323315.6875,315425.5,271640.9375,257965.875,271861.875,-0.047119140625,0.843017578125,-0.517578125,-2.166747808456421,0.1831054538488388,4.272460460662842,60.0,1363068.0,1.0
484114.4613084,286896.09375,304900.96875,309475.375,324399.46875,316591.1875,271816.0,259508.765625,272372.46875,-0.045166015625,0.8466796875,-0.517333984375,-2.075195074081421,1.0070799589157104,3.845214605331421,60.0,1363069.0,1.0
484114.463716,286241.28125,306446.53125,313536.78125,327117.4375,319442.03125,272052.5625,262022.453125,273209.0625,-0.043701171875,0.85205078125,-0.518798828125,-1.8920897245407104,1.7395018339157104,3.540038824081421,60.0,1363070.0,1.0
484114.4675601,289104.0,307136.59375,315196.625,327630.71875,319939.125,272009.46875,261924.28125,273173.90625,-0.044189453125,0.858642578125,-0.518310546875,-1.8310545682907104,2.441406011581421,3.173827886581421,60.0,1363071.0,1.0
484114.4763106,291431.625,306019.90625,312257.71875,325309.8125,317471.5,271756.375,259432.6875,272346.4375,-0.042236328125,0.86279296875,-0.515625,-1.7395018339157104,3.234863042831421,2.838134527206421,60.0,1363072.0,1.0
484114.4763243,289989.125,304621.3125,308768.8125,323335.53125,315451.09375,271654.625,257981.4375,271867.78125,-0.0419921875,0.86767578125,-0.5166015625,-1.5258787870407104,3.906249761581421,2.532958745956421,60.0,1363073.0,1.0
484114.4788107,286909.34375,304872.25,309539.65625,324422.71875,316617.46875,271830.21875,259525.9375,272377.375,-0.04248046875,0.870849609375,-0.517578125,-1.5869139432907104,4.608153820037842,2.319335699081421,60.0,1363074.0,1.0
484114.4788251,286227.78125,306400.3125,313562.4375,327121.5625,319436.21875,272050.25,262015.296875,273193.3125,-0.0439453125,0.870361328125,-0.51904296875,-1.5258787870407104,5.279540538787842,2.075195074081421,60.0,1363075.0,1.0
484114.4937282,289111.15625,307121.21875,315239.0,327658.0,319955.9375,272021.625,261942.515625,273182.84375,-0.04443359375,0.870849609375,-0.5185546875,-1.4953612089157104,5.859374523162842,1.9836424589157104,60.0,1363076.0,1.0
484114.4962711,291460.0625,306031.6875,312326.46875,325361.21875,317512.28125,271783.71875,259476.765625,272374.0,-0.043701171875,0.870361328125,-0.518798828125,-1.4953612089157104,6.408690929412842,1.7395018339157104,60.0,1363077.0,1.0
484114.4962895,289991.90625,304625.59375,308813.40625,323357.6875,315468.25,271647.375,258002.0,271860.71875,-0.045166015625,0.87109375,-0.51806640625,-1.4343260526657104,6.896972179412842,1.4648436307907104,60.0,1363078.0,1.0
484114.4988039,286938.9375,304927.53125,309607.25,324452.5625,316660.9375,271834.34375,259562.6875,272388.125,-0.04541015625,0.867919921875,-0.5146484375,-1.5563963651657104,7.415771007537842,1.3732908964157104,60.0,1363079.0,1.0
484114.4988209,286256.46875,306471.40625,313630.5625,327135.0625,319484.21875,272055.25,262050.4375,273209.0625,-0.049072265625,0.866943359375,-0.5205078125,-1.5563963651657104,7.781981945037842,1.2207030057907104,60.0,1363080.0,1.0
484114.5213031,289102.46875,307159.5625,315264.125,327628.5625,319967.28125,272002.3125,261945.109375,273162.375,-0.05126953125,0.86279296875,-0.51904296875,-1.4953612089157104,8.117674827575684,1.0986326932907104,60.0,1363081.0,1.0
484114.5262455,291439.9375,306062.71875,312337.40625,325315.96875,317518.25,271750.28125,259470.78125,272342.78125,-0.0546875,0.860107421875,-0.515869140625,-1.4038084745407104,8.453368186950684,1.0986326932907104,60.0,1363082.0,1.0
484114.5262801,289990.28125,304670.65625,308844.625,323324.34375,315494.34375,271634.15625,258021.046875,271860.15625,-0.0576171875,0.85693359375,-0.515625,-1.3427733182907104,8.636473655700684,1.0681151151657104,60.0,1363083.0,1.0
484114.5327282,286915.9375,304951.84375,309617.28125,324391.15625,316665.75,271808.3125,259571.171875,272372.28125,-0.058349609375,0.85107421875,-0.5166015625,-1.1901854276657104,8.666991233825684,1.1291502714157104,60.0,1363084.0,1.0
484114.53277,286228.84375,306492.15625,313631.28125,327063.34375,319485.9375,272026.375,262062.5,273188.03125,-0.05908203125,0.848388671875,-0.51904296875,-1.0070799589157104,8.789061546325684,1.2512205839157104,60.0,1363085.0,1.0
484114.5327801,289095.0625,307185.65625,315279.3125,327578.15625,319989.5625,271987.21875,261978.375,273161.125,-0.06201171875,0.845947265625,-0.520751953125,-0.9460448622703552,8.697508811950684,1.1596678495407104,60.0,1363086.0,1.0
484114.5450752,291444.0625,306085.78125,312359.5625,325286.125,317549.46875,271766.03125,259525.046875,272365.9375,-0.059326171875,0.842041015625,-0.52392578125,-0.6103515028953552,8.666991233825684,1.1901854276657104,60.0,1363087.0,1.0
484114.5474784,289991.625,304686.46875,308869.5625,323297.875,315528.3125,271647.46875,258077.359375,271884.21875,-0.057861328125,0.84130859375,-0.526611328125,-0.3051757514476776,8.544920921325684,1.2817381620407104,60.0,1363088.0,1.0
484114.5499284,286916.3125,304951.9375,309643.5625,324368.8125,316695.09375,271818.15625,259616.78125,272385.625,-0.056640625,0.842041015625,-0.526123046875,0.0610351525247097,8.453368186950684,1.3122557401657104,60.0,1363089.0,1.0
484114.55257,286239.65625,306485.34375,313662.59375,327058.59375,319514.34375,272046.84375,262101.578125,273202.25,-0.05712890625,0.84375,-0.525634765625,0.2136230319738388,8.453368186950684,1.4953612089157104,60.0,1363090.0,1.0
484114.5551264,289103.75,307165.90625,315298.0,327581.375,320007.78125,272019.5,262006.984375,273177.125,-0.05859375,0.8447265625,-0.526611328125,0.4577636420726776,8.453368186950684,1.5563963651657104,60.0,1363091.0,1.0
484114.5551676,291408.1875,306012.125,312324.875,325260.28125,317514.6875,271755.28125,259503.3125,272339.125,-0.058837890625,0.845703125,-0.52978515625,0.7629393935203552,8.483885765075684,1.6784666776657104,60.0,1363092.0,1.0
484114.5600924,289971.78125,304616.65625,308847.125,323292.59375,315496.3125,271646.84375,258056.796875,271858.125,-0.059814453125,0.845458984375,-0.5302734375,0.7629393935203552,8.392333030700684,1.7395018339157104,60.0,1363093.0,1.0
484114.5625773,286918.0,304904.90625,309646.875,324383.0,316682.46875,271830.84375,259609.265625,272376.40625,-0.061279296875,0.8466796875,-0.531494140625,1.0681151151657104,8.239745140075684,1.7700194120407104,60.0,1363094.0,1.0
484114.5650699,286247.09375,306448.34375,313675.375,327074.53125,319507.5625,272050.78125,262091.828125,273190.71875,-0.06298828125,0.845703125,-0.530517578125,1.2512205839157104,8.117674827575684,1.8310545682907104,60.0,1363095.0,1.0
484114.5674923,289089.96875,307109.6875,315297.21875,327584.59375,319986.34375,272007.40625,261983.296875,273154.5,-0.06298828125,0.842529296875,-0.53271484375,1.3732908964157104,7.873534679412842,2.044677495956421,60.0,1363096.0,1.0
484114.5713708,291408.375,305970.375,312343.90625,325286.21875,317519.875,271770.3125,259506.453125,272344.5,-0.061767578125,0.841552734375,-0.53759765625,1.6479490995407104,7.720946788787842,2.136230230331421,60.0,1363097.0,1.0
484114.5714121,289948.0,304554.6875,308844.875,323297.0625,315480.21875,271647.03125,258043.125,271853.65625,-0.062255859375,0.840576171875,-0.538818359375,1.7395018339157104,7.537841320037842,2.319335699081421,60.0,1363098.0,1.0
484114.6141342,286910.5,304861.09375,309659.90625,324387.5625,316670.0625,271836.03125,259597.375,272373.71875,-0.062255859375,0.84228515625,-0.540771484375,1.9226073026657104,7.263183116912842,2.319335699081421,60.0,1363099.0,1.0
484114.6301139,286250.5,306416.9375,313694.9375,327072.5625,319496.5625,272060.71875,262083.0625,273186.0625,-0.061767578125,0.8427734375,-0.542724609375,2.075195074081421,6.958007335662842,2.349853277206421,60.0,1363100.0,1.0
484114.6301561,289091.5,307084.46875,315316.96875,327576.09375,319981.15625,272015.375,261982.03125,273149.78125,-0.0595703125,0.843017578125,-0.54345703125,2.197265386581421,6.774901866912842,2.349853277206421,60.0,1363101.0,1.0
484114.6301658,291408.65625,305960.0,312367.0625,325274.40625,317522.0,271774.78125,259508.421875,272337.875,-0.058837890625,0.843994140625,-0.543701171875,2.380370855331421,6.561278820037842,2.441406011581421,60.0,1363102.0,1.0
484114.6301751,289964.09375,304576.96875,308890.03125,323288.40625,315501.3125,271662.125,258060.015625,271858.125,-0.058349609375,0.843017578125,-0.544921875,2.563476324081421,6.347655773162842,2.593993902206421,60.0,1363103.0,1.0
484114.6325831,286923.375,304881.03125,309703.1875,324364.875,316681.78125,271835.59375,259607.65625,272366.375,-0.056640625,0.8447265625,-0.54736328125,2.624511480331421,6.134032726287842,2.746581792831421,60.0,1363104.0,1.0
484114.6350754,286258.90625,306432.5,313731.34375,327046.09375,319497.71875,272049.625,262084.671875,273175.34375,-0.053955078125,0.8447265625,-0.5458984375,2.685546636581421,5.981444835662842,2.777099370956421,60.0,1363105.0,1.0
484114.6399647,289110.96875,307115.5,315356.5625,327567.875,319990.4375,272009.03125,261990.53125,273149.59375,-0.053466796875,0.84521484375,-0.548583984375,2.746581792831421,5.920409679412842,2.746581792831421,60.0,1363106.0,1.0
484114.6538135,291430.8125,306002.09375,312418.125,325282.1875,317551.15625,271775.40625,259535.953125,272355.84375,-0.05078125,0.84375,-0.5478515625,2.746581792831421,5.767821788787842,2.899169683456421,60.0,1363107.0,1.0
484114.6563589,289969.03125,304601.0,308932.3125,323294.5625,315525.65625,271649.34375,258079.0625,271859.28125,-0.046875,0.84423828125,-0.5498046875,2.685546636581421,5.676269054412842,3.112792730331421,60.0,1363108.0,1.0
484114.6586293,286930.34375,304903.5625,309746.71875,324381.21875,316704.125,271822.625,259618.5625,272357.0,-0.045654296875,0.84814453125,-0.548583984375,2.716064214706421,5.554198741912842,3.173827886581421,60.0,1363109.0,1.0
484114.6613121,286287.0625,306471.84375,313795.15625,327085.0625,319539.9375,272055.25,262109.703125,273178.46875,-0.048095703125,0.850341796875,-0.548828125,2.532958745956421,5.554198741912842,3.326415777206421,60.0,1363110.0,1.0
484114.6638261,289137.875,307150.8125,315421.125,327618.375,320039.8125,272029.0625,262024.859375,273162.125,-0.046630859375,0.8515625,-0.546875,2.471923589706421,5.401610851287842,3.204345464706421,60.0,1363111.0,1.0
484114.6663616,291421.4375,306002.0,312445.84375,325311.78125,317571.625,271768.875,259541.234375,272341.8125,-0.045166015625,0.85205078125,-0.548828125,2.410888433456421,5.401610851287842,3.265380620956421,60.0,1363112.0,1.0
484114.6686277,289968.375,304616.5625,308966.65625,323334.1875,315550.78125,271637.0,258087.828125,271848.8125,-0.045166015625,0.85302734375,-0.5498046875,2.349853277206421,5.310058116912842,3.295898199081421,60.0,1363113.0,1.0
484114.6711858,286954.21875,304949.25,309812.4375,324438.34375,316751.25,271816.1875,259650.21875,272363.71875,-0.045654296875,0.853271484375,-0.548828125,2.166747808456421,5.157470226287842,3.265380620956421,60.0,1363114.0,1.0
484114.6736943,286293.59375,306503.40625,313844.34375,327118.5,319563.8125,272030.125,262121.515625,273167.84375,-0.045166015625,0.853271484375,-0.54931640625,1.9836424589157104,5.187987804412842,3.173827886581421,60.0,1363115.0,1.0
484114.6762176,289126.0,307175.9375,315456.4375,327631.78125,320056.53125,271996.25,262030.140625,273148.4375,-0.046630859375,0.851806640625,-0.551513671875,1.8005369901657104,5.035399913787842,3.082275152206421,60.0,1363116.0,1.0
484114.6788575,291417.5,306048.25,312488.03125,325330.8125,317603.65625,271763.53125,259571.171875,272350.46875,-0.0439453125,0.851318359375,-0.552001953125,1.6174315214157104,5.035399913787842,3.051757574081421,60.0,1363117.0,1.0
484114.6788979,289971.0625,304671.8125,309015.46875,323351.4375,315593.9375,271647.03125,258131.90625,271870.71875,-0.045654296875,0.84912109375,-0.5517578125,1.5258787870407104,4.943847179412842,2.960204839706421,60.0,1363118.0,1.0
484114.6812741,286945.4375,304994.3125,309850.4375,324428.53125,316779.5625,271797.125,259674.53125,272363.8125,-0.044677734375,0.849853515625,-0.55224609375,1.4343260526657104,4.852294445037842,2.807616949081421,60.0,1363119.0,1.0
484114.6836954,286313.4375,306573.0625,313913.46875,327123.59375,319618.59375,272010.8125,262169.53125,273182.0625,-0.04248046875,0.848876953125,-0.550048828125,1.3122557401657104,4.730224132537842,2.777099370956421,60.0,1363120.0,1.0
484114.6862129,289143.875,307235.5625,315524.03125,327630.625,320111.96875,271964.9375,262074.65625,273154.78125,-0.0439453125,0.85107421875,-0.552734375,1.2207030057907104,4.730224132537842,2.655029058456421,60.0,1363121.0,1.0
484114.6887675,291421.96875,306089.0,312540.25,325316.96875,317645.65625,271717.5625,259597.546875,272340.1875,-0.04052734375,0.848876953125,-0.550537109375,1.1291502714157104,4.699706554412842,2.624511480331421,60.0,1363122.0,1.0
484114.6888093,289974.375,304712.125,309073.59375,323340.34375,315636.875,271601.875,258155.421875,271857.5,-0.038330078125,0.847412109375,-0.55224609375,0.8544921278953552,4.730224132537842,2.593993902206421,60.0,1363123.0,1.0
484114.691308,286967.90625,305051.53125,309930.09375,324442.5625,316840.28125,271782.125,259715.390625,272376.5,-0.034423828125,0.845703125,-0.55078125,0.7324218153953552,4.638671398162842,2.563476324081421,60.0,1363124.0,1.0
484114.6937591,286344.09375,306631.53125,313999.75,327155.96875,319685.46875,272022.34375,262217.53125,273204.40625,-0.03515625,0.844970703125,-0.546875,0.6103515028953552,4.730224132537842,2.655029058456421,60.0,1363125.0,1.0
484114.6937987,289181.15625,307302.875,315619.96875,327679.53125,320183.9375,272000.71875,262131.265625,273183.03125,-0.034423828125,0.843994140625,-0.547607421875,0.5187987685203552,4.760741710662842,2.624511480331421,60.0,1363126.0,1.0
484114.696212,291455.6875,306159.28125,312644.40625,325371.3125,317725.5,271750.09375,259660.140625,272376.84375,-0.033447265625,0.84619140625,-0.548828125,0.3356933295726776,4.760741710662842,2.471923589706421,60.0,1363127.0,1.0
484114.6988687,289991.71875,304763.53125,309154.875,323378.4375,315697.75,271601.15625,258191.265625,271881.34375,-0.0322265625,0.845947265625,-0.548828125,0.1831054538488388,4.821776866912842,2.288818120956421,60.0,1363128.0,1.0
484114.6989104,286989.625,305102.9375,310014.5,324487.71875,316902.6875,271768.15625,259742.75,272392.84375,-0.0361328125,0.84423828125,-0.548583984375,0.0915527269244194,4.760741710662842,2.166747808456421,60.0,1363129.0,1.0
484114.7188117,286365.65625,306685.875,314079.40625,327198.25,319747.1875,271999.65625,262238.71875,273216.65625,-0.037109375,0.843017578125,-0.5498046875,-0.03051757626235485,4.760741710662842,2.227782964706421,60.0,1363130.0,1.0
484114.7188523,289188.59375,307342.84375,315670.65625,327708.5,320225.5,271969.25,262135.546875,273187.59375,-0.036865234375,0.840576171875,-0.55078125,-0.2136230319738388,4.791259288787842,2.197265386581421,60.0,1363131.0,1.0
484114.7238243,291443.96875,306176.96875,312660.0625,325374.28125,317737.125,271704.15625,259639.21875,272353.875,-0.03662109375,0.837890625,-0.55224609375,-0.3356933295726776,4.760741710662842,2.105712652206421,60.0,1363132.0,1.0
484114.7263669,290005.84375,304807.09375,309196.78125,323395.875,315734.15625,271596.78125,258200.484375,271878.40625,-0.0361328125,0.835693359375,-0.549560546875,-0.4272460639476776,4.760741710662842,2.136230230331421,60.0,1363133.0,1.0
484114.7286303,287007.84375,305143.0,310050.375,324492.09375,316934.25,271776.40625,259755.09375,272393.46875,-0.0361328125,0.836181640625,-0.551025390625,-0.3662109076976776,4.699706554412842,2.105712652206421,60.0,1363134.0,1.0
484114.7313039,286379.59375,306712.0,314102.03125,327183.875,319766.65625,272000.71875,262241.6875,273207.625,-0.036376953125,0.837890625,-0.553466796875,-0.2441406100988388,4.516601085662842,2.136230230331421,60.0,1363135.0,1.0
484114.733689,289207.34375,307361.34375,315695.53125,327689.1875,320244.90625,271963.625,262139.578125,273176.875,-0.0361328125,0.84130859375,-0.5556640625,-0.1220703050494194,4.516601085662842,2.105712652206421,60.0,1363136.0,1.0
484114.7361847,291486.34375,306207.125,312709.15625,325374.4375,317776.65625,271720.15625,259664.609375,272368.34375,-0.036376953125,0.842529296875,-0.55126953125,-0.0915527269244194,4.516601085662842,2.105712652206421,60.0,1363137.0,1.0
484114.7386621,290026.5,304808.15625,309226.46875,323380.9375,315749.96875,271594.8125,258208.890625,271877.96875,-0.036376953125,0.840576171875,-0.5458984375,-0.0915527269244194,4.364013195037842,2.044677495956421,60.0,1363138.0,1.0
484114.7386684,287024.65625,305144.0625,310084.0625,324474.5625,316951.6875,271770.03125,259764.03125,272394.09375,-0.036376953125,0.84130859375,-0.547119140625,-0.1220703050494194,4.455565929412842,1.9531248807907104,60.0,1363139.0,1.0
484114.7440685,286402.65625,306723.875,314143.78125,327176.53125,319793.40625,272007.78125,262258.40625,273220.40625,-0.03662109375,0.8408203125,-0.547119140625,-0.1831054538488388,4.364013195037842,1.8615721464157104,60.0,1363140.0,1.0
484114.7512769,289222.8125,307374.84375,315730.375,327676.9375,320268.15625,271965.40625,262152.8125,273186.53125,-0.036376953125,0.8408203125,-0.54736328125,-0.1525878757238388,4.302978038787842,1.9226073026657104,60.0,1363141.0,1.0
484114.7512914,291484.46875,306209.34375,312724.34375,325353.71875,317784.4375,271712.5625,259662.640625,272363.4375,-0.03564453125,0.840087890625,-0.548828125,-0.2441406100988388,4.150390148162842,1.8920897245407104,60.0,1363142.0,1.0
484114.7537329,290014.4375,304809.3125,309227.09375,323358.78125,315749.53125,271593.46875,258195.828125,271866.59375,-0.0361328125,0.84130859375,-0.549072265625,-0.1525878757238388,4.089354991912842,1.8005369901657104,60.0,1363143.0,1.0
484114.7560904,286997.40625,305133.25,310064.125,324442.46875,316935.6875,271767.625,259738.546875,272368.90625,-0.03564453125,0.843994140625,-0.54931640625,-0.2136230319738388,4.028319835662842,1.7395018339157104,60.0,1363144.0,1.0
484114.768721,286368.0625,306706.28125,314112.375,327144.0,319769.4375,271999.46875,262225.9375,273188.84375,-0.036865234375,0.84521484375,-0.54638671875,-0.1831054538488388,3.967284917831421,1.7700194120407104,60.0,1363145.0,1.0
484114.7712616,289189.84375,307352.40625,315692.46875,327654.875,320241.875,271958.96875,262117.21875,273159.25,-0.03662109375,0.847900390625,-0.549560546875,-0.2136230319738388,4.028319835662842,1.6174315214157104,60.0,1363146.0,1.0
484114.7712805,291476.96875,306207.1875,312707.8125,325361.5625,317779.0625,271726.875,259648.609375,272362.09375,-0.036865234375,0.849609375,-0.549072265625,-0.3356933295726776,3.967284917831421,1.6174315214157104,60.0,1363147.0,1.0
484114.7737928,290018.90625,304813.15625,309215.46875,323371.65625,315744.6875,271587.375,258180.359375,271865.8125,-0.037353515625,0.851318359375,-0.549072265625,-0.3967284858226776,3.967284917831421,1.5563963651657104,60.0,1363148.0,1.0
484114.7775435,287014.65625,305151.3125,310061.71875,324473.75,316941.75,271763.15625,259734.796875,272381.15625,-0.037841796875,0.85107421875,-0.546630859375,-0.5798339247703552,3.875732183456421,1.5258787870407104,60.0,1363149.0,1.0
484114.7937931,286375.75,306722.625,314104.875,327163.21875,319778.46875,271982.65625,262219.15625,273198.3125,-0.038330078125,0.852783203125,-0.54296875,-0.7324218153953552,3.784179449081421,1.4953612089157104,60.0,1363150.0,1.0
484114.7962568,289192.15625,307365.90625,315678.09375,327657.625,320247.84375,271937.25,262104.96875,273160.25,-0.038330078125,0.85205078125,-0.54345703125,-0.8239745497703552,3.723144292831421,1.3122557401657104,60.0,1363151.0,1.0
484114.7962927,291461.65625,306207.65625,312674.1875,325335.46875,317761.90625,271682.875,259615.4375,272336.25,-0.04052734375,0.8525390625,-0.544921875,-0.9155272841453552,3.814697027206421,1.2512205839157104,60.0,1363152.0,1.0
484114.7986816,290011.46875,304830.875,309198.03125,323350.375,315742.625,271569.6875,258161.59375,271850.5,-0.039794921875,0.85107421875,-0.5439453125,-1.1596678495407104,3.784179449081421,1.1901854276657104,60.0,1363153.0,1.0
484114.801314,286995.34375,305167.3125,310042.75,324437.90625,316939.4375,271752.4375,259713.6875,272365.75,-0.037841796875,0.851806640625,-0.544189453125,-1.2817381620407104,3.723144292831421,1.1596678495407104,60.0,1363154.0,1.0
484114.803842,286365.03125,306747.21875,314090.5625,327132.5625,319778.28125,271987.125,262206.28125,273193.84375,-0.03759765625,0.8515625,-0.547119140625,-1.4648436307907104,3.692626714706421,1.0986326932907104,60.0,1363155.0,1.0
484114.8075839,289185.0,307386.5625,315658.3125,327627.9375,320237.9375,271933.84375,262087.625,273154.6875,-0.03955078125,0.852294921875,-0.54345703125,-1.4343260526657104,3.601073980331421,1.0375975370407104,60.0,1363156.0,1.0
484114.8188442,291457.65625,306219.375,312657.1875,325314.625,317754.125,271674.65625,259601.046875,272338.75,-0.040283203125,0.850341796875,-0.543701171875,-1.4343260526657104,3.509521245956421,1.0070799589157104,60.0,1363157.0,1.0
484114.8188841,290003.875,304837.03125,309183.90625,323335.6875,315736.1875,271578.0,258160.6875,271863.65625,-0.039306640625,0.851806640625,-0.54736328125,-1.3122557401657104,3.509521245956421,1.0070799589157104,60.0,1363158.0,1.0
484114.8213482,286986.40625,305176.25,310029.09375,324425.21875,316933.0,271761.5625,259717.0,272374.0,-0.04248046875,0.8505859375,-0.547119140625,-1.3732908964157104,3.417968511581421,0.9765624403953552,60.0,1363159.0,1.0
484114.8213897,286342.75,306741.125,314062.21875,327108.0625,319758.25,271979.875,262195.53125,273182.40625,-0.0419921875,0.8525390625,-0.546875,-1.3732908964157104,3.479003667831421,0.7324218153953552,60.0,1363160.0,1.0
484114.8250794,289184.65625,307402.125,315654.75,327626.15625,320237.125,271943.0625,262097.28125,273160.59375,-0.041748046875,0.8544921875,-0.54248046875,-1.3732908964157104,3.509521245956421,0.7629393935203552,60.0,1363161.0,1.0
484114.8438677,291474.90625,306250.03125,312668.65625,325320.625,317761.53125,271688.25,259615.796875,272346.28125,-0.042236328125,0.852783203125,-0.544677734375,-1.4038084745407104,3.387450933456421,0.6713866591453552,60.0,1363162.0,1.0
484114.8439141,290020.6875,304864.84375,309194.46875,323339.375,315745.6875,271569.0625,258161.40625,271859.1875,-0.04296875,0.8525390625,-0.54248046875,-1.4343260526657104,3.356933355331421,0.6713866591453552,60.0,1363163.0,1.0
484114.8463942,287002.59375,305208.09375,310048.65625,324438.625,316957.40625,271759.75,259726.125,272381.40625,-0.04345703125,0.851318359375,-0.541015625,-1.5258787870407104,3.326415777206421,0.6408690810203552,60.0,1363164.0,1.0
484114.8464357,286379.40625,306800.15625,314106.9375,327146.59375,319807.25,271998.65625,262230.3125,273213.78125,-0.0439453125,0.84912109375,-0.538818359375,-1.6479490995407104,3.143310308456421,0.6408690810203552,60.0,1363165.0,1.0
484114.854728,289181.96875,307425.28125,315655.71875,327625.28125,320245.34375,271921.0625,262089.421875,273147.09375,-0.043701171875,0.8447265625,-0.536376953125,-1.6784666776657104,3.051757574081421,0.5493163466453552,60.0,1363166.0,1.0
484114.85477,291486.6875,306290.09375,312675.34375,325337.34375,317779.5,271682.25,259618.109375,272345.1875,-0.042724609375,0.84130859375,-0.533935546875,-1.7395018339157104,2.960204839706421,0.5493163466453552,60.0,1363167.0,1.0
484114.8613212,290027.84375,304902.5,309187.03125,323350.0,315755.40625,271561.28125,258160.0625,271860.96875,-0.041748046875,0.83642578125,-0.5361328125,-1.5563963651657104,3.051757574081421,0.4577636420726776,60.0,1363168.0,1.0
484114.8613622,286977.90625,305215.21875,310007.1875,324411.71875,316933.0,271727.9375,259695.1875,272354.21875,-0.0419921875,0.834716796875,-0.539306640625,-1.3427733182907104,2.960204839706421,0.5798339247703552,60.0,1363169.0,1.0
484114.8638052,286330.59375,306777.78125,314042.28125,327095.09375,319762.375,271946.625,262178.03125,273166.3125,-0.0419921875,0.83544921875,-0.5400390625,-1.1596678495407104,2.868652105331421,0.5187987685203552,60.0,1363170.0,1.0
484114.8701346,289166.84375,307424.84375,315619.4375,327595.9375,320227.46875,271902.90625,262066.34375,273130.1875,-0.04248046875,0.83837890625,-0.538330078125,-0.8544921278953552,2.868652105331421,0.5187987685203552,60.0,1363171.0,1.0
484114.8701741,291465.59375,306278.0,312637.4375,325294.6875,317755.09375,271666.0625,259591.109375,272321.0625,-0.041259765625,0.839111328125,-0.53955078125,-0.7019042372703552,2.777099370956421,0.5798339247703552,60.0,1363172.0,1.0
484114.8963451,290019.09375,304902.5,309167.5625,323315.6875,315741.375,271563.34375,258148.359375,271846.65625,-0.04296875,0.841552734375,-0.538818359375,-0.5187987685203552,2.838134527206421,0.6103515028953552,60.0,1363173.0,1.0
484114.8963863,286996.6875,305235.34375,310017.1875,324409.5625,316949.09375,271747.25,259711.546875,272364.875,-0.040283203125,0.845947265625,-0.5390625,-0.4577636420726776,2.807616949081421,0.7934569716453552,60.0,1363174.0,1.0
484114.9039563,286349.375,306794.53125,314055.71875,327099.03125,319777.5625,271976.3125,262199.46875,273179.1875,-0.040283203125,0.844970703125,-0.53515625,-0.2746581733226776,2.746581792831421,0.9155272841453552,60.0,1363175.0,1.0
484114.9039952,289186.96875,307436.5625,315634.4375,327609.53125,320241.3125,271936.96875,262090.671875,273143.34375,-0.04345703125,0.847412109375,-0.534423828125,-0.2441406100988388,2.746581792831421,0.9460448622703552,60.0,1363176.0,1.0
484114.9040039,291491.34375,306290.96875,312659.0625,325311.96875,317771.28125,271688.25,259612.84375,272329.90625,-0.047607421875,0.847412109375,-0.531005859375,-0.3356933295726776,2.655029058456421,0.8850097060203552,60.0,1363177.0,1.0
484114.904013,290028.46875,304894.625,309181.3125,323321.40625,315744.5,271567.71875,258150.59375,271837.09375,-0.051025390625,0.84765625,-0.5302734375,-0.3662109076976776,2.563476324081421,0.8544921278953552,60.0,1363178.0,1.0
484114.906242,286998.65625,305224.875,310028.1875,324413.15625,316944.875,271747.5,259702.0625,272350.46875,-0.052734375,0.84619140625,-0.5341796875,-0.3967284858226776,2.502441167831421,0.8544921278953552,60.0,1363179.0,1.0
484114.9062772,286369.59375,306807.03125,314092.625,327121.90625,319798.125,271987.03125,262207.0625,273182.40625,-0.056396484375,0.845947265625,-0.534423828125,-0.3662109076976776,2.258300542831421,0.6713866591453552,60.0,1363180.0,1.0
484114.908851,289198.6875,307441.65625,315667.96875,327620.53125,320258.3125,271933.21875,262087.53125,273137.53125,-0.05859375,0.84130859375,-0.53662109375,-0.3967284858226776,2.044677495956421,0.6103515028953552,60.0,1363181.0,1.0
484114.9113396,291468.0,306256.71875,312652.1875,325293.90625,317749.71875,271676.4375,259580.484375,272305.40625,-0.058837890625,0.8408203125,-0.533935546875,-0.3051757514476776,1.7395018339157104,0.3967284858226776,60.0,1363182.0,1.0
484114.9188487,290018.375,304878.875,309180.4375,323315.0625,315733.96875,271581.5625,258133.515625,271835.5,-0.057861328125,0.842529296875,-0.534423828125,-0.2136230319738388,1.4343260526657104,0.2441406100988388,60.0,1363183.0,1.0
484114.9213355,286988.0,305215.6875,310028.46875,324399.71875,316936.9375,271761.8125,259686.515625,272350.9375,-0.057373046875,0.84521484375,-0.535888671875,-0.0610351525247097,1.0986326932907104,0.1525878757238388,60.0,1363184.0,1.0
484114.9238329,286338.90625,306774.03125,314065.09375,327081.6875,319762.1875,271975.25,262165.3125,273157.46875,-0.05517578125,0.8486328125,-0.5361328125,0.0610351525247097,0.9155272841453552,0.0,60.0,1363185.0,1.0
484114.9276165,289183.84375,307426.0,315653.21875,327592.71875,320237.40625,271935.90625,262058.21875,273127.875,-0.05517578125,0.852294921875,-0.532470703125,-0.03051757626235485,0.7324218153953552,-0.0915527269244194,60.0,1363186.0,1.0
484114.9438262,291465.40625,306252.1875,312643.625,325268.9375,317738.8125,271686.0,259556.609375,272304.0625,-0.0537109375,0.853271484375,-0.531494140625,-0.0610351525247097,0.5493163466453552,-0.1525878757238388,60.0,1363187.0,1.0
484115.0090831,290014.96875,304864.03125,309157.375,323282.0625,315711.15625,271580.0625,258097.9375,271825.9375,-0.053466796875,0.854248046875,-0.53515625,-0.0915527269244194,0.3356933295726776,-0.2746581733226776,60.0,1363188.0,1.0
484115.0091238,287006.15625,305219.6875,310022.8125,324389.1875,316930.59375,271775.0625,259667.015625,272359.9375,-0.05126953125,0.85693359375,-0.534912109375,-0.1525878757238388,0.2441406100988388,-0.3051757514476776,60.0,1363189.0,1.0
484115.0091343,286359.03125,306780.46875,314067.59375,327080.4375,319761.46875,271981.3125,262147.71875,273168.5625,-0.052490234375,0.858642578125,-0.53369140625,-0.2746581733226776,0.0915527269244194,-0.1831054538488388,60.0,1363190.0,1.0
484115.0226251,289186.53125,307410.96875,315641.0625,327579.5,320218.78125,271920.53125,262027.015625,273115.96875,-0.053955078125,0.857666015625,-0.535400390625,-0.3967284858226776,0.0610351525247097,-0.1220703050494194,60.0,1363191.0,1.0
484115.0226651,291457.90625,306229.28125,312622.96875,325252.6875,317711.71875,271667.0625,259523.171875,272286.8125,-0.052734375,0.857421875,-0.53564453125,-0.6713866591453552,0.0,-0.1525878757238388,60.0,1363192.0,1.0
484115.0251109,290011.84375,304851.78125,309145.28125,323273.65625,315694.8125,271567.0,258078.265625,271815.8125,-0.05419921875,0.858154296875,-0.533935546875,-0.7934569716453552,0.0915527269244194,-0.0610351525247097,60.0,1363193.0,1.0
484115.0275672,286981.3125,305190.09375,309995.03125,324371.3125,316903.0625,271753.9375,259637.78125,272336.625,-0.0556640625,0.857177734375,-0.53369140625,-0.8239745497703552,-0.03051757626235485,0.1525878757238388,60.0,1363194.0,1.0
484115.0326192,286347.75,306765.09375,314064.1875,327085.25,319757.1875,271978.625,262140.015625,273164.53125,-0.0556640625,0.85693359375,-0.53173828125,-0.9765624403953552,-0.0915527269244194,0.1525878757238388,60.0,1363195.0,1.0
484115.0351184,289198.59375,307418.40625,315663.59375,327603.8125,320239.71875,271927.59375,262037.828125,273132.15625,-0.05517578125,0.85400390625,-0.53369140625,-1.0986326932907104,-0.2136230319738388,0.2136230319738388,60.0,1363196.0,1.0
484115.0374685,291486.875,306252.8125,312659.625,325280.21875,317743.21875,271670.71875,259542.390625,272304.6875,-0.05615234375,0.855224609375,-0.53173828125,-1.1291502714157104,-0.2136230319738388,0.2746581733226776,60.0,1363197.0,1.0
484115.0399503,290028.28125,304867.625,309175.78125,323290.625,315715.1875,271571.28125,258088.546875,271824.3125,-0.053466796875,0.853271484375,-0.533935546875,-1.2512205839157104,-0.3051757514476776,0.3967284858226776,60.0,1363198.0,1.0
484115.0450835,286997.5,305211.46875,310033.5625,324387.5625,316925.5,271758.4375,259649.765625,272346.0,-0.05517578125,0.854736328125,-0.533447265625,-1.2512205839157104,-0.3356933295726776,0.3967284858226776,60.0,1363199.0,1.0
484115.0474832,286344.46875,306772.78125,314078.59375,327074.25,319753.6875,271964.78125,262129.109375,273149.875,-0.0556640625,0.853271484375,-0.53271484375,-1.3427733182907104,-0.5187987685203552,0.4882812201976776,60.0,1363200.0,1.0
484115.0526193,289203.78125,307437.34375,315677.53125,327592.71875,320236.9375,271936.0,262037.46875,273132.96875,-0.05712890625,0.853515625,-0.53271484375,-1.4648436307907104,-0.5798339247703552,0.5493163466453552,60.0,1363201.0,1.0
484115.0549409,291493.21875,306279.25,312668.03125,325269.5625,317740.96875,271694.6875,259545.15625,272316.78125,-0.056884765625,0.853515625,-0.531494140625,-1.6174315214157104,-0.5798339247703552,0.6103515028953552,60.0,1363202.0,1.0
484115.057573,290017.75,304881.65625,309164.4375,323262.03125,315700.0625,271566.8125,258076.390625,271823.15625,-0.057861328125,0.853759765625,-0.532470703125,-1.7089842557907104,-0.6103515028953552,0.7324218153953552,60.0,1363203.0,1.0
484115.0625352,286997.84375,305233.75,310031.59375,324379.34375,316928.15625,271770.75,259656.03125,272360.59375,-0.057373046875,0.852294921875,-0.531005859375,-1.7700194120407104,-0.6713866591453552,0.8239745497703552,60.0,1363204.0,1.0
484115.0649251,286355.1875,306800.875,314086.1875,327087.21875,319771.40625,271990.4375,262149.75,273177.03125,-0.056640625,0.851318359375,-0.5322265625,-1.8310545682907104,-0.7934569716453552,0.7019042372703552,60.0,1363205.0,1.0
484115.0666407,289169.28125,307414.8125,315637.65625,327560.28125,320207.34375,271908.4375,262005.1875,273101.21875,-0.056640625,0.85107421875,-0.5341796875,-1.7395018339157104,-0.8239745497703552,0.7324218153953552,60.0,1363206.0,1.0
484115.0788078,291459.875,306249.9375,312632.4375,325235.6875,317714.0625,271651.21875,259508.953125,272277.34375,-0.053955078125,0.85107421875,-0.532470703125,-1.7395018339157104,-0.9155272841453552,0.7019042372703552,60.0,1363207.0,1.0
484115.0813539,290015.78125,304876.1875,309158.71875,323266.40625,315700.4375,271551.0,258069.140625,271812.78125,-0.056640625,0.850341796875,-0.53125,-1.7089842557907104,-0.9765624403953552,0.8239745497703552,60.0,1363208.0,1.0
484115.0836043,286972.4375,305205.84375,310000.28125,324372.8125,316906.96875,271733.5625,259631.078125,272334.65625,-0.0546875,0.847900390625,-0.530517578125,-1.7395018339157104,-0.9155272841453552,0.7934569716453552,60.0,1363209.0,1.0
484115.0862754,286332.65625,306780.46875,314057.5,327094.625,319757.28125,271959.78125,262133.84375,273156.9375,-0.0537109375,0.84716796875,-0.53125,-1.8005369901657104,-0.8850097060203552,0.8850097060203552,60.0,1363210.0,1.0
484115.0888094,289201.09375,307451.46875,315663.5,327622.40625,320246.5,271929.90625,262044.265625,273136.0,-0.05126953125,0.846923828125,-0.5341796875,-1.7089842557907104,-0.8544921278953552,0.7629393935203552,60.0,1363211.0,1.0
484115.091253,291506.375,306307.78125,312666.84375,325302.03125,317756.34375,271674.375,259549.90625,272315.4375,-0.05029296875,0.845703125,-0.531005859375,-1.5869139432907104,-0.7019042372703552,0.6713866591453552,60.0,1363212.0,1.0
484115.0912929,290043.125,304921.53125,309177.65625,323311.21875,315730.03125,271561.0,258091.9375,271831.125,-0.051025390625,0.846435546875,-0.53271484375,-1.5869139432907104,-0.7019042372703552,0.7629393935203552,60.0,1363213.0,1.0
484115.0936537,287003.75,305251.875,310027.90625,324424.5,316950.4375,271757.25,259667.65625,272360.59375,-0.051025390625,0.84716796875,-0.53271484375,-1.5563963651657104,-0.7324218153953552,0.8850097060203552,60.0,1363214.0,1.0
484115.0977361,286354.75,306803.8125,314075.90625,327135.59375,319791.53125,271981.9375,262165.59375,273175.15625,-0.05029296875,0.847900390625,-0.533935546875,-1.4953612089157104,-0.7019042372703552,0.9155272841453552,60.0,1363215.0,1.0
484115.0977774,289216.84375,307452.71875,315664.65625,327644.65625,320259.125,271936.0,262052.84375,273136.625,-0.051025390625,0.849609375,-0.534912109375,-1.4648436307907104,-0.6713866591453552,1.0070799589157104,60.0,1363216.0,1.0
484115.0977873,291556.71875,306328.0,312696.90625,325346.28125,317797.65625,271714.0,259582.890625,272347.625,-0.0517578125,0.850341796875,-0.532958984375,-1.4038084745407104,-0.6103515028953552,0.9765624403953552,60.0,1363217.0,1.0
484115.099937,290074.0625,304908.21875,309170.78125,323323.4375,315733.59375,271590.6875,258096.40625,271841.46875,-0.052001953125,0.850341796875,-0.532470703125,-1.3122557401657104,-0.4577636420726776,1.0070799589157104,60.0,1363218.0,1.0
484115.1024827,287000.25,305200.46875,309969.90625,324396.25,316900.8125,271754.40625,259630.1875,272327.78125,-0.051513671875,0.849853515625,-0.531982421875,-1.3732908964157104,-0.4577636420726776,1.0375975370407104,60.0,1363219.0,1.0
484115.1049854,286380.40625,306783.96875,314037.8125,327131.03125,319765.0625,271987.9375,262149.21875,273161.03125,-0.052001953125,0.851318359375,-0.53076171875,-1.2817381620407104,-0.3662109076976776,1.0375975370407104,60.0,1363220.0,1.0
484115.1050273,289284.4375,307470.78125,315658.5,327679.8125,320266.625,271972.1875,262066.96875,273159.6875,-0.052490234375,0.853271484375,-0.533935546875,-1.3732908964157104,-0.2746581733226776,1.0070799589157104,60.0,1363221.0,1.0
484115.1076577,291620.375,306336.40625,312676.15625,325366.5,317789.15625,271734.46875,259581.1875,272348.6875,-0.0537109375,0.853271484375,-0.531005859375,-1.3732908964157104,-0.1831054538488388,1.0070799589157104,60.0,1363222.0,1.0
484115.1077043,290127.90625,304913.9375,309144.75,323333.28125,315720.09375,271595.0,258088.09375,271837.625,-0.055419921875,0.853759765625,-0.53173828125,-1.3732908964157104,-0.2136230319738388,0.9765624403953552,60.0,1363223.0,1.0
484115.1099463,287094.84375,305256.8125,310000.90625,324457.125,316952.65625,271800.625,259677.390625,272384.09375,-0.056640625,0.855224609375,-0.53271484375,-1.5563963651657104,-0.1525878757238388,0.9155272841453552,60.0,1363224.0,1.0
484115.1149404,286432.96875,306801.75,314035.3125,327161.78125,319785.4375,272018.78125,262170.15625,273195.1875,-0.0556640625,0.852783203125,-0.534912109375,-1.6174315214157104,-0.0915527269244194,0.8850097060203552,60.0,1363225.0,1.0
484115.1175644,289313.5625,307469.4375,315627.125,327680.6875,320256.34375,271991.96875,262064.375,273169.1875,-0.05615234375,0.852783203125,-0.53369140625,-1.6479490995407104,-0.2746581733226776,0.7019042372703552,60.0,1363226.0,1.0
484115.1201231,291656.65625,306353.1875,312657.125,325380.71875,317791.5625,271768.875,259594.15625,272376.9375,-0.05322265625,0.8525390625,-0.5341796875,-1.7089842557907104,-0.1220703050494194,0.7019042372703552,60.0,1363227.0,1.0
484115.1201639,290187.625,304960.40625,309164.4375,323379.78125,315760.96875,271638.0,258129.9375,271883.59375,-0.054443359375,0.852294921875,-0.53125,-1.6479490995407104,-0.1220703050494194,0.7019042372703552,60.0,1363228.0,1.0
484115.1226229,287113.4375,305267.28125,309982.6875,324470.8125,316956.15625,271805.09375,259685.4375,272392.75,-0.052490234375,0.851318359375,-0.5341796875,-1.7395018339157104,-0.1525878757238388,0.7019042372703552,60.0,1363229.0,1.0
484115.122666,286430.03125,306794.15625,313993.9375,327152.5,319770.40625,271995.625,262158.78125,273177.03125,-0.052734375,0.853759765625,-0.532958984375,-1.7089842557907104,-0.2136230319738388,0.6713866591453552,60.0,1363230.0,1.0
484115.1276158,289311.25,307457.28125,315590.375,327671.5,320247.59375,271962.8125,262056.421875,273146.90625,-0.054931640625,0.854736328125,-0.535400390625,-1.6784666776657104,-0.0610351525247097,0.6713866591453552,60.0,1363231.0,1.0
484115.1325748,291667.3125,306343.375,312636.0,325374.53125,317795.59375,271750.8125,259593.4375,272362.625,-0.053955078125,0.8544921875,-0.534912109375,-1.6784666776657104,-0.0610351525247097,0.6713866591453552,60.0,1363232.0,1.0
484115.1351224,290179.46875,304925.09375,309126.0625,323354.03125,315741.46875,271619.9375,258110.453125,271851.6875,-0.056396484375,0.8525390625,-0.532470703125,-1.7089842557907104,-0.03051757626235485,0.7019042372703552,60.0,1363233.0,1.0
484115.1351646,287112.5625,305240.0,309959.4375,324468.125,316946.59375,271800.1875,259683.296875,272376.59375,-0.055908203125,0.850830078125,-0.532958984375,-1.8005369901657104,-0.0915527269244194,0.7629393935203552,60.0,1363234.0,1.0
484115.137459,286481.0625,306819.46875,314023.53125,327215.6875,319816.8125,272041.84375,262216.09375,273214.15625,-0.0556640625,0.84814453125,-0.534912109375,-1.8920897245407104,0.0,0.7629393935203552,60.0,1363235.0,1.0
484115.1401324,289388.9375,307510.5,315648.59375,327757.21875,320318.65625,272026.03125,262133.9375,273203.25,-0.05419921875,0.84912109375,-0.53515625,-1.7089842557907104,-0.0915527269244194,0.7934569716453552,60.0,1363236.0,1.0
484115.1401743,291696.625,306351.15625,312641.8125,325409.84375,317806.25,271775.5,259616.5,272371.5625,-0.0537109375,0.849365234375,-0.5361328125,-1.7089842557907104,0.0,0.7324218153953552,60.0,1363237.0,1.0
484115.1426228,290217.9375,304951.84375,309149.9375,323402.5625,315766.5,271652.65625,258150.234375,271878.6875,-0.0517578125,0.84912109375,-0.5341796875,-1.5563963651657104,0.2136230319738388,0.6713866591453552,60.0,1363238.0,1.0
484115.1526144,287137.59375,305262.15625,309984.125,324515.53125,316978.96875,271833.53125,259725.40625,272402.15625,-0.0498046875,0.84912109375,-0.536376953125,-1.5869139432907104,0.2441406100988388,0.7934569716453552,60.0,1363239.0,1.0
484115.1549387,286471.9375,306810.25,314007.25,327230.625,319814.9375,272055.6875,262226.46875,273222.46875,-0.049560546875,0.8486328125,-0.537841796875,-1.4648436307907104,0.2441406100988388,0.8850097060203552,60.0,1363240.0,1.0
484115.1576622,289369.4375,307491.1875,315624.78125,327750.25,320309.375,272004.75,262127.234375,273190.09375,-0.051025390625,0.85009765625,-0.535888671875,-1.4953612089157104,0.3051757514476776,1.0070799589157104,60.0,1363241.0,1.0
484115.1577033,291712.8125,306365.0,312666.59375,325424.59375,317840.125,271769.34375,259637.421875,272381.40625,-0.051513671875,0.851318359375,-0.53466796875,-1.6174315214157104,0.3356933295726776,1.0681151151657104,60.0,1363242.0,1.0
484115.1624515,290293.125,305018.28125,309233.09375,323470.09375,315859.5,271712.8125,258225.15625,271949.5625,-0.052001953125,0.8505859375,-0.53271484375,-1.6174315214157104,0.4577636420726776,1.2512205839157104,60.0,1363243.0,1.0
484115.1649542,287167.0,305277.625,310010.5625,324529.375,317018.28125,271847.65625,259752.234375,272423.4375,-0.051025390625,0.849609375,-0.53515625,-1.5258787870407104,0.5493163466453552,1.3732908964157104,60.0,1363244.0,1.0
484115.1672082,286512.8125,306837.6875,314052.5625,327251.09375,319875.03125,272071.625,262268.125,273248.21875,-0.049560546875,0.85107421875,-0.534912109375,-1.5563963651657104,0.7019042372703552,1.3122557401657104,60.0,1363245.0,1.0
484115.167249,289390.375,307496.53125,315646.78125,327745.78125,320339.9375,272022.71875,262151.09375,273205.46875,-0.0498046875,0.8505859375,-0.534912109375,-1.3732908964157104,0.7934569716453552,1.4038084745407104,60.0,1363246.0,1.0
484115.1736196,291695.46875,306330.40625,312639.3125,325374.4375,317814.65625,271753.78125,259613.734375,272348.40625,-0.04931640625,0.849853515625,-0.532958984375,-1.4343260526657104,0.8850097060203552,1.4038084745407104,60.0,1363247.0,1.0
484115.1761971,290225.4375,304938.96875,309153.34375,323375.3125,315780.53125,271647.75,258153.265625,271866.25,-0.05078125,0.8486328125,-0.535400390625,-1.3122557401657104,0.9765624403953552,1.4953612089157104,60.0,1363248.0,1.0
484115.1787879,287134.46875,305244.03125,309973.375,324476.4375,316985.125,271810.71875,259723.796875,272382.9375,-0.050537109375,0.85107421875,-0.535888671875,-1.3427733182907104,1.1901854276657104,1.5869139432907104,60.0,1363249.0,1.0
484115.1825434,286493.59375,306821.34375,314030.65625,327220.78125,319856.6875,272058.125,262258.65625,273228.4375,-0.04833984375,0.852294921875,-0.53564453125,-1.4343260526657104,1.2512205839157104,1.5869139432907104,60.0,1363250.0,1.0
484115.1825852,289403.0625,307506.1875,315649.5625,327746.59375,320342.8125,272026.375,262158.0,273198.40625,-0.04833984375,0.85107421875,-0.533935546875,-1.4343260526657104,1.3122557401657104,1.5869139432907104,60.0,1363251.0,1.0
484115.2188175,291748.3125,306384.59375,312691.875,325417.0,317861.65625,271774.4375,259658.0,272379.1875,-0.048095703125,0.846923828125,-0.533203125,-1.4648436307907104,1.4038084745407104,1.5563963651657104,60.0,1363252.0,1.0
484115.2213566,290286.40625,305003.0625,309229.0625,323421.1875,315847.40625,271660.25,258204.140625,271896.8125,-0.046875,0.84765625,-0.532958984375,-1.5258787870407104,1.5563963651657104,1.6174315214157104,60.0,1363253.0,1.0
484115.221398,287200.78125,305315.0,310059.65625,324540.5625,317068.09375,271854.1875,259787.90625,272428.34375,-0.044921875,0.84619140625,-0.53759765625,-1.4648436307907104,1.6479490995407104,1.5563963651657104,60.0,1363254.0,1.0
484115.2238839,286505.3125,306840.46875,314053.8125,327241.0,319886.46875,272056.78125,262270.71875,273226.75,-0.05078125,0.84326171875,-0.537109375,-1.3732908964157104,1.8920897245407104,1.5563963651657104,60.0,1363255.0,1.0
484115.2239267,289397.78125,307503.0625,315640.25,327744.90625,320344.21875,272014.84375,262145.21875,273176.40625,-0.046875,0.843994140625,-0.537353515625,-1.0375975370407104,1.9531248807907104,1.5258787870407104,60.0,1363256.0,1.0
484115.2262939,291757.5,306391.28125,312686.71875,325429.0,317865.15625,271784.34375,259652.71875,272369.25,-0.0419921875,0.843505859375,-0.534423828125,-0.8544921278953552,2.075195074081421,1.5869139432907104,60.0,1363257.0,1.0
484115.2312859,290284.25,305003.25,309212.25,323430.21875,315837.21875,271663.90625,258187.78125,271877.6875,-0.044921875,0.84423828125,-0.532470703125,-0.5798339247703552,2.197265386581421,1.6784666776657104,60.0,1363258.0,1.0
484115.233824,287193.90625,305313.5,310046.6875,324551.375,317058.625,271849.53125,259774.84375,272411.0,-0.044921875,0.84375,-0.53271484375,-0.4882812201976776,2.349853277206421,1.6174315214157104,60.0,1363259.0,1.0
484115.2363444,286507.4375,306842.34375,314050.15625,327251.8125,319887.8125,272057.125,262272.34375,273224.6875,-0.04443359375,0.843017578125,-0.53564453125,-0.2136230319738388,2.563476324081421,1.5563963651657104,60.0,1363260.0,1.0
484115.2386638,289409.3125,307517.0,315656.28125,327760.1875,320365.4375,272016.53125,262164.4375,273191.09375,-0.045654296875,0.843505859375,-0.53564453125,-0.0610351525247097,2.777099370956421,1.4953612089157104,60.0,1363261.0,1.0
484115.241322,291758.3125,306392.1875,312698.59375,325426.75,317883.5,271771.125,259660.671875,272363.875,-0.045166015625,0.84521484375,-0.53369140625,0.0610351525247097,2.868652105331421,1.5563963651657104,60.0,1363262.0,1.0
484115.2436801,290286.5,305004.21875,309233.28125,323437.625,315864.21875,271668.5625,258205.484375,271887.53125,-0.048828125,0.844970703125,-0.53466796875,0.1831054538488388,2.960204839706421,1.5258787870407104,60.0,1363263.0,1.0
484115.2437207,287169.25,305290.15625,310045.53125,324535.53125,317065.15625,271840.3125,259772.515625,272405.46875,-0.04736328125,0.844970703125,-0.531494140625,0.2746581733226776,3.082275152206421,1.6174315214157104,60.0,1363264.0,1.0
484115.2513217,286481.4375,306823.75,314053.46875,327240.90625,319900.25,272062.125,262277.96875,273224.6875,-0.0478515625,0.844970703125,-0.52978515625,0.3967284858226776,3.234863042831421,1.4953612089157104,60.0,1363265.0,1.0
484115.2538292,289397.34375,307507.28125,315665.3125,327760.71875,320383.3125,272032.46875,262180.0,273202.0,-0.047607421875,0.8466796875,-0.530517578125,0.5798339247703552,3.234863042831421,1.3732908964157104,60.0,1363266.0,1.0
484115.2563108,291744.1875,306374.75,312703.34375,325425.0625,317895.5625,271782.46875,259673.28125,272379.96875,-0.0478515625,0.8486328125,-0.5341796875,0.6408690810203552,3.234863042831421,1.3732908964157104,60.0,1363267.0,1.0
484115.2563509,290260.21875,304974.8125,309224.875,323421.1875,315862.71875,271657.84375,258206.5625,271890.46875,-0.049560546875,0.848876953125,-0.53125,0.7934569716453552,3.173827886581421,1.1291502714157104,60.0,1363268.0,1.0
484115.2586001,287131.3125,305248.3125,310018.625,324503.09375,317046.375,271816.34375,259758.390625,272386.25,-0.048095703125,0.85009765625,-0.53466796875,0.9460448622703552,3.295898199081421,1.0681151151657104,60.0,1363269.0,1.0
484115.268372,286456.65625,306795.6875,314032.0,327225.875,319883.0625,272043.4375,262267.6875,273217.71875,-0.048095703125,0.85009765625,-0.533935546875,1.0375975370407104,3.234863042831421,1.1596678495407104,60.0,1363270.0,1.0
484115.2684119,289377.0625,307490.375,315649.90625,327754.65625,320373.75,272010.28125,262170.96875,273198.40625,-0.048828125,0.851318359375,-0.535400390625,1.0986326932907104,3.326415777206421,1.0375975370407104,60.0,1363271.0,1.0
484115.275094,291728.53125,306364.375,312696.4375,325429.875,317896.09375,271773.53125,259674.359375,272381.5,-0.046630859375,0.8515625,-0.534912109375,1.1596678495407104,3.326415777206421,1.1596678495407104,60.0,1363272.0,1.0
484115.2751371,290246.90625,304968.90625,309231.125,323429.5,315876.5625,271655.6875,258216.578125,271897.71875,-0.046875,0.852783203125,-0.53515625,1.2512205839157104,3.479003667831421,1.0681151151657104,60.0,1363273.0,1.0
484115.2813522,287138.03125,305265.5625,310046.25,324529.375,317077.21875,271836.46875,259782.453125,272412.625,-0.047607421875,0.8525390625,-0.53466796875,1.3427733182907104,3.479003667831421,1.0681151151657104,60.0,1363274.0,1.0
484115.2813934,286466.3125,306814.1875,314058.21875,327246.8125,319915.875,272067.5,262284.59375,273230.6875,-0.047607421875,0.853759765625,-0.536376953125,1.3427733182907104,3.570556402206421,1.0681151151657104,60.0,1363275.0,1.0
484115.3183507,289373.375,307492.96875,315664.21875,327768.3125,320396.34375,272025.125,262177.84375,273194.03125,-0.044921875,0.85302734375,-0.5322265625,1.3427733182907104,3.509521245956421,1.1291502714157104,60.0,1363276.0,1.0
484115.3183893,291689.03125,306333.90625,312675.15625,325413.4375,317883.03125,271755.46875,259652.453125,272350.65625,-0.044921875,0.854248046875,-0.535400390625,1.3427733182907104,3.479003667831421,1.2512205839157104,60.0,1363277.0,1.0
484115.3638246,290211.3125,304943.34375,309210.5625,323413.03125,315863.96875,271641.9375,258199.859375,271871.625,-0.046875,0.855224609375,-0.53515625,1.2512205839157104,3.448486089706421,1.2817381620407104,60.0,1363278.0,1.0
484115.3638475,287120.40625,305250.0,310049.09375,324523.125,317083.1875,271827.0,259781.546875,272402.15625,-0.047119140625,0.854248046875,-0.5361328125,1.1901854276657104,3.448486089706421,1.3122557401657104,60.0,1363279.0,1.0
484115.3638519,286432.34375,306776.46875,314042.75,327215.59375,319901.03125,272043.0,262267.15625,273210.03125,-0.048095703125,0.85595703125,-0.5361328125,1.1901854276657104,3.479003667831421,1.2207030057907104,60.0,1363280.0,1.0
484115.3762549,289331.8125,307446.5625,315634.8125,327728.0,320368.375,272007.78125,262156.75,273178.46875,-0.05078125,0.85302734375,-0.53759765625,1.2817381620407104,3.479003667831421,1.2207030057907104,60.0,1363281.0,1.0
484115.3762942,291656.46875,306299.03125,312657.1875,325388.125,317867.125,271748.9375,259646.8125,272346.375,-0.050537109375,0.852294921875,-0.536865234375,1.1291502714157104,3.417968511581421,1.1901854276657104,60.0,1363282.0,1.0
484115.3763019,290201.84375,304937.875,309226.125,323417.25,315881.40625,271647.75,258223.09375,271883.40625,-0.04931640625,0.849853515625,-0.53564453125,0.9460448622703552,3.326415777206421,1.3427733182907104,60.0,1363283.0,1.0
484115.3763089,287078.84375,305215.21875,310032.03125,324492.71875,317065.59375,271813.5,259773.6875,272377.125,-0.047607421875,0.85107421875,-0.537109375,1.0681151151657104,3.234863042831421,1.2207030057907104,60.0,1363284.0,1.0
484115.3763175,286383.78125,306736.3125,314019.3125,327179.21875,319875.125,272022.34375,262251.0625,273179.28125,-0.048828125,0.85009765625,-0.534423828125,1.0681151151657104,3.051757574081421,1.2817381620407104,60.0,1363285.0,1.0
484115.3788442,289299.0,307420.90625,315624.875,327704.3125,320360.3125,271988.125,262151.5625,273165.0625,-0.0458984375,0.849609375,-0.5361328125,1.0681151151657104,3.051757574081421,1.2817381620407104,60.0,1363286.0,1.0
484115.3811783,291632.875,306288.75,312656.21875,325371.9375,317874.90625,271734.28125,259647.984375,272341.09375,-0.04443359375,0.849365234375,-0.5361328125,1.0375975370407104,2.960204839706421,1.3122557401657104,60.0,1363287.0,1.0
484115.3837017,290123.15625,304880.3125,309169.875,323358.59375,315832.84375,271598.65625,258170.625,271831.03125,-0.04248046875,0.851806640625,-0.53759765625,0.8544921278953552,2.868652105331421,1.2817381620407104,60.0,1363288.0,1.0
484115.3863423,287017.6875,305183.65625,309995.5625,324455.96875,317036.1875,271773.625,259736.578125,272346.8125,-0.041259765625,0.85205078125,-0.537353515625,0.7629393935203552,2.929687261581421,1.3122557401657104,60.0,1363289.0,1.0
484115.3887172,286354.90625,306734.34375,314009.75,327166.25,319877.34375,271997.84375,262236.84375,273172.125,-0.041259765625,0.85107421875,-0.536376953125,0.6103515028953552,2.960204839706421,1.4343260526657104,60.0,1363290.0,1.0
484115.3912501,289276.90625,307424.9375,315617.46875,327702.25,320369.53125,271984.1875,262144.5,273166.5,-0.041259765625,0.85107421875,-0.537109375,0.5493163466453552,3.021239995956421,1.6174315214157104,60.0,1363291.0,1.0
484115.3938022,291601.84375,306284.71875,312642.34375,325370.4375,317876.96875,271732.3125,259641.359375,272339.5625,-0.04541015625,0.852783203125,-0.53515625,0.4882812201976776,3.143310308456421,1.6479490995407104,60.0,1363292.0,1.0
484115.3963538,290078.1875,304861.96875,309142.15625,323337.59375,315818.1875,271577.65625,258152.5625,271817.15625,-0.044189453125,0.850830078125,-0.536865234375,0.4272460639476776,2.990722417831421,1.5563963651657104,60.0,1363293.0,1.0
484115.3963931,286986.125,305176.78125,309978.375,324441.84375,317034.3125,271757.25,259726.75,272344.5625,-0.044189453125,0.85009765625,-0.5400390625,0.3051757514476776,3.143310308456421,1.5869139432907104,60.0,1363294.0,1.0
484115.3987127,286323.4375,306728.8125,313985.78125,327151.3125,319869.46875,271992.84375,262225.125,273175.53125,-0.0439453125,0.850830078125,-0.53857421875,0.3967284858226776,3.082275152206421,1.4953612089157104,60.0,1363295.0,1.0
484115.4012829,289185.375,307356.53125,315529.5,327620.8125,320295.96875,271917.65625,262072.703125,273107.9375,-0.04345703125,0.849365234375,-0.538330078125,0.3356933295726776,3.021239995956421,1.4343260526657104,60.0,1363296.0,1.0
484115.4038119,291510.40625,306217.65625,312557.5,325291.3125,317806.15625,271676.0,259574.3125,272288.0625,-0.042724609375,0.848876953125,-0.540283203125,0.2746581733226776,2.899169683456421,1.4038084745407104,60.0,1363297.0,1.0
484115.4063275,290043.65625,304851.625,309107.65625,323311.375,315802.0,271574.59375,258135.578125,271815.90625,-0.042236328125,0.84619140625,-0.53955078125,0.2441406100988388,2.868652105331421,1.4343260526657104,60.0,1363298.0,1.0
484115.4088339,286956.71875,305167.75,309948.15625,324422.09375,317020.09375,271760.125,259713.96875,272344.65625,-0.0419921875,0.847412109375,-0.538330078125,0.1525878757238388,2.777099370956421,1.4038084745407104,60.0,1363299.0,1.0
484115.4113071,286277.59375,306695.71875,313940.71875,327110.90625,319839.25,271967.90625,262194.03125,273152.09375,-0.04296875,0.849853515625,-0.5400390625,0.1220703050494194,2.777099370956421,1.4038084745407104,60.0,1363300.0,1.0
484115.4138443,289170.34375,307353.9375,315507.5,327606.21875,320292.1875,271919.34375,262064.828125,273106.5,-0.04296875,0.8486328125,-0.544189453125,0.0,2.716064214706421,1.4343260526657104,60.0,1363301.0,1.0
484115.4214256,291515.65625,306232.40625,312550.09375,325291.3125,317816.15625,271681.71875,259578.78125,272296.46875,-0.041748046875,0.847412109375,-0.542236328125,0.03051757626235485,2.746581792831421,1.2512205839157104,60.0,1363302.0,1.0
484115.4214725,290033.75,304849.03125,309093.0,323299.5,315799.78125,271569.3125,258130.5625,271809.75,-0.041015625,0.85107421875,-0.541748046875,-0.1220703050494194,2.685546636581421,1.2207030057907104,60.0,1363303.0,1.0
484115.4214831,286930.34375,305150.15625,309916.15625,324386.78125,316996.375,271746.8125,259687.5,272317.5,-0.039794921875,0.850830078125,-0.5380859375,-0.1220703050494194,2.655029058456421,1.1596678495407104,60.0,1363304.0,1.0
484115.4237761,286254.78125,306684.09375,313905.5,327084.53125,319812.4375,271969.25,262165.78125,273130.65625,-0.039794921875,0.8515625,-0.5400390625,-0.3051757514476776,2.716064214706421,1.1596678495407104,60.0,1363305.0,1.0
484115.4238153,289175.15625,307364.5,315493.375,327610.53125,320288.1875,271937.6875,262064.296875,273115.34375,-0.041015625,0.85107421875,-0.54150390625,-0.3967284858226776,2.593993902206421,1.1291502714157104,60.0,1363306.0,1.0
484115.4288633,291518.15625,306237.78125,312530.875,325300.40625,317804.375,271696.65625,259573.953125,272300.9375,-0.042236328125,0.8525390625,-0.538330078125,-0.6103515028953552,2.655029058456421,1.0986326932907104,60.0,1363307.0,1.0
484115.4289053,290017.65625,304835.53125,309055.0,323296.28125,315765.6875,271550.65625,258102.84375,271795.71875,-0.045654296875,0.853515625,-0.538330078125,-0.7019042372703552,2.593993902206421,0.9460448622703552,60.0,1363308.0,1.0
484115.431306,286915.3125,305138.25,309873.34375,324390.0625,316963.84375,271730.71875,259662.28125,272303.71875,-0.04443359375,0.8544921875,-0.538330078125,-0.9460448622703552,2.593993902206421,0.7934569716453552,60.0,1363309.0,1.0
484115.4338437,286247.375,306679.625,313859.53125,327092.40625,319785.625,271963.0,262148.5,273123.65625,-0.046875,0.853759765625,-0.537109375,-1.1291502714157104,2.532958745956421,0.7629393935203552,60.0,1363310.0,1.0
484115.4338867,289165.6875,307359.46875,315448.75,327620.625,320265.28125,271934.5625,262046.859375,273109.4375,-0.048828125,0.852294921875,-0.538330078125,-1.2817381620407104,2.410888433456421,0.7629393935203552,60.0,1363311.0,1.0
484115.4362078,291508.59375,306230.34375,312490.28125,325305.34375,317780.40625,271689.59375,259555.890625,272297.0,-0.048583984375,0.853759765625,-0.539794921875,-1.5258787870407104,2.197265386581421,0.6103515028953552,60.0,1363312.0,1.0
484115.4386164,290035.53125,304861.09375,309053.75,323326.40625,315777.3125,271581.125,258121.0,271822.15625,-0.049560546875,0.85546875,-0.53857421875,-1.5869139432907104,2.075195074081421,0.5493163466453552,60.0,1363313.0,1.0
484115.4413106,286923.375,305160.4375,309883.53125,324409.75,316983.78125,271745.71875,259682.578125,272328.125,-0.050048828125,0.85546875,-0.5390625,-1.6784666776657104,1.9531248807907104,0.5493163466453552,60.0,1363314.0,1.0
484115.4438679,286228.40625,306670.34375,313846.125,327080.34375,319781.6875,271955.5625,262146.28125,273126.78125,-0.051025390625,0.8544921875,-0.53857421875,-1.7700194120407104,1.8615721464157104,0.3662109076976776,60.0,1363315.0,1.0
484115.4439086,289131.90625,307327.84375,315407.8125,327582.96875,320233.28125,271907.28125,262019.765625,273089.59375,-0.049560546875,0.857666015625,-0.53759765625,-1.9531248807907104,1.7089842557907104,0.4577636420726776,60.0,1363316.0,1.0
484115.4475784,291495.90625,306218.09375,312468.8125,325284.78125,317767.4375,271677.5,259545.25,272287.25,-0.048828125,0.859375,-0.537841796875,-2.136230230331421,1.5869139432907104,0.3356933295726776,60.0,1363317.0,1.0
484115.4688617,290009.34375,304832.84375,309016.71875,323289.46875,315748.0,271561.8125,258095.421875,271798.9375,-0.0478515625,0.85791015625,-0.537353515625,-2.227782964706421,1.5563963651657104,0.4882812201976776,60.0,1363318.0,1.0
484115.4689029,286922.84375,305156.65625,309866.53125,324398.125,316978.96875,271751.71875,259685.796875,272335.53125,-0.047607421875,0.857666015625,-0.537353515625,-2.502441167831421,1.4343260526657104,0.5187987685203552,60.0,1363319.0,1.0
484115.4713318,286242.1875,306684.1875,313844.25,327088.03125,319794.125,271987.03125,262168.4375,273156.9375,-0.046630859375,0.8583984375,-0.53515625,-2.716064214706421,1.3427733182907104,0.5493163466453552,60.0,1363320.0,1.0
484115.4754214,289141.8125,307337.75,315402.09375,327588.53125,320235.59375,271939.03125,262037.65625,273119.03125,-0.04541015625,0.85791015625,-0.53662109375,-2.868652105331421,1.4038084745407104,0.6103515028953552,60.0,1363321.0,1.0
484115.4824974,291477.59375,306198.96875,312437.96875,325258.5,317735.34375,271664.8125,259525.3125,272276.4375,-0.045654296875,0.856201171875,-0.537109375,-2.929687261581421,1.3122557401657104,0.6408690810203552,60.0,1363322.0,1.0
484115.4849333,290015.96875,304841.15625,309018.5,323290.5625,315744.5,271564.59375,258095.875,271802.40625,-0.045166015625,0.8564453125,-0.536376953125,-2.990722417831421,1.2207030057907104,0.7019042372703552,60.0,1363323.0,1.0
484115.4875714,286889.3125,305130.125,309826.84375,324372.03125,316938.71875,271740.09375,259655.046875,272314.1875,-0.0439453125,0.85546875,-0.532958984375,-3.082275152206421,1.2207030057907104,0.8544921278953552,60.0,1363324.0,1.0
484115.4899403,286209.625,306665.78125,313808.75,327067.5625,319762.8125,271968.96875,262145.21875,273138.0625,-0.045166015625,0.8544921875,-0.531005859375,-3.112792730331421,1.0986326932907104,0.9765624403953552,60.0,1363325.0,1.0
484115.4925892,289100.875,307304.9375,315360.40625,327560.28125,320198.9375,271913.625,262004.484375,273086.65625,-0.046630859375,0.854248046875,-0.529052734375,-3.082275152206421,1.0681151151657104,1.0070799589157104,60.0,1363326.0,1.0
484115.4975415,291476.25,306197.625,312426.8125,325263.3125,317722.8125,271678.65625,259520.125,272275.90625,-0.04833984375,0.8525390625,-0.531982421875,-3.234863042831421,1.0375975370407104,1.0070799589157104,60.0,1363327.0,1.0
484115.499979,290035.90625,304859.5625,309029.96875,323309.875,315754.09375,271583.53125,258110.796875,271821.28125,-0.047607421875,0.8505859375,-0.530029296875,-3.356933355331421,0.9460448622703552,0.9765624403953552,60.0,1363328.0,1.0
484115.5000135,286910.125,305151.40625,309845.875,324398.125,316959.46875,271761.1875,259678.640625,272337.5,-0.04736328125,0.850341796875,-0.53271484375,-3.356933355331421,0.9155272841453552,1.0681151151657104,60.0,1363329.0,1.0
484115.5026616,286192.09375,306648.34375,313787.3125,327057.625,319748.6875,271958.25,262136.171875,273132.4375,-0.049560546875,0.85205078125,-0.533447265625,-3.295898199081421,0.7934569716453552,1.1291502714157104,60.0,1363330.0,1.0
484115.5027045,289101.3125,307298.78125,315343.625,327551.0625,320189.5625,271909.0625,262002.328125,273084.96875,-0.04931640625,0.8515625,-0.532958984375,-3.326415777206421,0.6713866591453552,1.0986326932907104,60.0,1363331.0,1.0
484115.5088382,291506.375,306213.46875,312438.6875,325272.0625,317737.65625,271697.625,259540.515625,272292.90625,-0.05078125,0.852783203125,-0.52685546875,-3.295898199081421,0.5493163466453552,1.2207030057907104,60.0,1363332.0,1.0
484115.5187509,290036.96875,304842.9375,309013.34375,323293.9375,315734.21875,271593.28125,258106.875,271813.9375,-0.051513671875,0.853271484375,-0.52978515625,-3.387450933456421,0.5493163466453552,1.1901854276657104,60.0,1363333.0,1.0
484115.5187914,286897.875,305126.71875,309817.1875,324375.5,316931.125,271761.09375,259668.546875,272319.90625,-0.05029296875,0.85205078125,-0.528564453125,-3.448486089706421,0.4577636420726776,1.1596678495407104,60.0,1363334.0,1.0
484115.5212864,286188.53125,306641.1875,313764.5,327041.71875,319731.78125,271961.28125,262134.65625,273121.34375,-0.04736328125,0.85546875,-0.529541015625,-3.570556402206421,0.4272460639476776,1.0986326932907104,60.0,1363335.0,1.0
484115.5249986,289111.4375,307315.40625,315331.09375,327550.625,320181.5,271925.0625,262006.53125,273087.5625,-0.047607421875,0.85498046875,-0.528564453125,-3.662109136581421,0.3662109076976776,1.0986326932907104,60.0,1363336.0,1.0
484115.5438826,291493.40625,306215.875,312410.96875,325241.40625,317706.46875,271669.46875,259514.765625,272267.875,-0.050048828125,0.855224609375,-0.525390625,-3.753661870956421,0.2746581733226776,1.0681151151657104,60.0,1363337.0,1.0
484115.5439239,290018.1875,304848.5625,308992.125,323262.03125,315707.125,271552.96875,258075.84375,271785.6875,-0.049560546875,0.8544921875,-0.526123046875,-3.845214605331421,0.3051757514476776,1.0070799589157104,60.0,1363338.0,1.0
484115.5463482,286865.25,305131.1875,309797.4375,324349.65625,316913.25,271736.53125,259646.453125,272303.8125,-0.047607421875,0.852294921875,-0.525390625,-3.753661870956421,0.2746581733226776,0.9765624403953552,60.0,1363339.0,1.0
484115.5463881,286167.6875,306653.78125,313744.125,327038.65625,319729.1875,271967.0,262133.671875,273129.84375,-0.048583984375,0.85302734375,-0.52734375,-3.784179449081421,0.3051757514476776,0.9765624403953552,60.0,1363340.0,1.0
484115.5486656,289110.8125,307338.1875,315320.625,327556.4375,320193.6875,271930.09375,262016.8125,273102.375,-0.050048828125,0.851318359375,-0.526611328125,-3.875732183456421,0.3356933295726776,0.9765624403953552,60.0,1363341.0,1.0
484115.5513141,291504.9375,306232.875,312401.0625,325247.75,317712.4375,271677.78125,259516.1875,272272.34375,-0.04736328125,0.8525390625,-0.52880859375,-3.845214605331421,0.3051757514476776,0.9765624403953552,60.0,1363342.0,1.0
484115.5537025,290032.125,304863.3125,308983.75,323270.25,315708.5625,271562.1875,258073.609375,271787.3125,-0.049072265625,0.8525390625,-0.52685546875,-3.753661870956421,0.3356933295726776,1.0986326932907104,60.0,1363343.0,1.0
484115.5575787,286882.5,305150.78125,309790.46875,324366.90625,316916.90625,271738.40625,259650.296875,272307.5625,-0.049072265625,0.85205078125,-0.525634765625,-3.692626714706421,0.1831054538488388,0.9765624403953552,60.0,1363344.0,1.0
484115.5951108,286152.78125,306646.5625,313715.40625,327038.125,319713.375,271950.5625,262123.921875,273112.21875,-0.0478515625,0.852294921875,-0.52392578125,-3.662109136581421,0.2441406100988388,1.0070799589157104,60.0,1363345.0,1.0
484115.5951508,289109.625,307341.59375,315298.09375,327565.09375,320183.03125,271929.1875,262013.953125,273096.5625,-0.04833984375,0.852294921875,-0.52490234375,-3.631591558456421,0.2441406100988388,1.0986326932907104,60.0,1363346.0,1.0
484115.5951594,291508.59375,306240.625,312383.71875,325250.4375,317704.65625,271664.8125,259510.203125,272269.84375,-0.04833984375,0.853515625,-0.525390625,-3.631591558456421,0.2746581733226776,1.2512205839157104,60.0,1363347.0,1.0
484115.5951685,290032.0625,304866.90625,308965.59375,323266.21875,315700.875,271547.875,258067.703125,271783.625,-0.0478515625,0.85498046875,-0.525634765625,-3.417968511581421,0.2441406100988388,1.1901854276657104,60.0,1363348.0,1.0
484115.5974852,286859.4375,305137.53125,309743.5,324345.1875,316891.5,271727.40625,259633.859375,272294.25,-0.049560546875,0.85205078125,-0.52783203125,-3.387450933456421,0.2746581733226776,1.1901854276657104,60.0,1363349.0,1.0
484115.6026278,286130.78125,306643.34375,313663.5625,327019.71875,319692.71875,271955.75,262116.140625,273111.25,-0.048583984375,0.85302734375,-0.52783203125,-3.295898199081421,0.2136230319738388,1.2207030057907104,60.0,1363350.0,1.0
484115.604921,289106.3125,307353.125,315272.8125,327558.40625,320188.21875,271941.25,262024.6875,273109.71875,-0.05078125,0.85205078125,-0.526123046875,-3.112792730331421,0.1525878757238388,1.1291502714157104,60.0,1363351.0,1.0
484115.6075823,291548.375,306284.0,312401.9375,325278.78125,317745.8125,271711.03125,259551.859375,272312.5625,-0.05224609375,0.852783203125,-0.52490234375,-2.960204839706421,0.1220703050494194,1.0986326932907104,60.0,1363352.0,1.0
484115.6092982,290045.625,304877.71875,308954.21875,323271.25,315707.59375,271564.15625,258075.3125,271796.25,-0.05224609375,0.8525390625,-0.526123046875,-2.746581792831421,0.1220703050494194,1.0986326932907104,60.0,1363353.0,1.0
484115.6349104,286851.9375,305127.34375,309714.375,324336.96875,316885.96875,271720.15625,259627.859375,272291.28125,-0.05126953125,0.853759765625,-0.52490234375,-2.593993902206421,0.1525878757238388,1.1291502714157104,60.0,1363354.0,1.0
484115.637568,286108.96875,306616.59375,313621.28125,327006.21875,319671.4375,271942.78125,262099.34375,273096.125,-0.050048828125,0.8564453125,-0.522216796875,-2.441406011581421,0.0610351525247097,1.2207030057907104,60.0,1363355.0,1.0
484115.6425896,289058.0625,307300.90625,315201.28125,327522.8125,320126.71875,271900.5,261975.78125,273058.40625,-0.049560546875,0.85498046875,-0.522216796875,-2.410888433456421,-0.1220703050494194,1.2512205839157104,60.0,1363356.0,1.0
484115.6449121,291520.84375,306252.34375,312359.65625,325267.34375,317703.25,271684.21875,259522.359375,272279.9375,-0.04931640625,0.85693359375,-0.52734375,-2.349853277206421,-0.0610351525247097,1.3427733182907104,60.0,1363357.0,1.0
484115.6474812,290046.1875,304878.34375,308948.78125,323287.40625,315704.90625,271564.15625,258079.78125,271799.71875,-0.05029296875,0.857421875,-0.52587890625,-2.288818120956421,0.0,1.3122557401657104,60.0,1363358.0,1.0
484115.6499522,286851.5625,305128.875,309711.5,324361.03125,316888.375,271734.0,259640.734375,272304.6875,-0.050048828125,0.85791015625,-0.526123046875,-2.136230230331421,0.0,1.3732908964157104,60.0,1363359.0,1.0
484115.6499883,286100.03125,306606.21875,313604.8125,327025.625,319663.5625,271952.09375,262109.0,273106.15625,-0.051025390625,0.859375,-0.52490234375,-2.105712652206421,-0.03051757626235485,1.3427733182907104,60.0,1363360.0,1.0
484115.6526056,289047.6875,307284.09375,315175.15625,327531.5625,320111.0625,271902.625,261977.203125,273065.375,-0.05078125,0.85888671875,-0.5244140625,-2.136230230331421,-0.0610351525247097,1.3732908964157104,60.0,1363361.0,1.0
484115.6549448,291533.71875,306254.6875,312347.84375,325279.6875,317696.8125,271689.40625,259527.453125,272287.0,-0.0517578125,0.85986328125,-0.525634765625,-1.9836424589157104,-0.03051757626235485,1.4343260526657104,60.0,1363362.0,1.0
484115.6626075,290084.1875,304904.28125,308967.46875,323322.75,315722.34375,271596.59375,258111.875,271826.28125,-0.051513671875,0.856689453125,-0.5244140625,-1.9531248807907104,-0.1220703050494194,1.4343260526657104,60.0,1363363.0,1.0
484115.6650559,286886.96875,305149.0625,309730.5625,324392.84375,316905.5625,271763.59375,259674.265625,272327.3125,-0.05078125,0.85546875,-0.5224609375,-2.014159917831421,-0.1220703050494194,1.3732908964157104,60.0,1363364.0,1.0
484115.6700407,286140.4375,306628.65625,313630.21875,327054.40625,319690.40625,271970.21875,262141.0,273125.71875,-0.050048828125,0.853759765625,-0.521484375,-1.9531248807907104,-0.1220703050494194,1.4038084745407104,60.0,1363365.0,1.0
484115.6726563,289085.3125,307298.15625,315203.25,327550.71875,320133.9375,271917.84375,262003.234375,273075.9375,-0.048095703125,0.8505859375,-0.5224609375,-1.9836424589157104,-0.1220703050494194,1.4038084745407104,60.0,1363366.0,1.0
484115.6726976,291545.8125,306227.3125,312334.4375,325261.53125,317672.21875,271683.9375,259512.4375,272257.5,-0.04443359375,0.845947265625,-0.521728515625,-1.8310545682907104,-0.0915527269244194,1.4953612089157104,60.0,1363367.0,1.0
484115.6750624,290126.0,304888.90625,308959.6875,323317.375,315702.84375,271596.3125,258098.640625,271816.09375,-0.044189453125,0.845703125,-0.521728515625,-1.6174315214157104,0.0,1.4953612089157104,60.0,1363368.0,1.0
484115.6774935,286932.84375,305136.90625,309722.875,324387.125,316889.8125,271757.53125,259659.328125,272321.59375,-0.044677734375,0.848876953125,-0.52294921875,-1.2817381620407104,0.03051757626235485,1.5258787870407104,60.0,1363369.0,1.0
484115.6851066,286200.96875,306626.625,313633.0625,327059.9375,319684.9375,271978.1875,262136.890625,273130.09375,-0.043701171875,0.85302734375,-0.522216796875,-1.1901854276657104,0.1525878757238388,1.5563963651657104,60.0,1363370.0,1.0
484115.685147,289207.53125,307340.875,315251.625,327602.75,320171.15625,271971.65625,262037.65625,273128.6875,-0.041015625,0.855224609375,-0.525146484375,-1.0681151151657104,0.2746581733226776,1.6174315214157104,60.0,1363371.0,1.0
484115.6865161,291654.15625,306253.15625,312371.53125,325287.8125,317687.9375,271714.875,259527.375,272293.96875,-0.03955078125,0.858642578125,-0.5244140625,-1.1596678495407104,0.4577636420726776,1.6479490995407104,60.0,1363372.0,1.0
484115.7316669,290237.15625,304918.75,309010.65625,323348.84375,315724.5625,271641.03125,258124.65625,271843.1875,-0.038818359375,0.859130859375,-0.525146484375,-1.2207030057907104,0.6408690810203552,1.6784666776657104,60.0,1363373.0,1.0
484115.736127,287033.4375,305149.78125,309770.59375,324428.25,316907.78125,271801.59375,259686.6875,272342.15625,-0.0390625,0.8583984375,-0.52734375,-1.2512205839157104,0.6408690810203552,1.7700194120407104,60.0,1363374.0,1.0
484115.7387126,286272.03125,306607.84375,313670.09375,327092.40625,319691.03125,271999.5625,262156.46875,273133.3125,-0.04296875,0.85693359375,-0.52197265625,-1.3122557401657104,0.7934569716453552,1.9531248807907104,60.0,1363375.0,1.0
484115.7387541,289265.375,307302.34375,315281.03125,327628.125,320163.1875,272000.8125,262053.109375,273127.4375,-0.048095703125,0.854248046875,-0.52197265625,-1.3427733182907104,0.8544921278953552,1.7395018339157104,60.0,1363376.0,1.0
484115.7411246,291751.96875,306258.53125,312447.1875,325357.625,317727.1875,271776.75,259579.84375,272334.90625,-0.05615234375,0.851806640625,-0.526123046875,-1.5258787870407104,0.9155272841453552,1.5563963651657104,60.0,1363377.0,1.0
484115.7438398,290299.375,304896.5,309059.65625,323386.3125,315738.34375,271659.90625,258142.359375,271854.34375,-0.05810546875,0.85302734375,-0.527587890625,-1.4648436307907104,0.7934569716453552,1.2207030057907104,60.0,1363378.0,1.0
484115.7463021,287064.375,305095.59375,309793.75,324433.09375,316895.09375,271791.6875,259682.484375,272331.4375,-0.05615234375,0.854736328125,-0.529296875,-1.4038084745407104,0.6103515028953552,1.0986326932907104,60.0,1363379.0,1.0
484115.7486343,286317.71875,306563.03125,313699.96875,327104.03125,319682.8125,272019.21875,262169.15625,273142.71875,-0.056884765625,0.854248046875,-0.52978515625,-1.3122557401657104,0.3967284858226776,1.1596678495407104,60.0,1363380.0,1.0
484115.7512663,289317.40625,307258.1875,315310.8125,327630.90625,320150.40625,272014.65625,262061.34375,273132.15625,-0.0556640625,0.8525390625,-0.525634765625,-1.0986326932907104,0.1220703050494194,1.0070799589157104,60.0,1363381.0,1.0
484115.7537071,291812.21875,306215.875,312495.8125,325349.875,317728.28125,271783.1875,259593.265625,272339.375,-0.052490234375,0.852294921875,-0.52587890625,-0.8239745497703552,0.0610351525247097,0.7934569716453552,60.0,1363382.0,1.0
484115.7562853,290347.28125,304845.625,309113.5625,323367.625,315736.09375,271662.75,258152.203125,271859.0,-0.049560546875,0.852294921875,-0.5244140625,-0.6408690810203552,-0.03051757626235485,0.5187987685203552,60.0,1363383.0,1.0
484115.7588157,287133.125,305086.84375,309870.75,324442.5625,316916.5625,271829.6875,259718.875,272369.0625,-0.050048828125,0.854736328125,-0.523193359375,-0.6713866591453552,-0.03051757626235485,0.4577636420726776,60.0,1363384.0,1.0
484115.768648,286402.75,306588.4375,313794.71875,327130.21875,319732.78125,272067.5,262225.40625,273200.75,-0.052001953125,0.857421875,-0.52587890625,-0.8850097060203552,-0.1220703050494194,0.3967284858226776,60.0,1363385.0,1.0
484115.7713654,289375.4375,307267.125,315384.1875,327627.78125,320182.0625,272028.78125,262093.625,273166.21875,-0.05126953125,0.856201171875,-0.52734375,-0.9765624403953552,-0.1831054538488388,0.3356933295726776,60.0,1363386.0,1.0
484115.7736527,291845.125,306192.8125,312541.59375,325326.0,317723.0,271787.125,259596.5625,272343.6875,-0.049560546875,0.859375,-0.52783203125,-1.0375975370407104,-0.2441406100988388,0.4882812201976776,60.0,1363387.0,1.0
484115.7762762,290398.4375,304820.15625,309182.3125,323374.40625,315752.75,271706.5625,258178.84375,271880.71875,-0.049072265625,0.8603515625,-0.53125,-0.8850097060203552,-0.4272460639476776,0.8544921278953552,60.0,1363388.0,1.0
484115.7787099,287168.53125,305026.9375,309945.5,324455.875,316942.65625,271867.84375,259748.390625,272379.1875,-0.04736328125,0.857421875,-0.5263671875,-0.7934569716453552,-0.6408690810203552,0.9765624403953552,60.0,1363389.0,1.0
484115.7837204,286407.125,306496.78125,313836.46875,327125.5625,319731.875,272071.4375,262224.96875,273182.6875,-0.045654296875,0.85205078125,-0.524169921875,-0.6103515028953552,-0.6408690810203552,0.8850097060203552,60.0,1363390.0,1.0
484115.7837611,289398.0625,307221.875,315440.53125,327644.9375,320202.4375,272049.1875,262108.375,273165.40625,-0.044677734375,0.852783203125,-0.520263671875,-0.3967284858226776,-0.4272460639476776,0.9765624403953552,60.0,1363391.0,1.0
484115.7863287,291884.5625,306200.84375,312611.6875,325369.71875,317765.28125,271823.96875,259626.96875,272363.25,-0.044189453125,0.849609375,-0.525146484375,-0.4272460639476776,-0.3662109076976776,0.9765624403953552,60.0,1363392.0,1.0
484115.7863706,290403.625,304831.59375,309209.21875,323390.96875,315764.375,271687.15625,258171.953125,271862.5,-0.04638671875,0.847900390625,-0.525390625,-0.4577636420726776,-0.2746581733226776,1.0986326932907104,60.0,1363393.0,1.0
484115.7901056,287178.09375,305070.75,309959.34375,324474.375,316955.25,271847.75,259739.625,272366.84375,-0.045654296875,0.846923828125,-0.52587890625,-0.1831054538488388,-0.2746581733226776,1.1596678495407104,60.0,1363394.0,1.0
484115.7901464,286410.09375,306545.59375,313833.78125,327142.90625,319737.4375,272052.9375,262213.5,273158.71875,-0.0458984375,0.845947265625,-0.524169921875,0.1831054538488388,-0.3356933295726776,1.3427733182907104,60.0,1363395.0,1.0
484115.7901572,289387.0625,307249.25,315414.34375,327646.5625,320191.09375,272011.71875,262080.828125,273117.6875,-0.045654296875,0.843505859375,-0.5244140625,0.5798339247703552,-0.2136230319738388,1.4038084745407104,60.0,1363396.0,1.0
484115.7925907,291875.4375,306226.34375,312580.75,325360.6875,317753.3125,271781.21875,259592.453125,272320.34375,-0.043701171875,0.8427734375,-0.521728515625,0.7934569716453552,-0.2441406100988388,1.4953612089157104,60.0,1363397.0,1.0
484115.7940621,290415.4375,304888.4375,309195.09375,323400.15625,315772.125,271669.03125,258157.125,271846.03125,-0.043701171875,0.84033203125,-0.520263671875,1.0681151151657104,-0.1831054538488388,1.4953612089157104,60.0,1363398.0,1.0
484115.8012443,287193.90625,305147.46875,309947.28125,324488.875,316968.75,271832.4375,259737.75,272344.5625,-0.044921875,0.839599609375,-0.5234375,1.1291502714157104,-0.0915527269244194,1.5563963651657104,60.0,1363399.0,1.0
484115.8037028,286459.4375,306667.8125,313860.625,327184.9375,319794.28125,272077.59375,262251.25,273182.21875,-0.04736328125,0.84326171875,-0.525634765625,1.3122557401657104,0.0610351525247097,1.5258787870407104,60.0,1363400.0,1.0
484115.8037377,289421.5,307367.0,315430.59375,327667.65625,320242.65625,272030.5,262108.28125,273149.40625,-0.0498046875,0.846435546875,-0.526123046875,1.4953612089157104,0.0915527269244194,1.5258787870407104,60.0,1363401.0,1.0
484115.8062958,291880.71875,306324.78125,312572.875,325356.5625,317787.8125,271770.65625,259605.59375,272332.15625,-0.05322265625,0.850341796875,-0.525390625,1.6479490995407104,0.1831054538488388,1.4343260526657104,60.0,1363402.0,1.0
484115.8087943,290389.75,304954.53125,309162.90625,323364.125,315787.59375,271639.78125,258151.125,271841.9375,-0.05126953125,0.8505859375,-0.52490234375,1.8615721464157104,0.1220703050494194,1.3427733182907104,60.0,1363403.0,1.0
484115.8112634,287156.53125,305191.90625,309907.84375,324439.53125,316977.96875,271795.96875,259718.703125,272351.46875,-0.048583984375,0.850830078125,-0.5244140625,1.9226073026657104,0.1525878757238388,1.1901854276657104,60.0,1363404.0,1.0
484115.813734,286410.25,306695.09375,313807.34375,327128.53125,319783.65625,272024.125,262215.3125,273166.5,-0.04833984375,0.849365234375,-0.525146484375,1.9836424589157104,0.1831054538488388,1.0681151151657104,60.0,1363405.0,1.0
484115.8161582,289349.5,307374.0625,315348.0,327603.8125,320203.59375,271961.1875,262050.078125,273102.125,-0.047607421875,0.85009765625,-0.5234375,2.014159917831421,0.2441406100988388,1.0681151151657104,60.0,1363406.0,1.0
484115.8188627,291821.625,306351.15625,312496.0,325314.375,317765.90625,271744.375,259565.359375,272309.4375,-0.04638671875,0.850341796875,-0.525634765625,2.075195074081421,0.3051757514476776,0.9155272841453552,60.0,1363407.0,1.0
484115.8189029,290346.9375,305001.0,309101.03125,323343.46875,315788.0625,271629.40625,258134.765625,271824.59375,-0.045166015625,0.84765625,-0.5263671875,2.105712652206421,0.3662109076976776,0.9460448622703552,60.0,1363408.0,1.0
484115.8286765,287101.71875,305224.25,309839.90625,324417.15625,316970.46875,271779.15625,259695.09375,272330.71875,-0.04541015625,0.848388671875,-0.527099609375,2.197265386581421,0.5187987685203552,0.8850097060203552,60.0,1363409.0,1.0
484115.8363553,286363.15625,306718.34375,313733.9375,327113.25,319774.4375,272003.9375,262186.4375,273161.9375,-0.0458984375,0.850341796875,-0.52880859375,2.197265386581421,0.6103515028953552,0.8544921278953552,60.0,1363410.0,1.0
484115.8363961,289322.875,307412.75,315300.6875,327602.84375,320221.9375,271963.34375,262046.234375,273125.28125,-0.04736328125,0.8515625,-0.529541015625,2.288818120956421,0.7019042372703552,0.6713866591453552,60.0,1363411.0,1.0
484115.8387845,291767.71875,306360.625,312433.5,325295.21875,317768.6875,271724.4375,259550.34375,272312.46875,-0.048095703125,0.8525390625,-0.531005859375,2.349853277206421,0.7629393935203552,0.5798339247703552,60.0,1363412.0,1.0
484115.8413711,290306.15625,305020.59375,309057.75,323341.0625,315807.71875,271624.65625,258137.71875,271853.09375,-0.049560546875,0.856689453125,-0.53125,2.410888433456421,0.7324218153953552,0.5187987685203552,60.0,1363413.0,1.0
484115.8414114,287066.5,305233.1875,309792.6875,324407.59375,316978.6875,271773.625,259691.34375,272345.5625,-0.05029296875,0.85791015625,-0.531494140625,2.349853277206421,0.9155272841453552,0.3662109076976776,60.0,1363414.0,1.0
484115.8436432,286310.84375,306700.375,313677.4375,327074.78125,319759.25,271979.96875,262158.71875,273142.71875,-0.0498046875,0.85986328125,-0.5283203125,2.166747808456421,0.9460448622703552,0.2441406100988388,60.0,1363415.0,1.0
484115.846169,289268.59375,307383.96875,315245.09375,327564.90625,320205.125,271941.71875,262016.8125,273098.375,-0.04833984375,0.860595703125,-0.528076171875,2.044677495956421,0.9460448622703552,0.0915527269244194,60.0,1363416.0,1.0
484115.8500573,291699.03125,306312.15625,312361.53125,325251.59375,317736.59375,271704.5,259514.40625,272282.53125,-0.049560546875,0.862548828125,-0.526123046875,1.8615721464157104,1.0070799589157104,0.03051757626235485,60.0,1363417.0,1.0
484115.8536632,290209.625,304936.1875,308950.125,323268.375,315733.5,271572.46875,258066.90625,271793.8125,-0.049560546875,0.863525390625,-0.527587890625,1.7089842557907104,1.0375975370407104,-0.0610351525247097,60.0,1363418.0,1.0
484115.853705,287047.1875,305224.8125,309768.46875,324403.03125,316978.0625,271769.875,259683.390625,272344.9375,-0.050048828125,0.860595703125,-0.529052734375,1.5869139432907104,1.0375975370407104,-0.1525878757238388,60.0,1363419.0,1.0
484115.8688059,286308.5,306705.09375,313672.6875,327084.96875,319770.40625,271981.3125,262154.40625,273142.53125,-0.05078125,0.859130859375,-0.530517578125,1.4343260526657104,1.1901854276657104,-0.1525878757238388,60.0,1363420.0,1.0
484115.8713451,289250.625,307372.625,315227.28125,327559.375,320196.96875,271926.5,261996.15625,273084.40625,-0.05029296875,0.85791015625,-0.528076171875,1.2817381620407104,1.1596678495407104,-0.2136230319738388,60.0,1363421.0,1.0
484115.8713863,291657.28125,306285.96875,312334.53125,325223.09375,317720.9375,271671.6875,259487.140625,272259.5625,-0.05126953125,0.858154296875,-0.527587890625,1.0986326932907104,1.2512205839157104,-0.1220703050494194,60.0,1363422.0,1.0
484115.8737668,290161.5,304906.25,308923.84375,323232.96875,315715.09375,271550.1875,258044.109375,271770.5,-0.052978515625,0.85693359375,-0.529052734375,0.9765624403953552,1.2512205839157104,-0.0915527269244194,60.0,1363423.0,1.0
484115.8786423,286990.875,305183.5,309729.21875,324356.8125,316939.625,271742.59375,259649.59375,272310.96875,-0.05322265625,0.85693359375,-0.5302734375,0.8850097060203552,1.2512205839157104,-0.03051757626235485,60.0,1363424.0,1.0
484115.881279,286245.40625,306658.0,313636.65625,327029.5625,319726.15625,271952.625,262117.484375,273109.90625,-0.05419921875,0.858154296875,-0.530029296875,0.8239745497703552,1.2207030057907104,-0.0915527269244194,60.0,1363425.0,1.0
484115.8849099,289219.0625,307357.78125,315234.4375,327541.5,320193.40625,271927.75,261996.515625,273084.5,-0.05322265625,0.857421875,-0.532470703125,0.7629393935203552,1.1901854276657104,-0.0610351525247097,60.0,1363426.0,1.0
484115.8888303,291622.59375,306267.28125,312330.59375,325209.5,317712.0,271665.4375,259482.84375,272252.65625,-0.05224609375,0.85791015625,-0.53076171875,0.5493163466453552,1.2207030057907104,-0.1220703050494194,60.0,1363427.0,1.0
484115.8888744,290139.96875,304900.96875,308924.71875,323238.96875,315719.375,271555.5625,258054.296875,271777.65625,-0.05322265625,0.859619140625,-0.529296875,0.4577636420726776,1.1901854276657104,-0.03051757626235485,60.0,1363428.0,1.0
484115.9186779,286943.5625,305143.625,309703.625,324336.625,316915.125,271716.21875,259631.171875,272287.4375,-0.05322265625,0.85986328125,-0.530029296875,0.3051757514476776,1.2207030057907104,0.03051757626235485,60.0,1363429.0,1.0
484115.9213124,286211.6875,306625.34375,313611.96875,327016.78125,319704.09375,271927.65625,262096.84375,273085.9375,-0.0517578125,0.861083984375,-0.529541015625,0.1220703050494194,1.2207030057907104,-0.0610351525247097,60.0,1363430.0,1.0
484115.9213602,289176.15625,307317.375,315190.90625,327517.09375,320159.6875,271900.5,261960.578125,273042.75,-0.052734375,0.86083984375,-0.53125,-0.0915527269244194,1.2512205839157104,0.0,60.0,1363431.0,1.0
484115.9262774,291602.125,306255.84375,312309.21875,325201.09375,317703.96875,271662.21875,259470.0625,272234.96875,-0.05126953125,0.857666015625,-0.52978515625,-0.2136230319738388,1.2207030057907104,0.0,60.0,1363432.0,1.0
484115.9287946,290125.03125,304895.25,308905.9375,323226.71875,315716.15625,271534.28125,258036.6875,271766.5625,-0.051025390625,0.854736328125,-0.528564453125,-0.3967284858226776,1.3122557401657104,0.0,60.0,1363433.0,1.0
484115.9327391,286937.59375,305153.71875,309699.0,324335.8125,316922.71875,271703.15625,259617.578125,272281.46875,-0.048583984375,0.853515625,-0.526611328125,-0.4882812201976776,1.2817381620407104,0.0915527269244194,60.0,1363434.0,1.0
484115.9327788,286201.125,306637.875,313613.6875,327015.6875,319711.6875,271915.5,262087.09375,273076.09375,-0.048583984375,0.853759765625,-0.530029296875,-0.4882812201976776,1.4343260526657104,0.1831054538488388,60.0,1363435.0,1.0
484115.9327887,289170.6875,307337.3125,315200.65625,327523.0625,320172.46875,271887.4375,261958.078125,273043.8125,-0.0478515625,0.8525390625,-0.5302734375,-0.5187987685203552,1.4953612089157104,0.2136230319738388,60.0,1363436.0,1.0
484115.9348839,291601.6875,306277.28125,312325.5,325214.40625,317719.15625,271660.25,259477.65625,272241.03125,-0.048828125,0.85009765625,-0.53271484375,-0.4882812201976776,1.5563963651657104,0.3967284858226776,60.0,1363437.0,1.0
484115.9375992,290099.09375,304891.21875,308911.125,323220.375,315713.84375,271532.3125,258034.890625,271750.03125,-0.049560546875,0.851318359375,-0.52978515625,-0.4882812201976776,1.7089842557907104,0.4577636420726776,60.0,1363438.0,1.0
484115.9400512,286893.59375,305127.0,309686.28125,324313.46875,316902.34375,271695.46875,259603.984375,272257.125,-0.050537109375,0.8525390625,-0.529052734375,-0.4882812201976776,1.8005369901657104,0.6103515028953552,60.0,1363439.0,1.0
484115.9476052,286187.0,306633.84375,313621.09375,327020.25,319712.3125,271938.65625,262099.34375,273084.34375,-0.050048828125,0.8525390625,-0.526123046875,-0.4272460639476776,1.9226073026657104,0.6713866591453552,60.0,1363440.0,1.0
484115.9500852,289141.1875,307310.3125,315184.5625,327507.0625,320148.0625,271887.875,261949.21875,273030.78125,-0.051025390625,0.850341796875,-0.52783203125,-0.4577636420726776,1.9836424589157104,0.7629393935203552,60.0,1363441.0,1.0
484115.9501251,291586.03125,306258.875,312325.78125,325208.59375,317713.4375,271655.15625,259477.484375,272233.875,-0.0517578125,0.85009765625,-0.528076171875,-0.3051757514476776,2.075195074081421,0.7934569716453552,60.0,1363442.0,1.0
484115.9550306,290106.875,304890.40625,308922.3125,323238.34375,315725.1875,271553.6875,258049.5625,271762.625,-0.049560546875,0.852294921875,-0.527099609375,-0.3967284858226776,2.075195074081421,0.8850097060203552,60.0,1363443.0,1.0
484115.9600133,286902.34375,305127.625,309693.625,324332.59375,316913.6875,271707.90625,259615.703125,272267.3125,-0.04931640625,0.85302734375,-0.531982421875,-0.4577636420726776,2.227782964706421,0.9155272841453552,60.0,1363444.0,1.0
484115.9675801,286200.25,306640.125,313641.65625,327047.875,319737.53125,271943.9375,262117.84375,273097.375,-0.048583984375,0.854736328125,-0.53076171875,-0.3356933295726776,2.227782964706421,0.9460448622703552,60.0,1363445.0,1.0
484115.9726086,289156.65625,307315.5,315213.78125,327541.3125,320184.1875,271902.0,261976.9375,273050.53125,-0.049560546875,0.85595703125,-0.52880859375,-0.3051757514476776,2.258300542831421,1.0375975370407104,60.0,1363446.0,1.0
484115.9749254,291572.625,306234.375,312314.5,325217.28125,317711.90625,271664.46875,259472.828125,272225.21875,-0.04736328125,0.857177734375,-0.526123046875,-0.3967284858226776,2.380370855331421,1.0375975370407104,60.0,1363447.0,1.0
484115.9776398,290075.5,304858.21875,308900.21875,323238.875,315710.28125,271542.6875,258034.71875,271735.96875,-0.047119140625,0.858154296875,-0.5283203125,-0.4882812201976776,2.380370855331421,1.0986326932907104,60.0,1363448.0,1.0
484115.9776813,286881.875,305111.25,309687.375,324348.78125,316910.1875,271709.96875,259620.53125,272258.65625,-0.04736328125,0.855712890625,-0.529296875,-0.5798339247703552,2.563476324081421,1.2207030057907104,60.0,1363449.0,1.0
484115.9801073,286141.15625,306584.40625,313589.90625,327019.71875,319690.21875,271908.28125,262084.59375,273055.09375,-0.0478515625,0.854736328125,-0.528076171875,-0.6408690810203552,2.624511480331421,1.2207030057907104,60.0,1363450.0,1.0
484115.9826198,289117.40625,307280.25,315177.84375,327520.5625,320151.5625,271862.59375,261949.578125,273011.90625,-0.0478515625,0.854248046875,-0.52783203125,-0.5798339247703552,2.685546636581421,1.2512205839157104,60.0,1363451.0,1.0
484115.9937999,291558.9375,306223.90625,312310.84375,325216.90625,317705.9375,271630.65625,259466.03125,272212.15625,-0.049072265625,0.853271484375,-0.527099609375,-0.6713866591453552,2.777099370956421,1.2512205839157104,60.0,1363452.0,1.0
484116.0238826,290087.46875,304864.03125,308919.625,323256.40625,315725.1875,271534.1875,258048.125,271750.5625,-0.04833984375,0.851806640625,-0.527099609375,-0.4882812201976776,2.807616949081421,1.1596678495407104,60.0,1363453.0,1.0
484116.0239237,286913.625,305134.6875,309722.875,324377.21875,316943.375,271726.25,259644.21875,272280.75,-0.0458984375,0.85107421875,-0.5283203125,-0.6408690810203552,2.838134527206421,1.0986326932907104,60.0,1363454.0,1.0
484116.0239336,286197.84375,306636.09375,313654.28125,327069.96875,319751.71875,271962.09375,262135.734375,273101.75,-0.0458984375,0.850341796875,-0.528564453125,-0.5798339247703552,2.838134527206421,1.1596678495407104,60.0,1363455.0,1.0
484116.0312962,289148.875,307305.65625,315211.90625,327540.15625,320179.09375,271899.96875,261976.765625,273042.03125,-0.04541015625,0.8505859375,-0.527587890625,-0.3967284858226776,2.929687261581421,1.1901854276657104,60.0,1363456.0,1.0
484116.0313365,291576.09375,306236.53125,312329.4375,325220.84375,317717.46875,271651.40625,259485.078125,272234.5,-0.045654296875,0.8525390625,-0.52587890625,-0.3662109076976776,3.051757574081421,1.1901854276657104,60.0,1363457.0,1.0
484116.0352069,290061.09375,304840.09375,308896.46875,323216.875,315695.96875,271520.40625,258029.265625,271727.84375,-0.047119140625,0.85107421875,-0.52685546875,-0.3356933295726776,3.173827886581421,1.1596678495407104,60.0,1363458.0,1.0
484116.0352477,286880.09375,305112.78125,309706.5,324334.75,316920.03125,271702.0,259627.234375,272255.25,-0.046630859375,0.854248046875,-0.527587890625,-0.2746581733226776,3.204345464706421,1.1291502714157104,60.0,1363459.0,1.0
484116.0352571,286189.59375,306632.6875,313652.3125,327051.8125,319748.78125,271950.8125,262132.6875,273099.78125,-0.04736328125,0.854736328125,-0.52685546875,-0.2746581733226776,3.295898199081421,1.1291502714157104,60.0,1363460.0,1.0
484116.0352662,289138.6875,307296.53125,315197.96875,327530.9375,320172.46875,271898.53125,261970.859375,273041.9375,-0.046875,0.853515625,-0.526611328125,-0.2746581733226776,3.326415777206421,1.1596678495407104,60.0,1363461.0,1.0
484116.0374853,291552.40625,306216.59375,312301.28125,325205.5625,317702.0,271642.1875,259465.59375,272219.5,-0.047607421875,0.85205078125,-0.527099609375,-0.2746581733226776,3.326415777206421,1.0681151151657104,60.0,1363462.0,1.0
484116.0398722,290057.15625,304841.40625,308891.65625,323225.8125,315706.875,271525.59375,258028.90625,271737.5,-0.046630859375,0.855224609375,-0.52685546875,-0.3051757514476776,3.356933355331421,1.0986326932907104,60.0,1363463.0,1.0
484116.0426036,286879.1875,305116.15625,309696.65625,324351.53125,316926.75,271706.75,259621.421875,272264.03125,-0.048095703125,0.856201171875,-0.526123046875,-0.3051757514476776,3.387450933456421,1.0070799589157104,60.0,1363464.0,1.0
484116.0475894,286179.15625,306631.875,313645.78125,327061.8125,319752.625,271934.5625,262118.5625,273093.09375,-0.0498046875,0.854736328125,-0.53076171875,-0.3356933295726776,3.387450933456421,0.9460448622703552,60.0,1363465.0,1.0
484116.0526121,289142.90625,307307.09375,315208.4375,327549.53125,320191.53125,271892.4375,261970.328125,273048.125,-0.045654296875,0.8564453125,-0.531005859375,-0.3051757514476776,3.265380620956421,0.9460448622703552,60.0,1363466.0,1.0
484116.0541101,291580.5625,306249.125,312331.75,325247.40625,317742.03125,271665.71875,259492.140625,272245.34375,-0.046875,0.858154296875,-0.52880859375,-0.2746581733226776,3.204345464706421,0.9765624403953552,60.0,1363467.0,1.0
484116.082907,290077.75,304866.28125,308914.09375,323258.375,315735.5625,271538.3125,258045.71875,271743.65625,-0.048583984375,0.859619140625,-0.5283203125,-0.3356933295726776,3.417968511581421,0.9155272841453552,60.0,1363468.0,1.0
484116.0988104,286885.1875,305119.03125,309702.375,324359.6875,316936.21875,271703.875,259621.15625,272256.15625,-0.047119140625,0.858642578125,-0.5283203125,-0.3967284858226776,3.387450933456421,0.8544921278953552,60.0,1363469.0,1.0
484116.101168,286168.25,306610.875,313628.34375,327044.40625,319741.375,271918.71875,262101.3125,273067.96875,-0.048095703125,0.858154296875,-0.52734375,-0.3051757514476776,3.387450933456421,0.9155272841453552,60.0,1363470.0,1.0
484116.1037175,289143.96875,307296.625,315200.84375,327544.09375,320188.125,271891.375,261964.6875,273035.78125,-0.049072265625,0.85791015625,-0.529296875,-0.3356933295726776,3.356933355331421,0.9460448622703552,60.0,1363471.0,1.0
484116.1037557,291552.9375,306207.125,312290.375,325215.65625,317701.09375,271648.90625,259456.734375,272212.0,-0.049072265625,0.85791015625,-0.52587890625,-0.4272460639476776,3.295898199081421,0.8544921278953552,60.0,1363472.0,1.0
484116.106335,290078.625,304859.5625,308901.75,323249.0625,315726.09375,271537.3125,258040.171875,271747.6875,-0.049560546875,0.85888671875,-0.527099609375,-0.3662109076976776,3.173827886581421,0.8850097060203552,60.0,1363473.0,1.0
484116.1077503,286899.9375,305129.75,309708.75,324353.59375,316944.4375,271705.9375,259626.34375,272261.34375,-0.051025390625,0.858642578125,-0.527099609375,-0.3662109076976776,3.082275152206421,0.8239745497703552,60.0,1363474.0,1.0
484116.1150321,286187.71875,306625.96875,313636.375,327047.78125,319748.25,271937.15625,262107.828125,273075.46875,-0.050537109375,0.85986328125,-0.52783203125,-0.4882812201976776,2.990722417831421,0.8544921278953552,60.0,1363475.0,1.0
484116.1174904,289142.90625,307291.8125,315189.90625,327527.375,320181.25,271882.53125,261953.875,273018.875,-0.05078125,0.85986328125,-0.52783203125,-0.6713866591453552,2.929687261581421,0.8239745497703552,60.0,1363476.0,1.0
484116.122574,291582.1875,306230.625,312316.65625,325226.46875,317734.09375,271663.65625,259479.0,272224.21875,-0.052001953125,0.858642578125,-0.52734375,-0.7934569716453552,2.929687261581421,0.9155272841453552,60.0,1363477.0,1.0
484116.1250397,290083.90625,304862.875,308913.46875,323247.09375,315740.59375,271557.78125,258052.515625,271742.40625,-0.051513671875,0.8564453125,-0.52587890625,-0.8239745497703552,2.807616949081421,0.8544921278953552,60.0,1363478.0,1.0
484116.1298961,286886.8125,305122.6875,309712.84375,324347.34375,316947.46875,271723.8125,259634.296875,272253.5625,-0.051025390625,0.8564453125,-0.525390625,-0.8850097060203552,2.624511480331421,0.8850097060203552,60.0,1363479.0,1.0
484116.1325804,286168.78125,306605.78125,313630.84375,327033.40625,319746.375,271915.5,262101.125,273060.8125,-0.051025390625,0.8564453125,-0.529052734375,-0.9460448622703552,2.441406011581421,0.9460448622703552,60.0,1363480.0,1.0
484116.1350736,289148.78125,307287.40625,315193.5,327541.9375,320190.46875,271879.5625,261960.046875,273029.0625,-0.051513671875,0.856201171875,-0.529296875,-0.9460448622703552,2.410888433456421,0.9765624403953552,60.0,1363481.0,1.0
484116.1375295,291589.78125,306233.125,312319.875,325250.4375,317745.8125,271665.0,259490.0,272239.4375,-0.05078125,0.8564453125,-0.530029296875,-1.0681151151657104,2.349853277206421,1.0070799589157104,60.0,1363482.0,1.0
484116.1400732,290073.4375,304847.6875,308898.71875,323253.71875,315740.59375,271533.125,258043.03125,271743.5,-0.050537109375,0.85693359375,-0.52880859375,-1.0375975370407104,2.288818120956421,1.0681151151657104,60.0,1363483.0,1.0
484116.140115,286887.4375,305114.375,309704.625,324365.3125,316957.40625,271712.5625,259631.34375,272264.90625,-0.05029296875,0.8544921875,-0.528564453125,-1.1291502714157104,2.105712652206421,1.0986326932907104,60.0,1363484.0,1.0
484116.1425053,286159.125,306600.5,313618.875,327046.1875,319748.96875,271924.4375,262095.859375,273063.75,-0.05078125,0.85498046875,-0.528564453125,-1.1596678495407104,2.075195074081421,1.2207030057907104,60.0,1363485.0,1.0
484116.1476318,289136.5625,307286.34375,315185.0,327541.59375,320193.03125,271884.75,261952.71875,273022.625,-0.052978515625,0.853759765625,-0.529296875,-1.1291502714157104,1.9226073026657104,1.1596678495407104,60.0,1363486.0,1.0
484116.1500622,291559.21875,306211.59375,312291.09375,325224.5,317725.59375,271635.3125,259456.828125,272204.5625,-0.054931640625,0.853759765625,-0.5302734375,-1.1596678495407104,1.8005369901657104,1.2207030057907104,60.0,1363487.0,1.0
484116.1501034,290074.34375,304855.71875,308902.5625,323264.0,315751.9375,271540.53125,258046.078125,271744.65625,-0.052490234375,0.85302734375,-0.53173828125,-1.2207030057907104,1.7700194120407104,1.2512205839157104,60.0,1363488.0,1.0
484116.1525023,286891.09375,305124.65625,309705.34375,324376.21875,316967.34375,271726.25,259639.484375,272273.6875,-0.05224609375,0.8515625,-0.52880859375,-1.2207030057907104,1.6784666776657104,1.2207030057907104,60.0,1363489.0,1.0
484116.1550589,286143.75,306585.3125,313593.125,327034.125,319732.40625,271917.75,262085.296875,273054.8125,-0.05224609375,0.85302734375,-0.527099609375,-1.0986326932907104,1.4648436307907104,1.1901854276657104,60.0,1363490.0,1.0
484116.1575404,289131.375,307276.875,315170.34375,327537.46875,320191.625,271877.15625,261955.03125,273028.90625,-0.049072265625,0.8515625,-0.527587890625,-0.8544921278953552,1.4648436307907104,1.0681151151657104,60.0,1363491.0,1.0
484116.15758,291560.90625,306200.9375,312277.65625,325220.40625,317722.65625,271644.25,259459.953125,272214.75,-0.0458984375,0.85400390625,-0.5283203125,-0.7934569716453552,1.4038084745407104,1.0070799589157104,60.0,1363492.0,1.0
484116.159904,290091.5,304860.1875,308904.15625,323271.15625,315756.03125,271561.8125,258057.96875,271759.5,-0.044921875,0.856689453125,-0.525634765625,-0.7324218153953552,1.4038084745407104,1.0986326932907104,60.0,1363493.0,1.0
484116.1676269,286890.71875,305110.8125,309695.6875,324372.28125,316954.90625,271722.65625,259632.78125,272263.9375,-0.0439453125,0.858642578125,-0.52392578125,-0.7324218153953552,1.3732908964157104,1.0681151151657104,60.0,1363494.0,1.0
484116.1676699,286167.875,306586.5625,313604.28125,327053.5,319739.9375,271923.46875,262096.921875,273062.875,-0.04345703125,0.863037109375,-0.526611328125,-0.7019042372703552,1.5258787870407104,1.1901854276657104,60.0,1363495.0,1.0
484116.1700219,289145.125,307261.65625,315164.34375,327552.40625,320178.28125,271882.96875,261951.1875,273027.03125,-0.044677734375,0.863525390625,-0.5244140625,-0.8544921278953552,1.4648436307907104,1.2817381620407104,60.0,1363496.0,1.0
484116.1750705,291590.0625,306199.15625,312291.34375,325253.75,317723.1875,271650.40625,259468.1875,272224.0625,-0.04296875,0.864013671875,-0.52685546875,-0.9765624403953552,1.5258787870407104,1.3732908964157104,60.0,1363497.0,1.0
484116.1751126,290091.9375,304824.4375,308888.0625,323273.375,315726.1875,271537.3125,258032.84375,271738.75,-0.044677734375,0.86083984375,-0.52685546875,-0.9765624403953552,1.5258787870407104,1.4953612089157104,60.0,1363498.0,1.0
484116.1775771,286922.03125,305097.46875,309707.03125,324402.40625,316955.25,271728.03125,259634.125,272272.0625,-0.045166015625,0.858642578125,-0.52685546875,-1.1291502714157104,1.6174315214157104,1.3122557401657104,60.0,1363499.0,1.0
484116.1861645,286225.1875,306590.40625,313640.84375,327110.8125,319763.4375,271966.75,262125.09375,273101.75,-0.044677734375,0.858154296875,-0.527099609375,-1.1291502714157104,1.5258787870407104,1.2817381620407104,60.0,1363500.0,1.0
484116.1888153,289225.34375,307273.65625,315210.40625,327619.71875,320207.875,271946.96875,261993.390625,273070.65625,-0.047119140625,0.860595703125,-0.52783203125,-1.1596678495407104,1.5869139432907104,1.3122557401657104,60.0,1363501.0,1.0
484116.1888581,291681.4375,306211.40625,312341.15625,325315.8125,317755.625,271723.90625,259509.671875,272263.40625,-0.04736328125,0.8623046875,-0.53076171875,-1.3122557401657104,1.6479490995407104,1.2817381620407104,60.0,1363502.0,1.0
484116.1912859,290170.28125,304818.625,308931.34375,323317.90625,315744.25,271581.65625,258052.515625,271754.84375,-0.049560546875,0.8642578125,-0.531982421875,-1.5563963651657104,1.6174315214157104,1.3732908964157104,60.0,1363503.0,1.0
484116.1950575,286985.15625,305075.9375,309741.5625,324428.34375,316958.5625,271735.96875,259638.859375,272274.84375,-0.051513671875,0.86279296875,-0.529052734375,-1.6784666776657104,1.4953612089157104,1.5563963651657104,60.0,1363504.0,1.0
484116.2188197,286266.5,306543.5625,313647.65625,327099.75,319742.25,271932.78125,262101.3125,273068.0625,-0.0498046875,0.856689453125,-0.52880859375,-1.7089842557907104,1.3732908964157104,1.4343260526657104,60.0,1363505.0,1.0
484116.2188624,289262.96875,307226.53125,315219.25,327596.03125,320184.375,271904.6875,261958.34375,273026.03125,-0.04833984375,0.852783203125,-0.523681640625,-1.5869139432907104,1.2817381620407104,1.4343260526657104,60.0,1363506.0,1.0
484116.2211582,291734.96875,306194.78125,312371.28125,325302.9375,317745.875,271691.09375,259490.890625,272244.78125,-0.04345703125,0.847900390625,-0.520263671875,-1.6174315214157104,1.2207030057907104,1.3122557401657104,60.0,1363507.0,1.0
484116.2237936,290250.65625,304850.625,308995.96875,323329.53125,315771.78125,271574.15625,258076.46875,271777.75,-0.046142578125,0.840576171875,-0.519287109375,-1.5869139432907104,1.2207030057907104,1.3122557401657104,60.0,1363508.0,1.0
484116.2262931,287040.75,305105.15625,309786.53125,324424.15625,316975.46875,271731.59375,259656.03125,272273.125,-0.0498046875,0.836669921875,-0.520751953125,-1.4648436307907104,1.1596678495407104,1.3732908964157104,60.0,1363509.0,1.0
484116.2287828,286307.625,306574.40625,313680.8125,327091.6875,319751.90625,271948.59375,262114.0,273060.90625,-0.0478515625,0.8369140625,-0.526123046875,-1.2207030057907104,1.1901854276657104,1.3122557401657104,60.0,1363510.0,1.0
484116.2313035,289308.125,307266.40625,315251.53125,327587.90625,320198.5,271916.5,261975.25,273029.78125,-0.0439453125,0.83837890625,-0.529541015625,-0.7019042372703552,1.0681151151657104,1.3122557401657104,60.0,1363511.0,1.0
484116.2338385,291763.15625,306217.9375,312387.28125,325280.65625,317746.25,271686.375,259491.609375,272228.4375,-0.044189453125,0.841796875,-0.527099609375,-0.3967284858226776,1.0681151151657104,1.1901854276657104,60.0,1363512.0,1.0
484116.2362293,290277.125,304869.5,309015.65625,323319.4375,315777.40625,271578.625,258077.71875,271776.3125,-0.046630859375,0.8447265625,-0.5263671875,-0.1220703050494194,1.1596678495407104,1.1901854276657104,60.0,1363513.0,1.0
484116.23627,287050.15625,305106.34375,309796.8125,324417.625,316974.46875,271735.09375,259654.5,272280.5625,-0.048828125,0.84814453125,-0.5244140625,0.1525878757238388,1.1291502714157104,1.0070799589157104,60.0,1363514.0,1.0
484116.2776205,286330.15625,306599.6875,313707.09375,327109.21875,319774.875,271953.34375,262138.234375,273090.0625,-0.050048828125,0.846923828125,-0.522216796875,0.2441406100988388,1.0375975370407104,0.8239745497703552,60.0,1363515.0,1.0
484116.2813721,289303.90625,307276.40625,315250.71875,327583.15625,320198.78125,271903.0,261976.3125,273030.25,-0.051513671875,0.847412109375,-0.522216796875,0.2746581733226776,1.0681151151657104,0.5187987685203552,60.0,1363516.0,1.0
484116.2814134,291746.4375,306228.21875,312374.75,325278.15625,317738.375,271678.59375,259487.9375,272221.0,-0.052001953125,0.848876953125,-0.526123046875,0.4882812201976776,1.0375975370407104,0.3662109076976776,60.0,1363517.0,1.0
484116.2814244,290233.3125,304867.71875,308978.8125,323307.8125,315750.875,271561.90625,258058.234375,271751.375,-0.051025390625,0.848388671875,-0.5263671875,0.7324218153953552,1.0070799589157104,0.2746581733226776,60.0,1363518.0,1.0
484116.2861904,287032.0,305138.34375,309782.5,324425.46875,316973.78125,271739.65625,259657.09375,272282.71875,-0.049072265625,0.851318359375,-0.52587890625,0.9155272841453552,1.0070799589157104,0.1525878757238388,60.0,1363519.0,1.0
484116.2912945,286308.0625,306624.03125,313687.0,327105.375,319766.5,271946.34375,262126.4375,273082.71875,-0.048828125,0.855712890625,-0.52734375,1.1291502714157104,0.8850097060203552,0.0610351525247097,60.0,1363520.0,1.0
484116.2938241,289284.59375,307301.28125,315237.21875,327584.78125,320199.21875,271895.46875,261970.234375,273030.9375,-0.047607421875,0.85791015625,-0.52490234375,1.1291502714157104,0.8544921278953552,-0.0610351525247097,60.0,1363521.0,1.0
484116.2961518,291720.78125,306249.59375,312362.78125,325278.5,317745.09375,271673.5,259489.453125,272233.09375,-0.04833984375,0.857421875,-0.525390625,1.1291502714157104,0.8544921278953552,-0.03051757626235485,60.0,1363522.0,1.0
484116.2988187,290208.90625,304891.125,308979.4375,323308.0,315768.84375,271565.03125,258072.1875,271768.09375,-0.049072265625,0.85888671875,-0.525146484375,1.2207030057907104,0.7934569716453552,-0.0915527269244194,60.0,1363523.0,1.0
484116.3012729,286969.5,305123.59375,309758.1875,324385.6875,316958.75,271700.65625,259633.3125,272256.59375,-0.0478515625,0.857421875,-0.527099609375,1.1901854276657104,0.8850097060203552,-0.1220703050494194,60.0,1363524.0,1.0
484116.3038105,286265.875,306620.34375,313676.875,327072.75,319762.375,271931.25,262114.0,273067.25,-0.0458984375,0.8564453125,-0.52490234375,1.2817381620407104,1.0681151151657104,-0.0610351525247097,60.0,1363525.0,1.0
484116.3086523,289263.40625,307318.8125,315245.09375,327570.28125,320212.4375,271914.34375,261979.359375,273044.53125,-0.046875,0.8564453125,-0.525146484375,1.2817381620407104,1.0986326932907104,-0.0915527269244194,60.0,1363526.0,1.0
484116.3112918,291644.5,306212.375,312311.1875,325209.40625,317707.625,271632.53125,259443.5,272198.125,-0.048583984375,0.857421875,-0.52587890625,1.3122557401657104,1.0375975370407104,0.03051757626235485,60.0,1363527.0,1.0
484116.3161737,290119.75,304839.1875,308905.59375,323228.15625,315716.0,271515.875,258015.765625,271720.59375,-0.04638671875,0.853515625,-0.52392578125,1.3732908964157104,1.1901854276657104,-0.03051757626235485,60.0,1363528.0,1.0
484116.3179165,286936.5,305121.53125,309731.53125,324358.6875,316956.15625,271709.875,259629.65625,272259.28125,-0.046875,0.8525390625,-0.52294921875,1.2817381620407104,1.3122557401657104,0.0610351525247097,60.0,1363529.0,1.0
484116.3250269,286260.15625,306645.46875,313685.125,327070.21875,319790.90625,271944.375,262134.65625,273095.5,-0.04736328125,0.853515625,-0.521484375,1.2817381620407104,1.4038084745407104,0.1525878757238388,60.0,1363530.0,1.0
484116.3274806,289216.75,307302.78125,315210.40625,327535.875,320202.25,271887.0,261960.046875,273034.4375,-0.0478515625,0.85302734375,-0.522705078125,1.3427733182907104,1.5258787870407104,0.3051757514476776,60.0,1363531.0,1.0
484116.3300834,291611.5,306221.96875,312297.34375,325200.46875,317724.59375,271645.78125,259455.125,272211.71875,-0.047607421875,0.851318359375,-0.521728515625,1.4343260526657104,1.4953612089157104,0.3967284858226776,60.0,1363532.0,1.0
484116.330122,290087.9375,304853.75,308896.125,323221.53125,315735.75,271533.28125,258028.640625,271728.46875,-0.048095703125,0.851806640625,-0.524658203125,1.4953612089157104,1.5563963651657104,0.4882812201976776,60.0,1363533.0,1.0
484116.3325358,286897.4375,305119.03125,309705.6875,324345.8125,316952.40625,271705.9375,259620.703125,272253.8125,-0.046875,0.854248046875,-0.525146484375,1.4953612089157104,1.5869139432907104,0.4882812201976776,60.0,1363534.0,1.0
484116.332576,286226.625,306638.40625,313651.6875,327065.59375,319775.0625,271946.0,262117.046875,273086.75,-0.048095703125,0.853515625,-0.5263671875,1.4648436307907104,1.7089842557907104,0.5493163466453552,60.0,1363535.0,1.0
484116.3349138,289189.46875,307299.3125,315179.0,327536.21875,320191.09375,271892.0,261945.734375,273028.0,-0.049072265625,0.853271484375,-0.524169921875,1.3732908964157104,1.8005369901657104,0.6408690810203552,60.0,1363536.0,1.0
484116.3375713,291550.34375,306178.0625,312229.84375,325173.8125,317676.78125,271620.46875,259409.796875,272178.53125,-0.04833984375,0.852294921875,-0.5234375,1.3732908964157104,1.8005369901657104,0.7324218153953552,60.0,1363537.0,1.0
484116.3400787,290046.34375,304825.9375,308847.9375,323213.65625,315704.625,271513.34375,258002.984375,271711.75,-0.049560546875,0.8515625,-0.52490234375,1.4343260526657104,1.8310545682907104,0.7629393935203552,60.0,1363538.0,1.0
484116.3401249,286889.21875,305124.03125,309695.40625,324361.5625,316957.0625,271708.34375,259623.21875,272261.59375,-0.04931640625,0.8515625,-0.5283203125,1.3732908964157104,1.7700194120407104,0.6408690810203552,60.0,1363539.0,1.0
484116.3449721,286201.84375,306618.84375,313629.0625,327056.28125,319762.09375,271934.90625,262099.609375,273080.75,-0.04736328125,0.853759765625,-0.5283203125,1.4343260526657104,1.8310545682907104,0.6408690810203552,60.0,1363540.0,1.0
484116.3450132,289155.0625,307269.96875,315143.25,327516.0,320166.3125,271886.71875,261923.46875,273022.28125,-0.0478515625,0.85205078125,-0.52734375,1.4038084745407104,1.9226073026657104,0.7019042372703552,60.0,1363541.0,1.0
484116.3476178,291521.5625,306162.21875,312193.1875,325164.4375,317657.90625,271626.28125,259398.53125,272180.875,-0.045166015625,0.853759765625,-0.52880859375,1.4038084745407104,2.075195074081421,0.7629393935203552,60.0,1363542.0,1.0
484116.3537784,290014.34375,304811.1875,308806.4375,323204.28125,315682.65625,271517.1875,257990.015625,271714.25,-0.044921875,0.855224609375,-0.530029296875,1.3427733182907104,2.105712652206421,0.7019042372703552,60.0,1363543.0,1.0
484116.3686166,286832.4375,305082.8125,309627.1875,324325.4375,316905.65625,271689.125,259583.609375,272231.03125,-0.045654296875,0.856689453125,-0.5283203125,1.2817381620407104,2.258300542831421,0.5493163466453552,60.0,1363544.0,1.0
484116.3686284,286150.0,306582.4375,313553.9375,327020.0,319704.09375,271912.84375,262056.25,273044.28125,-0.046630859375,0.856201171875,-0.531005859375,1.2207030057907104,2.380370855331421,0.6408690810203552,60.0,1363545.0,1.0
484116.3724497,289147.8125,307279.09375,315113.5625,327516.1875,320154.6875,271889.125,261921.59375,273023.34375,-0.04541015625,0.857421875,-0.5283203125,1.1596678495407104,2.380370855331421,0.5493163466453552,60.0,1363546.0,1.0
484116.3724623,291527.65625,306183.40625,312183.96875,325174.71875,317670.53125,271639.34375,259417.125,272199.75,-0.046142578125,0.857421875,-0.526611328125,1.0375975370407104,2.471923589706421,0.5187987685203552,60.0,1363547.0,1.0
484116.3724646,289990.03125,304799.5,308766.84375,323188.53125,315668.4375,271511.40625,257985.359375,271707.5625,-0.048583984375,0.857177734375,-0.52392578125,0.7934569716453552,2.593993902206421,0.5493163466453552,60.0,1363548.0,1.0
484116.3812714,286827.25,305088.71875,309612.1875,324330.1875,316910.5625,271696.5625,259598.8125,272242.90625,-0.048828125,0.858642578125,-0.526611328125,0.7629393935203552,2.593993902206421,0.5798339247703552,60.0,1363549.0,1.0
484116.3812868,286179.3125,306615.15625,313568.96875,327057.53125,319734.84375,271945.65625,262096.203125,273078.0625,-0.04833984375,0.85791015625,-0.52880859375,0.8239745497703552,2.716064214706421,0.4882812201976776,60.0,1363550.0,1.0
484116.3837781,289111.34375,307241.0,315057.40625,327493.5625,320118.03125,271865.96875,261895.765625,272993.65625,-0.048583984375,0.857177734375,-0.527099609375,0.7934569716453552,2.593993902206421,0.5187987685203552,60.0,1363551.0,1.0
484116.3874809,291493.9375,306150.15625,312127.1875,325158.8125,317638.78125,271621.90625,259399.609375,272178.8125,-0.0498046875,0.8564453125,-0.5283203125,0.5493163466453552,2.563476324081421,0.3662109076976776,60.0,1363552.0,1.0
484116.4188247,289970.90625,304780.90625,308725.34375,323190.6875,315649.03125,271512.03125,257983.21875,271704.6875,-0.049560546875,0.856689453125,-0.5302734375,0.5187987685203552,2.532958745956421,0.3356933295726776,60.0,1363553.0,1.0
484116.4188636,286797.5625,305057.96875,309554.15625,324323.65625,316872.90625,271683.15625,259579.578125,272225.84375,-0.048828125,0.85693359375,-0.528076171875,0.5798339247703552,2.685546636581421,0.3662109076976776,60.0,1363554.0,1.0
484116.4215745,286159.65625,306595.125,313520.875,327050.84375,319704.15625,271921.84375,262078.5,273067.53125,-0.04931640625,0.8564453125,-0.526611328125,0.3967284858226776,2.624511480331421,0.3356933295726776,60.0,1363555.0,1.0
484116.421616,289128.5,307257.65625,315047.84375,327519.21875,320123.65625,271878.75,261915.875,273021.03125,-0.04931640625,0.858154296875,-0.528564453125,0.3051757514476776,2.655029058456421,0.3662109076976776,60.0,1363556.0,1.0
484116.4216265,291473.75,306131.46875,312078.5625,325154.78125,317606.3125,271618.0625,259387.796875,272177.03125,-0.04833984375,0.859619140625,-0.53076171875,0.2441406100988388,2.624511480331421,0.3356933295726776,60.0,1363557.0,1.0
484116.4725181,289986.90625,304802.625,308718.03125,323218.75,315661.28125,271532.3125,258005.65625,271732.3125,-0.048828125,0.859619140625,-0.53125,0.1831054538488388,2.502441167831421,0.3662109076976776,60.0,1363558.0,1.0
484116.4725446,286836.1875,305099.625,309576.3125,324363.0625,316910.90625,271718.46875,259619.90625,272266.4375,-0.049072265625,0.861572265625,-0.5302734375,0.0610351525247097,2.655029058456421,0.2746581733226776,60.0,1363559.0,1.0
484116.4725465,286139.8125,306571.8125,313482.4375,327028.5625,319678.96875,271915.96875,262062.421875,273047.9375,-0.049560546875,0.860595703125,-0.528564453125,-0.03051757626235485,2.563476324081421,0.3356933295726776,60.0,1363560.0,1.0
484116.4725485,289089.6875,307212.3125,314977.75,327476.3125,320069.21875,271859.8125,261874.75,272980.78125,-0.048583984375,0.857177734375,-0.52880859375,-0.1220703050494194,2.655029058456421,0.4577636420726776,60.0,1363561.0,1.0
484116.4750082,291472.21875,306132.53125,312052.90625,325149.3125,317599.875,271620.46875,259385.125,272170.59375,-0.0498046875,0.855712890625,-0.531494140625,-0.1831054538488388,2.532958745956421,0.5187987685203552,60.0,1363562.0,1.0
484116.4798184,289959.375,304784.375,308675.0,323195.875,315635.875,271520.40625,257984.03125,271707.0,-0.0498046875,0.85498046875,-0.531494140625,-0.2136230319738388,2.502441167831421,0.3967284858226776,60.0,1363563.0,1.0
484116.4825519,286809.90625,305085.6875,309540.21875,324347.78125,316889.375,271707.90625,259603.0,272248.09375,-0.052490234375,0.857177734375,-0.52978515625,-0.2136230319738388,2.471923589706421,0.3967284858226776,60.0,1363564.0,1.0
484116.4848337,286147.75,306588.625,313465.875,327034.46875,319679.9375,271927.125,262063.390625,273052.15625,-0.05224609375,0.857177734375,-0.530029296875,-0.2441406100988388,2.410888433456421,0.3967284858226776,60.0,1363565.0,1.0
484116.4874126,289108.375,307241.375,314971.5,327496.0625,320081.03125,271877.78125,261885.921875,272996.0,-0.054443359375,0.85791015625,-0.529541015625,-0.3051757514476776,2.319335699081421,0.3967284858226776,60.0,1363566.0,1.0
484116.492536,291473.375,306135.6875,312024.1875,325153.78125,317589.15625,271622.15625,259378.859375,272163.71875,-0.055419921875,0.8544921875,-0.53076171875,-0.3662109076976776,2.319335699081421,0.5187987685203552,60.0,1363567.0,1.0
484116.4949556,289972.0625,304798.5,308656.9375,323207.40625,315636.6875,271529.0,257990.46875,271708.96875,-0.055419921875,0.850830078125,-0.531494140625,-0.3356933295726776,2.227782964706421,0.4882812201976776,60.0,1363568.0,1.0
484116.4973952,286812.9375,305094.96875,309507.65625,324350.03125,316877.65625,271725.78125,259601.046875,272244.09375,-0.05224609375,0.84814453125,-0.52978515625,-0.3356933295726776,2.044677495956421,0.4882812201976776,60.0,1363569.0,1.0
484116.4999734,286138.8125,306594.78125,313440.59375,327032.21875,319669.3125,271928.46875,262060.171875,273040.0625,-0.049560546875,0.843505859375,-0.52880859375,-0.2136230319738388,2.044677495956421,0.4577636420726776,60.0,1363570.0,1.0
484116.5049894,289098.28125,307244.21875,314947.375,327486.59375,320070.1875,271869.09375,261880.03125,272981.5,-0.047119140625,0.843505859375,-0.52783203125,-0.1220703050494194,2.014159917831421,0.4882812201976776,60.0,1363571.0,1.0
484116.5075565,291478.21875,306158.21875,312017.03125,325163.1875,317599.875,271638.96875,259394.59375,272179.34375,-0.044677734375,0.843994140625,-0.53076171875,0.03051757626235485,2.075195074081421,0.5798339247703552,60.0,1363572.0,1.0
484116.5098595,289958.09375,304801.90625,308632.28125,323203.1875,315632.21875,271522.5625,257989.390625,271711.03125,-0.043212890625,0.84375,-0.5302734375,0.2441406100988388,2.014159917831421,0.5798339247703552,60.0,1363573.0,1.0
484116.5123743,286784.34375,305075.5,309469.40625,324325.4375,316855.3125,271682.78125,259576.546875,272219.9375,-0.044921875,0.845703125,-0.53173828125,0.3356933295726776,2.075195074081421,0.6103515028953552,60.0,1363574.0,1.0
484116.5149843,286110.21875,306566.625,313400.875,327010.40625,319644.53125,271896.375,262033.171875,273018.0625,-0.043701171875,0.84765625,-0.530029296875,0.5798339247703552,2.075195074081421,0.7324218153953552,60.0,1363575.0,1.0
484116.5175522,289075.21875,307218.84375,314917.78125,327482.5625,320057.3125,271860.78125,261867.15625,272973.71875,-0.04345703125,0.8505859375,-0.5302734375,0.5798339247703552,2.197265386581421,0.8239745497703552,60.0,1363576.0,1.0
484116.5200051,291461.21875,306140.0625,311991.46875,325167.65625,317590.84375,271636.65625,259389.859375,272177.46875,-0.043212890625,0.85205078125,-0.52734375,0.6408690810203552,2.380370855331421,0.8544921278953552,60.0,1363577.0,1.0
484116.5225264,289921.53125,304765.4375,308578.90625,323191.75,315596.28125,271511.46875,257969.1875,271692.09375,-0.040283203125,0.853271484375,-0.526123046875,0.7019042372703552,2.441406011581421,1.0070799589157104,60.0,1363578.0,1.0
484116.5248907,286765.46875,305060.90625,309434.25,324334.03125,316838.125,271688.96875,259578.15625,272223.34375,-0.042236328125,0.85302734375,-0.52734375,0.7629393935203552,2.563476324081421,1.1901854276657104,60.0,1363579.0,1.0
484116.5249107,286114.875,306574.5,313386.75,327037.6875,319648.1875,271909.875,262050.171875,273035.0625,-0.045166015625,0.85205078125,-0.5263671875,0.7324218153953552,2.532958745956421,1.1596678495407104,60.0,1363580.0,1.0
