Time,FZ,C3,CZ,C4,PZ,PO7,OZ,PO8,AccX,AccY,AccZ,Gyro1,Gyro2,Gyro3,Battery,Counter,Validation
178971.2995218,306748.75,308626.03125,327646.8125,315149.59375,308709.6875,289114.28125,289938.71875,306931.84375,-0.090087890625,0.914794921875,-0.32421875,1.4343260526657104,-3.723144292831421,4.241942882537842,100.0,170085.0,1.0
178971.3148433,307043.6875,310194.21875,328863.90625,315881.84375,309756.5625,289511.15625,290354.90625,307072.125,-0.09033203125,0.9150390625,-0.32373046875,1.3732908964157104,-3.265380620956421,4.394530773162842,100.0,170086.0,1.0
178971.3148751,307307.8125,311387.25,330700.6875,316408.1875,311061.5625,289712.5,290614.625,307108.15625,-0.087646484375,0.915283203125,-0.322998046875,1.3122557401657104,-2.716064214706421,4.425048351287842,100.0,170087.0,1.0
178971.314882,307153.9375,310485.15625,330407.0,315962.5625,310717.25,289429.28125,290349.4375,307008.65625,-0.0859375,0.91455078125,-0.322265625,1.2207030057907104,-2.136230230331421,4.425048351287842,100.0,170088.0,1.0
178971.3185672,306844.59375,308877.6875,328613.5,315259.21875,309358.8125,289091.5,289964.09375,306912.8125,-0.083984375,0.9140625,-0.322021484375,1.1596678495407104,-1.5563963651657104,4.486083507537842,100.0,170089.0,1.0
178971.3185994,306713.34375,308604.5625,327456.125,315120.625,308676.96875,289103.09375,289936.65625,306935.15625,-0.080810546875,0.915283203125,-0.324951171875,1.0986326932907104,-0.8850097060203552,4.577636241912842,100.0,170090.0,1.0
178971.3186066,307006.0625,310170.34375,328644.96875,315846.53125,309714.375,289503.46875,290351.6875,307074.8125,-0.07666015625,0.918701171875,-0.3251953125,1.0986326932907104,-0.1831054538488388,4.547118663787842,100.0,170091.0,1.0
178971.3212092,307274.71875,311379.40625,330484.6875,316380.8125,311026.40625,289714.21875,290613.28125,307103.78125,-0.0751953125,0.919189453125,-0.323486328125,1.0681151151657104,0.4577636420726776,4.699706554412842,100.0,170092.0,1.0
178971.3237006,307127.375,310479.6875,330214.0625,315944.53125,310681.5625,289430.78125,290340.59375,306990.40625,-0.072509765625,0.918212890625,-0.324951171875,0.9765624403953552,1.1596678495407104,4.821776866912842,100.0,170093.0,1.0
178971.3262098,306831.34375,308862.0625,328444.25,315249.46875,309317.125,289091.5,289952.75,306899.375,-0.0703125,0.9189453125,-0.32421875,0.8850097060203552,1.7395018339157104,4.974364757537842,100.0,170094.0,1.0
178971.3398862,306709.3125,308576.75,327296.875,315113.75,308624.9375,289105.78125,289924.75,306927.71875,-0.071533203125,0.917236328125,-0.32666015625,0.7934569716453552,2.441406011581421,5.096435070037842,100.0,170095.0,1.0
178971.3430112,307004.1875,310142.4375,328491.0,315839.46875,309660.53125,289510.625,290341.75,307069.875,-0.068603515625,0.915771484375,-0.32568359375,0.5493163466453552,3.204345464706421,5.279540538787842,100.0,170096.0,1.0
178971.3430463,307278.21875,311365.1875,330352.90625,316382.34375,310984.84375,289723.59375,290611.6875,307111.09375,-0.0693359375,0.9140625,-0.322998046875,0.4882812201976776,3.936767339706421,5.462646007537842,100.0,170097.0,1.0
178971.3449099,307140.96875,310480.84375,330117.5,315956.75,310662.8125,289441.5,290344.34375,306999.96875,-0.066650390625,0.913818359375,-0.3212890625,0.5187987685203552,4.730224132537842,5.554198741912842,100.0,170098.0,1.0
178971.3473442,306849.15625,308855.4375,328366.46875,315261.90625,309300.15625,289099.09375,289952.46875,306904.75,-0.064453125,0.912353515625,-0.32177734375,0.5798339247703552,5.401610851287842,5.584716320037842,100.0,170099.0,1.0
178971.35617,306727.1875,308557.4375,327222.5,315120.1875,308599.90625,289104.625,289919.03125,306927.65625,-0.0625,0.91162109375,-0.32470703125,0.7019042372703552,6.042479991912842,5.737304210662842,100.0,170100.0,1.0
178971.3592572,307010.6875,310111.78125,328393.90625,315832.5,309618.4375,289500.4375,290332.375,307064.96875,-0.060302734375,0.910400390625,-0.32275390625,0.6713866591453552,6.774901866912842,5.889892101287842,100.0,170101.0,1.0
178971.3592918,307280.0,311351.15625,330252.75,316377.25,310949.96875,289715.8125,290604.96875,307106.09375,-0.058837890625,0.910888671875,-0.32177734375,0.5493163466453552,7.537841320037842,6.011962413787842,100.0,170102.0,1.0
178971.3699096,307142.5625,310481.9375,330029.78125,315958.375,310640.8125,289430.96875,290340.5,307000.40625,-0.056640625,0.911865234375,-0.32275390625,0.6103515028953552,8.270262718200684,6.225585460662842,100.0,170103.0,1.0
178971.3729788,306854.5,308852.5625,328281.96875,315266.4375,309275.75,289090.15625,289952.9375,306913.53125,-0.0556640625,0.911865234375,-0.3232421875,0.5798339247703552,9.033202171325684,6.378173351287842,100.0,170104.0,1.0
178971.3730117,306728.625,308535.28125,327127.1875,315119.1875,308559.5,289093.71875,289913.21875,306930.6875,-0.052734375,0.908935546875,-0.323974609375,0.5493163466453552,9.857176780700684,6.683349132537842,100.0,170105.0,1.0
178971.3748645,307017.3125,310092.28125,328300.375,315830.0625,309577.03125,289489.09375,290324.0625,307062.28125,-0.053955078125,0.9072265625,-0.32568359375,0.5493163466453552,10.681151390075684,6.866454601287842,100.0,170106.0,1.0
178971.3836247,307293.84375,311347.125,330176.78125,316378.75,310915.28125,289709.375,290599.4375,307099.75,-0.0517578125,0.909423828125,-0.325927734375,0.4882812201976776,11.413573265075684,7.049560070037842,100.0,170107.0,1.0
178971.3880205,307164.84375,310491.3125,329997.5,315973.65625,310625.59375,289437.03125,290340.40625,306991.46875,-0.048583984375,0.908447265625,-0.322998046875,0.4882812201976776,12.084959983825684,7.141112804412842,100.0,170108.0,1.0
178971.3880537,306882.84375,308858.21875,328291.25,315294.0,309276.90625,289100.34375,289956.15625,306913.25,-0.046875,0.9072265625,-0.3232421875,0.4577636420726776,12.786864280700684,7.263183116912842,100.0,170109.0,1.0
178971.39114,306763.75,308538.5625,327152.65625,315146.65625,308563.25,289102.65625,289918.78125,306940.25,-0.046630859375,0.906494140625,-0.3203125,0.4272460639476776,13.458250999450684,7.385253429412842,100.0,170110.0,1.0
178971.4129791,307045.65625,310087.375,328315.84375,315847.0625,309568.1875,289495.6875,290326.71875,307066.75,-0.046875,0.9091796875,-0.322265625,0.3967284858226776,14.251708030700684,7.507323741912842,100.0,170111.0,1.0
178971.4130117,307324.15625,311359.53125,330221.28125,316408.4375,310925.125,289724.125,290614.8125,307115.9375,-0.04296875,0.909423828125,-0.319091796875,0.3967284858226776,14.984129905700684,7.812499523162842,100.0,170112.0,1.0
178971.414912,307198.625,310512.0625,330066.15625,316007.71875,310645.53125,289449.375,290360.71875,307012.21875,-0.04248046875,0.91015625,-0.320556640625,0.3051757514476776,15.686034202575684,7.995604991912842,100.0,170113.0,1.0
178971.4174356,306913.875,308871.09375,328364.40625,315316.875,309288.96875,289101.40625,289966.875,306919.78125,-0.04150390625,0.91064453125,-0.320556640625,0.2136230319738388,16.387937545776367,8.117674827575684,100.0,170114.0,1.0
178971.4199087,306785.21875,308533.3125,327220.0,315155.6875,308562.625,289097.75,289926.375,306944.625,-0.041259765625,0.908935546875,-0.31689453125,0.0915527269244194,17.059324264526367,8.300780296325684,100.0,170115.0,1.0
178971.4224116,307056.21875,310074.0625,328369.84375,315852.53125,309554.96875,289490.96875,290337.5625,307079.71875,-0.04052734375,0.90966796875,-0.31640625,0.0915527269244194,17.791746139526367,8.575438499450684,100.0,170116.0,1.0
178971.4249082,307333.71875,311362.75,330280.46875,316412.21875,310918.0625,289717.78125,290618.1875,307111.28125,-0.038330078125,0.9111328125,-0.31884765625,0.03051757626235485,18.554685592651367,8.666991233825684,100.0,170117.0,1.0
178971.4273767,307206.6875,310527.96875,330150.5625,316015.15625,310657.78125,289442.9375,290362.6875,307003.71875,-0.035888671875,0.91162109375,-0.318359375,-0.1525878757238388,19.073484420776367,8.880614280700684,100.0,170118.0,1.0
178971.4323683,306916.46875,308874.5625,328453.8125,315323.84375,309299.53125,289098.90625,289969.71875,306912.0,-0.036376953125,0.91162109375,-0.320068359375,-0.3356933295726776,19.683835983276367,9.063719749450684,100.0,170119.0,1.0
178971.4391695,306786.03125,308524.8125,327301.4375,315157.90625,308565.40625,289094.15625,289923.5,306940.6875,-0.037109375,0.9130859375,-0.319580078125,-0.3662109076976776,20.263669967651367,9.155272483825684,100.0,170120.0,1.0
178971.4391891,307063.09375,310071.375,328445.3125,315852.15625,309557.1875,289488.28125,290333.875,307081.0625,-0.036376953125,0.91455078125,-0.318603515625,-0.5187987685203552,20.843503952026367,9.307860374450684,100.0,170121.0,1.0
178971.4436314,307341.78125,311373.125,330360.21875,316413.90625,310928.34375,289715.09375,290616.40625,307112.1875,-0.033935546875,0.914794921875,-0.319580078125,-0.5798339247703552,21.392820358276367,9.490965843200684,100.0,170122.0,1.0
178971.4462126,307218.75,310554.78125,330255.34375,316024.71875,310686.65625,289445.09375,290361.96875,307002.21875,-0.034912109375,0.916015625,-0.319091796875,-0.6408690810203552,21.911619186401367,9.552000999450684,100.0,170123.0,1.0
178971.4511716,306938.28125,308904.625,328579.25,315339.0625,309342.625,289099.0,289968.03125,306914.78125,-0.03173828125,0.916259765625,-0.3173828125,-0.7629393935203552,22.491453170776367,9.765624046325684,100.0,170124.0,1.0
178971.4536649,306814.28125,308539.65625,327422.125,315174.09375,308600.09375,289094.15625,289924.03125,306940.4375,-0.034912109375,0.9189453125,-0.3154296875,-0.9155272841453552,22.979734420776367,9.887694358825684,100.0,170125.0,1.0
178971.456211,307096.96875,310085.6875,328557.6875,315872.28125,309585.53125,289493.71875,290339.15625,307084.375,-0.034423828125,0.91796875,-0.31640625,-1.1596678495407104,23.437498092651367,10.009764671325684,100.0,170126.0,1.0
178971.4679801,307384.25,311414.625,330499.15625,316449.5625,310974.03125,289733.25,290631.0625,307121.125,-0.035400390625,0.920166015625,-0.316650390625,-1.5258787870407104,23.864744186401367,10.131834983825684,100.0,170127.0,1.0
178971.4680125,307262.375,310608.53125,330414.40625,316067.28125,310739.6875,289466.71875,290380.5625,307015.34375,-0.03662109375,0.920654296875,-0.318603515625,-1.6479490995407104,24.200437545776367,10.345458030700684,100.0,170128.0,1.0
178971.4704826,306978.25,308948.25,328741.6875,315382.0625,309392.0625,289120.46875,289987.34375,306929.96875,-0.035400390625,0.921630859375,-0.31689453125,-1.8005369901657104,24.505613327026367,10.253905296325684,100.0,170129.0,1.0
178971.4705159,306844.59375,308563.0,327578.875,315204.21875,308637.1875,289106.78125,289933.78125,306952.125,-0.0341796875,0.92431640625,-0.31396484375,-1.8920897245407104,24.688718795776367,10.375975608825684,100.0,170130.0,1.0
178971.4724148,307113.6875,310090.78125,328685.46875,315877.46875,309598.78125,289494.1875,290337.28125,307081.875,-0.032958984375,0.92529296875,-0.31591796875,-2.136230230331421,24.963376998901367,10.437010765075684,100.0,170131.0,1.0
178971.4812102,307398.09375,311427.9375,330618.0,316454.9375,310984.5,289736.03125,290635.625,307128.53125,-0.030517578125,0.926513671875,-0.313232421875,-2.319335699081421,25.207517623901367,10.375975608825684,100.0,170132.0,1.0
178971.4855049,307277.40625,310634.09375,330552.71875,316078.71875,310772.21875,289471.375,290385.75,307008.03125,-0.03125,0.927734375,-0.313232421875,-2.593993902206421,25.451658248901367,10.467528343200684,100.0,170133.0,1.0
178971.4855365,306994.78125,308968.53125,328892.4375,315395.03125,309436.5,289120.90625,289991.625,306928.34375,-0.03173828125,0.929931640625,-0.313720703125,-2.807616949081421,25.665281295776367,10.314940452575684,100.0,170134.0,1.0
178971.4934459,306864.96875,308571.03125,327721.75,315210.84375,308674.84375,289103.1875,289932.90625,306945.6875,-0.0322265625,0.928466796875,-0.312255859375,-2.990722417831421,25.756834030151367,10.345458030700684,100.0,170135.0,1.0
178971.5017551,307130.0625,310086.3125,328803.84375,315874.78125,309619.15625,289483.1875,290325.21875,307069.71875,-0.0341796875,0.927978515625,-0.31396484375,-3.234863042831421,25.878904342651367,10.223387718200684,100.0,170136.0,1.0
178971.5017872,307411.6875,311430.71875,330731.28125,316453.40625,311004.0625,289723.15625,290622.65625,307115.125,-0.033447265625,0.92431640625,-0.311767578125,-3.540038824081421,25.970457077026367,10.009764671325684,100.0,170137.0,1.0
178971.5036147,307298.875,310658.96875,330679.3125,316092.65625,310806.46875,289471.8125,290383.96875,307024.375,-0.03564453125,0.92333984375,-0.310791015625,-3.906249761581421,25.970457077026367,9.826659202575684,100.0,170138.0,1.0
178971.5210361,307015.96875,308986.5,329019.75,315405.5625,309469.125,289122.34375,289986.71875,306930.78125,-0.03662109375,0.9208984375,-0.309326171875,-4.028319835662842,25.909421920776367,9.643553733825684,100.0,170139.0,1.0
178971.521067,306883.375,308566.125,327832.78125,315216.90625,308693.96875,289097.5625,289925.125,306942.84375,-0.035400390625,0.919677734375,-0.310302734375,-4.150390148162842,25.909421920776367,9.460448265075684,100.0,170140.0,1.0
178971.5210738,307145.0,310074.6875,328889.5,315880.3125,309625.15625,289483.90625,290323.6875,307074.375,-0.035400390625,0.91748046875,-0.31005859375,-4.180907726287842,25.817869186401367,9.246825218200684,100.0,170141.0,1.0
178971.5237055,307424.375,311436.34375,330808.59375,316459.6875,311012.03125,289731.1875,290628.46875,307130.0625,-0.034912109375,0.918212890625,-0.31103515625,-4.089354991912842,25.543210983276367,8.972167015075684,100.0,170142.0,1.0
178971.5262108,307304.125,310677.28125,330763.625,316093.8125,310821.84375,289475.9375,290388.78125,307020.1875,-0.03466796875,0.916748046875,-0.31103515625,-4.058837413787842,25.329587936401367,8.666991233825684,100.0,170143.0,1.0
178971.5286651,307014.90625,309002.96875,329100.5,315404.125,309489.5,289127.53125,289989.59375,306924.34375,-0.033935546875,0.915283203125,-0.31005859375,-4.058837413787842,25.054929733276367,8.483885765075684,100.0,170144.0,1.0
178971.5336862,306873.0,308555.375,327874.4375,315202.09375,308686.375,289102.65625,289921.8125,306942.46875,-0.03271484375,0.91845703125,-0.30908203125,-4.150390148162842,24.841306686401367,8.483885765075684,100.0,170145.0,1.0
178971.5362005,307130.25,310046.0625,328894.03125,315851.53125,309591.78125,289484.6875,290312.59375,307069.625,-0.030517578125,0.921142578125,-0.309814453125,-4.058837413787842,24.658201217651367,8.300780296325684,100.0,170146.0,1.0
178971.5398764,307416.625,311423.375,330820.84375,316440.625,310990.90625,289737.0,290621.96875,307124.875,-0.029296875,0.924560546875,-0.30859375,-3.997802495956421,24.414060592651367,8.178709983825684,100.0,170147.0,1.0
178971.5655073,307294.125,310674.78125,330776.5,316082.5625,310810.6875,289486.21875,290387.4375,307015.4375,-0.032470703125,0.92724609375,-0.307373046875,-3.967284917831421,24.200437545776367,7.965087413787842,100.0,170148.0,1.0
178971.5655431,306998.4375,308989.46875,329092.875,315388.03125,309468.59375,289135.125,289991.53125,306922.90625,-0.034423828125,0.93017578125,-0.3056640625,-4.119872570037842,23.834226608276367,7.781981945037842,100.0,170149.0,1.0
178971.5673707,306854.96875,308534.1875,327847.71875,315180.625,308661.4375,289109.90625,289923.96875,306941.6875,-0.03759765625,0.929931640625,-0.3046875,-4.394530773162842,23.529050827026367,7.537841320037842,100.0,170150.0,1.0
178971.5699966,307108.34375,310016.375,328831.5625,315824.625,309551.03125,289489.625,290310.625,307068.1875,-0.03955078125,0.927490234375,-0.30419921875,-4.608153820037842,23.101804733276367,7.324218273162842,100.0,170151.0,1.0
178971.5724729,307388.96875,311401.46875,330730.5625,316410.9375,310944.15625,289740.5,290621.78125,307123.625,-0.040771484375,0.92431640625,-0.30224609375,-4.638671398162842,22.491453170776367,7.110595226287842,100.0,170152.0,1.0
178971.57493,307271.875,310675.59375,330694.0625,316064.5,310786.71875,289493.46875,290399.25,307034.125,-0.04296875,0.92236328125,-0.3046875,-4.638671398162842,21.881101608276367,6.896972179412842,100.0,170153.0,1.0
178971.5774705,306979.5,308994.03125,329013.5,315372.59375,309459.8125,289137.875,289992.875,306924.4375,-0.044189453125,0.921875,-0.30419921875,-4.608153820037842,21.270750045776367,6.500243663787842,100.0,170154.0,1.0
178971.5799942,306829.03125,308513.28125,327741.9375,315154.59375,308636.65625,289100.6875,289913.84375,306930.40625,-0.043212890625,0.920654296875,-0.301513671875,-4.638671398162842,20.629880905151367,6.072997570037842,100.0,170155.0,1.0
178971.5824706,307073.90625,309970.6875,328679.125,315787.78125,309493.4375,289473.25,290301.6875,307070.5,-0.041748046875,0.918701171875,-0.30224609375,-4.516601085662842,20.111082077026367,5.828856945037842,100.0,170156.0,1.0
178971.5855608,307356.53125,311363.21875,330571.84375,316382.78125,310881.5,289728.40625,290614.8125,307124.875,-0.039794921875,0.920166015625,-0.30224609375,-4.425048351287842,19.439695358276367,5.523681163787842,100.0,170157.0,1.0
178971.5856146,307249.78125,310658.96875,330567.65625,316051.53125,310744.0625,289488.1875,290394.5,307016.5,-0.040771484375,0.919189453125,-0.300048828125,-4.394530773162842,18.737791061401367,5.065917491912842,100.0,170158.0,1.0
178971.5874111,306964.375,308981.6875,328913.625,315369.8125,309428.53125,289137.1875,289996.5625,306923.4375,-0.042236328125,0.918212890625,-0.29931640625,-4.241942882537842,18.096921920776367,4.730224132537842,100.0,170159.0,1.0
178971.5912352,306811.875,308484.84375,327640.5625,315146.03125,308594.53125,289090.875,289911.15625,306931.125,-0.041748046875,0.918701171875,-0.297607421875,-4.119872570037842,17.395017623901367,4.364013195037842,100.0,170160.0,1.0
178971.6005639,307052.46875,309936.0,328567.34375,315771.25,309442.84375,289457.15625,290290.0625,307058.28125,-0.044677734375,0.919677734375,-0.29736328125,-3.936767339706421,16.723630905151367,4.028319835662842,100.0,170161.0,1.0
178971.6006129,307340.625,311343.8125,330466.90625,316371.96875,310838.21875,289715.375,290607.84375,307114.40625,-0.0439453125,0.919189453125,-0.2978515625,-3.875732183456421,15.960692405700684,3.753661870956421,100.0,170162.0,1.0
178971.6052721,307235.65625,310659.5,330487.46875,316051.96875,310717.6875,289480.6875,290392.625,307015.71875,-0.04443359375,0.9208984375,-0.29833984375,-3.723144292831421,15.167235374450684,3.448486089706421,100.0,170163.0,1.0
178971.6099724,306946.34375,308980.15625,328840.59375,315373.84375,309401.4375,289130.65625,289997.71875,306929.625,-0.044677734375,0.923095703125,-0.297119140625,-3.570556402206421,14.526366233825684,2.960204839706421,100.0,170164.0,1.0
178971.612495,306799.25,308476.25,327571.8125,315150.9375,308568.8125,289087.65625,289911.625,306935.875,-0.042724609375,0.92236328125,-0.30029296875,-3.540038824081421,13.641356468200684,2.655029058456421,100.0,170165.0,1.0
178971.6162691,307043.34375,309917.15625,328498.15625,315770.53125,309419.15625,289454.3125,290284.53125,307047.34375,-0.04296875,0.923583984375,-0.2978515625,-3.417968511581421,12.817381858825684,2.319335699081421,100.0,170166.0,1.0
178971.6255653,307336.15625,311339.34375,330413.15625,316371.625,310828.125,289721.09375,290606.9375,307106.53125,-0.040771484375,0.922607421875,-0.297607421875,-3.326415777206421,12.054442405700684,2.075195074081421,100.0,170167.0,1.0
178971.6256175,307234.5,310673.25,330457.875,316057.4375,310723.6875,289483.96875,290395.125,307011.96875,-0.042236328125,0.92333984375,-0.296875,-3.295898199081421,11.291502952575684,1.8005369901657104,100.0,170168.0,1.0
178971.6274702,306954.03125,309000.90625,328847.03125,315385.90625,309431.3125,289132.15625,289999.6875,306922.0,-0.042724609375,0.9267578125,-0.294921875,-3.082275152206421,10.650633811950684,1.4953612089157104,100.0,170169.0,1.0
178971.6312426,306810.96875,308481.8125,327580.125,315163.0,308589.90625,289092.03125,289918.21875,306943.1875,-0.04296875,0.927490234375,-0.291748046875,-2.960204839706421,9.826659202575684,1.1291502714157104,100.0,170170.0,1.0
178971.6505653,307055.9375,309912.59375,328485.28125,315782.0625,309415.9375,289459.84375,290297.3125,307078.65625,-0.04443359375,0.92822265625,-0.295166015625,-3.021239995956421,8.972167015075684,0.8850097060203552,100.0,170171.0,1.0
178971.650614,307350.8125,311341.75,330410.5625,316393.0625,310826.78125,289723.6875,290612.125,307117.28125,-0.043212890625,0.9287109375,-0.29296875,-2.868652105331421,8.087157249450684,0.7019042372703552,100.0,170172.0,1.0
178971.6573809,307257.375,310692.75,330492.65625,316089.25,310745.84375,289492.75,290406.65625,307019.46875,-0.043212890625,0.928466796875,-0.292724609375,-2.960204839706421,7.232665538787842,0.5798339247703552,100.0,170173.0,1.0
178971.6574297,306977.96875,309022.53125,328903.96875,315418.53125,309459.5625,289139.59375,290014.0,306932.5625,-0.044921875,0.926513671875,-0.296875,-2.868652105331421,6.439208507537842,0.3356933295726776,100.0,170174.0,1.0
178971.6574415,306833.3125,308487.4375,327645.46875,315186.96875,308614.40625,289089.34375,289921.09375,306943.28125,-0.045654296875,0.923583984375,-0.296875,-2.685546636581421,5.737304210662842,0.1831054538488388,100.0,170175.0,1.0
178971.6599324,307075.25,309902.75,328533.90625,315795.84375,309426.3125,289456.34375,290296.34375,307074.375,-0.0419921875,0.921630859375,-0.2978515625,-2.471923589706421,4.943847179412842,-0.0915527269244194,100.0,170176.0,1.0
178971.6624942,307375.21875,311349.90625,330468.9375,316413.375,310848.5,289731.375,290625.71875,307133.09375,-0.041748046875,0.921142578125,-0.299072265625,-2.166747808456421,4.180907726287842,-0.2746581733226776,100.0,170177.0,1.0
178971.6674698,307283.5625,310718.15625,330581.34375,316114.84375,310788.5,289504.1875,290423.375,307033.59375,-0.0380859375,0.91943359375,-0.299560546875,-1.9836424589157104,3.509521245956421,-0.3356933295726776,100.0,170178.0,1.0
178971.6699695,307003.1875,309041.75,329000.15625,315441.4375,309506.21875,289150.0625,290026.3125,306935.6875,-0.037109375,0.92138671875,-0.29833984375,-1.6784666776657104,2.685546636581421,-0.5493163466453552,100.0,170179.0,1.0
178971.6724702,306849.84375,308485.5625,327717.53125,315199.5,308641.3125,289095.96875,289923.0625,306941.6875,-0.0380859375,0.918701171875,-0.294921875,-1.3122557401657104,1.9226073026657104,-0.7629393935203552,100.0,170180.0,1.0
178971.6767972,307083.375,309883.25,328583.53125,315796.5625,309433.4375,289455.90625,290283.8125,307054.0625,-0.03857421875,0.91845703125,-0.294189453125,-1.0681151151657104,1.2512205839157104,-0.9765624403953552,100.0,170181.0,1.0
178971.6768459,307387.8125,311343.0,330535.8125,316421.875,310865.75,289735.5625,290619.09375,307120.5,-0.04052734375,0.91943359375,-0.296142578125,-0.8850097060203552,0.6103515028953552,-1.1291502714157104,100.0,170182.0,1.0
178971.6900052,307301.625,310732.0,330658.3125,316131.375,310809.78125,289515.09375,290426.34375,307041.90625,-0.042724609375,0.91552734375,-0.299072265625,-0.7019042372703552,0.0,-1.2512205839157104,100.0,170183.0,1.0
178971.6930065,307027.96875,309065.90625,329088.15625,315459.21875,309534.65625,289157.5625,290032.125,306953.75,-0.04052734375,0.9130859375,-0.299072265625,-0.4577636420726776,-0.6713866591453552,-1.4343260526657104,100.0,170184.0,1.0
178971.6930504,306874.09375,308496.75,327807.21875,315210.40625,308670.09375,289098.28125,289920.90625,306942.125,-0.0400390625,0.90966796875,-0.301025390625,-0.1831054538488388,-1.3122557401657104,-1.6174315214157104,100.0,170185.0,1.0
178971.6949226,307109.40625,309881.5625,328658.1875,315807.53125,309455.8125,289460.75,290293.125,307079.53125,-0.0400390625,0.90478515625,-0.2998046875,0.2746581733226776,-1.9836424589157104,-1.8310545682907104,100.0,170186.0,1.0
178971.6987273,307411.78125,311342.1875,330589.8125,316432.84375,310873.96875,289739.34375,290624.0,307140.34375,-0.04248046875,0.903564453125,-0.3037109375,0.7324218153953552,-2.624511480331421,-2.136230230331421,100.0,170187.0,1.0
178971.7143149,307328.53125,310754.34375,330743.875,316149.625,310844.46875,289517.78125,290419.625,307027.6875,-0.04150390625,0.900390625,-0.301513671875,1.3122557401657104,-3.265380620956421,-2.410888433456421,100.0,170188.0,1.0
178971.7143759,307048.6875,309092.8125,329193.65625,315478.15625,309583.375,289165.6875,290026.6875,306935.78125,-0.04150390625,0.899169921875,-0.30419921875,1.8005369901657104,-3.875732183456421,-2.655029058456421,100.0,170189.0,1.0
178971.7162679,306882.40625,308503.8125,327889.90625,315218.34375,308701.65625,289102.3125,289919.75,306942.03125,-0.041015625,0.89990234375,-0.304931640625,2.197265386581421,-4.486083507537842,-2.807616949081421,100.0,170190.0,1.0
178971.7187188,307106.09375,309870.75,328713.8125,315803.0,309465.09375,289456.8125,290281.75,307067.65625,-0.042236328125,0.9013671875,-0.3017578125,2.563476324081421,-5.004882335662842,-3.021239995956421,100.0,170191.0,1.0
178971.7212676,307406.78125,311344.15625,330654.1875,316430.8125,310889.1875,289734.15625,290616.3125,307126.3125,-0.042236328125,0.902099609375,-0.302001953125,3.021239995956421,-5.645751476287842,-3.204345464706421,100.0,170192.0,1.0
178971.7237268,307325.6875,310774.03125,330822.8125,316155.25,310872.09375,289519.3125,290428.375,307034.65625,-0.0400390625,0.901611328125,-0.303955078125,3.509521245956421,-6.042479991912842,-3.448486089706421,100.0,170193.0,1.0
178971.7324425,307050.03125,309116.40625,329273.5625,315480.125,309613.15625,289164.1875,290033.84375,306944.53125,-0.04052734375,0.901123046875,-0.302001953125,3.906249761581421,-6.469726085662842,-3.784179449081421,100.0,170194.0,1.0
178971.7355763,306879.8125,308506.5625,327952.78125,315209.21875,308713.625,289095.96875,289919.65625,306939.625,-0.041015625,0.900146484375,-0.302734375,4.394530773162842,-6.927489757537842,-4.058837413787842,100.0,170195.0,1.0
178971.735625,307100.375,309862.59375,328753.21875,315790.1875,309462.34375,289449.375,290278.8125,307061.84375,-0.041748046875,0.902099609375,-0.3037109375,4.730224132537842,-7.324218273162842,-4.211425304412842,100.0,170196.0,1.0
178971.7437205,307401.84375,311349.4375,330699.4375,316427.75,310894.0,289733.4375,290616.5,307125.6875,-0.040283203125,0.904296875,-0.30615234375,5.035399913787842,-7.751464366912842,-4.394530773162842,100.0,170197.0,1.0
178971.7480701,307322.46875,310801.65625,330891.03125,316158.5625,310892.9375,289518.84375,290429.0,307030.8125,-0.04052734375,0.90869140625,-0.305419921875,5.401610851287842,-8.087157249450684,-4.638671398162842,100.0,170198.0,1.0
178971.7481188,307045.5625,309142.53125,329347.34375,315481.125,309635.59375,289162.84375,290033.3125,306933.1875,-0.03955078125,0.90966796875,-0.3046875,5.645751476287842,-8.392333030700684,-4.974364757537842,100.0,170199.0,1.0
178971.7498942,306878.90625,308521.9375,328017.84375,315210.21875,308733.40625,289092.03125,289917.78125,306934.875,-0.039306640625,0.9091796875,-0.307861328125,5.828856945037842,-8.605956077575684,-5.126952648162842,100.0,170200.0,1.0
178971.761272,307096.09375,309861.625,328791.59375,315780.375,309465.375,289439.28125,290270.3125,307054.78125,-0.04150390625,0.91064453125,-0.30810546875,6.164550304412842,-8.911131858825684,-5.340575695037842,100.0,170201.0,1.0
178971.7642763,307405.15625,311363.3125,330753.1875,316426.40625,310913.5,289727.0,290616.59375,307124.875,-0.041259765625,0.9111328125,-0.31005859375,6.408690929412842,-9.277342796325684,-5.584716320037842,100.0,170202.0,1.0
178971.7643248,307328.53125,310830.875,330965.78125,316170.0,310926.5625,289519.3125,290439.375,307044.78125,-0.039794921875,0.912109375,-0.310546875,6.622313976287842,-9.460448265075684,-5.798339366912842,100.0,170203.0,1.0
178971.7662713,307047.4375,309167.46875,329415.65625,315486.3125,309660.28125,289156.125,290032.9375,306931.21875,-0.042724609375,0.911865234375,-0.31201171875,6.866454601287842,-9.765624046325684,-6.103515148162842,100.0,170204.0,1.0
178971.7755661,306878.8125,308536.6875,328077.59375,315207.8125,308753.875,289083.8125,289914.5625,306926.9375,-0.045166015625,0.9130859375,-0.313232421875,6.988524913787842,-10.009764671325684,-6.286620616912842,100.0,170205.0,1.0
178971.7756184,307090.53125,309859.375,328828.5,315777.59375,309471.4375,289431.0625,290265.65625,307050.3125,-0.047607421875,0.913818359375,-0.318603515625,7.232665538787842,-10.284422874450684,-6.530761241912842,100.0,170206.0,1.0
178971.7774673,307398.71875,311367.6875,330789.65625,316431.15625,310920.5625,289719.65625,290616.59375,307129.4375,-0.04833984375,0.913818359375,-0.318603515625,7.385253429412842,-10.406493186950684,-6.713866710662842,100.0,170207.0,1.0
178971.7912218,307322.5625,310849.125,331013.96875,316175.90625,310946.125,289513.5625,290437.78125,307038.59375,-0.05078125,0.915771484375,-0.31884765625,7.476806163787842,-10.620116233825684,-6.958007335662842,100.0,170208.0,1.0
178971.7942767,307040.46875,309185.96875,329471.25,315495.15625,309688.875,289155.6875,290036.59375,306935.59375,-0.052490234375,0.91552734375,-0.319091796875,7.598876476287842,-10.742186546325684,-7.110595226287842,100.0,170209.0,1.0
178971.7943247,306862.09375,308525.6875,328106.71875,315208.96875,308758.15625,289081.75,289915.625,306938.71875,-0.05224609375,0.915283203125,-0.32080078125,7.720946788787842,-11.047362327575684,-7.293700695037842,100.0,170210.0,1.0
178971.7962697,307072.21875,309834.8125,328837.0,315769.375,309460.0,289428.5625,290264.6875,307062.125,-0.05078125,0.916748046875,-0.320556640625,7.904052257537842,-11.199950218200684,-7.446288585662842,100.0,170211.0,1.0
178971.7987079,307382.625,311351.78125,330793.75,316420.53125,310904.03125,289725.375,290609.4375,307121.75,-0.051513671875,0.916748046875,-0.32080078125,8.087157249450684,-11.322020530700684,-7.629394054412842,100.0,170212.0,1.0
178971.8074205,307314.0625,310856.0,331041.875,316175.8125,310946.84375,289530.90625,290439.28125,307030.625,-0.0537109375,0.9150390625,-0.32275390625,8.056639671325684,-11.505125999450684,-7.629394054412842,100.0,170213.0,1.0
178971.8105668,307034.65625,309196.6875,329511.125,315499.90625,309700.78125,289170.53125,290043.3125,306937.375,-0.0537109375,0.912841796875,-0.322509765625,8.117674827575684,-11.657713890075684,-7.751464366912842,100.0,170214.0,1.0
178971.8106171,306855.59375,308521.78125,328131.125,315205.46875,308760.75,289089.25,289917.59375,306934.875,-0.05322265625,0.911865234375,-0.323974609375,8.209227561950684,-11.810301780700684,-7.873534679412842,100.0,170215.0,1.0
178971.8122819,307061.84375,309814.25,328830.5625,315758.5625,309446.25,289433.5625,290259.59375,307045.03125,-0.0546875,0.91552734375,-0.325439453125,8.361815452575684,-11.901854515075684,-7.873534679412842,100.0,170216.0,1.0
178971.8199949,307373.6875,311338.4375,330785.53125,316419.09375,310895.875,289734.40625,290613.0,307120.21875,-0.054931640625,0.9140625,-0.3232421875,8.544920921325684,-12.054442405700684,-7.965087413787842,100.0,170217.0,1.0
178971.8362746,307302.78125,310849.84375,331038.5625,316176.96875,310942.5625,289535.21875,290445.09375,307033.9375,-0.055908203125,0.9130859375,-0.32666015625,8.666991233825684,-12.054442405700684,-7.934569835662842,100.0,170218.0,1.0
178971.8393173,307032.59375,309202.5,329525.25,315505.15625,309708.8125,289177.125,290050.03125,306938.71875,-0.057861328125,0.912841796875,-0.324951171875,8.789061546325684,-12.145995140075684,-7.873534679412842,100.0,170219.0,1.0
178971.8393654,306862.65625,308525.78125,328145.875,315207.90625,308772.03125,289092.03125,289922.34375,306940.25,-0.062744140625,0.913818359375,-0.326416015625,8.697508811950684,-12.237547874450684,-7.781981945037842,100.0,170220.0,1.0
178971.8412727,307060.5,309792.15625,328816.875,315751.75,309437.84375,289426.3125,290262.8125,307061.21875,-0.06787109375,0.9150390625,-0.326904296875,8.758543968200684,-12.420653343200684,-7.812499523162842,100.0,170221.0,1.0
178971.8437439,307374.59375,311322.875,330768.46875,316415.4375,310882.84375,289725.90625,290618.65625,307135.34375,-0.0703125,0.914306640625,-0.32470703125,8.850096702575684,-12.512206077575684,-7.812499523162842,100.0,170222.0,1.0
178971.8462415,307314.6875,310865.21875,331052.5,316187.78125,310954.90625,289535.65625,290455.65625,307047.53125,-0.0703125,0.916259765625,-0.32763671875,8.941649436950684,-12.664793968200684,-7.751464366912842,100.0,170223.0,1.0
178971.8487261,307043.34375,309215.21875,329534.90625,315510.34375,309720.1875,289176.96875,290055.28125,306945.875,-0.069580078125,0.91455078125,-0.32958984375,8.850096702575684,-12.847899436950684,-7.781981945037842,100.0,170224.0,1.0
178971.8555308,306864.53125,308516.3125,328137.125,315203.5,308775.25,289089.53125,289919.9375,306940.4375,-0.06787109375,0.9111328125,-0.3291015625,8.911131858825684,-13.031004905700684,-7.720946788787842,100.0,170225.0,1.0
178971.855581,307054.34375,309763.53125,328771.375,315738.78125,309416.1875,289420.15625,290252.09375,307051.46875,-0.068115234375,0.909423828125,-0.3271484375,8.850096702575684,-13.061522483825684,-7.598876476287842,100.0,170226.0,1.0
178971.8612846,307377.09375,311316.28125,330737.78125,316415.6875,310880.40625,289729.9375,290612.84375,307125.59375,-0.065185546875,0.908447265625,-0.328857421875,9.155272483825684,-13.153075218200684,-7.507323741912842,100.0,170227.0,1.0
178971.8730211,307323.28125,310881.5,331045.25,316195.21875,310975.46875,289544.78125,290454.125,307043.0625,-0.067138671875,0.9091796875,-0.334228515625,9.185790061950684,-13.122557640075684,-7.385253429412842,100.0,170228.0,1.0
178971.873069,307050.03125,309230.6875,329530.53125,315512.59375,309739.84375,289179.09375,290050.03125,306939.625,-0.06787109375,0.914794921875,-0.334716796875,9.368895530700684,-13.214110374450684,-7.263183116912842,100.0,170229.0,1.0
178971.8755676,306866.3125,308511.9375,328112.625,315196.96875,308772.375,289087.09375,289910.8125,306933.28125,-0.0703125,0.919189453125,-0.332763671875,9.460448265075684,-13.244627952575684,-7.141112804412842,100.0,170230.0,1.0
178971.8756163,307061.03125,309756.84375,328739.90625,315733.25,309410.03125,289420.0625,290247.4375,307057.90625,-0.073974609375,0.921630859375,-0.331298828125,9.246825218200684,-13.305663108825684,-6.958007335662842,100.0,170231.0,1.0
178971.8774673,307384.25,311318.875,330715.09375,316420.0625,310875.6875,289732.625,290611.6875,307137.40625,-0.06884765625,0.92236328125,-0.333740234375,9.033202171325684,-13.397215843200684,-6.774901866912842,100.0,170232.0,1.0
178971.8886837,307329.4375,310906.0,331048.40625,316204.59375,310984.21875,289551.75,290457.09375,307046.46875,-0.068115234375,0.921142578125,-0.333984375,9.063719749450684,-13.397215843200684,-6.500243663787842,100.0,170233.0,1.0
178971.8918235,307058.09375,309260.53125,329552.96875,315526.28125,309764.4375,289192.78125,290060.21875,306949.46875,-0.070068359375,0.919677734375,-0.335693359375,8.911131858825684,-13.366698265075684,-6.134032726287842,100.0,170234.0,1.0
178971.8918728,306874.96875,308528.46875,328127.90625,315208.0625,308793.21875,289097.84375,289922.0625,306949.0,-0.071044921875,0.917724609375,-0.337158203125,8.880614280700684,-13.305663108825684,-6.011962413787842,100.0,170235.0,1.0
178971.8974693,307070.15625,309758.8125,328740.875,315740.59375,309419.5,289427.21875,290258.25,307073.65625,-0.072509765625,0.918701171875,-0.3369140625,8.941649436950684,-13.244627952575684,-5.767821788787842,100.0,170236.0,1.0
178971.9005633,307389.0625,311320.46875,330715.625,316426.875,310886.0625,289739.59375,290623.5625,307150.625,-0.072509765625,0.92041015625,-0.3388671875,8.880614280700684,-13.183592796325684,-5.645751476287842,100.0,170237.0,1.0
178971.9006158,307340.96875,310924.03125,331075.84375,316227.65625,311015.5,289563.375,290479.0,307073.8125,-0.0751953125,0.923828125,-0.3369140625,8.636473655700684,-13.275145530700684,-5.401610851287842,100.0,170238.0,1.0
178971.9024511,307070.59375,309277.625,329586.21875,315549.4375,309794.75,289201.71875,290080.3125,306973.78125,-0.076904296875,0.925048828125,-0.336181640625,8.483885765075684,-13.275145530700684,-5.279540538787842,100.0,170239.0,1.0
178971.9112685,306880.625,308528.75,328151.25,315219.5,308812.25,289098.0,289929.0625,306949.5625,-0.078857421875,0.92529296875,-0.337158203125,8.239745140075684,-13.336180686950684,-5.126952648162842,100.0,170240.0,1.0
178971.9147818,307063.90625,309736.09375,328741.15625,315741.90625,309420.84375,289418.8125,290257.53125,307067.21875,-0.08154296875,0.923583984375,-0.33544921875,7.995604991912842,-13.275145530700684,-5.096435070037842,100.0,170241.0,1.0
178971.9255632,307385.3125,311306.96875,330716.34375,316428.21875,310884.4375,289733.4375,290623.5625,307144.625,-0.0849609375,0.920166015625,-0.3349609375,7.659911632537842,-13.427733421325684,-4.852294445037842,100.0,170242.0,1.0
178971.9256154,307340.625,310930.3125,331092.28125,316226.5,311020.4375,289557.125,290479.1875,307063.8125,-0.08544921875,0.91796875,-0.3349609375,7.263183116912842,-13.519286155700684,-4.699706554412842,100.0,170243.0,1.0
178971.9274575,307067.75,309289.25,329610.0,315546.21875,309806.0,289198.15625,290082.65625,306964.46875,-0.083740234375,0.9130859375,-0.334228515625,7.202147960662842,-13.641356468200684,-4.699706554412842,100.0,170244.0,1.0
178971.9299947,306872.5625,308522.3125,328154.8125,315205.125,308808.5,289095.5,289931.28125,306952.78125,-0.081787109375,0.911376953125,-0.336669921875,7.141112804412842,-13.641356468200684,-4.577636241912842,100.0,170245.0,1.0
178971.936271,307052.90625,309709.625,328711.9375,315716.0,309394.125,289420.9375,290252.71875,307065.78125,-0.079345703125,0.91064453125,-0.341064453125,7.202147960662842,-13.580321311950684,-4.699706554412842,100.0,170246.0,1.0
178971.9405284,307382.625,311293.125,330700.96875,316419.71875,310873.875,289745.21875,290626.15625,307152.15625,-0.07666015625,0.91162109375,-0.34521484375,7.263183116912842,-13.458250999450684,-4.455565929412842,100.0,170247.0,1.0
178971.940577,307337.46875,310930.75,331095.15625,316229.28125,311022.65625,289571.6875,290484.1875,307067.9375,-0.076416015625,0.912353515625,-0.34619140625,7.019042491912842,-13.397215843200684,-4.241942882537842,100.0,170248.0,1.0
178971.9461643,307069.1875,309299.6875,329624.6875,315549.6875,309816.46875,289208.4375,290085.5,306968.21875,-0.074462890625,0.9130859375,-0.345947265625,6.896972179412842,-13.427733421325684,-3.997802495956421,100.0,170249.0,1.0
178971.9605064,306879.28125,308529.46875,328178.15625,315213.96875,308823.78125,289106.5,289937.71875,306963.9375,-0.071533203125,0.913818359375,-0.338623046875,6.774901866912842,-13.244627952575684,-3.784179449081421,100.0,170250.0,1.0
178971.96054,307058.0,309702.3125,328720.0625,315721.8125,309396.09375,289429.96875,290258.96875,307079.0,-0.06982421875,0.912109375,-0.337646484375,6.561278820037842,-13.061522483825684,-3.540038824081421,100.0,170251.0,1.0
178971.9623623,307390.15625,311291.78125,330704.96875,316428.46875,310869.78125,289754.875,290633.40625,307161.34375,-0.07080078125,0.913818359375,-0.338134765625,6.286620616912842,-12.695311546325684,-3.356933355331421,100.0,170252.0,1.0
178971.9680053,307361.1875,310966.0625,331142.8125,316260.5625,311058.15625,289591.53125,290504.125,307086.25,-0.073974609375,0.911376953125,-0.33740234375,6.164550304412842,-12.359618186950684,-3.204345464706421,100.0,170253.0,1.0
178971.9680406,307088.3125,309331.0,329670.375,315577.78125,309846.4375,289225.78125,290099.8125,306976.46875,-0.074462890625,0.910400390625,-0.3427734375,5.889892101287842,-12.207030296325684,-2.990722417831421,100.0,170254.0,1.0
178971.9699217,306895.625,308545.1875,328206.0625,315237.03125,308839.96875,289119.1875,289945.78125,306967.0625,-0.075439453125,0.90771484375,-0.34228515625,5.645751476287842,-12.054442405700684,-2.624511480331421,100.0,170255.0,1.0
178971.9724352,307075.0625,309703.0,328730.6875,315748.0,309404.5625,289441.875,290267.625,307089.1875,-0.075927734375,0.906494140625,-0.342041015625,5.554198741912842,-11.901854515075684,-2.258300542831421,100.0,170256.0,1.0
178971.9812073,307415.28125,311298.21875,330723.59375,316465.84375,310889.4375,289772.40625,290646.0,307179.3125,-0.0751953125,0.905517578125,-0.344970703125,5.371093273162842,-11.779784202575684,-2.136230230331421,100.0,170257.0,1.0
178971.9855116,307384.59375,310982.59375,331175.4375,316296.15625,311082.28125,289606.90625,290514.65625,307099.9375,-0.074462890625,0.907470703125,-0.34228515625,5.401610851287842,-11.444090843200684,-2.014159917831421,100.0,170258.0,1.0
178971.9855477,307117.09375,309358.96875,329721.6875,315613.875,309883.34375,289240.625,290112.78125,306990.84375,-0.077880859375,0.909423828125,-0.342529296875,5.310058116912842,-11.199950218200684,-2.014159917831421,100.0,170259.0,1.0
178972.0117873,306915.21875,308553.25,328237.71875,315254.125,308857.21875,289127.6875,289949.625,306976.71875,-0.081298828125,0.908447265625,-0.341796875,5.035399913787842,-10.986327171325684,-1.8310545682907104,100.0,170260.0,1.0
178972.0118357,307082.21875,309690.40625,328733.75,315741.5625,309398.3125,289436.59375,290259.6875,307088.3125,-0.084228515625,0.9111328125,-0.34326171875,4.669188976287842,-10.894774436950684,-1.6174315214157104,100.0,170261.0,1.0
178972.0136509,307415.09375,311292.125,330726.625,316452.96875,310878.0,289762.03125,290639.21875,307168.3125,-0.085205078125,0.9072265625,-0.34130859375,4.272460460662842,-10.864256858825684,-1.4343260526657104,100.0,170262.0,1.0
178972.023608,307384.5,310997.1875,331194.84375,316287.84375,311083.90625,289601.375,290511.34375,307087.78125,-0.085693359375,0.908447265625,-0.339111328125,4.028319835662842,-10.711668968200684,-1.4343260526657104,100.0,170263.0,1.0
178972.0236625,307112.34375,309371.3125,329744.46875,315601.5625,309887.375,289234.625,290108.75,306988.8125,-0.083984375,0.908447265625,-0.34033203125,3.845214605331421,-10.467528343200684,-1.4343260526657104,100.0,170264.0,1.0
178972.0236759,306913.0625,308557.0,328264.1875,315243.125,308866.875,289119.28125,289948.09375,306973.78125,-0.081787109375,0.90869140625,-0.339599609375,3.570556402206421,-10.314940452575684,-1.4343260526657104,100.0,170265.0,1.0
178972.0267795,307078.28125,309678.59375,328740.53125,315732.4375,309395.46875,289429.53125,290257.8125,307085.96875,-0.0830078125,0.907958984375,-0.3369140625,3.295898199081421,-10.070799827575684,-1.5258787870407104,100.0,170266.0,1.0
178972.0268332,307407.40625,311280.96875,330722.96875,316440.90625,310864.0625,289756.5,290633.40625,307167.625,-0.085205078125,0.90673828125,-0.340087890625,3.021239995956421,-9.826659202575684,-1.4953612089157104,100.0,170267.0,1.0
178972.0299141,307385.5,311009.6875,331216.9375,316284.25,311088.5625,289603.0625,290516.28125,307095.90625,-0.08447265625,0.906005859375,-0.34130859375,2.777099370956421,-9.796141624450684,-1.4648436307907104,100.0,170268.0,1.0
178972.0299629,307111.46875,309390.28125,329779.71875,315597.34375,309904.8125,289236.3125,290119.125,306993.0,-0.084228515625,0.906494140625,-0.3408203125,2.502441167831421,-9.735106468200684,-1.4038084745407104,100.0,170269.0,1.0
178972.0299762,306907.0,308558.78125,328276.875,315229.4375,308867.6875,289112.0625,289950.96875,306975.65625,-0.084716796875,0.9091796875,-0.340087890625,2.410888433456421,-9.582518577575684,-1.4648436307907104,100.0,170270.0,1.0
178972.0324957,307068.375,309667.15625,328733.90625,315710.8125,309383.28125,289419.96875,290255.65625,307087.59375,-0.084228515625,0.90771484375,-0.342041015625,2.227782964706421,-9.307860374450684,-1.4953612089157104,100.0,170271.0,1.0
178972.0386372,307398.5625,311277.90625,330722.40625,316431.25,310861.375,289754.09375,290636.4375,307175.21875,-0.081787109375,0.907470703125,-0.341064453125,2.014159917831421,-9.094237327575684,-1.5258787870407104,100.0,170272.0,1.0
178972.045531,307373.875,311019.96875,331230.6875,316284.4375,311097.21875,289598.5,290520.03125,307100.90625,-0.07861328125,0.908935546875,-0.343505859375,1.6479490995407104,-8.819579124450684,-1.5869139432907104,100.0,170273.0,1.0
178972.0455841,307103.875,309402.6875,329791.875,315601.625,309909.90625,289229.96875,290117.875,306989.96875,-0.07958984375,0.909423828125,-0.34326171875,1.5258787870407104,-8.453368186950684,-1.4953612089157104,100.0,170274.0,1.0
178972.0512831,306896.34375,308561.28125,328278.84375,315231.125,308860.8125,289106.0625,289945.40625,306965.28125,-0.077392578125,0.908203125,-0.342041015625,1.2817381620407104,-8.087157249450684,-1.4038084745407104,100.0,170275.0,1.0
178972.057435,307052.09375,309651.53125,328708.625,315701.78125,309354.3125,289408.4375,290245.46875,307076.40625,-0.0751953125,0.9091796875,-0.34228515625,0.9155272841453552,-7.812499523162842,-1.4038084745407104,100.0,170276.0,1.0
178972.0643153,307385.84375,311270.40625,330698.90625,316425.25,310837.3125,289744.5,290630.625,307169.40625,-0.076904296875,0.908203125,-0.34521484375,0.7019042372703552,-7.354735851287842,-1.3732908964157104,100.0,170277.0,1.0
178972.064364,307369.9375,311037.0625,331240.53125,316285.59375,311104.8125,289600.9375,290519.21875,307091.4375,-0.078857421875,0.9091796875,-0.3427734375,0.4577636420726776,-7.049560070037842,-1.2817381620407104,100.0,170278.0,1.0
178972.0668272,307100.1875,309421.84375,329816.46875,315597.53125,309929.5625,289233.5625,290113.0625,306968.5,-0.07666015625,0.908935546875,-0.34326171875,0.3662109076976776,-6.744384288787842,-1.1291502714157104,100.0,170279.0,1.0
178972.0668814,306891.0625,308559.15625,328290.0,315220.5,308869.21875,289107.21875,289942.28125,306958.84375,-0.077392578125,0.908935546875,-0.342529296875,-0.03051757626235485,-6.347655773162842,-1.1596678495407104,100.0,170280.0,1.0
178972.082428,307042.0,309628.09375,328693.59375,315685.25,309344.03125,289406.65625,290234.90625,307064.0625,-0.078125,0.910888671875,-0.34375,-0.2136230319738388,-5.920409679412842,-1.0375975370407104,100.0,170281.0,1.0
178972.0929496,307375.9375,311249.65625,330678.59375,316413.8125,310820.0625,289746.21875,290621.78125,307154.90625,-0.078369140625,0.91259765625,-0.34521484375,-0.5798339247703552,-5.676269054412842,-1.0070799589157104,100.0,170282.0,1.0
178972.0929985,307363.3125,311033.375,331234.375,316282.125,311091.9375,289599.40625,290513.0625,307073.09375,-0.079833984375,0.908935546875,-0.344970703125,-0.7934569716453552,-5.279540538787842,-0.8544921278953552,100.0,170283.0,1.0
178972.0930089,307100.375,309429.34375,329826.03125,315601.90625,309927.0625,289232.84375,290116.625,306971.1875,-0.07958984375,0.91064453125,-0.34326171875,-0.8544921278953552,-4.943847179412842,-0.8544921278953552,100.0,170284.0,1.0
178972.0930201,306893.03125,308557.09375,328300.90625,315222.28125,308868.40625,289102.46875,289939.875,306951.96875,-0.0810546875,0.912353515625,-0.342529296875,-1.0986326932907104,-4.547118663787842,-0.7934569716453552,100.0,170285.0,1.0
178972.0949051,307041.8125,309609.59375,328689.9375,315682.03125,309331.4375,289399.5,290234.71875,307069.53125,-0.0810546875,0.910888671875,-0.343505859375,-1.3732908964157104,-4.211425304412842,-0.7934569716453552,100.0,170286.0,1.0
178972.0974944,307381.125,311241.1875,330684.34375,316414.96875,310818.625,289741.125,290624.1875,307162.6875,-0.0830078125,0.910888671875,-0.346923828125,-1.4038084745407104,-3.906249761581421,-0.7324218153953552,100.0,170287.0,1.0
178972.1012248,307372.0,311043.21875,331261.0,316289.1875,311107.6875,289601.1875,290522.0,307087.78125,-0.08544921875,0.907958984375,-0.343994140625,-1.6174315214157104,-3.631591558456421,-0.7629393935203552,100.0,170288.0,1.0
178972.1049795,307099.5625,309434.25,329855.96875,315602.1875,309942.90625,289231.5,290120.46875,306979.40625,-0.086669921875,0.903564453125,-0.34326171875,-1.6479490995407104,-3.295898199081421,-0.8850097060203552,100.0,170289.0,1.0
178972.1191691,306883.28125,308543.21875,328317.28125,315210.03125,308867.15625,289095.875,289941.03125,306967.96875,-0.089111328125,0.90234375,-0.343994140625,-1.6784666776657104,-3.143310308456421,-0.8544921278953552,100.0,170290.0,1.0
178972.1192189,307025.53125,309581.0625,328680.09375,315659.03125,309310.96875,289388.125,290227.03125,307073.09375,-0.091796875,0.903564453125,-0.343994140625,-1.7089842557907104,-2.899169683456421,-0.8239745497703552,100.0,170291.0,1.0
178972.1262725,307362.25,311217.75,330669.75,316392.34375,310792.78125,289732.34375,290613.28125,307152.21875,-0.091064453125,0.904296875,-0.34326171875,-1.7395018339157104,-2.746581792831421,-0.8239745497703552,100.0,170292.0,1.0
178972.1287458,307358.21875,311040.09375,331264.5,316276.84375,311090.15625,289599.40625,290510.375,307067.9375,-0.093505859375,0.905029296875,-0.34521484375,-1.8615721464157104,-2.655029058456421,-0.9765624403953552,100.0,170293.0,1.0
178972.1312676,307092.15625,309440.96875,329869.125,315596.46875,309928.5,289231.59375,290110.5625,306961.875,-0.095703125,0.9052734375,-0.342529296875,-1.8615721464157104,-2.471923589706421,-0.9765624403953552,100.0,170294.0,1.0
178972.1337253,306877.84375,308541.875,328331.3125,315206.71875,308851.78125,289092.1875,289927.4375,306945.625,-0.09375,0.904541015625,-0.3427734375,-1.8615721464157104,-2.319335699081421,-0.9155272841453552,100.0,170295.0,1.0
178972.1362682,307018.03125,309563.0,328677.21875,315648.84375,309284.9375,289383.65625,290213.375,307048.96875,-0.09521484375,0.900390625,-0.34228515625,-1.8310545682907104,-2.227782964706421,-0.8544921278953552,100.0,170296.0,1.0
178972.1430808,307362.4375,311210.15625,330665.1875,316388.96875,310770.4375,289730.5625,290605.875,307140.96875,-0.097412109375,0.89990234375,-0.341552734375,-1.8920897245407104,-2.136230230331421,-0.9765624403953552,100.0,170297.0,1.0
178972.1431284,307360.46875,311048.15625,331279.59375,316284.71875,311085.15625,289596.53125,290512.25,307066.125,-0.09765625,0.898193359375,-0.33837890625,-1.8310545682907104,-1.9226073026657104,-0.9460448622703552,100.0,170298.0,1.0
178972.1449803,307103.5,309459.90625,329904.15625,315610.3125,309941.90625,289233.5625,290118.3125,306972.78125,-0.096435546875,0.897216796875,-0.341064453125,-1.6479490995407104,-1.9226073026657104,-1.0986326932907104,100.0,170299.0,1.0
178972.1537458,306895.8125,308551.625,328359.5625,315221.21875,308857.59375,289097.5625,289936.03125,306963.3125,-0.097900390625,0.89599609375,-0.34130859375,-1.6174315214157104,-1.8005369901657104,-1.0986326932907104,100.0,170300.0,1.0
178972.1568314,307035.375,309558.875,328685.625,315665.84375,309275.1875,289388.125,290215.78125,307066.65625,-0.09716796875,0.895263671875,-0.33837890625,-1.4038084745407104,-1.7700194120407104,-1.0681151151657104,100.0,170301.0,1.0
178972.1568867,307375.125,311203.0,330670.90625,316405.84375,310762.21875,289736.125,290609.96875,307155.625,-0.09619140625,0.896484375,-0.336669921875,-1.2512205839157104,-1.6784666776657104,-1.1596678495407104,100.0,170302.0,1.0
178972.1675051,307381.28125,311065.9375,331307.0625,316308.3125,311096.4375,289611.65625,290523.15625,307085.1875,-0.095703125,0.89599609375,-0.33447265625,-1.0681151151657104,-1.5258787870407104,-1.0986326932907104,100.0,170303.0,1.0
178972.1705073,307120.84375,309479.5,329944.5,315628.375,309956.21875,289241.25,290124.40625,306970.90625,-0.096923828125,0.8955078125,-0.33837890625,-0.9155272841453552,-1.4648436307907104,-1.1291502714157104,100.0,170304.0,1.0
178972.1705561,306904.5,308551.09375,328395.96875,315224.0,308866.15625,289093.90625,289930.46875,306947.5,-0.0986328125,0.89404296875,-0.3369140625,-0.6408690810203552,-1.3732908964157104,-1.1291502714157104,100.0,170305.0,1.0
178972.1999189,307043.15625,309539.40625,328697.71875,315657.59375,309265.0,289378.03125,290208.53125,307053.25,-0.100830078125,0.89453125,-0.338134765625,-0.3967284858226776,-1.2512205839157104,-1.0986326932907104,100.0,170306.0,1.0
178972.2055629,307389.6875,311196.5625,330687.28125,316407.09375,310755.875,289731.1875,290607.1875,307150.1875,-0.1015625,0.895263671875,-0.338623046875,-0.1831054538488388,-1.2207030057907104,-1.0681151151657104,100.0,170307.0,1.0
178972.2056163,307398.90625,311080.59375,331358.1875,316318.15625,311119.125,289612.8125,290526.125,307083.375,-0.099853515625,0.89794921875,-0.33544921875,-0.1220703050494194,-1.1291502714157104,-1.0986326932907104,100.0,170308.0,1.0
178972.2074371,307136.6875,309495.6875,330006.53125,315633.75,309988.5,289240.71875,290124.6875,306969.3125,-0.099853515625,0.89794921875,-0.336669921875,-0.03051757626235485,-1.0681151151657104,-1.0070799589157104,100.0,170309.0,1.0
178972.2099976,306918.0,308560.125,328451.375,315224.6875,308891.65625,289089.78125,289924.59375,306944.28125,-0.09814453125,0.899658203125,-0.336181640625,0.0915527269244194,-1.0986326932907104,-0.9765624403953552,100.0,170310.0,1.0
178972.2124995,307037.96875,309526.875,328732.5625,315644.8125,309275.1875,289371.34375,290199.5,307052.09375,-0.09912109375,0.900146484375,-0.334716796875,0.03051757626235485,-1.0070799589157104,-0.8544921278953552,100.0,170311.0,1.0
178972.2149944,307374.84375,311176.25,330707.40625,316392.625,310753.90625,289722.625,290595.21875,307142.84375,-0.098876953125,0.8984375,-0.336669921875,0.1525878757238388,-1.0070799589157104,-0.7934569716453552,100.0,170312.0,1.0
178972.217492,307383.34375,311075.3125,331385.0,316307.15625,311117.78125,289605.03125,290514.21875,307069.09375,-0.10009765625,0.899169921875,-0.336669921875,0.1525878757238388,-0.9155272841453552,-0.7324218153953552,100.0,170313.0,1.0
178972.2199691,307126.3125,309503.375,330050.875,315630.25,309997.875,289237.125,290115.46875,306958.21875,-0.100341796875,0.901611328125,-0.334228515625,0.2746581733226776,-0.7934569716453552,-0.7324218153953552,100.0,170314.0,1.0
178972.2223455,306910.5625,308552.96875,328484.28125,315217.8125,308889.21875,289085.40625,289916.34375,306933.53125,-0.100341796875,0.90185546875,-0.33349609375,0.4577636420726776,-0.7019042372703552,-0.6713866591453552,100.0,170315.0,1.0
178972.2287514,307037.53125,309506.21875,328739.90625,315635.625,309256.53125,289367.75,290189.84375,307041.09375,-0.100830078125,0.90283203125,-0.334716796875,0.5493163466453552,-0.6713866591453552,-0.5493163466453552,100.0,170316.0,1.0
178972.2312363,307383.4375,311170.8125,330720.1875,316392.53125,310743.625,289728.0625,290595.125,307143.84375,-0.103515625,0.9033203125,-0.335693359375,0.6408690810203552,-0.6103515028953552,-0.5187987685203552,100.0,170317.0,1.0
178972.2343404,307398.8125,311095.53125,331423.46875,316324.21875,311128.0625,289615.59375,290523.96875,307083.3125,-0.103515625,0.903076171875,-0.333984375,0.7019042372703552,-0.6103515028953552,-0.6408690810203552,100.0,170318.0,1.0
178972.2343988,307143.75,309533.59375,330101.84375,315652.25,310018.53125,289250.0,290130.21875,306975.5625,-0.102783203125,0.901611328125,-0.33544921875,0.6408690810203552,-0.6103515028953552,-0.5187987685203552,100.0,170319.0,1.0
178972.2362881,306925.84375,308577.46875,328534.53125,315235.0625,308912.21875,289100.0625,289931.90625,306954.09375,-0.102783203125,0.905029296875,-0.33544921875,0.6103515028953552,-0.5187987685203552,-0.5187987685203552,100.0,170320.0,1.0
178972.2387441,307047.71875,309514.71875,328769.5,315644.8125,309264.90625,289370.78125,290201.75,307061.9375,-0.10400390625,0.90625,-0.336181640625,0.7019042372703552,-0.4577636420726776,-0.4577636420726776,100.0,170321.0,1.0
178972.2412186,307389.53125,311179.125,330732.53125,316400.9375,310741.46875,289729.75,290606.5625,307158.65625,-0.101806640625,0.90576171875,-0.336181640625,0.6713866591453552,-0.3051757514476776,-0.5187987685203552,100.0,170322.0,1.0
178972.2442517,307411.96875,311124.40625,331454.65625,316343.625,311144.96875,289622.84375,290541.21875,307096.09375,-0.101806640625,0.905517578125,-0.33837890625,0.7019042372703552,-0.1525878757238388,-0.5798339247703552,100.0,170323.0,1.0
178972.2442867,307154.375,309557.71875,330140.03125,315670.3125,310044.09375,289257.0625,290144.34375,306992.65625,-0.10107421875,0.90478515625,-0.333984375,0.7019042372703552,-0.0915527269244194,-0.4882812201976776,100.0,170324.0,1.0
178972.2579971,306934.4375,308580.6875,328561.0,315244.1875,308926.59375,289101.40625,289936.46875,306959.21875,-0.100341796875,0.90283203125,-0.3349609375,0.7629393935203552,0.0,-0.5493163466453552,100.0,170325.0,1.0
178972.2580471,307058.34375,309505.59375,328787.75,315650.71875,309275.03125,289378.03125,290202.46875,307065.78125,-0.100341796875,0.90478515625,-0.334716796875,0.8239745497703552,0.2441406100988388,-0.5493163466453552,100.0,170326.0,1.0
178972.2643229,307395.15625,311170.0,330754.5,316408.28125,310756.6875,289735.125,290605.25,307168.6875,-0.1015625,0.90283203125,-0.335205078125,0.7629393935203552,0.2136230319738388,-0.5187987685203552,100.0,170327.0,1.0
178972.2643761,307411.5,311125.03125,331488.1875,316347.75,311165.625,289624.8125,290535.5,307095.0,-0.1005859375,0.90234375,-0.33740234375,0.8544921278953552,0.2746581733226776,-0.5493163466453552,100.0,170328.0,1.0
178972.2755634,307158.21875,309568.46875,330188.5625,315676.65625,310070.03125,289256.875,290139.34375,306983.25,-0.099609375,0.90283203125,-0.336669921875,0.7934569716453552,0.5187987685203552,-0.4882812201976776,100.0,170329.0,1.0
178972.2756129,306937.84375,308581.40625,328609.375,315250.71875,308949.3125,289098.0,289932.1875,306955.90625,-0.0986328125,0.901611328125,-0.3369140625,0.7629393935203552,0.4882812201976776,-0.5493163466453552,100.0,170330.0,1.0
178972.2899059,307052.71875,309483.875,328802.125,315643.65625,309271.96875,289367.5625,290192.53125,307059.875,-0.0986328125,0.900634765625,-0.3359375,0.6713866591453552,0.7324218153953552,-0.5187987685203552,100.0,170331.0,1.0
178972.2899552,307390.0625,311150.25,330759.625,316399.15625,310744.6875,289724.3125,290597.1875,307162.5,-0.09716796875,0.90185546875,-0.33837890625,0.7934569716453552,0.8850097060203552,-0.5187987685203552,100.0,170332.0,1.0
178972.2899686,307413.125,311128.25,331518.6875,316349.53125,311171.34375,289623.09375,290532.625,307082.84375,-0.098388671875,0.902587890625,-0.33837890625,0.9460448622703552,1.0375975370407104,-0.5187987685203552,100.0,170333.0,1.0
178972.2924961,307164.125,309585.71875,330236.40625,315682.28125,310090.5,289260.28125,290143.4375,306970.75,-0.10009765625,0.9013671875,-0.3388671875,0.9765624403953552,1.1901854276657104,-0.3967284858226776,100.0,170334.0,1.0
178972.2949618,306943.46875,308592.125,328655.3125,315251.0,308968.28125,289099.0,289934.59375,306945.53125,-0.099609375,0.900390625,-0.339111328125,1.0681151151657104,1.2817381620407104,-0.4577636420726776,100.0,170335.0,1.0
178972.2974943,307052.46875,309478.96875,328822.6875,315636.0625,309272.34375,289360.6875,290188.34375,307041.8125,-0.097900390625,0.902587890625,-0.34033203125,1.0986326932907104,1.3122557401657104,-0.4882812201976776,100.0,170336.0,1.0
178972.2999942,307394.875,311152.03125,330772.40625,316398.0,310742.625,289720.8125,290596.125,307143.84375,-0.0986328125,0.90380859375,-0.33837890625,1.1596678495407104,1.4648436307907104,-0.4577636420726776,100.0,170337.0,1.0
178972.3143215,307424.375,311148.375,331548.71875,316356.25,311183.15625,289624.71875,290538.53125,307086.875,-0.09716796875,0.9033203125,-0.33740234375,1.0986326932907104,1.5563963651657104,-0.3967284858226776,100.0,170338.0,1.0
178972.3143711,307178.875,309606.09375,330278.59375,315690.6875,310109.8125,289260.71875,290144.0,306975.03125,-0.096435546875,0.902587890625,-0.3388671875,1.1291502714157104,1.6784666776657104,-0.4577636420726776,100.0,170339.0,1.0
178972.3262535,306959.375,308602.40625,328694.84375,315256.25,308985.6875,289096.21875,289933.0625,306952.78125,-0.09912109375,0.90283203125,-0.33642578125,1.2207030057907104,1.8615721464157104,-0.5798339247703552,100.0,170340.0,1.0
178972.3263055,307061.5,309469.21875,328845.9375,315631.5,309277.34375,289355.78125,290184.5625,307057.09375,-0.10107421875,0.9033203125,-0.336669921875,1.2817381620407104,1.9531248807907104,-0.5798339247703552,100.0,170341.0,1.0
178972.3263212,307403.03125,311149.34375,330795.0,316395.40625,310748.375,289723.6875,290592.1875,307157.5,-0.1015625,0.9033203125,-0.335693359375,1.0681151151657104,2.136230230331421,-0.5493163466453552,100.0,170342.0,1.0
178972.3291629,307434.21875,311162.6875,331588.9375,316367.3125,311202.90625,289638.9375,290544.78125,307101.28125,-0.101318359375,0.902587890625,-0.3388671875,1.1291502714157104,2.044677495956421,-0.3967284858226776,100.0,170343.0,1.0
178972.329215,307183.09375,309623.34375,330324.90625,315701.6875,310132.09375,289276.5625,290155.875,306995.59375,-0.102783203125,0.9033203125,-0.334228515625,1.1596678495407104,2.197265386581421,-0.3662109076976776,100.0,170344.0,1.0
178972.3362713,306953.46875,308599.375,328727.9375,315260.03125,308992.6875,289112.59375,289939.25,306968.6875,-0.103515625,0.90185546875,-0.339599609375,1.2207030057907104,2.136230230331421,-0.3356933295726776,100.0,170345.0,1.0
178972.3387417,307052.90625,309450.53125,328854.625,315629.8125,309265.90625,289374.09375,290187.25,307073.5625,-0.10302734375,0.902099609375,-0.337890625,1.2207030057907104,2.197265386581421,-0.3051757514476776,100.0,170346.0,1.0
178972.3412685,307393.375,311135.5,330799.21875,316394.84375,310739.5,289739.40625,290600.5,307174.125,-0.102783203125,0.9033203125,-0.338134765625,1.3122557401657104,2.258300542831421,-0.2746581733226776,100.0,170347.0,1.0
178972.3505384,307425.1875,311165.625,331610.3125,316372.78125,311210.59375,289653.78125,290556.78125,307114.59375,-0.10302734375,0.90673828125,-0.3359375,1.2817381620407104,2.258300542831421,-0.3051757514476776,100.0,170348.0,1.0
178972.3505878,307171.8125,309634.78125,330358.71875,315705.71875,310150.75,289286.9375,290164.8125,306996.21875,-0.103271484375,0.905517578125,-0.338134765625,1.2817381620407104,2.227782964706421,-0.3051757514476776,100.0,170349.0,1.0
178972.3555704,306940.59375,308600.09375,328755.375,315253.59375,309004.3125,289110.0,289940.40625,306958.9375,-0.102294921875,0.90576171875,-0.33837890625,1.2512205839157104,2.288818120956421,-0.3967284858226776,100.0,170350.0,1.0
178972.3556193,307030.5625,309429.53125,328853.375,315612.28125,309256.25,289360.59375,290183.78125,307057.625,-0.102294921875,0.90478515625,-0.336669921875,1.2207030057907104,2.349853277206421,-0.2136230319738388,100.0,170351.0,1.0
178972.3599519,307367.34375,311116.1875,330785.375,316377.59375,310721.8125,289725.65625,290594.25,307157.0625,-0.103271484375,0.903564453125,-0.335693359375,1.1291502714157104,2.319335699081421,-0.2136230319738388,100.0,170352.0,1.0
178972.3662683,307407.21875,311169.28125,331618.0,316366.59375,311214.34375,289643.21875,290554.1875,307100.8125,-0.105712890625,0.9052734375,-0.3359375,0.9460448622703552,2.288818120956421,-0.2441406100988388,100.0,170353.0,1.0
178972.3687003,307163.40625,309643.1875,330382.59375,315705.34375,310168.09375,289276.65625,290161.78125,306985.5,-0.10546875,0.90478515625,-0.335205078125,1.0070799589157104,2.258300542831421,-0.1525878757238388,100.0,170354.0,1.0
178972.37184,306932.1875,308595.625,328771.75,315248.03125,309012.53125,289099.8125,289934.59375,306948.03125,-0.1044921875,0.905029296875,-0.338623046875,0.8850097060203552,2.288818120956421,-0.0610351525247097,100.0,170355.0,1.0
178972.3718875,307025.28125,309414.6875,328851.75,315599.6875,309251.15625,289346.375,290171.875,307042.875,-0.10400390625,0.907958984375,-0.337158203125,0.7934569716453552,2.105712652206421,0.0,100.0,170356.0,1.0
178972.3799952,307368.25,311109.84375,330786.53125,316370.28125,310720.46875,289718.0625,290585.5625,307150.34375,-0.10205078125,0.909423828125,-0.33740234375,0.7629393935203552,2.197265386581421,0.1220703050494194,100.0,170357.0,1.0
178972.3892855,307410.8125,311180.71875,331637.75,316364.1875,311223.1875,289639.90625,290547.21875,307090.90625,-0.099609375,0.91015625,-0.337646484375,0.5493163466453552,2.105712652206421,0.2136230319738388,100.0,170358.0,1.0
178972.3893343,307167.6875,309661.625,330411.90625,315703.5625,310180.28125,289276.46875,290158.28125,306981.375,-0.099609375,0.90966796875,-0.335693359375,0.5187987685203552,2.044677495956421,0.3051757514476776,100.0,170359.0,1.0
178972.3918391,306937.65625,308603.84375,328796.78125,315245.4375,309019.6875,289098.46875,289930.65625,306946.96875,-0.097412109375,0.90771484375,-0.3359375,0.4577636420726776,2.075195074081421,0.3356933295726776,100.0,170360.0,1.0
178972.3918872,307026.53125,309399.03125,328847.375,315591.8125,309238.0,289345.21875,290170.53125,307049.9375,-0.095458984375,0.909423828125,-0.335693359375,0.3051757514476776,2.227782964706421,0.5187987685203552,100.0,170361.0,1.0
178972.4024981,307380.5,311108.21875,330781.5,316372.25,310714.65625,289719.40625,290590.84375,307162.0625,-0.100341796875,0.905029296875,-0.337158203125,0.1525878757238388,2.197265386581421,0.5798339247703552,100.0,170362.0,1.0
178972.4049951,307428.40625,311201.84375,331655.28125,316379.65625,311241.0,289648.125,290559.90625,307105.21875,-0.10302734375,0.903564453125,-0.33837890625,0.0915527269244194,2.166747808456421,0.7324218153953552,100.0,170363.0,1.0
178972.4099927,307181.46875,309682.90625,330440.25,315720.71875,310206.8125,289285.0625,290167.9375,306988.53125,-0.102783203125,0.904541015625,-0.338623046875,0.0610351525247097,2.075195074081421,0.7629393935203552,100.0,170364.0,1.0
178972.4124935,306954.8125,308618.25,328825.1875,315264.5625,309046.59375,289108.03125,289938.34375,306961.71875,-0.103759765625,0.9033203125,-0.337890625,0.0610351525247097,2.014159917831421,0.8850097060203552,100.0,170365.0,1.0
178972.4149931,307041.90625,309405.28125,328861.84375,315602.71875,309256.6875,289349.78125,290169.375,307055.5,-0.1015625,0.903076171875,-0.33837890625,0.0610351525247097,1.9226073026657104,1.0375975370407104,100.0,170366.0,1.0
178972.4199943,307383.0,311101.34375,330773.5625,316371.96875,310712.875,289724.9375,290587.71875,307161.8125,-0.102783203125,0.9013671875,-0.34033203125,0.1220703050494194,1.8310545682907104,1.1596678495407104,100.0,170367.0,1.0
178972.4249502,307429.65625,311208.53125,331656.4375,316384.03125,311240.1875,289658.3125,290560.71875,307100.75,-0.099853515625,0.902099609375,-0.342041015625,-0.0610351525247097,1.6784666776657104,1.2817381620407104,100.0,170368.0,1.0
178972.4274824,307184.40625,309698.375,330456.96875,315727.625,310214.34375,289292.46875,290170.1875,306980.5625,-0.09814453125,0.90234375,-0.33984375,-0.0610351525247097,1.7395018339157104,1.3122557401657104,100.0,170369.0,1.0
178972.4324958,306955.34375,308620.90625,328842.0,315267.0,309054.1875,289110.0,289941.75,306951.5,-0.098388671875,0.9013671875,-0.3408203125,-0.0915527269244194,1.7089842557907104,1.4038084745407104,100.0,170370.0,1.0
178972.4373481,307035.90625,309389.71875,328863.03125,315596.71875,309253.03125,289350.3125,290167.6875,307045.40625,-0.096435546875,0.902099609375,-0.33837890625,-0.2136230319738388,1.5869139432907104,1.5869139432907104,100.0,170371.0,1.0
178972.4443406,307370.9375,311086.5,330765.96875,316365.53125,310704.46875,289722.96875,290582.78125,307149.0,-0.09521484375,0.904541015625,-0.33935546875,-0.3356933295726776,1.7089842557907104,1.5258787870407104,100.0,170372.0,1.0
178972.4443931,307420.46875,311207.71875,331662.71875,316383.25,311244.21875,289657.53125,290560.53125,307096.1875,-0.094482421875,0.90380859375,-0.341064453125,-0.3051757514476776,1.6479490995407104,1.7700194120407104,100.0,170373.0,1.0
178972.4487474,307180.3125,309707.21875,330479.3125,315733.25,310230.4375,289293.625,290176.8125,306987.1875,-0.096435546875,0.90185546875,-0.341064453125,-0.2441406100988388,1.5869139432907104,1.8310545682907104,100.0,170374.0,1.0
178972.4512672,306948.5625,308615.375,328859.71875,315267.34375,309062.15625,289109.46875,289942.1875,306955.71875,-0.095703125,0.90185546875,-0.34033203125,-0.3662109076976776,1.4953612089157104,1.9836424589157104,100.0,170375.0,1.0
178972.4574474,307023.03125,309363.625,328849.875,315585.375,309235.875,289343.0625,290163.5625,307043.875,-0.094970703125,0.89990234375,-0.3408203125,-0.3051757514476776,1.5258787870407104,2.044677495956421,100.0,170376.0,1.0
178972.4605634,307364.5,311070.40625,330752.8125,316356.875,310691.9375,289714.28125,290582.0,307146.6875,-0.0966796875,0.900634765625,-0.33544921875,-0.3051757514476776,1.4648436307907104,2.105712652206421,100.0,170377.0,1.0
178972.4606148,307419.03125,311212.46875,331670.5625,316384.75,311250.90625,289652.6875,290564.03125,307098.0625,-0.095703125,0.899658203125,-0.335205078125,-0.3051757514476776,1.4953612089157104,2.136230230331421,100.0,170378.0,1.0
178972.4662463,307180.125,309715.53125,330490.9375,315734.15625,310237.3125,289287.75,290177.0625,306987.90625,-0.09423828125,0.900146484375,-0.33935546875,-0.3051757514476776,1.3732908964157104,2.197265386581421,100.0,170379.0,1.0
178972.4898785,306947.5,308619.59375,328872.5,315263.6875,309066.4375,289098.1875,289938.78125,306953.75,-0.093017578125,0.901611328125,-0.341064453125,-0.2136230319738388,1.3732908964157104,2.319335699081421,100.0,170380.0,1.0
178972.4899305,307012.65625,309350.21875,328838.78125,315571.40625,309221.5625,289329.65625,290155.78125,307047.1875,-0.09228515625,0.901123046875,-0.34375,-0.3051757514476776,1.3427733182907104,2.410888433456421,100.0,170381.0,1.0
178972.4899451,307348.03125,311057.96875,330722.96875,316343.0,310664.5,289711.0,290577.4375,307150.1875,-0.092041015625,0.901123046875,-0.34375,-0.2746581733226776,1.2512205839157104,2.410888433456421,100.0,170382.0,1.0
178972.4924958,307410.1875,311230.4375,331674.34375,316386.8125,311251.46875,289659.65625,290568.5,307087.59375,-0.09228515625,0.904296875,-0.341064453125,-0.3967284858226776,1.2512205839157104,2.502441167831421,100.0,170383.0,1.0
178972.4949924,307171.90625,309740.125,330522.0625,315738.53125,310256.875,289300.4375,290186.28125,306979.59375,-0.090576171875,0.902587890625,-0.33935546875,-0.3356933295726776,1.2207030057907104,2.502441167831421,100.0,170384.0,1.0
178972.4974934,306935.15625,308619.75,328882.6875,315257.59375,309067.78125,289106.875,289944.0625,306949.0,-0.087890625,0.90283203125,-0.341552734375,-0.4272460639476776,1.3122557401657104,2.563476324081421,100.0,170385.0,1.0
178972.4999932,307002.3125,309334.5625,328829.75,315559.625,309213.0625,289337.0,290156.3125,307038.78125,-0.087158203125,0.902099609375,-0.34228515625,-0.4577636420726776,1.3732908964157104,2.624511480331421,100.0,170386.0,1.0
178972.5024967,307338.8125,311042.6875,330711.5,316331.90625,310655.375,289717.15625,290576.625,307143.75,-0.08544921875,0.90185546875,-0.343505859375,-0.3662109076976776,1.4038084745407104,2.624511480331421,100.0,170387.0,1.0
178972.5049955,307401.59375,311223.8125,331665.5625,316380.03125,311237.6875,289667.09375,290568.65625,307091.78125,-0.085205078125,0.903076171875,-0.344482421875,-0.2746581733226776,1.5563963651657104,2.655029058456421,100.0,170388.0,1.0
178972.5099931,307168.78125,309742.1875,330519.375,315739.0625,310252.25,289308.3125,290185.65625,306983.53125,-0.08251953125,0.90478515625,-0.345703125,-0.1831054538488388,1.5869139432907104,2.624511480331421,100.0,170389.0,1.0
178972.5124948,306934.875,308620.65625,328885.90625,315259.375,309071.1875,289112.3125,289944.34375,306951.25,-0.082763671875,0.904052734375,-0.343505859375,-0.2136230319738388,1.6479490995407104,2.685546636581421,100.0,170390.0,1.0
178972.5149949,306997.46875,309322.3125,328815.71875,315553.375,309201.625,289333.15625,290152.375,307040.65625,-0.08056640625,0.90380859375,-0.34619140625,-0.2441406100988388,1.7395018339157104,2.685546636581421,100.0,170391.0,1.0
178972.5242704,307340.15625,311043.6875,330701.125,316333.71875,310653.84375,289716.96875,290576.53125,307153.5625,-0.080810546875,0.90185546875,-0.34619140625,-0.2136230319738388,1.7700194120407104,2.777099370956421,100.0,170392.0,1.0
178972.5243176,307409.28125,311245.90625,331678.0,316394.0625,311257.34375,289669.59375,290574.75,307109.21875,-0.08203125,0.89892578125,-0.3447265625,-0.0610351525247097,1.8615721464157104,2.716064214706421,100.0,170393.0,1.0
178972.5268499,307172.875,309760.15625,330539.21875,315753.8125,310269.125,289304.53125,290189.59375,306993.96875,-0.080322265625,0.899658203125,-0.346435546875,-0.03051757626235485,2.014159917831421,2.777099370956421,100.0,170394.0,1.0
178972.5268977,306943.8125,308627.34375,328903.34375,315271.375,309079.59375,289104.09375,289943.96875,306957.3125,-0.07861328125,0.89990234375,-0.345703125,0.0,2.075195074081421,2.777099370956421,100.0,170395.0,1.0
178972.5349944,307012.3125,309320.96875,328821.96875,315561.125,309201.8125,289326.8125,290151.21875,307047.625,-0.079345703125,0.901611328125,-0.34423828125,0.2136230319738388,2.136230230331421,2.746581792831421,100.0,170396.0,1.0
178972.5387453,307353.03125,311039.75,330700.0625,316339.59375,310644.90625,289710.90625,290573.0625,307152.6875,-0.080810546875,0.90234375,-0.347412109375,0.2746581733226776,2.349853277206421,2.807616949081421,100.0,170397.0,1.0
178972.5448563,307422.875,311257.0,331696.6875,316402.71875,311263.15625,289667.8125,290576.90625,307108.34375,-0.079833984375,0.90234375,-0.346923828125,0.3662109076976776,2.502441167831421,2.624511480331421,100.0,170398.0,1.0
178972.5531184,307188.53125,309779.8125,330564.78125,315755.59375,310280.40625,289301.5,290189.9375,306989.15625,-0.081298828125,0.900146484375,-0.349365234375,0.3967284858226776,2.593993902206421,2.655029058456421,100.0,170399.0,1.0
178972.5531662,306954.5625,308634.15625,328923.46875,315268.78125,309086.5625,289100.875,289938.09375,306944.09375,-0.07958984375,0.9013671875,-0.345458984375,0.3967284858226776,2.593993902206421,2.593993902206421,100.0,170400.0,1.0
178972.5549564,307011.78125,309301.40625,328809.90625,315548.1875,309185.71875,289321.0,290143.53125,307037.15625,-0.07861328125,0.902099609375,-0.3466796875,0.3356933295726776,2.655029058456421,2.685546636581421,100.0,170401.0,1.0
178972.5587551,307352.5,311025.15625,330673.25,316322.96875,310621.9375,289710.0,290567.25,307144.625,-0.07763671875,0.90185546875,-0.34716796875,0.4272460639476776,2.746581792831421,2.624511480331421,100.0,170402.0,1.0
178972.5680963,307424.21875,311260.46875,331678.96875,316394.9375,311245.71875,289673.78125,290574.5625,307098.21875,-0.0791015625,0.902099609375,-0.344482421875,0.3967284858226776,2.716064214706421,2.532958745956421,100.0,170403.0,1.0
178972.5681499,307195.6875,309797.96875,330578.125,315761.21875,310289.0,289316.625,290197.0,306986.375,-0.076416015625,0.9033203125,-0.343505859375,0.4272460639476776,2.838134527206421,2.471923589706421,100.0,170404.0,1.0
178972.5699983,306955.28125,308631.21875,328924.96875,315264.3125,309083.59375,289106.5,289940.21875,306943.375,-0.078857421875,0.90283203125,-0.345947265625,0.4272460639476776,2.868652105331421,2.410888433456421,100.0,170405.0,1.0
178972.5787538,307009.625,309283.6875,328791.125,315534.5,309163.8125,289319.03125,290135.40625,307029.125,-0.077392578125,0.905029296875,-0.345703125,0.4577636420726776,2.929687261581421,2.441406011581421,100.0,170406.0,1.0
178972.5818502,307352.3125,311013.375,330650.25,316313.9375,310597.09375,289709.5625,290560.25,307139.625,-0.078125,0.903564453125,-0.345458984375,0.5187987685203552,3.082275152206421,2.441406011581421,100.0,170407.0,1.0
178972.5818989,307426.71875,311267.8125,331677.65625,316396.375,311242.15625,289676.65625,290573.59375,307095.625,-0.077392578125,0.904296875,-0.347412109375,0.5493163466453552,3.173827886581421,2.288818120956421,100.0,170408.0,1.0
178972.5874913,307193.625,309800.1875,330579.46875,315762.21875,310289.6875,289315.09375,290193.96875,306982.8125,-0.077880859375,0.90380859375,-0.345703125,0.4272460639476776,3.173827886581421,2.288818120956421,100.0,170409.0,1.0
178972.5943646,306952.84375,308625.5625,328924.71875,315262.53125,309080.90625,289100.96875,289936.84375,306943.375,-0.078125,0.90283203125,-0.3447265625,0.4272460639476776,3.143310308456421,2.258300542831421,100.0,170410.0,1.0
178972.5944121,306999.71875,309259.75,328767.1875,315524.5625,309145.90625,289306.78125,290129.59375,307030.8125,-0.076416015625,0.90380859375,-0.345703125,0.4577636420726776,3.143310308456421,2.319335699081421,100.0,170411.0,1.0
178972.60804,307340.4375,310994.59375,330622.1875,316305.4375,310581.78125,289697.21875,290555.53125,307138.09375,-0.07568359375,0.9033203125,-0.344970703125,0.3967284858226776,3.173827886581421,2.288818120956421,100.0,170412.0,1.0
178972.6080866,307420.28125,311267.8125,331666.8125,316392.90625,311239.75,289664.6875,290567.40625,307091.4375,-0.0771484375,0.901123046875,-0.343994140625,0.4272460639476776,3.204345464706421,2.288818120956421,100.0,170413.0,1.0
178972.6123512,307181.90625,309800.75,330569.34375,315755.59375,310285.5,289298.71875,290181.53125,306968.78125,-0.07568359375,0.901611328125,-0.343017578125,0.3356933295726776,3.204345464706421,2.227782964706421,100.0,170414.0,1.0
178972.6124001,306935.96875,308612.53125,328898.875,315250.4375,309064.46875,289089.78125,289926.1875,306922.46875,-0.07666015625,0.90234375,-0.342529296875,0.3662109076976776,3.295898199081421,2.197265386581421,100.0,170415.0,1.0
178972.6124119,306985.03125,309238.625,328731.15625,315510.625,309124.28125,289298.71875,290120.375,307019.46875,-0.0771484375,0.906494140625,-0.342041015625,0.2136230319738388,3.143310308456421,2.227782964706421,100.0,170416.0,1.0
178972.6149937,307323.1875,310969.46875,330579.53125,316292.03125,310554.15625,289687.03125,290551.5,307134.875,-0.077880859375,0.904541015625,-0.341796875,0.0915527269244194,3.143310308456421,2.227782964706421,100.0,170417.0,1.0
178972.6262723,307401.3125,311258.53125,331638.21875,316388.78125,311223.65625,289662.0,290575.71875,307092.78125,-0.07763671875,0.904541015625,-0.342529296875,0.03051757626235485,3.204345464706421,2.349853277206421,100.0,170418.0,1.0
178972.6305947,307164.65625,309801.8125,330558.0,315751.3125,310283.90625,289301.3125,290193.53125,306972.4375,-0.077880859375,0.90576171875,-0.34375,0.0,3.234863042831421,2.319335699081421,100.0,170419.0,1.0
178972.6306435,306925.9375,308612.25,328899.40625,315244.90625,309072.4375,289091.75,289932.90625,306925.5,-0.076416015625,0.903076171875,-0.34423828125,-0.0915527269244194,3.143310308456421,2.288818120956421,100.0,170420.0,1.0
178972.6443404,306974.59375,309219.5,328710.03125,315496.0625,309115.4375,289298.46875,290120.03125,307017.21875,-0.077392578125,0.90283203125,-0.34521484375,-0.0915527269244194,3.112792730331421,2.258300542831421,100.0,170421.0,1.0
178972.6443891,307318.625,310955.59375,330550.3125,316281.125,310544.59375,289689.71875,290546.9375,307128.4375,-0.076171875,0.902587890625,-0.347900390625,-0.1831054538488388,3.143310308456421,2.227782964706421,100.0,170422.0,1.0
178972.6468412,307408.375,311270.3125,331635.8125,316389.9375,311237.40625,289667.0,290571.71875,307087.21875,-0.073974609375,0.90283203125,-0.345947265625,-0.2746581733226776,3.082275152206421,2.380370855331421,100.0,170423.0,1.0
178972.6468941,307182.71875,309828.1875,330577.5,315766.40625,310311.59375,289310.625,290198.15625,306978.6875,-0.072509765625,0.9013671875,-0.34423828125,-0.2746581733226776,3.082275152206421,2.380370855331421,100.0,170424.0,1.0
178972.6567759,306947.84375,308633.71875,328919.71875,315263.59375,309098.71875,289101.3125,289937.8125,306942.21875,-0.07421875,0.90087890625,-0.3466796875,-0.2441406100988388,3.051757574081421,2.410888433456421,100.0,170425.0,1.0
178972.6568239,306989.5,309224.59375,328712.0,315507.21875,309125.96875,289302.03125,290119.9375,307027.96875,-0.07373046875,0.901611328125,-0.346923828125,-0.2441406100988388,3.021239995956421,2.441406011581421,100.0,170426.0,1.0
178972.6586964,307326.5625,310957.84375,330538.875,316288.46875,310544.34375,289694.28125,290547.46875,307139.28125,-0.0751953125,0.90185546875,-0.346923828125,-0.2136230319738388,3.051757574081421,2.380370855331421,100.0,170427.0,1.0
178972.6680928,307417.3125,311288.65625,331640.09375,316404.25,311247.4375,289678.625,290579.21875,307100.375,-0.07763671875,0.900146484375,-0.34521484375,-0.1525878757238388,3.021239995956421,2.258300542831421,100.0,170428.0,1.0
178972.6681413,307187.1875,309850.34375,330590.90625,315776.59375,310322.5,289317.6875,290201.5625,306984.9375,-0.07421875,0.900634765625,-0.345947265625,-0.1525878757238388,2.960204839706421,2.197265386581421,100.0,170429.0,1.0
178972.6743082,306940.15625,308631.03125,328922.84375,315262.78125,309091.46875,289098.625,289936.21875,306942.9375,-0.07373046875,0.901611328125,-0.345458984375,-0.03051757626235485,2.960204839706421,2.136230230331421,100.0,170430.0,1.0
178972.6743666,306978.15625,309199.375,328691.53125,315494.0,309100.78125,289291.125,290112.5,307021.15625,-0.075439453125,0.902587890625,-0.34326171875,-0.0610351525247097,2.990722417831421,2.044677495956421,100.0,170431.0,1.0
178972.6855954,307321.46875,310944.34375,330512.9375,316277.90625,310518.3125,289687.90625,290544.78125,307137.21875,-0.07666015625,0.90234375,-0.34375,0.03051757626235485,2.868652105331421,2.075195074081421,100.0,170432.0,1.0
178972.6856434,307413.5625,311292.65625,331629.53125,316400.40625,311232.3125,289681.9375,290582.25,307100.8125,-0.07470703125,0.903076171875,-0.344482421875,-0.03051757626235485,2.807616949081421,2.075195074081421,100.0,170433.0,1.0
178972.6880943,307188.4375,309861.34375,330597.4375,315782.34375,310324.21875,289328.875,290210.15625,306994.34375,-0.073974609375,0.899658203125,-0.344482421875,0.0610351525247097,2.838134527206421,2.105712652206421,100.0,170434.0,1.0
178972.6881442,306945.96875,308638.53125,328930.53125,315270.46875,309100.15625,289105.875,289942.90625,306953.3125,-0.074951171875,0.89990234375,-0.34423828125,0.0915527269244194,2.746581792831421,2.014159917831421,100.0,170435.0,1.0
178972.7012735,306975.5625,309191.53125,328671.40625,315493.71875,309092.53125,289294.53125,290111.4375,307026.34375,-0.074462890625,0.8984375,-0.343017578125,0.1525878757238388,2.655029058456421,1.9836424589157104,100.0,170436.0,1.0
178972.7062227,307315.03125,310930.65625,330480.5625,316277.46875,310503.84375,289690.96875,290543.46875,307142.9375,-0.0732421875,0.8955078125,-0.3447265625,0.2136230319738388,2.624511480331421,1.8615721464157104,100.0,170437.0,1.0
178972.7062777,307410.53125,311292.84375,331609.6875,316407.65625,311231.34375,289685.15625,290584.125,307109.6875,-0.07421875,0.896240234375,-0.346435546875,0.4577636420726776,2.563476324081421,1.7700194120407104,100.0,170438.0,1.0
178972.7062921,307186.3125,309870.65625,330587.9375,315786.0,310332.53125,289327.25,290209.96875,306997.03125,-0.072998046875,0.8994140625,-0.342529296875,0.5187987685203552,2.471923589706421,1.8005369901657104,100.0,170439.0,1.0
178972.7087452,306940.875,308639.0625,328925.875,315263.6875,309105.6875,289102.40625,289936.21875,306946.59375,-0.071044921875,0.900146484375,-0.345703125,0.7019042372703552,2.410888433456421,1.7089842557907104,100.0,170440.0,1.0
178972.7124442,306969.3125,309172.28125,328656.125,315478.96875,309084.3125,289289.625,290102.21875,307021.4375,-0.072021484375,0.901123046875,-0.345703125,0.7934569716453552,2.410888433456421,1.7089842557907104,100.0,170441.0,1.0
178972.7212725,307308.15625,310910.46875,330454.8125,316263.6875,310488.90625,289685.3125,290534.78125,307136.40625,-0.073974609375,0.90185546875,-0.34619140625,0.9155272841453552,2.441406011581421,1.6784666776657104,100.0,170442.0,1.0
178972.7255933,307412.84375,311297.15625,331605.75,316408.28125,311233.125,289683.625,290582.15625,307103.6875,-0.072509765625,0.903076171875,-0.343994140625,1.0070799589157104,2.441406011581421,1.7395018339157104,100.0,170443.0,1.0
178972.7256489,307192.1875,309882.90625,330602.6875,315795.84375,310344.78125,289329.40625,290212.5625,306994.34375,-0.072265625,0.90185546875,-0.343994140625,0.8239745497703552,2.410888433456421,1.8310545682907104,100.0,170444.0,1.0
178972.7362746,306949.28125,308641.5625,328931.6875,315274.78125,309109.625,289104.90625,289941.375,306954.375,-0.072998046875,0.901611328125,-0.344970703125,0.9765624403953552,2.319335699081421,1.8310545682907104,100.0,170445.0,1.0
178972.7393442,306978.34375,309162.8125,328644.0625,315482.1875,309078.78125,289290.96875,290104.5625,307024.75,-0.07177734375,0.8994140625,-0.34521484375,0.9155272841453552,2.197265386581421,1.8005369901657104,100.0,170446.0,1.0
178972.7393926,307314.78125,310897.3125,330428.1875,316262.8125,310478.71875,289689.09375,290538.8125,307141.5,-0.07177734375,0.900390625,-0.34521484375,0.9460448622703552,2.227782964706421,1.7089842557907104,100.0,170447.0,1.0
178972.7412705,307424.375,311309.3125,331597.34375,316418.71875,311243.9375,289692.5625,290594.5,307117.625,-0.070556640625,0.898681640625,-0.34716796875,1.0681151151657104,2.258300542831421,1.6174315214157104,100.0,170448.0,1.0
178972.7505496,307209.71875,309911.34375,330615.3125,315811.9375,310377.15625,289341.90625,290229.0,307003.5625,-0.070068359375,0.899658203125,-0.344970703125,1.1901854276657104,2.349853277206421,1.6784666776657104,100.0,170449.0,1.0
178972.7506012,306963.6875,308656.3125,328940.8125,315283.71875,309138.15625,289113.40625,289951.125,306949.8125,-0.068115234375,0.900634765625,-0.346923828125,1.3427733182907104,2.380370855331421,1.7700194120407104,100.0,170450.0,1.0
178972.7524997,306983.96875,309152.1875,328623.15625,315482.28125,309083.0625,289291.21875,290109.90625,307027.96875,-0.066162109375,0.90087890625,-0.3486328125,1.3427733182907104,2.380370855331421,1.8920897245407104,100.0,170451.0,1.0
178972.76243,307320.3125,310894.625,330402.4375,316260.5625,310477.90625,289685.25,290535.0625,307139.0,-0.065185546875,0.90087890625,-0.3486328125,1.4343260526657104,2.441406011581421,2.014159917831421,100.0,170452.0,1.0
178972.7655956,307427.25,311323.25,331589.5,316417.9375,311252.53125,289691.21875,290585.125,307100.28125,-0.06396484375,0.90185546875,-0.347900390625,1.4953612089157104,2.471923589706421,2.105712652206421,100.0,170453.0,1.0
178972.7656446,307205.34375,309923.5,330617.53125,315809.15625,310388.21875,289339.5,290218.09375,306987.90625,-0.062255859375,0.90283203125,-0.345458984375,1.4648436307907104,2.532958745956421,2.197265386581421,100.0,170454.0,1.0
178972.7674397,306955.625,308660.4375,328944.28125,315275.21875,309146.90625,289106.0625,289933.6875,306932.90625,-0.059326171875,0.9013671875,-0.345947265625,1.4648436307907104,2.685546636581421,2.227782964706421,100.0,170455.0,1.0
178972.7787447,306967.96875,309140.71875,328607.40625,315460.65625,309074.9375,289279.875,290088.1875,307013.125,-0.0576171875,0.900634765625,-0.346923828125,1.5563963651657104,2.929687261581421,2.258300542831421,100.0,170456.0,1.0
178972.7818406,307299.65625,310877.71875,330374.8125,316238.40625,310463.15625,289676.9375,290524.6875,307133.1875,-0.06103515625,0.902587890625,-0.34521484375,1.6479490995407104,2.960204839706421,2.136230230331421,100.0,170457.0,1.0
178972.7818894,307406.15625,311316.8125,331573.65625,316401.75,311245.71875,289686.9375,290581.375,307096.09375,-0.063232421875,0.901123046875,-0.34716796875,1.6479490995407104,3.112792730331421,1.9226073026657104,100.0,170458.0,1.0
178972.7874922,307189.96875,309932.25,330623.53125,315803.0625,310393.59375,289338.4375,290218.0,306985.21875,-0.06591796875,0.89990234375,-0.349853515625,1.8005369901657104,3.295898199081421,1.9226073026657104,100.0,170459.0,1.0
178972.794341,306943.28125,308665.90625,328957.4375,315273.0625,309154.875,289106.40625,289938.71875,306934.71875,-0.072265625,0.902099609375,-0.34716796875,1.8005369901657104,3.356933355331421,1.7395018339157104,100.0,170460.0,1.0
178972.7943937,306953.3125,309128.21875,328607.21875,315452.78125,309072.0625,289276.65625,290088.03125,306997.75,-0.07568359375,0.90380859375,-0.34423828125,1.8920897245407104,3.326415777206421,1.5563963651657104,100.0,170461.0,1.0
178972.800013,307285.625,310864.40625,330363.8125,316226.5,310452.96875,289672.625,290521.8125,307121.375,-0.0771484375,0.905029296875,-0.345947265625,1.9531248807907104,3.173827886581421,1.4038084745407104,100.0,170462.0,1.0
178972.8067927,307400.78125,311328.34375,331584.21875,316400.59375,311250.75,289686.03125,290588.0625,307094.46875,-0.076416015625,0.90478515625,-0.342529296875,1.9226073026657104,3.051757574081421,1.3122557401657104,100.0,170463.0,1.0
178972.8068407,307185.03125,309950.59375,330651.6875,315801.65625,310412.46875,289335.65625,290221.40625,306978.78125,-0.076416015625,0.904296875,-0.343505859375,1.8310545682907104,2.990722417831421,1.2512205839157104,100.0,170464.0,1.0
178972.8155923,306935.59375,308672.96875,328985.6875,315268.34375,309169.6875,289101.9375,289935.5,306926.40625,-0.07568359375,0.90625,-0.3447265625,1.8920897245407104,2.960204839706421,0.9155272841453552,100.0,170465.0,1.0
178972.8156421,306951.0625,309129.8125,328626.4375,315448.9375,309082.0,289275.5625,290087.75,307008.03125,-0.075439453125,0.90869140625,-0.34326171875,1.8005369901657104,2.807616949081421,0.8850097060203552,100.0,170466.0,1.0
178972.8174559,307289.125,310873.625,330384.5625,316232.9375,310467.34375,289676.03125,290526.125,307131.21875,-0.072998046875,0.90966796875,-0.34423828125,1.7395018339157104,2.807616949081421,0.6713866591453552,100.0,170467.0,1.0
178972.8425216,307404.375,311354.09375,331627.40625,316417.21875,311283.1875,289697.03125,290595.21875,307106.90625,-0.0732421875,0.91064453125,-0.345458984375,1.8005369901657104,2.655029058456421,0.4882812201976776,100.0,170468.0,1.0
178972.8450066,307187.625,309982.15625,330716.0625,315819.25,310453.59375,289343.71875,290222.84375,306975.75,-0.074462890625,0.91162109375,-0.345703125,1.6784666776657104,2.746581792831421,0.3356933295726776,100.0,170469.0,1.0
178972.8474778,306941.3125,308697.8125,329059.96875,315283.53125,309214.75,289106.78125,289937.1875,306923.96875,-0.07275390625,0.91162109375,-0.345703125,1.7700194120407104,2.624511480331421,0.2746581733226776,100.0,170470.0,1.0
178972.8499953,306953.46875,309136.71875,328686.71875,315455.09375,309114.71875,289270.3125,290083.09375,307001.125,-0.07080078125,0.909423828125,-0.34423828125,1.5258787870407104,2.502441167831421,0.1525878757238388,100.0,170471.0,1.0
178972.8524786,307288.59375,310876.40625,330431.5625,316231.875,310489.25,289671.28125,290517.09375,307127.03125,-0.068603515625,0.9091796875,-0.34423828125,1.4648436307907104,2.380370855331421,0.03051757626235485,100.0,170472.0,1.0
178972.8549686,307414.8125,311382.15625,331701.15625,316427.84375,311326.46875,289701.96875,290598.0,307113.34375,-0.068115234375,0.907958984375,-0.341796875,1.4038084745407104,2.380370855331421,-0.03051757626235485,100.0,170473.0,1.0
178972.8574573,307203.1875,310022.1875,330805.9375,315836.875,310510.8125,289352.5625,290234.46875,306992.65625,-0.06787109375,0.9052734375,-0.341796875,1.3732908964157104,2.380370855331421,-0.1831054538488388,100.0,170474.0,1.0
178972.8599704,306959.125,308726.25,329143.9375,315300.0625,309266.0,289115.09375,289947.28125,306940.34375,-0.067626953125,0.907958984375,-0.33984375,1.3122557401657104,2.380370855331421,-0.1220703050494194,100.0,170475.0,1.0
178972.8623466,306970.65625,309147.53125,328753.84375,315461.8125,309150.65625,289277.09375,290083.90625,307004.25,-0.063720703125,0.906982421875,-0.33935546875,1.1291502714157104,2.441406011581421,-0.2746581733226776,100.0,170476.0,1.0
178972.869368,307305.46875,310885.59375,330487.1875,316237.6875,310518.75,289676.9375,290521.0,307130.25,-0.065185546875,0.9072265625,-0.342529296875,1.0986326932907104,2.655029058456421,-0.3051757514476776,100.0,170477.0,1.0
178972.8694145,307437.625,311411.40625,331769.5625,316444.84375,311368.40625,289708.21875,290602.28125,307110.84375,-0.065185546875,0.904296875,-0.34521484375,1.0375975370407104,2.777099370956421,-0.3662109076976776,100.0,170478.0,1.0
178972.8712452,307232.25,310063.78125,330898.28125,315863.6875,310571.96875,289358.8125,290239.65625,306993.1875,-0.0654296875,0.90185546875,-0.345703125,0.8544921278953552,2.777099370956421,-0.4272460639476776,100.0,170479.0,1.0
178972.8736644,306987.625,308765.84375,329246.84375,315323.125,309328.3125,289113.40625,289947.90625,306940.6875,-0.064453125,0.898193359375,-0.3447265625,0.8850097060203552,2.746581792831421,-0.3967284858226776,100.0,170480.0,1.0
178972.876241,306997.375,309180.15625,328851.5625,315480.6875,309206.1875,289272.09375,290088.375,307020.09375,-0.06640625,0.89599609375,-0.34033203125,0.8850097060203552,2.838134527206421,-0.4882812201976776,100.0,170481.0,1.0
178972.8805901,307336.5,310928.59375,330591.25,316263.6875,310576.6875,289676.125,290526.03125,307148.21875,-0.06591796875,0.89306640625,-0.33984375,0.9155272841453552,2.960204839706421,-0.6103515028953552,100.0,170482.0,1.0
178972.8806393,307471.3125,311479.96875,331907.0625,316478.1875,311444.5625,289714.75,290609.0,307119.875,-0.067138671875,0.893798828125,-0.339111328125,1.0070799589157104,3.051757574081421,-0.7934569716453552,100.0,170483.0,1.0
178972.8887252,307267.65625,310147.28125,331073.78125,315902.6875,310668.15625,289372.40625,290255.65625,307002.9375,-0.0693359375,0.897216796875,-0.33935546875,1.1596678495407104,3.082275152206421,-1.0681151151657104,100.0,170484.0,1.0
178972.8955929,307018.65625,308839.53125,329429.5,315356.84375,309422.8125,289128.15625,289961.0625,306942.75,-0.067626953125,0.8984375,-0.337646484375,1.1291502714157104,3.082275152206421,-1.2817381620407104,100.0,170485.0,1.0
178972.8956466,307017.40625,309227.5625,329014.75,315498.375,309280.46875,289284.15625,290092.65625,307008.5625,-0.06884765625,0.899169921875,-0.33740234375,1.1291502714157104,3.021239995956421,-1.4038084745407104,100.0,170486.0,1.0
178972.8980919,307348.46875,310965.875,330738.59375,316267.375,310637.21875,289687.84375,290527.4375,307133.375,-0.067626953125,0.897216796875,-0.343994140625,0.9765624403953552,3.143310308456421,-1.5563963651657104,100.0,170487.0,1.0
178972.8981422,307483.40625,311531.75,332073.96875,316488.90625,311519.40625,289730.9375,290622.40625,307119.5,-0.068359375,0.895751953125,-0.34130859375,0.9765624403953552,3.112792730331421,-1.6784666776657104,100.0,170488.0,1.0
178972.906273,307269.71875,310192.4375,331240.96875,315907.84375,310740.3125,289381.34375,290268.625,307004.4375,-0.067626953125,0.8935546875,-0.34228515625,0.9765624403953552,3.143310308456421,-1.8005369901657104,100.0,170489.0,1.0
178972.909953,307013.90625,308860.8125,329582.46875,315353.625,309482.1875,289131.09375,289967.75,306945.0,-0.071044921875,0.889892578125,-0.339599609375,1.0986326932907104,3.112792730331421,-1.9226073026657104,100.0,170490.0,1.0
178972.9168409,307000.96875,309215.3125,329126.3125,315475.65625,309305.59375,289276.375,290085.5,307002.75,-0.072265625,0.890869140625,-0.338623046875,1.2207030057907104,3.051757574081421,-2.197265386581421,100.0,170491.0,1.0
178972.9168939,307332.84375,310959.09375,330837.5625,316244.21875,310653.59375,289679.34375,290522.1875,307121.65625,-0.07080078125,0.893310546875,-0.33837890625,1.3732908964157104,3.082275152206421,-2.319335699081421,100.0,170492.0,1.0
178972.9187284,307465.25,311532.71875,332170.71875,316468.0,311535.40625,289722.53125,290614.96875,307105.125,-0.071044921875,0.895263671875,-0.34033203125,1.3427733182907104,3.082275152206421,-2.532958745956421,100.0,170493.0,1.0
178972.9324253,307256.3125,310202.34375,331340.3125,315892.125,310759.53125,289375.1875,290260.03125,306987.46875,-0.0712890625,0.896484375,-0.337890625,1.2512205839157104,3.112792730331421,-2.655029058456421,100.0,170494.0,1.0
178972.9393044,307006.0625,308866.53125,329675.1875,315342.1875,309499.0625,289125.5625,289963.90625,306936.0625,-0.073486328125,0.8984375,-0.3408203125,1.2207030057907104,3.143310308456421,-2.838134527206421,100.0,170495.0,1.0
178972.9393516,306993.0,309205.03125,329186.59375,315466.1875,309302.5625,289266.28125,290085.0625,307002.375,-0.076171875,0.89599609375,-0.33837890625,1.2512205839157104,3.021239995956421,-2.929687261581421,100.0,170496.0,1.0
178972.9411995,307326.03125,310948.375,330874.3125,316240.0,310644.125,289665.03125,290520.84375,307124.875,-0.077392578125,0.895751953125,-0.338134765625,1.2207030057907104,2.807616949081421,-3.051757574081421,100.0,170497.0,1.0
178972.9437713,307469.625,311550.53125,332230.625,316476.84375,311553.1875,289712.6875,290619.375,307110.75,-0.076171875,0.894775390625,-0.337646484375,1.1901854276657104,2.807616949081421,-3.204345464706421,100.0,170498.0,1.0
178972.9462712,307262.21875,310222.28125,331401.90625,315900.25,310784.03125,289368.1875,290265.40625,307001.3125,-0.075927734375,0.89697265625,-0.337890625,1.1291502714157104,2.716064214706421,-3.295898199081421,100.0,170499.0,1.0
178972.9659699,307005.96875,308868.21875,329717.21875,315340.46875,309508.5625,289114.375,289962.84375,306946.15625,-0.079345703125,0.896240234375,-0.338134765625,1.2207030057907104,2.593993902206421,-3.448486089706421,100.0,170500.0,1.0
178972.9660387,306992.09375,309192.59375,329206.625,315458.84375,309297.28125,289254.03125,290079.15625,307009.09375,-0.083251953125,0.8974609375,-0.338134765625,1.2207030057907104,2.502441167831421,-3.601073980331421,100.0,170501.0,1.0
178972.9660513,307329.53125,310934.25,330878.78125,316239.03125,310630.875,289661.8125,290521.1875,307142.3125,-0.085205078125,0.8974609375,-0.339599609375,1.2817381620407104,2.258300542831421,-3.631591558456421,100.0,170502.0,1.0
178972.9737075,307471.78125,311548.09375,332230.53125,316485.78125,311535.84375,289716.96875,290625.25,307128.90625,-0.0849609375,0.900146484375,-0.338623046875,1.2207030057907104,1.9836424589157104,-3.753661870956421,100.0,170503.0,1.0
178972.9774298,307266.21875,310233.65625,331413.1875,315915.0,310780.8125,289378.9375,290276.21875,307017.125,-0.084228515625,0.90087890625,-0.338623046875,1.2512205839157104,1.7700194120407104,-3.814697027206421,100.0,170504.0,1.0
178972.9774784,307008.46875,308866.875,329718.71875,315351.125,309503.8125,289126.34375,289972.25,306960.46875,-0.0849609375,0.89990234375,-0.33837890625,1.3122557401657104,1.6174315214157104,-3.845214605331421,100.0,170505.0,1.0
178972.9774914,306987.90625,309168.71875,329178.0,315454.5625,309274.21875,289263.875,290088.1875,307025.46875,-0.085693359375,0.90283203125,-0.33984375,1.3427733182907104,1.3732908964157104,-3.906249761581421,100.0,170506.0,1.0
178972.9805751,307320.0625,310904.09375,330835.875,316225.0625,310600.125,289670.84375,290520.75,307141.875,-0.088623046875,0.902099609375,-0.33984375,1.2512205839157104,1.1901854276657104,-4.028319835662842,100.0,170507.0,1.0
178972.9806233,307464.4375,311532.46875,332205.59375,316478.625,311520.5625,289731.1875,290630.71875,307129.4375,-0.086669921875,0.89990234375,-0.341552734375,1.1901854276657104,0.9460448622703552,-4.028319835662842,100.0,170508.0,1.0
178972.9824608,307254.78125,310222.1875,331403.875,315905.8125,310771.34375,289386.34375,290276.65625,307005.53125,-0.0859375,0.900390625,-0.344482421875,1.2512205839157104,0.8239745497703552,-3.875732183456421,100.0,170509.0,1.0
178972.9962791,306991.46875,308844.15625,329706.40625,315337.25,309488.625,289130.125,289967.0625,306944.625,-0.08544921875,0.9013671875,-0.3447265625,1.1291502714157104,0.5187987685203552,-3.967284917831421,100.0,170510.0,1.0
178973.0049628,306970.28125,309131.25,329148.84375,315438.46875,309247.125,289266.09375,290077.28125,307016.78125,-0.08642578125,0.902099609375,-0.342529296875,1.1596678495407104,0.2746581733226776,-3.814697027206421,100.0,170511.0,1.0
178973.0050098,307302.875,310868.6875,330793.125,316205.75,310564.375,289674.0625,290511.09375,307129.6875,-0.087890625,0.90283203125,-0.34375,1.2207030057907104,0.03051757626235485,-3.753661870956421,100.0,170512.0,1.0
178973.0050214,307459.34375,311524.40625,332180.09375,316467.90625,311500.71875,289732.53125,290626.875,307110.125,-0.0888671875,0.902099609375,-0.34521484375,1.1596678495407104,-0.2746581733226776,-3.723144292831421,100.0,170513.0,1.0
178973.0074026,307256.75,310226.21875,331393.0625,315906.15625,310764.0,289393.40625,290281.6875,307008.28125,-0.087890625,0.902099609375,-0.345703125,1.2207030057907104,-0.5187987685203552,-3.601073980331421,100.0,170514.0,1.0
178973.0099998,306995.59375,308843.0,329697.53125,315333.15625,309481.71875,289132.15625,289969.90625,306944.90625,-0.0869140625,0.90185546875,-0.345458984375,1.2207030057907104,-0.7019042372703552,-3.448486089706421,100.0,170515.0,1.0
178973.0124951,306965.28125,309103.90625,329111.84375,315423.90625,309221.75,289255.625,290071.375,307005.6875,-0.085205078125,0.900390625,-0.344970703125,1.1596678495407104,-0.9460448622703552,-3.326415777206421,100.0,170516.0,1.0
178973.0236999,307288.9375,310821.21875,330714.09375,316187.6875,310514.84375,289659.59375,290503.65625,307130.96875,-0.086669921875,0.9013671875,-0.3486328125,1.3427733182907104,-1.1596678495407104,-3.234863042831421,100.0,170517.0,1.0
178973.0305613,307441.375,311484.71875,332090.0625,316452.4375,311450.21875,289726.09375,290620.15625,307118.25,-0.087890625,0.902099609375,-0.349853515625,1.4038084745407104,-1.2207030057907104,-3.112792730331421,100.0,170518.0,1.0
178973.0306109,307236.90625,310192.53125,331299.625,315890.78125,310717.25,289386.53125,290276.65625,306999.875,-0.08984375,0.900146484375,-0.347412109375,1.4953612089157104,-1.3427733182907104,-2.960204839706421,100.0,170519.0,1.0
178973.0355944,306974.59375,308798.75,329583.1875,315312.6875,309423.34375,289121.96875,289962.75,306934.4375,-0.092041015625,0.899658203125,-0.348876953125,1.4953612089157104,-1.7089842557907104,-2.777099370956421,100.0,170520.0,1.0
178973.0356438,306939.90625,309042.21875,328960.28125,315390.1875,309137.5,289240.4375,290057.53125,306998.0,-0.092529296875,0.89990234375,-0.350341796875,1.6479490995407104,-1.9531248807907104,-2.532958745956421,100.0,170521.0,1.0
178973.0374948,307269.625,310769.5625,330553.09375,316161.78125,310426.0625,289645.4375,290493.21875,307127.125,-0.096923828125,0.902099609375,-0.349365234375,1.8615721464157104,-2.227782964706421,-2.410888433456421,100.0,170522.0,1.0
178973.0412284,307433.875,311460.21875,331955.0625,316447.59375,311378.84375,289718.84375,290619.09375,307118.25,-0.095703125,0.90283203125,-0.3505859375,1.8920897245407104,-2.471923589706421,-2.258300542831421,100.0,170523.0,1.0
178973.0555932,307235.90625,310190.28125,331197.96875,315898.90625,310668.53125,289384.84375,290279.34375,307008.28125,-0.094482421875,0.90185546875,-0.34912109375,1.9226073026657104,-2.685546636581421,-2.258300542831421,100.0,170524.0,1.0
178973.0556427,306976.0,308797.0625,329499.40625,315321.4375,309381.875,289122.0625,289962.9375,306945.625,-0.093017578125,0.902099609375,-0.3505859375,1.9226073026657104,-2.929687261581421,-2.197265386581421,100.0,170525.0,1.0
178973.0624345,306946.78125,309037.8125,328884.5625,315395.28125,309103.09375,289243.75,290058.96875,307005.0625,-0.09130859375,0.89599609375,-0.3515625,1.9531248807907104,-3.265380620956421,-2.227782964706421,100.0,170526.0,1.0
178973.062483,307275.09375,310763.75,330477.625,316164.0,310397.09375,289649.9375,290494.625,307133.09375,-0.092041015625,0.890869140625,-0.355224609375,1.9836424589157104,-3.509521245956421,-2.105712652206421,100.0,170527.0,1.0
178973.0624951,307437.71875,311475.25,331903.5625,316455.3125,311372.6875,289728.96875,290624.09375,307124.53125,-0.091796875,0.888916015625,-0.35546875,2.258300542831421,-3.662109136581421,-2.105712652206421,100.0,170528.0,1.0
178973.065594,307238.875,310218.8125,331172.03125,315908.5,310677.28125,289393.6875,290284.1875,307009.625,-0.089111328125,0.890380859375,-0.356201171875,2.563476324081421,-3.814697027206421,-1.8920897245407104,100.0,170529.0,1.0
178973.0656466,306977.34375,308818.34375,329483.25,315332.15625,309391.96875,289128.84375,289968.03125,306947.5,-0.08837890625,0.893798828125,-0.3583984375,2.960204839706421,-3.906249761581421,-1.7089842557907104,100.0,170530.0,1.0
178973.0775329,306943.46875,309039.78125,328854.0,315401.90625,309096.65625,289248.3125,290060.3125,307007.75,-0.089599609375,0.8955078125,-0.35498046875,3.234863042831421,-4.058837413787842,-1.4953612089157104,100.0,170531.0,1.0
178973.0805957,307269.4375,310763.375,330445.15625,316166.6875,310390.03125,289652.96875,290497.78125,307138.28125,-0.089111328125,0.900634765625,-0.358642578125,3.417968511581421,-4.211425304412842,-1.4038084745407104,100.0,170532.0,1.0
178973.0806444,307434.9375,311490.15625,331892.65625,316462.4375,311377.96875,289736.03125,290632.875,307136.3125,-0.08544921875,0.89794921875,-0.358154296875,3.570556402206421,-4.486083507537842,-1.1291502714157104,100.0,170533.0,1.0
178973.0862711,307240.21875,310245.1875,331178.5625,315918.78125,310692.84375,289404.9375,290298.84375,307022.875,-0.083984375,0.894287109375,-0.360107421875,3.631591558456421,-4.577636241912842,-1.0070799589157104,100.0,170534.0,1.0
178973.0930913,306981.5625,308841.125,329499.875,315340.46875,309416.03125,289136.90625,289980.28125,306951.0625,-0.08154296875,0.888916015625,-0.3623046875,3.814697027206421,-4.699706554412842,-0.7934569716453552,100.0,170535.0,1.0
178973.093145,306940.53125,309036.84375,328848.1875,315400.21875,309107.28125,289250.625,290067.375,307007.125,-0.082763671875,0.88525390625,-0.36279296875,4.211425304412842,-4.699706554412842,-0.6408690810203552,100.0,170536.0,1.0
178973.1037512,307262.65625,310749.6875,330414.84375,316158.375,310380.4375,289652.59375,290498.9375,307137.46875,-0.08642578125,0.8837890625,-0.36083984375,4.577636241912842,-4.638671398162842,-0.6408690810203552,100.0,170537.0,1.0
178973.1067996,307435.21875,311502.6875,331892.5,316465.84375,311393.0,289739.59375,290637.34375,307127.5625,-0.089599609375,0.8876953125,-0.364013671875,4.791259288787842,-4.577636241912842,-0.6103515028953552,100.0,170538.0,1.0
178973.1068485,307239.40625,310266.71875,331200.3125,315924.21875,310721.8125,289410.65625,290296.25,307006.59375,-0.093994140625,0.890625,-0.36279296875,5.126952648162842,-4.699706554412842,-0.6713866591453552,100.0,170539.0,1.0
178973.1086754,306979.5,308854.625,329518.09375,315342.28125,309438.5625,289144.25,289977.6875,306943.46875,-0.094482421875,0.890380859375,-0.36474609375,5.279540538787842,-4.974364757537842,-0.8239745497703552,100.0,170540.0,1.0
178973.118118,306940.78125,309040.5,328852.28125,315396.71875,309114.71875,289254.46875,290066.03125,307004.0,-0.09521484375,0.88720703125,-0.36328125,5.462646007537842,-5.126952648162842,-0.8544921278953552,100.0,170541.0,1.0
178973.1181766,307263.28125,310747.5625,330403.15625,316155.34375,310371.96875,289659.9375,290495.625,307124.6875,-0.09521484375,0.88525390625,-0.36083984375,5.615233898162842,-5.340575695037842,-0.9460448622703552,100.0,170542.0,1.0
178973.120021,307442.8125,311507.6875,331880.15625,316471.84375,311382.15625,289752.84375,290639.46875,307126.03125,-0.092529296875,0.88232421875,-0.360595703125,5.859374523162842,-5.401610851287842,-1.0070799589157104,100.0,170543.0,1.0
178973.1237004,307258.34375,310289.53125,331206.8125,315940.5,310730.46875,289426.3125,290310.46875,307022.875,-0.093505859375,0.880859375,-0.36328125,6.103515148162842,-5.462646007537842,-1.2512205839157104,100.0,170544.0,1.0
178973.1381003,306997.28125,308866.15625,329525.4375,315355.0625,309447.21875,289153.1875,289986.71875,306956.15625,-0.0908203125,0.8837890625,-0.3662109375,6.408690929412842,-5.493163585662842,-1.4343260526657104,100.0,170545.0,1.0
178973.1381508,306944.625,309021.71875,328832.96875,315397.25,309104.96875,289256.8125,290062.625,307010.4375,-0.0888671875,0.88671875,-0.37060546875,6.866454601287842,-5.584716320037842,-1.5563963651657104,100.0,170546.0,1.0
178973.1405088,307273.46875,310733.53125,330378.8125,316165.0,310363.5625,289668.15625,290500.625,307144.71875,-0.086669921875,0.887451171875,-0.3681640625,7.049560070037842,-5.676269054412842,-1.6784666776657104,100.0,170547.0,1.0
178973.1405551,307453.90625,311517.0,331874.0625,316490.25,311387.4375,289763.375,290647.71875,307146.15625,-0.08642578125,0.889892578125,-0.364501953125,7.232665538787842,-5.706786632537842,-1.7395018339157104,100.0,170548.0,1.0
178973.1424889,307270.875,310306.96875,331218.53125,315963.46875,310750.59375,289440.1875,290318.875,307034.5625,-0.084716796875,0.8916015625,-0.36572265625,7.324218273162842,-5.828856945037842,-1.7700194120407104,100.0,170549.0,1.0
178973.1512815,307007.125,308868.40625,329522.9375,315373.5625,309458.3125,289163.0,289992.34375,306969.5,-0.083740234375,0.888427734375,-0.3671875,7.476806163787842,-5.798339366912842,-1.8005369901657104,100.0,170550.0,1.0
178973.1555991,306951.5,309003.40625,328807.9375,315405.75,309100.84375,289255.0,290062.71875,307019.375,-0.083251953125,0.888916015625,-0.369140625,7.415771007537842,-5.706786632537842,-1.6784666776657104,100.0,170551.0,1.0
178973.1556497,307271.5,310705.0,330330.09375,316158.1875,310341.125,289659.03125,290492.21875,307143.90625,-0.0830078125,0.888916015625,-0.36865234375,7.537841320037842,-5.554198741912842,-1.7700194120407104,100.0,170552.0,1.0
178973.1574555,307458.375,311511.8125,331841.0,316491.78125,311378.0625,289764.71875,290646.375,307144.8125,-0.083740234375,0.887451171875,-0.36865234375,7.629394054412842,-5.432128429412842,-1.6784666776657104,100.0,170553.0,1.0
178973.1687435,307264.96875,310300.875,331184.90625,315959.71875,310739.59375,289435.625,290314.125,307029.9375,-0.08056640625,0.888916015625,-0.368408203125,7.598876476287842,-5.279540538787842,-1.6784666776657104,100.0,170554.0,1.0
178973.171849,306992.03125,308849.28125,329474.90625,315359.53125,309437.9375,289156.21875,289983.78125,306962.34375,-0.07861328125,0.88916015625,-0.37060546875,7.781981945037842,-5.126952648162842,-1.6174315214157104,100.0,170555.0,1.0
178973.171899,306934.25,308968.53125,328730.875,315383.125,309062.40625,289249.28125,290050.375,307012.84375,-0.07861328125,0.888427734375,-0.37060546875,7.781981945037842,-5.096435070037842,-1.5869139432907104,100.0,170556.0,1.0
178973.1737299,307260.6875,310671.65625,330246.40625,316140.3125,310304.0,289652.5,290481.40625,307139.28125,-0.078857421875,0.89111328125,-0.370849609375,7.720946788787842,-5.035399913787842,-1.4953612089157104,100.0,170557.0,1.0
178973.185023,307451.3125,311489.1875,331772.15625,316483.09375,311353.65625,289758.71875,290640.28125,307141.25,-0.076416015625,0.892578125,-0.371826171875,7.659911632537842,-4.821776866912842,-1.4038084745407104,100.0,170558.0,1.0
178973.1875204,307260.15625,310291.125,331131.53125,315955.5,310722.15625,289435.53125,290312.34375,307027.34375,-0.07763671875,0.89208984375,-0.373291015625,7.751464366912842,-4.669188976287842,-1.3427733182907104,100.0,170559.0,1.0
178973.1900074,306991.9375,308839.625,329429.6875,315354.15625,309421.375,289154.6875,289981.96875,306959.75,-0.079345703125,0.89404296875,-0.373291015625,7.659911632537842,-4.547118663787842,-1.1901854276657104,100.0,170560.0,1.0
178973.1987784,306936.40625,308949.3125,328677.78125,315372.75,309031.75,289244.375,290047.0625,307012.21875,-0.079833984375,0.894287109375,-0.375,7.598876476287842,-4.364013195037842,-1.0681151151657104,100.0,170561.0,1.0
178973.2018407,307259.4375,310648.03125,330181.9375,316130.03125,310262.25,289649.9375,290478.90625,307143.28125,-0.079345703125,0.89404296875,-0.372314453125,7.507323741912842,-4.150390148162842,-0.9155272841453552,100.0,170562.0,1.0
178973.2019006,307448.15625,311478.1875,331716.71875,316476.40625,311318.34375,289760.25,290641.0,307145.53125,-0.080078125,0.8955078125,-0.3720703125,7.354735851287842,-3.967284917831421,-0.9460448622703552,100.0,170563.0,1.0
178973.2074473,307254.4375,310290.15625,331080.5,315952.46875,310696.25,289436.6875,290316.625,307031.90625,-0.081787109375,0.8974609375,-0.372802734375,7.171630382537842,-3.784179449081421,-1.0375975370407104,100.0,170564.0,1.0
178973.2168437,306979.9375,308829.34375,329367.09375,315345.59375,309389.375,289153.53125,289982.25,306962.25,-0.082763671875,0.897705078125,-0.37451171875,6.958007335662842,-3.631591558456421,-0.9765624403953552,100.0,170565.0,1.0
178973.2168923,306914.6875,308912.84375,328589.0625,315355.21875,308983.28125,289240.78125,290041.71875,307008.65625,-0.08349609375,0.89404296875,-0.373046875,6.805419445037842,-3.479003667831421,-0.8850097060203552,100.0,170566.0,1.0
178973.2192652,307231.96875,310599.5,330065.1875,316105.0,310194.03125,289644.28125,290468.96875,307133.375,-0.084228515625,0.893310546875,-0.3740234375,6.683349132537842,-3.326415777206421,-0.8239745497703552,100.0,170567.0,1.0
178973.2193252,307429.40625,311455.21875,331608.625,316462.90625,311257.34375,289760.0625,290640.46875,307139.625,-0.086181640625,0.89453125,-0.376708984375,6.347655773162842,-3.234863042831421,-0.8544921278953552,100.0,170568.0,1.0
178973.2374267,307239.0625,310280.5,330987.6875,315938.875,310647.34375,289436.6875,290314.21875,307026.625,-0.087158203125,0.892578125,-0.376220703125,6.225585460662842,-3.173827886581421,-0.7629393935203552,100.0,170569.0,1.0
178973.2404924,306959.5625,308802.78125,329262.125,315324.9375,309332.875,289142.4375,289970.53125,306948.28125,-0.0888671875,0.892578125,-0.375,6.042479991912842,-3.051757574081421,-0.7019042372703552,100.0,170570.0,1.0
178973.2405277,306888.3125,308860.8125,328451.03125,315322.5,308904.53125,289224.6875,290022.46875,306999.34375,-0.08935546875,0.8935546875,-0.37451171875,5.859374523162842,-3.082275152206421,-0.7324218153953552,100.0,170571.0,1.0
178973.2423932,307208.03125,310544.59375,329903.09375,316072.09375,310100.25,289626.125,290451.28125,307129.0,-0.090576171875,0.893798828125,-0.3740234375,5.645751476287842,-3.051757574081421,-0.7629393935203552,100.0,170572.0,1.0
178973.244916,307410.71875,311415.875,331458.875,316442.34375,311178.21875,289748.34375,290625.53125,307136.9375,-0.090576171875,0.891357421875,-0.377197265625,5.432128429412842,-2.899169683456421,-0.7019042372703552,100.0,170573.0,1.0
178973.2475425,307226.4375,310254.03125,330857.59375,315932.1875,310587.15625,289431.3125,290307.5,307024.8125,-0.090087890625,0.892333984375,-0.376708984375,5.126952648162842,-2.838134527206421,-0.7324218153953552,100.0,170574.0,1.0
178973.2498478,306945.96875,308767.09375,329119.09375,315319.65625,309266.71875,289141.1875,289965.53125,306950.96875,-0.091552734375,0.891845703125,-0.376220703125,5.004882335662842,-2.746581792831421,-0.7324218153953552,100.0,170575.0,1.0
178973.2535806,306869.34375,308800.625,328264.71875,315310.53125,308811.53125,289217.71875,290014.25,306998.8125,-0.091552734375,0.890869140625,-0.37890625,4.943847179412842,-2.777099370956421,-0.7019042372703552,100.0,170576.0,1.0
178973.2679316,307186.84375,310473.96875,329691.90625,316057.96875,309998.25,289624.4375,290444.9375,307131.125,-0.092529296875,0.889892578125,-0.37548828125,4.669188976287842,-2.807616949081421,-0.6713866591453552,100.0,170577.0,1.0
178973.2679504,307384.6875,311354.28125,331239.1875,316426.34375,311074.96875,289748.0,290620.4375,307139.1875,-0.092041015625,0.88818359375,-0.37841796875,4.394530773162842,-2.868652105331421,-0.7324218153953552,100.0,170578.0,1.0
178973.270422,307195.875,310198.25,330625.59375,315913.3125,310481.9375,289431.5,290302.5,307028.6875,-0.093994140625,0.88916015625,-0.37646484375,4.058837413787842,-2.838134527206421,-0.6713866591453552,100.0,170579.0,1.0
178973.2704386,306919.59375,308710.6875,328879.5625,315299.8125,309163.8125,289141.71875,289965.09375,306960.625,-0.091552734375,0.888427734375,-0.375244140625,3.845214605331421,-2.746581792831421,-0.4577636420726776,100.0,170580.0,1.0
178973.272352,306848.53125,308737.25,328008.90625,315286.65625,308704.6875,289217.375,290013.09375,307005.59375,-0.08935546875,0.88623046875,-0.37841796875,3.723144292831421,-2.777099370956421,-0.4577636420726776,100.0,170581.0,1.0
178973.2786028,307163.3125,310400.03125,329403.3125,316028.90625,309874.21875,289619.15625,290438.125,307132.5625,-0.091796875,0.888671875,-0.377685546875,3.479003667831421,-2.746581792831421,-0.3051757514476776,100.0,170582.0,1.0
178973.2916614,307362.59375,311288.125,330945.84375,316405.9375,310953.28125,289745.59375,290616.59375,307142.84375,-0.09130859375,0.891357421875,-0.378662109375,3.143310308456421,-2.716064214706421,-0.2746581733226776,100.0,170583.0,1.0
178973.2916774,307169.5625,310138.4375,330337.96875,315897.9375,310365.34375,289430.34375,290301.25,307030.1875,-0.091552734375,0.8935546875,-0.376953125,2.990722417831421,-2.655029058456421,-0.2136230319738388,100.0,170584.0,1.0
178973.2941732,306885.53125,308640.84375,328577.375,315275.9375,309033.09375,289134.03125,289958.375,306956.34375,-0.093017578125,0.894287109375,-0.377685546875,2.685546636581421,-2.624511480331421,-0.0610351525247097,100.0,170585.0,1.0
178973.2941845,306801.40625,308637.65625,327663.34375,315247.15625,308539.28125,289200.84375,289997.1875,306999.625,-0.090087890625,0.893310546875,-0.376220703125,2.349853277206421,-2.624511480331421,-0.03051757626235485,100.0,170586.0,1.0
178973.2961039,307110.75,310289.78125,329026.0,315985.09375,309688.4375,289601.09375,290420.625,307130.5,-0.093017578125,0.892578125,-0.37646484375,2.014159917831421,-2.563476324081421,0.2136230319738388,100.0,170587.0,1.0
178973.2998298,307325.5,311213.28125,330593.75,316382.78125,310787.34375,289737.09375,290608.09375,307142.03125,-0.09326171875,0.89453125,-0.37890625,1.7089842557907104,-2.471923589706421,0.2746581733226776,100.0,170588.0,1.0
178973.3141641,307168.25,310132.53125,330084.125,315910.8125,310265.125,289435.15625,290307.875,307031.625,-0.09423828125,0.89599609375,-0.38232421875,1.4343260526657104,-2.410888433456421,0.3967284858226776,100.0,170589.0,1.0
178973.3141727,306910.3125,308678.40625,328429.3125,315319.28125,308993.9375,289154.34375,289976.71875,306967.59375,-0.093994140625,0.895263671875,-0.380859375,1.0681151151657104,-2.441406011581421,0.6103515028953552,100.0,170590.0,1.0
178973.3160872,306847.96875,308709.15625,327610.59375,315309.28125,308552.4375,289229.4375,290021.6875,307018.03125,-0.094482421875,0.89599609375,-0.380615234375,0.9155272841453552,-2.349853277206421,0.6103515028953552,100.0,170591.0,1.0
178973.3185982,307172.71875,310396.1875,329059.625,316062.0,309745.5625,289630.0625,290447.875,307147.75,-0.095458984375,0.89697265625,-0.37841796875,0.5493163466453552,-2.380370855331421,0.7629393935203552,100.0,170592.0,1.0
178973.3222999,307398.0,311358.84375,330728.125,316467.625,310897.21875,289771.53125,290640.71875,307158.21875,-0.095458984375,0.8955078125,-0.376953125,0.2746581733226776,-2.288818120956421,0.8239745497703552,100.0,170593.0,1.0
178973.33169,307230.375,310270.125,330252.03125,315979.125,310383.40625,289461.8125,290335.21875,307048.0,-0.095458984375,0.89501953125,-0.37744140625,0.03051757626235485,-2.349853277206421,0.9460448622703552,100.0,170594.0,1.0
178973.3317072,306962.59375,308788.90625,328598.65625,315366.9375,309107.5625,289165.59375,289997.34375,306974.75,-0.093994140625,0.892822265625,-0.37841796875,-0.3051757514476776,-2.319335699081421,1.0986326932907104,100.0,170595.0,1.0
178973.3342255,306882.75,308774.4375,327746.59375,315328.84375,308640.0625,289227.90625,290029.53125,307014.90625,-0.093505859375,0.89208984375,-0.3818359375,-0.5493163466453552,-2.227782964706421,1.1291502714157104,100.0,170596.0,1.0
178973.3342465,307196.75,310437.65625,329169.0625,316064.78125,309814.0625,289627.3125,290449.3125,307141.6875,-0.091796875,0.890380859375,-0.382568359375,-0.7019042372703552,-2.166747808456421,1.1596678495407104,100.0,170597.0,1.0
178973.3449788,307419.46875,311401.3125,330833.5625,316473.8125,310965.34375,289767.3125,290641.625,307149.0,-0.09228515625,0.890380859375,-0.3828125,-0.8544921278953552,-2.075195074081421,1.2207030057907104,100.0,170598.0,1.0
178973.3599137,307250.125,310316.0625,330362.90625,315990.375,310456.96875,289460.28125,290340.3125,307039.5,-0.091796875,0.88916015625,-0.385498046875,-1.0070799589157104,-1.9531248807907104,1.1901854276657104,100.0,170599.0,1.0
178973.35995,306977.8125,308826.5625,328703.6875,315374.09375,309176.125,289165.5,289999.5,306960.90625,-0.09033203125,0.889892578125,-0.383056640625,-1.1596678495407104,-1.8310545682907104,1.3122557401657104,100.0,170600.0,1.0
178973.3599579,306892.3125,308797.6875,327835.8125,315329.125,308692.90625,289221.9375,290026.9375,307004.4375,-0.08984375,0.890380859375,-0.3818359375,-1.2817381620407104,-1.6479490995407104,1.4038084745407104,100.0,170601.0,1.0
178973.3635925,307199.25,310444.90625,329234.3125,316061.375,309851.25,289620.6875,290447.0625,307134.25,-0.091552734375,0.89306640625,-0.380859375,-1.4648436307907104,-1.6174315214157104,1.4953612089157104,100.0,170602.0,1.0
