Time,FZ,C3,CZ,C4,PZ,PO7,OZ,PO8,AccX,AccY,AccZ,Gyro1,Gyro2,Gyro3,Battery,Counter,Validation
559405.8115258,310562.40625,302031.53125,322555.90625,315713.75,335541.625,301904.84375,300269.40625,301281.6875,-0.091796875,0.729248046875,-0.708984375,-14.556883811950684,5.950927257537842,3.204345464706421,100.0,168070.0,1.0
559405.8205762,310532.4375,300473.875,320919.75,314727.59375,329174.25,299595.90625,298163.625,300258.6875,-0.09228515625,0.73193359375,-0.703857421875,-15.441893577575684,7.995604991912842,2.838134527206421,100.0,168071.0,1.0
559405.8205881,310289.96875,299881.75,320192.875,314497.5625,325327.6875,298796.15625,297160.90625,299931.625,-0.095703125,0.7333984375,-0.7001953125,-16.143796920776367,9.674071311950684,2.929687261581421,100.0,168072.0,1.0
559405.8205901,310179.28125,301117.4375,321397.96875,315313.65625,329293.25,300594.0625,298697.0,300698.9375,-0.09619140625,0.736328125,-0.697021484375,-16.479490280151367,10.833739280700684,2.960204839706421,100.0,168073.0,1.0
559405.8255234,310294.875,302510.65625,322895.28125,316066.375,335914.625,302587.8125,300789.0625,301511.0,-0.094970703125,0.734619140625,-0.69580078125,-16.601560592651367,11.749266624450684,3.112792730331421,100.0,168074.0,1.0
559405.8255362,310484.0625,302110.125,322567.96875,315647.3125,335852.0625,301930.34375,300536.90625,301203.0,-0.09619140625,0.735595703125,-0.69384765625,-16.540525436401367,12.176512718200684,3.356933355331421,100.0,168075.0,1.0
559405.8278934,310457.96875,300518.0625,320917.40625,314671.28125,329380.25,299583.9375,298382.9375,300243.5,-0.098388671875,0.736572265625,-0.687255859375,-16.387937545776367,12.237547874450684,3.631591558456421,100.0,168076.0,1.0
559405.8304292,310223.28125,299896.6875,320184.8125,314448.46875,325482.71875,298761.65625,297314.6875,299947.1875,-0.09716796875,0.734619140625,-0.686279296875,-16.204832077026367,12.145995140075684,3.906249761581421,100.0,168077.0,1.0
559405.8390473,310131.625,301129.5,321413.0,315292.75,329511.5,300575.8125,298823.71875,300715.03125,-0.097412109375,0.73681640625,-0.684326171875,-15.991209983825684,11.627196311950684,4.180907726287842,100.0,168078.0,1.0
559405.8413898,310258.40625,302521.84375,322934.34375,316050.03125,336253.65625,302594.71875,300945.25,301510.84375,-0.098388671875,0.736083984375,-0.684326171875,-15.747069358825684,10.711668968200684,4.669188976287842,100.0,168079.0,1.0
559405.8414051,310418.375,302069.34375,322563.5,315587.875,336217.5625,301913.875,300667.625,301164.28125,-0.097412109375,0.736572265625,-0.6826171875,-15.502928733825684,9.704588890075684,4.943847179412842,100.0,168080.0,1.0
559405.8479827,310365.53125,300412.65625,320851.71875,314573.1875,329711.125,299543.625,298472.34375,300189.125,-0.09765625,0.73779296875,-0.68359375,-15.106200218200684,8.575438499450684,5.157470226287842,100.0,168081.0,1.0
559405.8504887,310129.40625,299763.1875,320090.75,314334.21875,325789.75,298717.40625,297399.71875,299889.96875,-0.09521484375,0.73779296875,-0.682373046875,-14.892577171325684,7.446288585662842,5.432128429412842,100.0,168082.0,1.0
559405.8617292,310037.40625,301007.03125,321314.03125,315170.4375,329850.78125,300544.625,298926.53125,300651.625,-0.093994140625,0.735595703125,-0.685546875,-14.678954124450684,6.164550304412842,5.584716320037842,100.0,168083.0,1.0
559405.8617476,310160.96875,302412.3125,322832.875,315928.875,336651.0,302576.84375,301034.375,301427.6875,-0.09423828125,0.735595703125,-0.682861328125,-14.221190452575684,5.004882335662842,5.737304210662842,100.0,168084.0,1.0
559405.8642477,310297.9375,301915.5625,322420.875,315457.59375,336585.90625,301864.96875,300731.90625,301037.59375,-0.09375,0.734375,-0.682861328125,-13.916014671325684,4.058837413787842,5.798339366912842,100.0,168085.0,1.0
559405.8667661,310249.46875,300216.9375,320677.53125,314444.0,329988.125,299458.6875,298509.71875,300031.3125,-0.092041015625,0.734619140625,-0.683349609375,-13.702391624450684,3.234863042831421,5.737304210662842,100.0,168086.0,1.0
559405.8867257,310023.09375,299574.625,319913.28125,314209.9375,326007.28125,298620.75,297405.96875,299724.9375,-0.093505859375,0.733642578125,-0.68359375,-13.458250999450684,2.410888433456421,5.798339366912842,100.0,168087.0,1.0
559405.8867654,309922.0625,300846.8125,321148.90625,315040.0625,330063.5625,300446.96875,298887.375,300479.25,-0.092529296875,0.7314453125,-0.682373046875,-13.397215843200684,1.8005369901657104,5.798339366912842,100.0,168088.0,1.0
559405.8892108,310047.15625,302298.6875,322707.15625,315800.46875,336910.0,302498.78125,300988.59375,301279.0,-0.0908203125,0.731689453125,-0.68701171875,-13.092040061950684,1.4648436307907104,5.767821788787842,100.0,168089.0,1.0
559405.88925,310198.5,301831.71875,322324.59375,315338.25,336846.09375,301794.6875,300666.21875,300925.84375,-0.089111328125,0.731689453125,-0.6865234375,-12.817381858825684,1.2817381620407104,5.615233898162842,100.0,168090.0,1.0
559405.8917282,310119.125,300092.5625,320548.4375,314299.15625,330129.375,299333.40625,298381.125,299905.71875,-0.08740234375,0.73046875,-0.685791015625,-12.756346702575684,1.2207030057907104,5.340575695037842,100.0,168091.0,1.0
559405.8992974,309883.0,299425.5,319773.09375,314061.875,326057.0625,298466.96875,297236.09375,299590.5625,-0.087646484375,0.731689453125,-0.6865234375,-12.298583030700684,1.4343260526657104,5.065917491912842,100.0,168092.0,1.0
559405.9016854,309822.375,300740.3125,321057.625,314937.78125,330149.5,300335.84375,298755.84375,300375.1875,-0.085205078125,0.731689453125,-0.68701171875,-12.237547874450684,1.7395018339157104,4.943847179412842,100.0,168093.0,1.0
559405.9041457,309972.5625,302230.28125,322646.1875,315751.84375,337062.8125,302432.09375,300917.15625,301185.125,-0.082763671875,0.7333984375,-0.689453125,-12.359618186950684,2.288818120956421,4.608153820037842,100.0,168094.0,1.0
559405.9067848,310117.59375,301752.9375,322243.6875,315290.6875,336988.25,301729.875,300611.9375,300825.625,-0.08544921875,0.73291015625,-0.68603515625,-12.512206077575684,2.593993902206421,4.394530773162842,100.0,168095.0,1.0
559405.9091776,310035.25,299988.0625,320429.875,314213.59375,330188.75,299252.6875,298310.34375,299805.3125,-0.08349609375,0.73291015625,-0.684814453125,-12.603758811950684,2.960204839706421,4.150390148162842,100.0,168096.0,1.0
559405.9130303,309797.59375,299310.09375,319632.09375,313958.78125,326063.78125,298382.65625,297162.0,299493.8125,-0.08349609375,0.73486328125,-0.683349609375,-12.756346702575684,3.173827886581421,3.845214605331421,100.0,168097.0,1.0
559405.9366969,309744.78125,300650.375,320926.28125,314837.5625,330175.15625,300270.65625,298697.46875,300290.59375,-0.08203125,0.73486328125,-0.685302734375,-12.817381858825684,3.173827886581421,3.601073980331421,100.0,168098.0,1.0
559405.9367373,309906.6875,302175.125,322541.3125,315633.03125,337143.53125,302389.53125,300876.59375,301111.8125,-0.082763671875,0.734130859375,-0.685791015625,-12.817381858825684,3.143310308456421,3.417968511581421,100.0,168099.0,1.0
559405.9418522,310052.59375,301697.96875,322145.0625,315174.90625,337075.78125,301683.65625,300557.3125,300748.09375,-0.082763671875,0.736572265625,-0.685546875,-12.908934593200684,2.990722417831421,3.356933355331421,100.0,168100.0,1.0
559405.9418898,309962.90625,299892.75,320311.15625,314141.1875,330217.1875,299177.75,298217.96875,299719.125,-0.084716796875,0.73486328125,-0.68505859375,-12.847899436950684,2.655029058456421,3.417968511581421,100.0,168101.0,1.0
559405.9442707,309746.375,299201.8125,319522.125,313926.15625,326027.3125,298285.75,297032.4375,299405.75,-0.08642578125,0.73388671875,-0.68603515625,-12.786864280700684,2.319335699081421,3.448486089706421,100.0,168102.0,1.0
559405.9468621,309719.71875,300602.09375,320869.59375,314832.65625,330151.8125,300192.4375,298580.0625,300224.25,-0.0859375,0.734375,-0.684326171875,-12.603758811950684,1.9226073026657104,3.570556402206421,100.0,168103.0,1.0
559405.955411,309862.6875,302193.71875,322504.40625,315589.75,337120.125,302314.78125,300788.25,301060.125,-0.087646484375,0.735107421875,-0.681396484375,-12.420653343200684,1.4648436307907104,3.509521245956421,100.0,168104.0,1.0
559405.9579921,309989.28125,301745.4375,322084.90625,315091.46875,336965.34375,301575.90625,300472.625,300692.3125,-0.087158203125,0.735595703125,-0.68017578125,-12.268065452575684,0.8850097060203552,3.570556402206421,100.0,168105.0,1.0
559405.9605527,309883.0,299911.6875,320210.125,314030.125,330000.90625,299002.34375,298113.53125,299642.5,-0.087646484375,0.734375,-0.681396484375,-12.115477561950684,0.3967284858226776,3.662109136581421,100.0,168106.0,1.0
559405.9883862,309652.40625,299197.59375,319395.53125,313810.71875,325781.0625,298076.0,296940.96875,299318.5625,-0.08984375,0.736083984375,-0.68603515625,-11.871336936950684,-0.1831054538488388,3.692626714706421,100.0,168107.0,1.0
559405.9921736,309622.28125,300575.71875,320735.3125,314720.4375,329946.71875,299998.34375,298502.03125,300144.4375,-0.09033203125,0.7373046875,-0.686279296875,-11.749266624450684,-0.8850097060203552,3.662109136581421,100.0,168108.0,1.0
559406.0217724,309787.6875,302135.6875,322383.59375,315507.9375,337022.65625,302165.46875,300713.5,300997.625,-0.09033203125,0.736572265625,-0.687255859375,-11.352538108825684,-1.3427733182907104,3.662109136581421,100.0,168109.0,1.0
559406.0243153,309916.59375,301630.0,321970.46875,315017.8125,336953.09375,301453.0,300400.5,300635.71875,-0.09228515625,0.73583984375,-0.68603515625,-10.803221702575684,-1.6784666776657104,3.570556402206421,100.0,168110.0,1.0
559406.0268066,309813.34375,299770.0625,320097.90625,313954.40625,329966.03125,298897.03125,298028.6875,299596.8125,-0.09619140625,0.7353515625,-0.68701171875,-10.314940452575684,-1.9836424589157104,3.540038824081421,100.0,168111.0,1.0
559406.0492354,309582.9375,299055.625,319288.96875,313732.40625,325698.8125,297988.375,296822.59375,299282.625,-0.095947265625,0.734375,-0.687744140625,-9.796141624450684,-2.349853277206421,3.479003667831421,100.0,168112.0,1.0
559406.049248,309558.8125,300477.03125,320660.46875,314640.4375,329892.28125,299945.03125,298395.0,300085.40625,-0.094970703125,0.735107421875,-0.686279296875,-9.338377952575684,-2.258300542831421,3.448486089706421,100.0,168113.0,1.0
559406.0508123,309736.90625,302087.59375,322349.375,315449.5625,337036.6875,302148.21875,300660.40625,300907.5,-0.09375,0.73291015625,-0.687255859375,-8.789061546325684,-2.258300542831421,3.631591558456421,100.0,168114.0,1.0
559406.0579137,309864.21875,301603.0,321934.78125,314968.8125,336984.65625,301431.15625,300391.71875,300506.78125,-0.08984375,0.734375,-0.68798828125,-8.270262718200684,-2.258300542831421,3.326415777206421,100.0,168115.0,1.0
559406.0604137,309737.4375,299722.0625,320020.84375,313886.71875,329939.9375,298832.09375,298034.40625,299427.375,-0.088134765625,0.736328125,-0.689697265625,-7.568358898162842,-2.136230230331421,2.929687261581421,100.0,168116.0,1.0
559406.0628945,309512.125,299007.0,319204.46875,313649.0,325632.21875,297902.375,296839.6875,299114.71875,-0.08837890625,0.735107421875,-0.689697265625,-6.835937023162842,-1.8615721464157104,2.532958745956421,100.0,168117.0,1.0
559406.0654436,309511.6875,300444.90625,320608.15625,314569.4375,329855.25,299865.65625,298406.1875,299974.28125,-0.088134765625,0.734130859375,-0.686767578125,-6.317138195037842,-1.7700194120407104,2.441406011581421,100.0,168118.0,1.0
559406.0679738,309699.34375,302062.65625,322326.28125,315400.125,337052.53125,302078.5625,300624.625,300854.125,-0.09228515625,0.73388671875,-0.6875,-6.072997570037842,-1.7089842557907104,2.410888433456421,100.0,168119.0,1.0
559406.0704536,309817.46875,301544.8125,321909.65625,314922.6875,337012.90625,301361.15625,300281.40625,300497.3125,-0.090087890625,0.73486328125,-0.68798828125,-5.706786632537842,-1.7089842557907104,2.441406011581421,100.0,168120.0,1.0
559406.0729627,309684.875,299615.5,319974.1875,313834.34375,329921.59375,298748.25,297863.90625,299423.34375,-0.091552734375,0.737060546875,-0.687744140625,-5.493163585662842,-1.8310545682907104,2.380370855331421,100.0,168121.0,1.0
559406.0778239,309454.03125,298883.34375,319144.125,313584.71875,325566.125,297810.1875,296662.46875,299081.8125,-0.091796875,0.736328125,-0.68505859375,-5.218505382537842,-2.136230230331421,2.410888433456421,100.0,168122.0,1.0
559406.0842095,309461.0,300349.15625,320557.65625,314506.5,329795.1875,299785.71875,298269.65625,299906.59375,-0.09326171875,0.738037109375,-0.6875,-5.065917491912842,-2.258300542831421,2.441406011581421,100.0,168123.0,1.0
559406.0867412,309648.03125,302032.96875,322296.875,315335.75,337048.0625,302023.40625,300579.21875,300757.125,-0.09375,0.737060546875,-0.68408203125,-4.943847179412842,-2.502441167831421,2.624511480331421,100.0,168124.0,1.0
559406.0867629,309752.90625,301543.65625,321859.25,314845.71875,336995.75,301285.25,300290.25,300365.71875,-0.09326171875,0.739013671875,-0.685791015625,-4.791259288787842,-2.838134527206421,2.807616949081421,100.0,168125.0,1.0
559406.0891639,309609.75,299603.78125,319887.8125,313734.28125,329823.25,298625.84375,297870.90625,299279.0625,-0.092041015625,0.741943359375,-0.6845703125,-4.577636241912842,-3.051757574081421,2.868652105331421,100.0,168126.0,1.0
559406.0891877,309382.9375,298865.0,319057.125,313489.84375,325414.25,297672.15625,296642.34375,298970.34375,-0.093505859375,0.74462890625,-0.68212890625,-4.211425304412842,-3.082275152206421,3.021239995956421,100.0,168127.0,1.0
559406.0930831,309404.84375,300350.40625,320503.28125,314439.53125,329645.6875,299668.0625,298219.03125,299863.34375,-0.09716796875,0.74658203125,-0.685546875,-4.180907726287842,-2.960204839706421,3.448486089706421,100.0,168128.0,1.0
559406.0931092,309611.8125,302030.46875,322272.84375,315296.3125,336930.125,301929.96875,300458.5,300799.78125,-0.093994140625,0.743408203125,-0.681640625,-3.967284917831421,-3.082275152206421,3.784179449081421,100.0,168129.0,1.0
559406.0931147,309728.3125,301518.6875,321852.8125,314819.5,336907.5,301214.4375,300091.6875,300483.46875,-0.09130859375,0.74267578125,-0.679931640625,-3.631591558456421,-2.655029058456421,3.906249761581421,100.0,168130.0,1.0
559406.0953866,309585.1875,299557.90625,319883.96875,313716.03125,329722.21875,298568.90625,297606.78125,299482.09375,-0.089599609375,0.746337890625,-0.680908203125,-3.387450933456421,-2.288818120956421,4.119872570037842,100.0,168131.0,1.0
559406.0980266,309352.0,298803.84375,319046.65625,313476.875,325260.625,297607.0625,296291.96875,299275.84375,-0.091796875,0.748046875,-0.68310546875,-3.387450933456421,-1.8920897245407104,4.119872570037842,100.0,168132.0,1.0
559406.1005146,309370.59375,300275.40625,320496.59375,314422.8125,329463.21875,299592.59375,297742.875,300268.96875,-0.088134765625,0.744140625,-0.681884765625,-3.265380620956421,-1.4038084745407104,4.302978038787842,100.0,168133.0,1.0
559406.1055332,309574.625,301953.03125,322261.46875,315266.8125,336742.8125,301851.90625,299890.25,301200.78125,-0.08935546875,0.74560546875,-0.677734375,-2.868652105331421,-0.5493163466453552,4.241942882537842,100.0,168134.0,1.0
559406.1132495,309677.625,301416.5,321809.0625,314771.84375,336687.28125,301129.875,299625.25,300722.09375,-0.087646484375,0.74609375,-0.672607421875,-2.380370855331421,0.1220703050494194,3.936767339706421,100.0,168135.0,1.0
559406.1132884,309520.625,299421.375,319797.96875,313659.0,329442.90625,298466.78125,297292.4375,299525.1875,-0.085205078125,0.744384765625,-0.67431640625,-1.9226073026657104,0.9460448622703552,3.814697027206421,100.0,168136.0,1.0
559406.1132975,309295.75,298661.78125,318946.96875,313422.25,324972.21875,297502.90625,296117.90625,299142.25,-0.085205078125,0.743896484375,-0.67822265625,-1.4038084745407104,1.8005369901657104,3.723144292831421,100.0,168137.0,1.0
559406.1133069,309327.875,300140.84375,320400.46875,314377.5625,329211.625,299498.28125,297734.0,299994.3125,-0.083251953125,0.74462890625,-0.68017578125,-0.9155272841453552,2.777099370956421,3.662109136581421,100.0,168138.0,1.0
559406.1168341,309535.375,301820.4375,322179.5,315232.3125,336536.1875,301764.75,300036.78125,300879.4375,-0.08251953125,0.744873046875,-0.678466796875,-0.3662109076976776,3.448486089706421,3.631591558456421,100.0,168139.0,1.0
559406.1168694,309630.875,301269.4375,321729.9375,314743.25,336491.5,301031.6875,299748.875,300481.75,-0.083740234375,0.74609375,-0.677978515625,0.2746581733226776,3.906249761581421,3.692626714706421,100.0,168140.0,1.0
559406.1168793,309471.625,299269.40625,319720.34375,313629.59375,329244.0625,298361.375,297365.125,299357.65625,-0.0830078125,0.7451171875,-0.677734375,0.8239745497703552,4.241942882537842,3.662109136581421,100.0,168141.0,1.0
559406.1243596,309260.1875,298525.53125,318885.03125,313394.375,324782.03125,297416.15625,296197.1875,299019.0625,-0.08154296875,0.746826171875,-0.673583984375,1.1596678495407104,4.150390148162842,3.723144292831421,100.0,168142.0,1.0
559406.1243968,309290.75,300017.28125,320341.46875,314337.0625,329026.0,299420.21875,297819.9375,299864.5,-0.081787109375,0.748046875,-0.674072265625,1.5258787870407104,4.058837413787842,3.753661870956421,100.0,168143.0,1.0
559406.1267706,309491.5625,301706.53125,322117.8125,315182.3125,336365.875,301694.90625,300119.46875,300742.375,-0.082275390625,0.74755859375,-0.6748046875,1.8920897245407104,3.692626714706421,3.753661870956421,100.0,168144.0,1.0
559406.129287,309593.40625,301183.96875,321682.5625,314695.9375,336356.125,300980.46875,299828.09375,300372.9375,-0.08203125,0.748046875,-0.671142578125,2.288818120956421,3.143310308456421,3.814697027206421,100.0,168145.0,1.0
559406.1468145,309442.65625,299195.625,319682.4375,313586.40625,329113.8125,298314.96875,297409.8125,299279.40625,-0.082275390625,0.744873046875,-0.670166015625,2.319335699081421,2.319335699081421,3.906249761581421,100.0,168146.0,1.0
559406.1468551,309224.6875,298447.375,318840.6875,313349.9375,324626.5625,297352.0625,296192.90625,298945.03125,-0.080078125,0.7421875,-0.66943359375,2.441406011581421,1.5563963651657104,4.058837413787842,100.0,168147.0,1.0
559406.1493221,309251.59375,299946.9375,320297.46875,314295.21875,328863.65625,299354.59375,297803.84375,299792.25,-0.08056640625,0.7412109375,-0.669677734375,2.502441167831421,0.8544921278953552,4.211425304412842,100.0,168148.0,1.0
559406.1519348,309461.09375,301656.21875,322081.59375,315151.3125,336216.03125,301641.8125,300121.4375,300670.84375,-0.07958984375,0.74169921875,-0.672119140625,2.471923589706421,0.3051757514476776,4.547118663787842,100.0,168149.0,1.0
559406.1532432,309562.375,301138.375,321642.875,314665.5625,336198.6875,300928.0625,299829.4375,300291.5,-0.07421875,0.744384765625,-0.6728515625,2.319335699081421,-0.0915527269244194,4.730224132537842,100.0,168150.0,1.0
559406.1605248,309405.28125,299146.90625,319634.34375,313550.5625,328931.5,298251.21875,297392.3125,299193.3125,-0.07470703125,0.744873046875,-0.6728515625,2.166747808456421,-0.2441406100988388,4.913329601287842,100.0,168151.0,1.0
559406.1629726,309186.34375,298395.625,318787.75,313309.875,324422.875,297281.96875,296170.375,298852.84375,-0.075439453125,0.744873046875,-0.673095703125,1.7700194120407104,-0.1220703050494194,5.096435070037842,100.0,168152.0,1.0
559406.1630128,309231.5625,299907.125,320254.5625,314267.59375,328647.375,299292.65625,297808.75,299699.90625,-0.075927734375,0.744140625,-0.673828125,1.3427733182907104,0.2441406100988388,5.340575695037842,100.0,168153.0,1.0
559406.1656302,309440.5,301617.03125,322039.5625,315125.46875,335992.6875,301584.875,300152.28125,300577.15625,-0.07470703125,0.7412109375,-0.677978515625,0.8544921278953552,0.8544921278953552,5.493163585662842,100.0,168154.0,1.0
559406.1680287,309543.59375,301108.78125,321607.71875,314645.0625,335992.15625,300882.03125,299884.25,300211.125,-0.07275390625,0.740478515625,-0.681884765625,0.3051757514476776,1.7395018339157104,5.645751476287842,100.0,168155.0,1.0
559406.1703882,309391.15625,299117.21875,319603.84375,313532.5,328730.4375,298208.6875,297452.03125,299127.78125,-0.07275390625,0.742919921875,-0.67822265625,-0.2746581733226776,2.685546636581421,5.828856945037842,100.0,168156.0,1.0
559406.1730072,309175.96875,298355.03125,318754.5,313293.5,324206.4375,297236.90625,296218.03125,298807.875,-0.07080078125,0.740966796875,-0.68017578125,-0.8850097060203552,3.753661870956421,6.011962413787842,100.0,168157.0,1.0
559406.1755373,309210.125,299835.78125,320200.03125,314244.96875,328385.6875,299223.09375,297816.28125,299668.875,-0.07177734375,0.74072265625,-0.68115234375,-1.3732908964157104,4.974364757537842,6.286620616912842,100.0,168158.0,1.0
559406.1780594,309419.0625,301526.03125,321978.40625,315106.9375,335693.09375,301499.21875,300135.65625,300565.1875,-0.070556640625,0.744140625,-0.68359375,-1.9836424589157104,6.195067882537842,6.469726085662842,100.0,168159.0,1.0
559406.1780936,309523.75,301013.0,321551.40625,314631.9375,335682.8125,300794.3125,299871.46875,300208.15625,-0.0693359375,0.745849609375,-0.686279296875,-2.502441167831421,7.385253429412842,6.713866710662842,100.0,168160.0,1.0
559406.1805196,309383.84375,299045.78125,319572.03125,313533.9375,328452.8125,298144.3125,297482.25,299138.875,-0.070068359375,0.747314453125,-0.68505859375,-2.960204839706421,8.728026390075684,6.958007335662842,100.0,168161.0,1.0
559406.1855731,309172.65625,298291.46875,318733.65625,313305.40625,323938.75,297178.78125,296244.5,298832.03125,-0.1318359375,0.67578125,-0.697021484375,-2.593993902206421,9.674071311950684,6.195067882537842,100.0,168162.0,1.0
559406.1856126,309202.25,299754.4375,320172.9375,314248.46875,328087.59375,299158.96875,297847.5625,299659.40625,-0.128662109375,0.647705078125,-0.703125,1.6479490995407104,9.033202171325684,2.227782964706421,100.0,168163.0,1.0
559406.1880177,309400.46875,301417.40625,321928.0,315095.78125,335347.875,301422.3125,300257.78125,300485.0625,-0.099609375,0.69873046875,-0.6962890625,6.805419445037842,7.873534679412842,-0.0610351525247097,100.0,168164.0,1.0
559406.1905592,309514.8125,300908.9375,321513.0625,314625.75,335347.8125,300731.84375,299982.40625,300114.28125,-0.067138671875,0.76123046875,-0.67822265625,9.277342796325684,6.988524913787842,0.5493163466453552,100.0,168165.0,1.0
559406.1929722,309397.59375,298981.59375,319566.9375,313544.90625,328168.6875,298111.9375,297570.40625,299052.75,-0.066650390625,0.78564453125,-0.662353515625,9.674071311950684,5.340575695037842,3.295898199081421,100.0,168166.0,1.0
559406.1930117,309199.5625,298248.28125,318744.75,313312.46875,323676.4375,297155.71875,296336.59375,298740.375,-0.057861328125,0.791748046875,-0.648193359375,9.552000999450684,3.082275152206421,6.072997570037842,100.0,168167.0,1.0
559406.1954253,309233.4375,299706.875,320181.4375,314274.84375,327803.0,299133.84375,297886.53125,299612.625,-0.059326171875,0.7744140625,-0.6552734375,9.124754905700684,1.8920897245407104,7.629394054412842,100.0,168168.0,1.0
559406.2017883,309451.96875,301385.84375,321955.875,315165.5,335064.5625,301415.625,300140.65625,300522.34375,-0.069091796875,0.761474609375,-0.65478515625,9.613036155700684,0.9460448622703552,7.873534679412842,100.0,168169.0,1.0
559406.2055522,309582.6875,300928.15625,321567.9375,314725.8125,335112.21875,300755.34375,299868.4375,300213.4375,-0.07763671875,0.767578125,-0.661865234375,9.643553733825684,-0.5798339247703552,7.629394054412842,100.0,168170.0,1.0
559406.2055919,309461.09375,299037.65625,319635.9375,313641.65625,327988.71875,298152.4375,297465.0,299168.5625,-0.085205078125,0.758056640625,-0.67333984375,8.789061546325684,-2.197265386581421,7.843017101287842,100.0,168171.0,1.0
559406.2368155,309256.59375,298317.125,318815.375,313400.96875,323524.4375,297208.75,296213.65625,298857.40625,-0.074951171875,0.757080078125,-0.677978515625,8.056639671325684,-3.753661870956421,7.904052257537842,100.0,168172.0,1.0
559406.2443343,309269.65625,299756.9375,320218.34375,314313.8125,327624.5625,299162.5625,297716.5625,299713.5625,-0.062744140625,0.7685546875,-0.67724609375,7.324218273162842,-4.882812023162842,8.666991233825684,100.0,168173.0,1.0
559406.2443739,309471.90625,301420.34375,321963.84375,315164.625,334853.375,301429.90625,299967.03125,300626.6875,-0.0634765625,0.768310546875,-0.677978515625,5.920409679412842,-5.401610851287842,9.246825218200684,100.0,168174.0,1.0
559406.2544261,309617.90625,300987.0,321594.84375,314717.59375,334930.28125,300796.1875,299722.0625,300296.5,-0.07568359375,0.753173828125,-0.68017578125,4.913329601287842,-5.798339366912842,9.246825218200684,100.0,168175.0,1.0
559406.2583679,309507.125,299136.375,319686.09375,313631.75,327867.84375,298214.5625,297357.34375,299236.6875,-0.081298828125,0.73828125,-0.6796875,5.004882335662842,-6.011962413787842,8.117674827575684,100.0,168176.0,1.0
559406.2692696,309299.875,298431.5625,318862.9375,313397.21875,323423.78125,297262.03125,296122.375,298918.375,-0.060302734375,0.761474609375,-0.678466796875,5.554198741912842,-5.920409679412842,7.232665538787842,100.0,168177.0,1.0
559406.2692823,309318.46875,299860.125,320259.03125,314345.21875,327504.125,299215.40625,297654.96875,299787.875,-0.057373046875,0.774169921875,-0.675048828125,5.126952648162842,-5.096435070037842,7.843017101287842,100.0,168178.0,1.0
559406.2742538,309509.8125,301495.46875,321986.625,315203.96875,334700.9375,301471.9375,299892.46875,300691.15625,-0.063232421875,0.769775390625,-0.673828125,4.150390148162842,-4.516601085662842,8.575438499450684,100.0,168179.0,1.0
559406.2792188,309658.9375,301075.40625,321630.25,314772.3125,334819.40625,300852.15625,299631.5,300393.15625,-0.060546875,0.765380859375,-0.6748046875,3.723144292831421,-3.936767339706421,8.880614280700684,100.0,168180.0,1.0
559406.2940499,309581.78125,299261.34375,319769.4375,313715.96875,327847.28125,298317.40625,297283.03125,299371.21875,-0.057373046875,0.766357421875,-0.676025390625,3.326415777206421,-2.838134527206421,8.972167015075684,100.0,168181.0,1.0
559406.2966896,309388.03125,298557.0,318963.875,313479.3125,323454.15625,297385.78125,296080.0625,299055.90625,-0.06103515625,0.767578125,-0.67919921875,2.685546636581421,-1.4343260526657104,8.911131858825684,100.0,168182.0,1.0
559406.3042276,309397.6875,299956.03125,320343.34375,314417.0,327524.96875,299319.5625,297663.375,299904.90625,-0.081787109375,0.75927734375,-0.67236328125,2.166747808456421,-0.3356933295726776,8.575438499450684,100.0,168183.0,1.0
559406.3067454,309588.03125,301566.34375,322063.4375,315282.53125,334696.46875,301562.40625,299951.3125,300794.875,-0.06591796875,0.764892578125,-0.674560546875,1.6174315214157104,0.1831054538488388,7.751464366912842,100.0,168184.0,1.0
559406.3092645,309746.90625,301142.46875,321722.875,314866.28125,334820.46875,300947.84375,299738.96875,300490.15625,-0.06201171875,0.7685546875,-0.677001953125,0.9155272841453552,1.1596678495407104,8.056639671325684,100.0,168185.0,1.0
559406.3115888,309689.15625,299365.0625,319903.8125,313823.875,327924.5,298446.84375,297403.5625,299480.65625,-0.064208984375,0.764404296875,-0.671875,-0.2136230319738388,2.136230230331421,7.873534679412842,100.0,168186.0,1.0
559406.3142529,309502.28125,298686.1875,319114.0,313596.96875,323587.84375,297533.46875,296201.125,299176.40625,-0.064697265625,0.760009765625,-0.666015625,-0.9460448622703552,2.258300542831421,7.598876476287842,100.0,168187.0,1.0
559406.3142781,309497.28125,300064.21875,320463.78125,314516.6875,327627.59375,299459.84375,297771.03125,299999.21875,-0.04638671875,0.76806640625,-0.67041015625,-1.7700194120407104,2.471923589706421,7.476806163787842,100.0,168188.0,1.0
559406.3192406,309671.90625,301645.5625,322150.4375,315368.1875,334752.875,301683.125,300068.6875,300876.125,-0.037841796875,0.77001953125,-0.67041015625,-2.868652105331421,3.387450933456421,8.087157249450684,100.0,168189.0,1.0
559406.321782,309830.34375,301231.25,321811.21875,314939.03125,334900.125,301067.09375,299861.09375,300559.625,-0.05078125,0.765380859375,-0.668212890625,-4.028319835662842,3.692626714706421,8.239745140075684,100.0,168190.0,1.0
559406.3267922,309766.125,299470.5625,319992.96875,313887.8125,328039.84375,298560.65625,297561.90625,299528.21875,-0.0517578125,0.75732421875,-0.6689453125,-4.547118663787842,3.082275152206421,7.965087413787842,100.0,168191.0,1.0
559406.3291521,309556.125,298765.21875,319181.125,313646.5,323679.125,297624.75,296364.125,299192.59375,-0.03759765625,0.765380859375,-0.668701171875,-5.035399913787842,2.929687261581421,7.965087413787842,100.0,168192.0,1.0
559406.3316657,309533.15625,300092.46875,320495.96875,314559.59375,327658.0,299524.03125,297904.40625,300017.65625,-0.038818359375,0.7705078125,-0.6689453125,-5.828856945037842,3.082275152206421,8.209227561950684,100.0,168193.0,1.0
559406.334291,309703.0,301633.3125,322152.3125,315400.90625,334718.5625,301725.40625,300161.40625,300892.3125,-0.046142578125,0.77294921875,-0.665283203125,-6.744384288787842,2.410888433456421,8.666991233825684,100.0,168194.0,1.0
559406.3521302,309856.96875,301224.46875,321811.84375,314963.4375,334853.90625,301109.03125,299959.1875,300571.4375,-0.039306640625,0.768310546875,-0.671142578125,-7.904052257537842,1.5258787870407104,9.246825218200684,100.0,168195.0,1.0
559406.3895919,309801.09375,299497.375,320017.90625,313909.78125,328024.375,298612.875,297648.625,299551.3125,-0.041259765625,0.759521484375,-0.673095703125,-8.666991233825684,1.2207030057907104,9.582518577575684,100.0,168196.0,1.0
559406.399258,309589.375,298796.625,319198.21875,313664.09375,323643.0,297665.4375,296400.96875,299242.65625,-0.044189453125,0.759033203125,-0.66943359375,-9.246825218200684,0.9765624403953552,9.643553733825684,100.0,168197.0,1.0
559406.4017968,309541.53125,300072.375,320457.875,314562.1875,327502.78125,299514.8125,297851.21875,300077.0,-0.038330078125,0.767822265625,-0.666015625,-9.735106468200684,0.3051757514476776,9.857176780700684,100.0,168198.0,1.0
559406.4056256,309694.4375,301570.375,322072.46875,315410.65625,334441.46875,301681.78125,300015.3125,300981.09375,-0.049560546875,0.762939453125,-0.668212890625,-10.650633811950684,0.0915527269244194,10.528563499450684,100.0,168199.0,1.0
559406.4056657,309864.84375,301177.0625,321745.5,314977.75,334537.78125,301071.75,299788.84375,300666.5625,-0.056884765625,0.758544921875,-0.666748046875,-11.291502952575684,-0.2441406100988388,10.467528343200684,100.0,168200.0,1.0
559406.4056758,309822.1875,299479.15625,319977.75,313907.8125,327705.1875,298591.4375,297506.375,299643.5625,-0.056396484375,0.754638671875,-0.664794921875,-11.322020530700684,-1.0375975370407104,10.314940452575684,100.0,168201.0,1.0
559406.4081008,309617.1875,298779.09375,319166.46875,313672.25,323300.375,297650.875,296229.84375,299331.28125,-0.05078125,0.7607421875,-0.6708984375,-11.260985374450684,-1.2207030057907104,10.162352561950684,100.0,168202.0,1.0
559406.4081379,309555.75,300010.03125,320389.90625,314585.34375,327055.84375,299472.25,297606.4375,300154.625,-0.055908203125,0.762939453125,-0.6650390625,-11.657713890075684,-1.4038084745407104,9.979247093200684,100.0,168203.0,1.0
559406.4106303,309701.125,301465.15625,321969.375,315431.84375,333871.40625,301604.4375,299802.09375,301010.15625,-0.05078125,0.770751953125,-0.66552734375,-11.932372093200684,-2.105712652206421,10.223387718200684,100.0,168204.0,1.0
559406.412971,309875.75,301082.5625,321651.4375,315002.78125,333932.40625,300989.40625,299623.71875,300679.78125,-0.05078125,0.77294921875,-0.66943359375,-12.481688499450684,-2.227782964706421,10.528563499450684,100.0,168205.0,1.0
559406.4154419,309858.5,299455.625,319944.3125,313977.90625,327181.28125,298549.84375,297355.03125,299662.15625,-0.055908203125,0.76708984375,-0.668701171875,-12.664793968200684,-2.044677495956421,10.681151390075684,100.0,168206.0,1.0
559406.4154765,309678.34375,298804.3125,319176.5625,313753.96875,322845.75,297635.65625,296175.75,299344.59375,-0.056884765625,0.763916015625,-0.668701171875,-12.481688499450684,-2.136230230331421,10.345458030700684,100.0,168207.0,1.0
559406.418072,309599.21875,300012.09375,320374.53125,314634.0,326570.71875,299438.1875,297657.84375,300129.6875,-0.059814453125,0.759765625,-0.670166015625,-12.329100608825684,-2.166747808456421,9.948729515075684,100.0,168208.0,1.0
559406.4181124,309701.3125,301431.71875,321920.65625,315478.71875,333355.90625,301560.0,299835.0625,300984.59375,-0.05419921875,0.7578125,-0.6689453125,-12.451170921325684,-2.014159917831421,9.521483421325684,100.0,168209.0,1.0
559406.4232244,309888.625,301092.75,321646.8125,315075.65625,333511.75,300993.53125,299610.03125,300699.09375,-0.04931640625,0.760986328125,-0.667724609375,-12.481688499450684,-1.8005369901657104,9.643553733825684,100.0,168210.0,1.0
559406.4232611,309905.6875,299551.375,320011.375,314051.3125,326933.34375,298617.25,297369.9375,299726.0,-0.04736328125,0.764892578125,-0.66943359375,-12.969969749450684,-1.8005369901657104,9.887694358825684,100.0,168211.0,1.0
559406.4268222,309731.1875,298929.125,319253.65625,313802.25,322681.0625,297714.34375,296184.0625,299411.46875,-0.04833984375,0.7626953125,-0.669677734375,-13.641356468200684,-1.7089842557907104,9.735106468200684,100.0,168212.0,1.0
559406.4268578,309650.09375,300124.84375,320441.6875,314663.21875,326429.53125,299518.40625,297676.625,300209.34375,-0.0380859375,0.76806640625,-0.66845703125,-14.038084983825684,-1.5563963651657104,9.735106468200684,100.0,168213.0,1.0
559406.426868,309738.0625,301507.6875,321954.8125,315451.15625,333192.1875,301615.875,299896.0625,301045.28125,-0.04345703125,0.7705078125,-0.66650390625,-14.434813499450684,-1.0681151151657104,9.887694358825684,100.0,168214.0,1.0
559406.4292195,309945.3125,301198.09375,321708.0625,315043.03125,333411.78125,301074.09375,299745.9375,300751.40625,-0.036865234375,0.77490234375,-0.662353515625,-15.197752952575684,-0.9765624403953552,9.582518577575684,100.0,168215.0,1.0
559406.4292504,309975.875,299711.34375,320115.625,314054.90625,326931.46875,298723.5625,297530.15625,299780.625,-0.034912109375,0.777099609375,-0.658203125,-15.441893577575684,-0.7019042372703552,10.009764671325684,100.0,168216.0,1.0
559406.4366847,309808.0625,299127.96875,319386.40625,313842.90625,322756.875,297843.09375,296334.4375,299478.4375,-0.033447265625,0.78173828125,-0.6552734375,-15.838622093200684,-0.1220703050494194,10.375975608825684,100.0,168217.0,1.0
559406.4391443,309720.09375,300285.34375,320541.1875,314741.375,326458.0625,299611.5625,297802.5,300253.9375,-0.031494140625,0.777587890625,-0.651611328125,-15.838622093200684,0.3051757514476776,10.772704124450684,100.0,168218.0,1.0
559406.4417856,309807.625,301623.3125,322029.28125,315579.90625,333165.71875,301681.25,300041.25,301068.09375,-0.037353515625,0.771484375,-0.648681640625,-15.747069358825684,0.8239745497703552,10.986327171325684,100.0,168219.0,1.0
559406.4441584,310047.0625,301331.84375,321798.15625,315202.78125,333393.375,301142.03125,299908.21875,300777.0625,-0.036865234375,0.763671875,-0.65380859375,-15.716551780700684,1.3427733182907104,11.016844749450684,100.0,168220.0,1.0
559406.4518001,310134.125,299906.59375,320265.375,314243.375,326992.96875,298831.03125,297703.4375,299824.78125,-0.036865234375,0.760986328125,-0.653076171875,-14.923094749450684,1.7395018339157104,11.260985374450684,100.0,168221.0,1.0
559406.4542315,309892.46875,299283.25,319502.03125,313967.90625,322846.1875,297928.46875,296516.28125,299494.71875,-0.0400390625,0.765380859375,-0.657470703125,-14.434813499450684,2.105712652206421,11.260985374450684,100.0,168222.0,1.0
559406.4567249,309678.34375,300333.34375,320555.21875,314753.71875,326483.53125,299630.78125,297954.9375,300229.90625,-0.039794921875,0.76611328125,-0.65869140625,-14.038084983825684,2.288818120956421,11.077879905700684,100.0,168223.0,1.0
559406.4567594,309779.46875,301628.21875,322013.90625,315548.625,333128.53125,301682.40625,300141.75,301072.03125,-0.04296875,0.766845703125,-0.656494140625,-13.427733421325684,2.258300542831421,10.955809593200684,100.0,168224.0,1.0
559406.4595425,310045.625,301362.875,321825.71875,315186.34375,333427.96875,301185.21875,300021.9375,300823.125,-0.04248046875,0.772705078125,-0.655029296875,-13.153075218200684,2.441406011581421,10.681151390075684,100.0,168225.0,1.0
559406.4595829,310094.53125,299912.9375,320301.3125,314198.5625,327125.9375,298880.75,297844.875,299852.15625,-0.046142578125,0.779296875,-0.654296875,-13.000487327575684,2.655029058456421,10.528563499450684,100.0,168226.0,1.0
559406.4595933,309902.9375,299337.96875,319570.25,313931.0625,323025.09375,298002.78125,296665.25,299522.0625,-0.048583984375,0.7822265625,-0.646484375,-12.908934593200684,2.410888433456421,10.406493186950684,100.0,168227.0,1.0
559406.4668218,309687.0,300367.75,320613.34375,314720.71875,326681.40625,299720.0,298096.375,300259.5,-0.048583984375,0.780517578125,-0.644287109375,-12.786864280700684,2.319335699081421,10.070799827575684,100.0,168228.0,1.0
559406.4694198,309876.8125,301683.3125,322103.125,315620.3125,333334.71875,301783.34375,300306.4375,301106.1875,-0.044921875,0.7802734375,-0.644775390625,-12.481688499450684,2.349853277206421,9.704588890075684,100.0,168229.0,1.0
559406.4716554,310145.03125,301461.65625,321926.46875,315291.5,333640.40625,301282.21875,300194.3125,300841.625,-0.04541015625,0.7802734375,-0.641357421875,-12.481688499450684,2.227782964706421,9.552000999450684,100.0,168230.0,1.0
559406.474142,310152.1875,300049.90625,320402.09375,314244.0,327401.9375,298996.25,298046.125,299866.1875,-0.04736328125,0.7802734375,-0.64208984375,-12.451170921325684,2.075195074081421,9.246825218200684,100.0,168231.0,1.0
559406.4792928,309980.09375,299449.8125,319667.4375,313968.71875,323312.1875,298108.625,296889.5625,299537.625,-0.046630859375,0.78173828125,-0.64208984375,-12.542723655700684,1.7700194120407104,8.941649436950684,100.0,168232.0,1.0
559406.4793334,309783.75,300490.96875,320703.03125,314732.875,326926.28125,299803.15625,298309.53125,300275.0625,-0.0458984375,0.78076171875,-0.644775390625,-12.634276390075684,1.4648436307907104,8.911131858825684,100.0,168233.0,1.0
559406.4818907,309763.09375,301683.03125,322076.84375,315477.28125,333576.1875,301833.3125,300487.5625,301087.75,-0.048583984375,0.777587890625,-0.643798828125,-12.756346702575684,1.0986326932907104,8.514403343200684,100.0,168234.0,1.0
559406.484316,310003.78125,301395.9375,321870.15625,315128.78125,333910.3125,301331.40625,300360.4375,300811.40625,-0.04931640625,0.777099609375,-0.64208984375,-13.061522483825684,0.7019042372703552,7.904052257537842,100.0,168235.0,1.0
559406.4868046,310100.96875,300041.6875,320400.28125,314227.8125,327688.84375,299055.96875,298191.5,299845.53125,-0.048583984375,0.77734375,-0.644287109375,-13.031004905700684,0.2136230319738388,7.629394054412842,100.0,168236.0,1.0
559406.4891305,309892.125,299444.71875,319661.34375,314012.15625,323626.375,298163.15625,297002.21875,299499.34375,-0.04638671875,0.779296875,-0.642333984375,-13.214110374450684,0.0915527269244194,7.263183116912842,100.0,168237.0,1.0
559406.4943003,309649.71875,300413.625,320642.84375,314717.40625,327225.09375,299821.03125,298390.53125,300189.84375,-0.044921875,0.7783203125,-0.6416015625,-13.610838890075684,-0.2746581733226776,7.080077648162842,100.0,168238.0,1.0
559406.4967469,309753.96875,301697.4375,322090.8125,315542.4375,333911.03125,301885.1875,300598.78125,301043.40625,-0.046142578125,0.779296875,-0.640869140625,-13.671874046325684,-0.6713866591453552,6.835937023162842,100.0,168239.0,1.0
559406.4967858,310005.21875,301458.625,321909.84375,315145.5625,334285.65625,301394.34375,300467.90625,300798.09375,-0.0419921875,0.7763671875,-0.64208984375,-14.099120140075684,-0.9765624403953552,6.530761241912842,100.0,168240.0,1.0
559406.4991,310098.375,300134.84375,320443.65625,314152.09375,328084.65625,299135.8125,298312.9375,299852.34375,-0.038330078125,0.770263671875,-0.6396484375,-14.099120140075684,-1.1291502714157104,6.805419445037842,100.0,168241.0,1.0
559406.5017627,309876.65625,299530.65625,319693.875,313906.65625,324012.78125,298247.75,297127.03125,299522.96875,-0.0380859375,0.7646484375,-0.64111328125,-14.312743186950684,-1.1291502714157104,6.744384288787842,100.0,168242.0,1.0
559406.5043078,309686.84375,300516.1875,320703.65625,314709.28125,327612.75,299926.71875,298506.40625,300252.96875,-0.038818359375,0.756103515625,-0.64111328125,-13.793944358825684,-1.0375975370407104,6.378173351287842,100.0,168243.0,1.0
559406.5043496,309728.125,301741.84375,322110.28125,315542.71875,334278.03125,301950.53125,300647.875,301086.78125,-0.03857421875,0.75244140625,-0.6396484375,-13.153075218200684,-1.0070799589157104,5.828856945037842,100.0,168244.0,1.0
559406.5067774,309905.78125,301419.46875,321853.34375,315067.4375,334604.1875,301390.03125,300463.875,300757.40625,-0.037109375,0.751953125,-0.643310546875,-12.695311546325684,-0.7629393935203552,5.493163585662842,100.0,168245.0,1.0
559406.5105665,310009.15625,300047.5,320375.78125,314094.96875,328360.28125,299112.75,298331.53125,299794.40625,-0.03564453125,0.75537109375,-0.6416015625,-12.115477561950684,-0.4882812201976776,5.523681163787842,100.0,168246.0,1.0
559406.5106072,309798.15625,299402.53125,319597.59375,313752.53125,324219.03125,298201.0,297137.59375,299445.625,-0.033447265625,0.75634765625,-0.639892578125,-12.023924827575684,-0.1220703050494194,5.767821788787842,100.0,168247.0,1.0
559406.5367986,309659.21875,300425.875,320634.28125,314630.84375,327805.875,299906.34375,298535.1875,300188.5,-0.034423828125,0.75341796875,-0.640869140625,-11.322020530700684,0.0610351525247097,5.920409679412842,100.0,168248.0,1.0
559406.5391636,309642.21875,301638.25,322021.96875,315466.8125,334491.09375,301942.21875,300717.0625,301007.1875,-0.03564453125,0.7509765625,-0.642578125,-10.559081077575684,0.3967284858226776,5.828856945037842,100.0,168249.0,1.0
559406.5392021,309889.34375,301390.03125,321832.78125,315079.15625,334865.0,301420.34375,300583.9375,300717.34375,-0.034912109375,0.748291015625,-0.636474609375,-9.490965843200684,0.7629393935203552,5.493163585662842,100.0,168250.0,1.0
559406.5418182,309998.59375,300017.90625,320364.4375,314126.59375,328614.375,299108.28125,298394.1875,299735.03125,-0.03662109375,0.753662109375,-0.634765625,-8.544920921325684,1.0681151151657104,5.157470226287842,100.0,168251.0,1.0
559406.5542976,309725.625,299344.0625,319567.03125,313776.9375,324453.375,298165.75,297154.03125,299378.65625,-0.035888671875,0.75732421875,-0.63330078125,-8.117674827575684,1.4343260526657104,5.065917491912842,100.0,168252.0,1.0
559406.5543378,309464.03125,300292.84375,320528.3125,314504.625,328017.9375,299828.8125,298532.25,300096.21875,-0.035400390625,0.759521484375,-0.63525390625,-7.598876476287842,1.7395018339157104,4.913329601287842,100.0,168253.0,1.0
559406.5566856,309534.21875,301536.03125,321935.59375,315337.875,334661.40625,301856.65625,300710.0,300908.3125,-0.0361328125,0.75830078125,-0.634033203125,-7.293700695037842,2.105712652206421,4.638671398162842,100.0,168254.0,1.0
559406.5591521,309765.0625,301273.53125,321741.84375,314939.75,335033.625,301347.03125,300587.96875,300626.25,-0.0341796875,0.76416015625,-0.633544921875,-6.744384288787842,2.319335699081421,4.241942882537842,100.0,168255.0,1.0
559406.5617777,309850.09375,299877.46875,320250.53125,313943.9375,328749.5625,299029.96875,298396.34375,299640.625,-0.036376953125,0.767578125,-0.63037109375,-6.744384288787842,2.593993902206421,3.936767339706421,100.0,168256.0,1.0
559406.5641355,309643.46875,299221.9375,319471.8125,313686.0,324528.65625,298080.46875,297181.03125,299299.15625,-0.03662109375,0.770263671875,-0.6337890625,-6.958007335662842,2.685546636581421,3.662109136581421,100.0,168257.0,1.0
559406.5657355,309476.0,300207.46875,320471.90625,314542.34375,328006.3125,299744.59375,298554.84375,300034.90625,-0.03759765625,0.77490234375,-0.6298828125,-7.141112804412842,2.777099370956421,3.265380620956421,100.0,168258.0,1.0
559406.5729845,309487.71875,301420.1875,321847.875,315282.8125,334617.34375,301769.5,300709.46875,300838.9375,-0.0400390625,0.77734375,-0.629638671875,-7.354735851287842,2.868652105331421,2.899169683456421,100.0,168259.0,1.0
559406.5754731,309724.125,301144.875,321657.09375,314921.15625,334976.65625,301264.96875,300580.28125,300556.59375,-0.04296875,0.783203125,-0.628173828125,-7.507323741912842,2.899169683456421,2.624511480331421,100.0,168260.0,1.0
559406.5755078,309778.75,299732.34375,320147.90625,313901.9375,328657.28125,298938.59375,298365.21875,299557.8125,-0.044677734375,0.7841796875,-0.62890625,-7.904052257537842,2.929687261581421,2.166747808456421,100.0,168261.0,1.0
559406.5780087,309568.28125,299052.21875,319345.46875,313630.65625,324377.28125,297966.5625,297107.53125,299194.21875,-0.046630859375,0.7841796875,-0.62890625,-8.239745140075684,2.929687261581421,1.8920897245407104,100.0,168262.0,1.0
559406.5805056,309378.03125,300001.28125,320316.0625,314449.53125,327802.75,299601.46875,298477.53125,299923.3125,-0.0458984375,0.7861328125,-0.6328125,-8.666991233825684,2.838134527206421,1.6174315214157104,100.0,168263.0,1.0
559406.5830482,309353.15625,301161.25,321647.875,315229.4375,334318.28125,301587.09375,300618.28125,300733.96875,-0.04638671875,0.785400390625,-0.628662109375,-8.758543968200684,2.777099370956421,1.3732908964157104,100.0,168264.0,1.0
559406.5830904,309604.21875,300843.9375,321433.21875,314867.53125,334582.84375,301063.0,300471.28125,300467.1875,-0.047607421875,0.784423828125,-0.6240234375,-9.002684593200684,2.716064214706421,1.1291502714157104,100.0,168265.0,1.0
559406.5855344,309711.5,299451.625,319949.0625,313898.4375,328203.09375,298744.84375,298263.40625,299497.65625,-0.046875,0.785888671875,-0.627197265625,-9.216307640075684,2.685546636581421,0.9155272841453552,100.0,168266.0,1.0
559406.6267861,309488.96875,298766.75,319137.40625,313572.5625,323837.71875,297750.5625,296982.8125,299122.78125,-0.047119140625,0.78662109375,-0.6279296875,-9.216307640075684,2.471923589706421,0.8850097060203552,100.0,168267.0,1.0
559406.6292942,309265.71875,299697.375,320085.5,314349.21875,327189.40625,299369.28125,298316.59375,299835.78125,-0.047119140625,0.78515625,-0.628173828125,-9.246825218200684,2.319335699081421,0.7019042372703552,100.0,168268.0,1.0
559406.6293368,309316.0625,300914.65625,321477.03125,315198.3125,333727.03125,301396.46875,300484.53125,300674.78125,-0.048095703125,0.784912109375,-0.62646484375,-8.880614280700684,2.136230230331421,0.4272460639476776,100.0,168269.0,1.0
559406.6318084,309551.75,300665.65625,321295.0625,314841.15625,334037.375,300901.0625,300362.125,300416.40625,-0.049072265625,0.787109375,-0.62548828125,-8.514403343200684,1.9226073026657104,0.3051757514476776,100.0,168270.0,1.0
559406.6318827,309627.8125,299274.3125,319803.59375,313807.5,327674.71875,298578.90625,298149.125,299425.15625,-0.050537109375,0.78857421875,-0.62646484375,-8.209227561950684,1.8005369901657104,0.1831054538488388,100.0,168271.0,1.0
559406.6342701,309389.71875,298604.5625,318999.03125,313480.46875,323319.25,297598.03125,296879.09375,299057.0625,-0.05078125,0.7919921875,-0.6240234375,-7.812499523162842,1.5869139432907104,0.2136230319738388,100.0,168272.0,1.0
559406.6367673,309201.96875,299566.84375,319979.0,314328.40625,326699.46875,299246.34375,298233.875,299792.25,-0.04931640625,0.792724609375,-0.621826171875,-7.293700695037842,1.4038084745407104,0.3051757514476776,100.0,168273.0,1.0
559406.6393236,309282.53125,300829.5625,321400.125,315148.71875,333294.125,301303.125,300409.96875,300634.5625,-0.049072265625,0.793212890625,-0.625244140625,-6.896972179412842,1.1596678495407104,0.3051757514476776,100.0,168274.0,1.0
559406.6416915,309501.59375,300601.03125,321246.625,314775.96875,333712.46875,300832.3125,300299.09375,300373.40625,-0.048095703125,0.794921875,-0.623046875,-6.561278820037842,0.8544921278953552,0.4577636420726776,100.0,168275.0,1.0
559406.646628,309658.9375,299304.09375,319836.5,313813.84375,327470.78125,298563.8125,298109.875,299403.875,-0.049072265625,0.797607421875,-0.619873046875,-6.225585460662842,0.4577636420726776,0.4272460639476776,100.0,168276.0,1.0
559406.651654,309495.59375,298747.25,319112.375,313562.71875,323239.6875,297644.6875,296871.6875,299053.9375,-0.048095703125,0.799560546875,-0.62109375,-5.920409679412842,0.3051757514476776,0.6103515028953552,100.0,168277.0,1.0
559406.6541479,309238.375,299730.28125,320092.375,314327.78125,326745.6875,299322.3125,298246.84375,299783.3125,-0.049072265625,0.801513671875,-0.6201171875,-5.828856945037842,0.0,0.8544921278953552,100.0,168278.0,1.0
559406.659336,309278.59375,301009.53125,321521.28125,315151.75,333483.125,301410.25,300442.5,300625.875,-0.0478515625,0.802490234375,-0.619873046875,-5.767821788787842,-0.2441406100988388,0.9460448622703552,100.0,168279.0,1.0
559406.6593765,309585.1875,300867.46875,321434.46875,314845.4375,334044.34375,301004.4375,300373.5,300392.71875,-0.049560546875,0.803466796875,-0.616943359375,-5.889892101287842,-0.4272460639476776,1.0375975370407104,100.0,168280.0,1.0
559406.6616857,309679.0625,299583.5,320005.8125,313824.59375,327879.1875,298737.59375,298181.5,299410.125,-0.048583984375,0.80517578125,-0.616943359375,-5.920409679412842,-0.6713866591453552,1.0986326932907104,100.0,168281.0,1.0
559406.661721,309454.65625,298957.53125,319228.34375,313498.875,323682.15625,297795.625,296925.0625,299041.6875,-0.0478515625,0.8046875,-0.618408203125,-6.134032726287842,-0.8544921278953552,1.1291502714157104,100.0,168282.0,1.0
559406.6641753,309260.1875,299912.25,320215.3125,314352.4375,327199.34375,299463.21875,298292.8125,299778.75,-0.048095703125,0.803955078125,-0.6181640625,-6.347655773162842,-1.0070799589157104,1.2207030057907104,100.0,168283.0,1.0
559406.666718,309296.21875,301190.9375,321635.53125,315172.5,333940.1875,301546.78125,300488.90625,300620.4375,-0.04833984375,0.803955078125,-0.619140625,-6.591796398162842,-0.9155272841453552,1.3427733182907104,100.0,168284.0,1.0
559406.6691404,309606.625,301056.28125,321538.71875,314832.90625,334509.0625,301126.90625,300419.09375,300378.9375,-0.0458984375,0.80322265625,-0.6171875,-6.896972179412842,-0.7934569716453552,1.3732908964157104,100.0,168285.0,1.0
559406.6718213,309687.28125,299729.21875,320102.75,313782.46875,328384.0625,298867.96875,298260.71875,299410.21875,-0.0439453125,0.8017578125,-0.616455078125,-7.080077648162842,-0.7324218153953552,1.4953612089157104,100.0,168286.0,1.0
559406.6732242,309499.6875,299103.09375,319345.90625,313553.25,324200.28125,297929.8125,297028.40625,299063.3125,-0.04833984375,0.801025390625,-0.6142578125,-7.354735851287842,-0.7324218153953552,1.6479490995407104,100.0,168287.0,1.0
559406.6880691,309269.84375,300056.0,320309.53125,314377.9375,327696.25,299589.28125,298395.1875,299794.84375,-0.046630859375,0.797607421875,-0.61572265625,-7.446288585662842,-0.6408690810203552,1.6174315214157104,100.0,168288.0,1.0
559406.6881081,309294.15625,301284.1875,321701.4375,315179.5625,334439.6875,301660.84375,300590.21875,300625.53125,-0.0439453125,0.796142578125,-0.616455078125,-7.598876476287842,-0.4882812201976776,1.6784666776657104,100.0,168289.0,1.0
559406.6906522,309606.71875,301155.4375,321607.28125,314850.71875,335022.53125,301243.6875,300521.90625,300385.46875,-0.04345703125,0.79638671875,-0.616455078125,-7.659911632537842,-0.3356933295726776,1.7700194120407104,100.0,168290.0,1.0
559406.6929255,309700.875,299841.875,320173.65625,313840.59375,328877.6875,298970.59375,298338.5,299411.03125,-0.040771484375,0.798583984375,-0.615234375,-7.720946788787842,-0.1525878757238388,2.014159917831421,100.0,168291.0,1.0
559406.6955219,309459.46875,299151.1875,319366.03125,313494.75,324662.78125,297999.90625,297081.0625,299039.53125,-0.04052734375,0.79541015625,-0.614990234375,-7.629394054412842,-0.0610351525247097,2.258300542831421,100.0,168292.0,1.0
559406.6980153,309265.46875,300090.5,320325.09375,314328.9375,328114.78125,299630.4375,298443.09375,299768.1875,-0.03955078125,0.79052734375,-0.615966796875,-7.415771007537842,0.2441406100988388,2.349853277206421,100.0,168293.0,1.0
559406.7004573,309322.3125,301337.125,321730.03125,315175.78125,334818.5,301691.625,300638.9375,300608.09375,-0.039306640625,0.790283203125,-0.615478515625,-7.293700695037842,0.4272460639476776,2.349853277206421,100.0,168294.0,1.0
559406.7004979,309593.03125,301148.5625,321607.28125,314824.5,335389.5625,301253.96875,300564.625,300356.5,-0.039794921875,0.7880859375,-0.61572265625,-6.958007335662842,0.5493163466453552,2.471923589706421,100.0,168295.0,1.0
559406.7041663,309687.46875,299821.75,320171.5,313810.90625,329246.21875,298980.25,298384.53125,299378.5625,-0.04150390625,0.787109375,-0.6142578125,-6.774901866912842,0.6408690810203552,2.563476324081421,100.0,168296.0,1.0
559406.7308242,309438.5625,299141.375,319361.65625,313462.40625,324999.21875,297999.375,297117.1875,299003.40625,-0.04150390625,0.784912109375,-0.615234375,-6.561278820037842,0.8544921278953552,2.685546636581421,100.0,168297.0,1.0
559406.7308652,309253.03125,300079.96875,320320.53125,314291.28125,328436.28125,299639.53125,298475.09375,299726.96875,-0.043212890625,0.78271484375,-0.6123046875,-6.225585460662842,1.0375975370407104,2.838134527206421,100.0,168298.0,1.0
559406.7308751,309260.53125,301326.21875,321709.375,315092.46875,335150.3125,301709.5,300671.125,300566.59375,-0.044677734375,0.783203125,-0.6103515625,-5.950927257537842,0.9765624403953552,2.899169683456421,100.0,168299.0,1.0
559406.756887,309510.78125,301150.34375,321583.3125,314729.46875,335757.28125,301287.5,300610.875,300328.875,-0.044677734375,0.783203125,-0.61328125,-5.676269054412842,1.0375975370407104,2.960204839706421,100.0,168300.0,1.0
559406.7569228,309664.03125,299815.40625,320170.34375,313755.75,329613.9375,299006.625,298432.5625,299360.78125,-0.0458984375,0.781494140625,-0.612548828125,-5.554198741912842,0.9460448622703552,3.143310308456421,100.0,168301.0,1.0
559406.7569326,309400.625,299130.5625,319355.40625,313436.84375,325334.65625,298009.84375,297150.28125,298985.4375,-0.044677734375,0.7822265625,-0.612060546875,-5.462646007537842,0.7629393935203552,3.265380620956421,100.0,168302.0,1.0
559406.7594254,309199.65625,300063.6875,320291.9375,314241.9375,328735.0,299632.9375,298487.09375,299711.875,-0.04296875,0.7841796875,-0.611328125,-5.371093273162842,0.5187987685203552,3.387450933456421,100.0,168303.0,1.0
559406.7594632,309216.0,301307.59375,321683.375,315056.25,335445.59375,301708.875,300685.59375,300560.0,-0.043212890625,0.78125,-0.61083984375,-5.065917491912842,0.3051757514476776,3.448486089706421,100.0,168304.0,1.0
559406.7618808,309500.25,301108.3125,321573.03125,314725.0,336057.0625,301284.0,300625.875,300318.9375,-0.04296875,0.783935546875,-0.60693359375,-4.791259288787842,0.0915527269244194,3.417968511581421,100.0,168305.0,1.0
559406.761918,309658.125,299820.6875,320174.09375,313773.34375,329893.71875,299004.65625,298437.65625,299350.21875,-0.041015625,0.78759765625,-0.60791015625,-4.547118663787842,-0.1831054538488388,3.479003667831421,100.0,168306.0,1.0
559406.7642157,309414.21875,299136.28125,319353.78125,313427.71875,325583.5625,298001.59375,297139.71875,298966.9375,-0.0400390625,0.785888671875,-0.610107421875,-4.211425304412842,-0.3662109076976776,3.631591558456421,100.0,168307.0,1.0
559406.7642503,309184.1875,300038.3125,320277.1875,314222.53125,328961.8125,299618.25,298467.96875,299689.78125,-0.037109375,0.787841796875,-0.611083984375,-3.936767339706421,-0.5187987685203552,3.631591558456421,100.0,168308.0,1.0
559406.7666674,309236.03125,301274.25,321680.40625,315110.34375,335653.125,301691.875,300670.9375,300548.0,-0.03662109375,0.79052734375,-0.611328125,-3.479003667831421,-0.6713866591453552,3.631591558456421,100.0,168309.0,1.0
559406.7693059,309486.375,301091.0625,321559.0,314733.6875,336239.0,301257.4375,300601.90625,300294.1875,-0.034912109375,0.789794921875,-0.612548828125,-3.204345464706421,-0.7324218153953552,3.631591558456421,100.0,168310.0,1.0
559406.7716751,309612.625,299759.09375,320133.40625,313701.65625,330068.0625,298964.6875,298402.5,299309.1875,-0.033935546875,0.791748046875,-0.61181640625,-2.655029058456421,-0.7019042372703552,3.631591558456421,100.0,168311.0,1.0
559406.774063,309414.9375,299110.25,319352.0,313454.25,325763.8125,297984.875,297123.375,298951.90625,-0.032958984375,0.794677734375,-0.61376953125,-2.349853277206421,-0.7019042372703552,3.662109136581421,100.0,168312.0,1.0
559406.7764275,309134.75,299980.375,320235.0625,314184.0,329097.1875,299572.9375,298427.0,299643.5625,-0.030517578125,0.79541015625,-0.616455078125,-2.136230230331421,-0.5493163466453552,3.631591558456421,100.0,168313.0,1.0
559406.7764684,309162.1875,301199.0625,321617.125,314974.625,335790.8125,301636.28125,300621.5,300489.09375,-0.02880859375,0.7939453125,-0.61474609375,-1.8005369901657104,-0.4272460639476776,3.662109136581421,100.0,168314.0,1.0
559406.7830225,309524.03125,301095.09375,321568.40625,314738.15625,336413.34375,301242.4375,300583.5,300276.75,-0.027587890625,0.797119140625,-0.6142578125,-1.5563963651657104,-0.0610351525247097,3.631591558456421,100.0,168315.0,1.0
559406.7867762,309600.65625,299777.125,320132.25,313712.65625,330248.1875,298953.0,298389.09375,299290.6875,-0.028564453125,0.799072265625,-0.614501953125,-1.3732908964157104,0.1831054538488388,3.601073980331421,100.0,168316.0,1.0
559406.8116475,309345.03125,299058.40625,319288.96875,313332.03125,325903.75,297924.4375,297073.375,298891.75,-0.02978515625,0.802490234375,-0.614990234375,-1.3122557401657104,0.3662109076976776,3.601073980331421,100.0,168317.0,1.0
559406.8193863,309141.1875,299959.1875,320220.0625,314175.34375,329244.15625,299538.5,298409.46875,299619.4375,-0.030029296875,0.80322265625,-0.611328125,-1.3732908964157104,0.6713866591453552,3.509521245956421,100.0,168318.0,1.0
559406.8194276,309173.09375,301186.5625,321613.09375,315018.34375,335909.4375,301602.75,300604.4375,300464.5,-0.02880859375,0.80419921875,-0.610595703125,-1.4343260526657104,0.9155272841453552,3.417968511581421,100.0,168319.0,1.0
559406.8194379,309477.53125,301028.84375,321528.4375,314706.125,336533.59375,301197.71875,300553.28125,300240.90625,-0.031494140625,0.805908203125,-0.608154296875,-1.4648436307907104,1.1901854276657104,3.204345464706421,100.0,168320.0,1.0
559406.821763,309587.84375,299743.6875,320110.78125,313665.25,330381.5,298920.09375,298361.75,299262.15625,-0.03125,0.80224609375,-0.609375,-1.5258787870407104,1.4038084745407104,3.051757574081421,100.0,168321.0,1.0
559406.8242761,309354.6875,299050.0,319292.09375,313367.8125,326038.90625,297912.03125,297069.4375,298878.25,-0.02880859375,0.800048828125,-0.60986328125,-1.4953612089157104,1.6174315214157104,2.929687261581421,100.0,168322.0,1.0
559406.8267393,309127.5,299930.28125,320205.65625,314189.625,329364.0625,299514.1875,298402.40625,299599.75,-0.029296875,0.80224609375,-0.611083984375,-1.6479490995407104,1.6479490995407104,2.746581792831421,100.0,168323.0,1.0
559406.8292985,309126.78125,301149.09375,321575.0,314960.40625,336036.40625,301573.78125,300587.0,300437.9375,-0.029052734375,0.802734375,-0.609130859375,-1.7395018339157104,1.7395018339157104,2.716064214706421,100.0,168324.0,1.0
559406.8316412,309425.9375,301036.71875,321495.34375,314634.25,336673.25,301183.34375,300540.125,300205.5,-0.028564453125,0.80126953125,-0.60986328125,-1.7395018339157104,1.8615721464157104,2.532958745956421,100.0,168325.0,1.0
559406.8343212,309556.125,299733.78125,320090.75,313646.3125,330549.15625,298919.625,298377.03125,299239.34375,-0.02685546875,0.798828125,-0.6083984375,-1.8005369901657104,1.8615721464157104,2.258300542831421,100.0,168326.0,1.0
559406.8366363,309312.125,299020.84375,319252.75,313301.09375,326179.03125,297882.6875,297057.46875,298836.84375,-0.025634765625,0.79833984375,-0.6064453125,-1.7395018339157104,1.8615721464157104,2.075195074081421,100.0,168327.0,1.0
559406.8392512,309083.0625,299894.96875,320162.1875,314131.0,329490.46875,299482.28125,298379.8125,299562.46875,-0.02392578125,0.798095703125,-0.609619140625,-1.9531248807907104,1.9531248807907104,1.9531248807907104,100.0,168328.0,1.0
559406.8443392,309116.0625,301124.25,321558.75,314970.15625,336174.0,301557.3125,300580.71875,300423.8125,-0.0234375,0.798095703125,-0.611083984375,-2.075195074081421,1.9531248807907104,1.8310545682907104,100.0,168329.0,1.0
559406.8443816,309352.0,300949.53125,321441.4375,314590.09375,336809.59375,301141.3125,300509.65625,300174.03125,-0.021484375,0.797607421875,-0.614013671875,-2.014159917831421,2.136230230331421,1.6174315214157104,100.0,168330.0,1.0
559406.8466656,309478.15625,299658.40625,320027.46875,313571.03125,330675.21875,298861.875,298327.40625,299194.9375,-0.021240234375,0.796630859375,-0.612548828125,-1.9531248807907104,2.258300542831421,1.4648436307907104,100.0,168331.0,1.0
559406.8503106,309266.34375,298975.53125,319221.28125,313284.03125,326330.21875,297855.96875,297042.4375,298821.8125,-0.022216796875,0.796630859375,-0.610595703125,-1.9226073026657104,2.410888433456421,1.3732908964157104,100.0,168332.0,1.0
559406.8616298,309070.8125,299865.75,320130.46875,314107.75,329590.34375,299436.9375,298340.1875,299528.84375,-0.0244140625,0.799072265625,-0.612060546875,-1.8005369901657104,2.685546636581421,1.1291502714157104,100.0,168333.0,1.0
559406.8616424,309067.25,301092.6875,321511.875,314912.5,336276.5625,301515.75,300541.125,300385.1875,-0.0244140625,0.79833984375,-0.611083984375,-1.6174315214157104,2.929687261581421,1.1901854276657104,100.0,168334.0,1.0
559406.8642644,309312.5625,300917.15625,321406.75,314551.90625,336950.34375,301113.40625,300498.21875,300147.03125,-0.02490234375,0.799072265625,-0.610595703125,-1.4038084745407104,3.082275152206421,0.9765624403953552,100.0,168335.0,1.0
559406.86428,309491.75,299657.25,320026.40625,313585.6875,330821.5625,298849.46875,298324.46875,299177.9375,-0.025390625,0.79931640625,-0.611083984375,-1.0986326932907104,3.387450933456421,0.7629393935203552,100.0,168336.0,1.0
559406.8866851,309273.59375,298976.15625,319204.375,313265.96875,326434.375,297816.625,297005.625,298782.5,-0.025390625,0.80126953125,-0.612548828125,-0.9155272841453552,3.509521245956421,0.5798339247703552,100.0,168337.0,1.0
559406.8892325,309017.625,299806.90625,320075.75,314047.75,329683.34375,299380.71875,298292.4375,299475.9375,-0.026611328125,0.8017578125,-0.611328125,-0.8544921278953552,3.723144292831421,0.4882812201976776,100.0,168338.0,1.0
559406.8892505,309031.5625,301025.875,321463.6875,314881.8125,336365.6875,301460.9375,300499.375,300335.84375,-0.02734375,0.804443359375,-0.607666015625,-0.7629393935203552,4.058837413787842,0.2746581733226776,100.0,168339.0,1.0
559406.8917093,309332.875,300907.25,321403.15625,314557.625,337059.40625,301089.53125,300475.6875,300123.0625,-0.026611328125,0.8037109375,-0.60888671875,-0.8850097060203552,4.241942882537842,0.0915527269244194,100.0,168340.0,1.0
559406.894228,309474.125,299622.09375,320005.125,313562.71875,330933.96875,298823.71875,298295.9375,299152.46875,-0.027099609375,0.803955078125,-0.611328125,-0.9765624403953552,4.455565929412842,-0.0610351525247097,100.0,168341.0,1.0
559406.8967533,309243.46875,298925.0,319169.25,313230.03125,326524.5,297785.96875,296964.125,298752.1875,-0.026611328125,0.8037109375,-0.6064453125,-0.9460448622703552,4.486083507537842,-0.0915527269244194,100.0,168342.0,1.0
559406.8990875,309038.4375,299796.71875,320067.59375,314053.46875,329759.875,299360.875,298246.84375,299465.8125,-0.02734375,0.803955078125,-0.607666015625,-1.0375975370407104,4.638671398162842,-0.1525878757238388,100.0,168343.0,1.0
559406.9017713,309022.34375,300999.6875,321438.03125,314874.3125,336427.21875,301428.3125,300433.03125,300317.78125,-0.02734375,0.804931640625,-0.608154296875,-1.1901854276657104,4.730224132537842,-0.4272460639476776,100.0,168344.0,1.0
559406.901794,309280.65625,300840.5625,321350.0625,314522.9375,337125.84375,301051.28125,300407.71875,300093.71875,-0.026611328125,0.80322265625,-0.6083984375,-1.2817381620407104,4.730224132537842,-0.3662109076976776,100.0,168345.0,1.0
559406.9117945,309424.875,299553.4375,319952.8125,313543.9375,330999.21875,298777.03125,298232.71875,299117.9375,-0.024169921875,0.803466796875,-0.607421875,-1.3122557401657104,4.852294445037842,-0.3356933295726776,100.0,168346.0,1.0
559406.9118257,309235.59375,298885.21875,319142.4375,313235.03125,326585.65625,297749.84375,296920.21875,298730.4375,-0.026123046875,0.80078125,-0.606689453125,-1.2512205839157104,5.035399913787842,-0.3662109076976776,100.0,168347.0,1.0
559406.9141529,309002.25,299749.34375,320025.9375,314011.53125,329788.125,299314.46875,298202.0625,299424.34375,-0.02783203125,0.799072265625,-0.6064453125,-1.0986326932907104,5.096435070037842,-0.3356933295726776,100.0,168348.0,1.0
559406.9181564,309012.25,300960.25,321412.8125,314875.375,336462.53125,301395.59375,300409.59375,300283.375,-0.027099609375,0.798583984375,-0.608642578125,-1.0070799589157104,5.218505382537842,-0.3662109076976776,100.0,168349.0,1.0
559406.9366504,309283.4375,300818.09375,321334.78125,314537.6875,337176.78125,301020.15625,300394.6875,300061.53125,-0.025146484375,0.80078125,-0.605712890625,-0.8544921278953552,5.279540538787842,-0.2441406100988388,100.0,168350.0,1.0
559406.9392815,309412.625,299533.40625,319925.90625,313494.3125,331042.40625,298742.625,298215.5625,299077.34375,-0.026611328125,0.79931640625,-0.604736328125,-0.6408690810203552,5.401610851287842,-0.1831054538488388,100.0,168351.0,1.0
559406.9393239,309223.34375,298841.125,319119.8125,313221.8125,326636.875,297726.21875,296919.15625,298706.65625,-0.02734375,0.800048828125,-0.605224609375,-0.3662109076976776,5.523681163787842,-0.1831054538488388,100.0,168352.0,1.0
559406.9417846,308948.15625,299674.3125,319974.90625,313974.4375,329821.03125,299269.125,298184.90625,299387.0625,-0.02783203125,0.800048828125,-0.60400390625,-0.3967284858226776,5.737304210662842,-0.1220703050494194,100.0,168353.0,1.0
559406.9441388,308919.1875,300889.1875,321332.53125,314744.21875,336487.65625,301335.3125,300375.09375,300222.375,-0.02685546875,0.80078125,-0.604736328125,-0.1831054538488388,5.767821788787842,-0.0610351525247097,100.0,168354.0,1.0
559406.9466581,309205.8125,300753.71875,321261.71875,314441.9375,337204.15625,300960.96875,300357.03125,300003.34375,-0.029052734375,0.79931640625,-0.60107421875,-0.2136230319738388,5.737304210662842,0.0,100.0,168355.0,1.0
559406.9492979,309402.53125,299505.4375,319896.46875,313486.90625,331089.53125,298707.65625,298203.21875,299049.46875,-0.03125,0.79833984375,-0.600830078125,-0.0915527269244194,5.676269054412842,-0.03051757626235485,100.0,168356.0,1.0
559406.9554633,309178.8125,298812.25,319069.65625,313187.75,326644.46875,297663.8125,296875.96875,298657.5,-0.03076171875,0.799072265625,-0.601806640625,-0.03051757626235485,5.706786632537842,-0.0610351525247097,100.0,168357.0,1.0
559406.9555022,308883.34375,299622.375,319921.34375,313931.96875,329843.0,299219.15625,298152.0,299350.59375,-0.033935546875,0.79833984375,-0.60595703125,0.1220703050494194,5.462646007537842,-0.03051757626235485,100.0,168358.0,1.0
559406.9643209,308943.6875,300885.4375,321329.40625,314760.21875,336519.21875,301311.90625,300354.71875,300213.53125,-0.0341796875,0.80029296875,-0.604736328125,0.1525878757238388,5.401610851287842,-0.1525878757238388,100.0,168359.0,1.0
559406.9643617,309264.375,300796.90625,321295.625,314496.3125,337268.4375,300967.875,300359.71875,300021.9375,-0.03271484375,0.79736328125,-0.605224609375,0.1525878757238388,5.279540538787842,-0.2136230319738388,100.0,168360.0,1.0
559406.9668624,309362.375,299457.6875,319872.53125,313492.625,331154.875,298679.75,298185.59375,299044.09375,-0.035400390625,0.796875,-0.603271484375,0.2136230319738388,5.096435070037842,-0.2441406100988388,100.0,168361.0,1.0
559406.9668984,309095.40625,298715.53125,319003.9375,313107.375,326679.15625,297613.59375,296832.625,298625.9375,-0.035888671875,0.796875,-0.603759765625,0.2746581733226776,5.096435070037842,-0.4272460639476776,100.0,168362.0,1.0
559406.9931275,308909.0,299607.90625,319913.375,313914.0,329871.4375,299196.09375,298120.78125,299345.125,-0.035888671875,0.796875,-0.605224609375,0.1831054538488388,4.913329601287842,-0.6103515028953552,100.0,168363.0,1.0
559406.9955867,308948.40625,300854.9375,321317.34375,314778.1875,336536.28125,301284.8125,300313.40625,300203.625,-0.03564453125,0.79736328125,-0.606689453125,0.2441406100988388,4.669188976287842,-0.6408690810203552,100.0,168364.0,1.0
559406.995627,309214.3125,300713.59375,321243.21875,314471.34375,337267.90625,300912.875,300290.875,299981.34375,-0.036865234375,0.796142578125,-0.604736328125,0.3051757514476776,4.547118663787842,-0.7324218153953552,100.0,168365.0,1.0
559406.9980929,309345.65625,299452.15625,319850.875,313465.96875,331160.96875,298648.28125,298130.09375,299013.34375,-0.0361328125,0.7978515625,-0.607666015625,0.3662109076976776,4.394530773162842,-0.8544921278953552,100.0,168366.0,1.0
559407.0004349,309105.78125,298740.09375,319006.0,313132.3125,326694.53125,297588.5625,296791.84375,298611.09375,-0.03662109375,0.79833984375,-0.606201171875,0.3051757514476776,4.394530773162842,-0.8850097060203552,100.0,168367.0,1.0
559407.0028868,308885.375,299596.90625,319890.65625,313912.21875,329850.15625,299151.8125,298063.375,299309.28125,-0.0361328125,0.794921875,-0.609619140625,0.3967284858226776,4.333495616912842,-0.8544921278953552,100.0,168368.0,1.0
559407.0080101,308907.84375,300838.3125,321285.78125,314717.9375,336519.65625,301245.21875,300265.65625,300166.34375,-0.036376953125,0.79443359375,-0.61083984375,0.6408690810203552,4.302978038787842,-0.9155272841453552,100.0,168369.0,1.0
559407.0130098,309145.46875,300700.53125,321205.65625,314398.03125,337268.71875,300882.5625,300251.96875,299941.375,-0.037109375,0.793701171875,-0.606689453125,0.7324218153953552,4.272460460662842,-1.0681151151657104,100.0,168370.0,1.0
559407.0155044,309321.59375,299414.0625,319826.75,313426.28125,331174.90625,298629.78125,298102.09375,298988.65625,-0.03662109375,0.79345703125,-0.604736328125,0.8850097060203552,4.180907726287842,-1.0681151151657104,100.0,168371.0,1.0
559407.0179956,309125.34375,298698.96875,318994.8125,313125.6875,326689.09375,297571.375,296760.46875,298593.9375,-0.035888671875,0.794921875,-0.60595703125,1.0070799589157104,3.967284917831421,-1.0375975370407104,100.0,168372.0,1.0
559407.0205729,308879.75,299566.125,319862.96875,313883.5,329819.21875,299121.78125,298015.5625,299284.15625,-0.036376953125,0.79443359375,-0.610595703125,1.1596678495407104,3.936767339706421,-0.9155272841453552,100.0,168373.0,1.0
559407.0228897,308870.46875,300794.0625,321244.125,314705.78125,336487.8125,301208.71875,300208.0,300139.78125,-0.03759765625,0.795166015625,-0.60888671875,1.2207030057907104,3.906249761581421,-0.7629393935203552,100.0,168374.0,1.0
559407.0255109,309153.53125,300656.71875,321188.875,314419.15625,337264.5,300855.3125,300211.125,299934.3125,-0.0400390625,0.79443359375,-0.606201171875,1.3122557401657104,3.845214605331421,-0.5798339247703552,100.0,168375.0,1.0
559407.0293421,309298.0,299370.78125,319796.25,313428.5,331160.34375,298585.4375,298049.0,298968.53125,-0.0419921875,0.79736328125,-0.606201171875,1.4648436307907104,3.753661870956421,-0.4882812201976776,100.0,168376.0,1.0
559407.0293847,309125.8125,298699.59375,318974.6875,313107.8125,326659.75,297534.625,296702.875,298573.625,-0.041259765625,0.799560546875,-0.60888671875,1.6784666776657104,3.601073980331421,-0.2136230319738388,100.0,168377.0,1.0
559407.061576,308876.625,299563.28125,319846.15625,313899.0625,329779.1875,299088.875,297956.71875,299266.96875,-0.040283203125,0.798828125,-0.606689453125,1.7395018339157104,3.417968511581421,-0.1525878757238388,100.0,168378.0,1.0
559407.0718157,308856.40625,300777.875,321228.46875,314724.03125,336459.75,301177.78125,300160.53125,300127.09375,-0.042236328125,0.802734375,-0.6083984375,1.8005369901657104,3.234863042831421,-0.03051757626235485,100.0,168379.0,1.0
559407.0718303,309137.4375,300655.90625,321177.78125,314409.40625,337260.65625,300838.59375,300173.3125,299924.40625,-0.04248046875,0.8046875,-0.603515625,1.7089842557907104,2.929687261581421,0.0915527269244194,100.0,168380.0,1.0
559407.0718344,309300.5,299377.125,319794.75,313438.875,331164.28125,298572.1875,298014.3125,298963.625,-0.043701171875,0.80517578125,-0.60546875,1.7395018339157104,2.685546636581421,0.2136230319738388,100.0,168381.0,1.0
559407.0830916,309058.75,298661.15625,318940.90625,313072.5,326662.90625,297504.9375,296669.71875,298559.25,-0.043701171875,0.806884765625,-0.60595703125,1.7089842557907104,2.502441167831421,0.2136230319738388,100.0,168382.0,1.0
559407.0893588,308820.03125,299518.84375,319811.53125,313835.21875,329778.90625,299055.71875,297924.0,299247.84375,-0.044677734375,0.806640625,-0.6083984375,1.5563963651657104,2.197265386581421,0.3356933295726776,100.0,168383.0,1.0
559407.0931085,308834.4375,300751.3125,321208.71875,314688.96875,336443.3125,301145.875,300119.46875,300103.21875,-0.04541015625,0.807373046875,-0.609375,1.3427733182907104,1.9226073026657104,0.3662109076976776,100.0,168384.0,1.0
559407.1058286,309140.375,300646.90625,321178.03125,314403.75,337259.9375,300816.84375,300143.8125,299910.28125,-0.046630859375,0.807861328125,-0.606689453125,1.1291502714157104,1.6174315214157104,0.3356933295726776,100.0,168385.0,1.0
559407.1133013,309292.0,299374.625,319797.25,313419.84375,331189.46875,298559.5,297994.1875,298948.6875,-0.046142578125,0.808349609375,-0.606201171875,0.8544921278953552,1.4953612089157104,0.4882812201976776,100.0,168386.0,1.0
559407.1341787,309077.0625,298670.28125,318956.375,313087.0625,326686.6875,297497.25,296646.71875,298543.875,-0.044921875,0.81103515625,-0.608154296875,0.7324218153953552,1.2207030057907104,0.4272460639476776,100.0,168387.0,1.0
559407.1367297,308855.15625,299540.3125,319833.90625,313856.40625,329786.875,299048.28125,297898.15625,299236.0625,-0.04443359375,0.812744140625,-0.610107421875,0.5187987685203552,1.0375975370407104,0.4577636420726776,100.0,168388.0,1.0
559407.1390495,308848.8125,300788.59375,321229.375,314686.125,336478.15625,301151.59375,300107.78125,300101.5,-0.045654296875,0.8134765625,-0.608154296875,0.3356933295726776,0.9460448622703552,0.4882812201976776,100.0,168389.0,1.0
559407.1417157,309133.03125,300674.59375,321187.96875,314402.6875,337327.90625,300831.34375,300139.78125,299908.375,-0.045166015625,0.811767578125,-0.609375,0.1220703050494194,0.7019042372703552,0.4577636420726776,100.0,168390.0,1.0
559407.1442037,309280.9375,299393.3125,319798.75,313414.75,331271.90625,298572.28125,297992.3125,298940.46875,-0.04345703125,0.8134765625,-0.609619140625,0.0610351525247097,0.4882812201976776,0.3967284858226776,100.0,168391.0,1.0
559407.1442195,309084.3125,298706.9375,318970.3125,313082.78125,326786.8125,297524.625,296662.125,298548.25,-0.045654296875,0.814453125,-0.612548828125,-0.0915527269244194,0.3356933295726776,0.3356933295726776,100.0,168392.0,1.0
559407.151756,308837.09375,299559.53125,319832.28125,313838.625,329873.125,299062.15625,297901.21875,299229.15625,-0.04638671875,0.81494140625,-0.6083984375,-0.2441406100988388,0.3051757514476776,0.3051757514476776,100.0,168393.0,1.0
559407.1517756,308831.28125,300792.90625,321218.71875,314650.15625,336540.3125,301150.4375,300093.5625,300077.8125,-0.04736328125,0.8125,-0.60888671875,-0.4577636420726776,0.1525878757238388,0.1525878757238388,100.0,168394.0,1.0
559407.1542417,309135.625,300717.53125,321208.25,314387.84375,337432.6875,300859.0625,300159.625,299910.28125,-0.0458984375,0.80712890625,-0.60986328125,-0.7019042372703552,-0.1220703050494194,0.0,100.0,168395.0,1.0
559407.1592583,309291.65625,299441.3125,319833.90625,313410.28125,331416.5625,298620.65625,298038.53125,298960.40625,-0.043212890625,0.80517578125,-0.60888671875,-0.9155272841453552,-0.1220703050494194,-0.1220703050494194,100.0,168396.0,1.0
559407.1592806,309098.0,298719.8125,318985.6875,313083.125,326888.375,297539.46875,296680.09375,298546.1875,-0.037353515625,0.8046875,-0.6103515625,-1.1291502714157104,-0.0610351525247097,-0.2136230319738388,100.0,168397.0,1.0
559407.164264,308839.96875,299570.4375,319836.84375,313820.65625,329950.84375,299065.5625,297913.375,299222.71875,-0.032958984375,0.8037109375,-0.609619140625,-1.5258787870407104,-0.1220703050494194,-0.2441406100988388,100.0,168398.0,1.0
559407.1691516,308861.78125,300849.65625,321259.03125,314666.34375,336669.84375,301193.25,300146.03125,300104.625,-0.030029296875,0.80322265625,-0.611572265625,-1.6784666776657104,-0.1831054538488388,-0.2746581733226776,100.0,168399.0,1.0
559407.1717205,309131.4375,300766.53125,321243.125,314390.1875,337604.6875,300903.5,300206.28125,299922.25,-0.029052734375,0.80322265625,-0.61474609375,-2.044677495956421,-0.2136230319738388,-0.3051757514476776,100.0,168400.0,1.0
559407.1742727,309274.3125,299481.90625,319848.375,313389.1875,331584.03125,298647.84375,298066.6875,298954.96875,-0.027587890625,0.80126953125,-0.615478515625,-2.044677495956421,-0.2441406100988388,-0.2441406100988388,100.0,168401.0,1.0
559407.1766683,309078.25,298753.96875,318992.125,313057.21875,327050.375,297569.3125,296711.28125,298545.65625,-0.026611328125,0.797119140625,-0.614990234375,-2.075195074081421,-0.1525878757238388,-0.2746581733226776,100.0,168402.0,1.0
559407.1791715,308854.71875,299604.84375,319858.5,313836.65625,330107.03125,299100.15625,297950.65625,299230.3125,-0.025634765625,0.794189453125,-0.61767578125,-1.9226073026657104,-0.1831054538488388,-0.2746581733226776,100.0,168403.0,1.0
559407.1817048,308864.28125,300838.75,321250.5625,314664.21875,336774.1875,301191.46875,300152.90625,300085.875,-0.026123046875,0.7919921875,-0.6162109375,-1.7700194120407104,0.0915527269244194,-0.2136230319738388,100.0,168404.0,1.0
559407.1842692,309150.46875,300735.0625,321220.59375,314385.4375,337656.28125,300881.125,300201.28125,299899.0,-0.0283203125,0.789794921875,-0.615234375,-1.6479490995407104,0.3051757514476776,-0.1220703050494194,100.0,168405.0,1.0
559407.1918905,309284.5,299429.875,319823.71875,313387.65625,331609.875,298621.03125,298054.4375,298931.15625,-0.031494140625,0.79052734375,-0.6162109375,-1.4343260526657104,0.5187987685203552,-0.0610351525247097,100.0,168406.0,1.0
559407.1919484,309069.21875,298698.28125,318963.15625,313041.65625,327054.84375,297534.90625,296691.15625,298518.46875,-0.032470703125,0.7880859375,-0.6181640625,-1.2512205839157104,0.7019042372703552,-0.03051757626235485,100.0,168407.0,1.0
559407.1919589,308833.625,299536.46875,319814.75,313812.78125,330070.375,299062.5,297922.65625,299208.6875,-0.03369140625,0.788818359375,-0.615478515625,-0.8850097060203552,0.9460448622703552,-0.0915527269244194,100.0,168408.0,1.0
559407.194207,308853.8125,300750.5,321197.34375,314659.65625,336692.84375,301144.0,300117.96875,300071.5625,-0.034423828125,0.788330078125,-0.61279296875,-0.5798339247703552,1.0681151151657104,-0.2746581733226776,100.0,168409.0,1.0
559407.1966488,309094.59375,300598.625,321126.71875,314354.875,337503.21875,300800.65625,300139.25,299868.5,-0.036865234375,0.790771484375,-0.611328125,-0.4272460639476776,1.2207030057907104,-0.3662109076976776,100.0,168410.0,1.0
559407.198368,309226.65625,299287.625,319721.59375,313366.46875,331420.15625,298536.96875,297998.75,298911.875,-0.037109375,0.794921875,-0.613037109375,-0.1525878757238388,1.3427733182907104,-0.4272460639476776,100.0,168411.0,1.0
559407.2055228,309056.15625,298565.6875,318870.53125,313051.3125,326813.0,297448.8125,296637.0625,298512.75,-0.039306640625,0.7939453125,-0.611083984375,-0.0610351525247097,1.4648436307907104,-0.5187987685203552,100.0,168412.0,1.0
559407.2105539,308824.15625,299361.9375,319690.75,313807.25,329720.34375,298928.75,297835.75,299183.125,-0.040771484375,0.796630859375,-0.612060546875,-0.1220703050494194,1.4343260526657104,-0.5493163466453552,100.0,168413.0,1.0
559407.2106,308803.03125,300581.71875,321063.25,314643.46875,336290.9375,301005.25,300023.09375,300040.8125,-0.039306640625,0.798583984375,-0.609375,-0.1525878757238388,1.4648436307907104,-0.6103515028953552,100.0,168414.0,1.0
559407.2130863,309085.40625,300488.65625,321051.0,314364.875,337184.84375,300721.53125,300089.34375,299866.8125,-0.0390625,0.801513671875,-0.607666015625,-0.2441406100988388,1.3732908964157104,-0.6408690810203552,100.0,168415.0,1.0
559407.2131222,309238.53125,299240.78125,319691.75,313376.03125,331190.90625,298493.96875,297967.0,298913.1875,-0.03955078125,0.8037109375,-0.611328125,-0.4272460639476776,1.3122557401657104,-0.6713866591453552,100.0,168416.0,1.0
559407.2154302,309050.0,298547.25,318853.5625,313032.0,326643.84375,297418.5,296605.6875,298503.09375,-0.037841796875,0.80224609375,-0.61083984375,-0.5493163466453552,1.2207030057907104,-0.7629393935203552,100.0,168417.0,1.0
559407.2180235,308809.3125,299402.78125,319701.5625,313783.8125,329626.03125,298932.15625,297819.5625,299179.53125,-0.037353515625,0.801025390625,-0.60693359375,-0.6713866591453552,1.1901854276657104,-0.7324218153953552,100.0,168418.0,1.0
559407.2230088,308831.46875,300657.34375,321102.75,314629.53125,336260.90625,301032.5,300018.09375,300044.8125,-0.037353515625,0.7998046875,-0.610595703125,-0.7934569716453552,1.0375975370407104,-0.7629393935203552,100.0,168419.0,1.0
559407.2254085,309086.03125,300566.5,321084.53125,314346.71875,337194.9375,300748.1875,300082.28125,299862.6875,-0.037353515625,0.802001953125,-0.613037109375,-0.7629393935203552,1.0070799589157104,-0.6713866591453552,100.0,168420.0,1.0
559407.2279006,309261.6875,299325.53125,319745.75,313381.40625,331254.03125,298537.34375,297983.5625,298921.78125,-0.037353515625,0.80126953125,-0.61328125,-0.7629393935203552,0.9460448622703552,-0.6408690810203552,100.0,168421.0,1.0
559407.2305508,309072.6875,298614.65625,318903.0,313046.84375,326712.4375,297453.375,296622.25,298508.28125,-0.0380859375,0.80078125,-0.61376953125,-0.6408690810203552,0.9155272841453552,-0.6713866591453552,100.0,168422.0,1.0
559407.233019,308835.5,299441.96875,319735.09375,313807.0625,329649.25,298945.9375,297819.40625,299175.15625,-0.036865234375,0.80322265625,-0.615234375,-0.6408690810203552,1.0070799589157104,-0.6408690810203552,100.0,168423.0,1.0
559407.2353582,308848.71875,300678.28125,321126.53125,314661.53125,336253.75,301037.78125,300020.25,300051.0,-0.037109375,0.802978515625,-0.615966796875,-0.5798339247703552,1.1291502714157104,-0.6408690810203552,100.0,168424.0,1.0
559407.2380186,309120.71875,300570.09375,321100.4375,314388.9375,337154.71875,300742.46875,300077.1875,299867.96875,-0.03857421875,0.801513671875,-0.617431640625,-0.6103515028953552,1.1901854276657104,-0.5798339247703552,100.0,168425.0,1.0
559407.2380602,309269.84375,299306.78125,319739.125,313403.125,331186.34375,298516.59375,297966.1875,298919.5625,-0.039794921875,0.7998046875,-0.61865234375,-0.4882812201976776,1.5563963651657104,-0.4577636420726776,100.0,168426.0,1.0
559407.2428166,309096.65625,298592.125,318892.53125,313062.46875,326608.09375,297425.375,296600.59375,298508.8125,-0.03857421875,0.800537109375,-0.61669921875,-0.3967284858226776,1.5869139432907104,-0.4272460639476776,100.0,168427.0,1.0
559407.242853,308817.4375,299384.71875,319693.53125,313780.875,329502.71875,298895.84375,297783.1875,299161.9375,-0.038330078125,0.801025390625,-0.615966796875,-0.4882812201976776,1.7089842557907104,-0.4882812201976776,100.0,168428.0,1.0
559407.2680934,308786.40625,300590.375,321059.21875,314607.96875,336084.59375,300976.71875,299976.875,300026.0625,-0.0390625,0.8017578125,-0.61328125,-0.6408690810203552,1.8615721464157104,-0.4882812201976776,100.0,168429.0,1.0
559407.2703987,309086.90625,300506.96875,321058.0625,314354.78125,337019.53125,300698.5625,300060.75,299862.6875,-0.03759765625,0.801513671875,-0.614990234375,-0.6408690810203552,1.9836424589157104,-0.3967284858226776,100.0,168430.0,1.0
559407.2728944,309272.6875,299267.78125,319721.15625,313400.15625,331074.84375,298484.5,297963.78125,298924.46875,-0.03857421875,0.8037109375,-0.614990234375,-0.7019042372703552,2.166747808456421,-0.3662109076976776,100.0,168431.0,1.0
559407.2778948,309049.375,298536.8125,318853.5625,313036.46875,326499.625,297383.09375,296590.3125,298501.65625,-0.038818359375,0.803466796875,-0.6171875,-0.8239745497703552,2.258300542831421,-0.3967284858226776,100.0,168432.0,1.0
559407.2805551,308786.15625,299330.1875,319654.1875,313769.4375,329378.53125,298848.5625,297773.875,299160.59375,-0.03759765625,0.804443359375,-0.616943359375,-0.8850097060203552,2.258300542831421,-0.3051757514476776,100.0,168433.0,1.0
559407.2829545,308797.3125,300534.5,321024.53125,314615.65625,335923.40625,300919.3125,299961.78125,300024.875,-0.038818359375,0.802978515625,-0.61328125,-0.9155272841453552,2.288818120956421,-0.1831054538488388,100.0,168434.0,1.0
559407.2855327,309076.90625,300439.46875,321009.34375,314355.5625,336823.1875,300633.75,300040.71875,299852.6875,-0.037841796875,0.802734375,-0.614013671875,-0.9765624403953552,2.319335699081421,-0.2746581733226776,100.0,168435.0,1.0
559407.2880203,309253.75,299194.75,319673.59375,313395.875,330867.78125,298422.90625,297946.4375,298907.75,-0.040283203125,0.8017578125,-0.61572265625,-1.0681151151657104,2.319335699081421,-0.1525878757238388,100.0,168436.0,1.0
559407.290421,309056.875,298475.90625,318822.71875,313034.59375,326276.9375,297327.84375,296575.375,298485.3125,-0.041015625,0.801513671875,-0.615234375,-1.0986326932907104,2.380370855331421,-0.1525878757238388,100.0,168437.0,1.0
559407.2930184,308804.21875,299282.0,319635.25,313775.40625,329141.625,298802.34375,297764.40625,299151.03125,-0.0390625,0.802490234375,-0.616455078125,-1.1596678495407104,2.288818120956421,-0.0915527269244194,100.0,168438.0,1.0
559407.2955059,308830.84375,300497.65625,321015.21875,314636.21875,335682.1875,300884.28125,299958.09375,300021.75,-0.03759765625,0.8017578125,-0.614013671875,-1.1901854276657104,2.288818120956421,-0.0915527269244194,100.0,168439.0,1.0
559407.2955449,309106.21875,300397.71875,321002.90625,314370.9375,336600.9375,300604.0625,300035.625,299846.78125,-0.037841796875,0.801513671875,-0.614501953125,-1.0986326932907104,2.288818120956421,-0.0915527269244194,100.0,168440.0,1.0
559407.2978579,309249.625,299162.125,319661.15625,313398.28125,330665.65625,298396.0625,297939.28125,298901.5,-0.0380859375,0.799072265625,-0.61376953125,-1.0070799589157104,2.288818120956421,-0.0610351525247097,100.0,168441.0,1.0
559407.3005373,309051.0625,298455.34375,318809.5625,313024.46875,326091.3125,297303.875,296568.25,298481.46875,-0.0380859375,0.798583984375,-0.613525390625,-1.0070799589157104,2.319335699081421,0.0,100.0,168442.0,1.0
559407.3029483,308830.75,299280.84375,319642.75,313787.21875,328977.90625,298794.1875,297764.0625,299154.96875,-0.040771484375,0.798583984375,-0.6123046875,-0.9460448622703552,2.502441167831421,-0.03051757626235485,100.0,168443.0,1.0
559407.302988,308833.71875,300509.75,321022.375,314635.34375,335540.28125,300879.71875,299956.125,300020.78125,-0.03955078125,0.797119140625,-0.61376953125,-0.8544921278953552,2.410888433456421,-0.0610351525247097,100.0,168444.0,1.0
559407.3044628,309092.0,300440.4375,321019.875,314351.46875,336524.5625,300618.71875,300049.21875,299852.0625,-0.038818359375,0.795654296875,-0.615478515625,-0.7629393935203552,2.441406011581421,0.03051757626235485,100.0,168445.0,1.0
559407.3117582,309261.34375,299242.03125,319709.96875,313385.78125,330668.0625,298431.84375,297969.34375,298913.5625,-0.0419921875,0.79443359375,-0.614013671875,-0.6713866591453552,2.593993902206421,0.03051757626235485,100.0,168446.0,1.0
559407.3142992,309080.5625,298549.75,318882.25,313053.71875,326146.9375,297355.8125,296611.59375,298503.8125,-0.043212890625,0.79443359375,-0.615966796875,-0.6713866591453552,2.655029058456421,-0.03051757626235485,100.0,168447.0,1.0
559407.3192961,308805.5625,299329.03125,319661.6875,313762.375,328988.375,298803.5,297768.78125,299146.90625,-0.04052734375,0.795654296875,-0.61669921875,-0.6103515028953552,2.685546636581421,0.0,100.0,168448.0,1.0
559407.3193366,308795.96875,300513.40625,321009.15625,314590.34375,335512.65625,300862.53125,299939.3125,299999.59375,-0.039306640625,0.79638671875,-0.615478515625,-0.6103515028953552,2.685546636581421,0.1220703050494194,100.0,168449.0,1.0
559407.3218045,309088.0625,300443.5,321020.96875,314366.65625,336490.40625,300619.71875,300051.71875,299855.90625,-0.03857421875,0.794921875,-0.614990234375,-0.5187987685203552,2.716064214706421,-0.0915527269244194,100.0,168450.0,1.0
559407.3253895,309277.875,299202.6875,319690.59375,313429.125,330567.46875,298413.9375,297963.6875,298919.5625,-0.0390625,0.796142578125,-0.615966796875,-0.4577636420726776,2.685546636581421,-0.0610351525247097,100.0,168451.0,1.0
559407.3368035,309047.21875,298418.6875,318789.34375,313048.28125,325897.03125,297272.21875,296569.125,298482.09375,-0.040283203125,0.79345703125,-0.618408203125,-0.3967284858226776,2.746581792831421,-0.0915527269244194,100.0,168452.0,1.0
559407.3368454,308759.5,299133.3125,319527.6875,313755.375,328596.3125,298682.625,297709.0625,299123.65625,-0.038330078125,0.796142578125,-0.61474609375,-0.4272460639476776,2.716064214706421,0.0,100.0,168453.0,1.0
559407.3392681,308750.375,300293.5625,320853.84375,314593.125,335000.0,300719.3125,299872.625,299984.21875,-0.038818359375,0.793212890625,-0.61572265625,-0.3967284858226776,2.777099370956421,0.03051757626235485,100.0,168454.0,1.0
559407.3393035,309027.46875,300185.09375,320836.96875,314339.21875,335878.6875,300437.15625,299958.0,299818.4375,-0.04052734375,0.79296875,-0.6142578125,-0.2136230319738388,2.838134527206421,0.1831054538488388,100.0,168455.0,1.0
559407.3618084,309216.90625,298984.46875,319535.90625,313386.3125,329975.40625,298252.40625,297887.875,298889.875,-0.038330078125,0.7939453125,-0.615966796875,-0.0915527269244194,2.838134527206421,0.2136230319738388,100.0,168456.0,1.0
559407.364195,309016.8125,298269.125,318679.03125,313024.84375,325338.96875,297141.78125,296504.9375,298465.90625,-0.040283203125,0.793212890625,-0.613525390625,0.03051757626235485,2.899169683456421,0.1525878757238388,100.0,168457.0,1.0
559407.364236,308740.46875,299003.78125,319431.5625,313742.78125,328033.59375,298558.875,297643.96875,299109.625,-0.04052734375,0.7919921875,-0.614501953125,0.1220703050494194,3.021239995956421,0.2136230319738388,100.0,168458.0,1.0
559407.3668105,308702.0,300138.15625,320734.5,314554.9375,334408.5,300584.40625,299799.75,299958.90625,-0.038818359375,0.791748046875,-0.613525390625,0.3356933295726776,3.051757574081421,0.3662109076976776,100.0,168459.0,1.0
559407.3717525,308993.65625,300042.5,320723.5,314312.46875,335278.78125,300306.4375,299890.78125,299798.5,-0.039794921875,0.79296875,-0.613037109375,0.3662109076976776,3.173827886581421,0.4272460639476776,100.0,168460.0,1.0
559407.3742598,309171.125,298835.25,319419.6875,313359.59375,329363.625,298119.0,297821.4375,298871.53125,-0.037841796875,0.7939453125,-0.6142578125,0.4577636420726776,3.295898199081421,0.4882812201976776,100.0,168461.0,1.0
559407.3765891,308977.84375,298130.96875,318576.46875,312993.625,324737.15625,297018.3125,296442.34375,298449.625,-0.038330078125,0.79638671875,-0.613525390625,0.5798339247703552,3.417968511581421,0.7019042372703552,100.0,168462.0,1.0
559407.3791423,308720.875,298933.0625,319372.1875,313713.09375,327492.21875,298468.03125,297594.1875,299098.8125,-0.041015625,0.797119140625,-0.614501953125,0.5493163466453552,3.417968511581421,0.6408690810203552,100.0,168463.0,1.0
559407.38163,308719.8125,300164.375,320750.21875,314552.625,333996.6875,300549.875,299768.46875,299958.28125,-0.04296875,0.796875,-0.61328125,0.4882812201976776,3.479003667831421,0.7019042372703552,100.0,168464.0,1.0
559407.3854253,309039.0,300188.5,320831.84375,314331.25,335082.78125,300358.1875,299903.03125,299819.53125,-0.0439453125,0.7958984375,-0.614501953125,0.3662109076976776,3.448486089706421,0.7934569716453552,100.0,168465.0,1.0
559407.3854609,309247.125,299091.9375,319606.53125,313393.90625,329391.5,298248.8125,297880.46875,298907.65625,-0.041748046875,0.79736328125,-0.613525390625,0.2746581733226776,3.448486089706421,0.8239745497703552,100.0,168466.0,1.0
559407.417995,309062.0625,298442.125,318798.375,313025.125,324927.40625,297188.4375,296531.5,298490.5,-0.043701171875,0.7978515625,-0.6162109375,0.2441406100988388,3.356933355331421,0.7934569716453552,100.0,168467.0,1.0
559407.4180106,308804.5625,299238.09375,319585.96875,313745.09375,327745.25,298640.15625,297683.59375,299137.15625,-0.04345703125,0.796142578125,-0.61572265625,0.1831054538488388,3.295898199081421,0.8239745497703552,100.0,168468.0,1.0
559407.4203402,308784.09375,300434.375,320933.25,314578.65625,334257.03125,300706.78125,299844.5625,299988.21875,-0.0419921875,0.796875,-0.614013671875,0.03051757626235485,3.265380620956421,0.8850097060203552,100.0,168469.0,1.0
559407.4228654,309060.96875,300408.53125,320977.875,314335.0,335365.40625,300499.1875,299973.3125,299838.65625,-0.04052734375,0.796142578125,-0.614990234375,0.0,3.204345464706421,0.9155272841453552,100.0,168470.0,1.0
559407.4253822,309267.59375,299294.6875,319742.25,313391.59375,329717.125,298386.6875,297954.65625,298925.4375,-0.040771484375,0.797119140625,-0.61376953125,0.0,3.082275152206421,1.0070799589157104,100.0,168471.0,1.0
559407.4279361,309088.96875,298628.96875,318927.59375,313043.09375,325267.34375,297320.6875,296601.21875,298509.25,-0.041748046875,0.796630859375,-0.61376953125,0.1220703050494194,3.051757574081421,0.8850097060203552,100.0,168472.0,1.0
559407.4305061,308821.625,299385.8125,319689.9375,313754.40625,328056.65625,298749.0625,297735.1875,299149.40625,-0.040771484375,0.79736328125,-0.614501953125,0.1831054538488388,2.990722417831421,0.9460448622703552,100.0,168473.0,1.0
559407.432933,308791.59375,300560.25,321020.6875,314576.6875,334554.03125,300804.25,299895.0625,300003.25,-0.039306640625,0.79833984375,-0.61474609375,0.2136230319738388,2.990722417831421,1.0375975370407104,100.0,168474.0,1.0
559407.4353093,309083.25,300534.6875,321067.0,314344.65625,335670.28125,300599.5,300027.84375,299859.75,-0.039794921875,0.796630859375,-0.61328125,0.2746581733226776,2.929687261581421,1.0681151151657104,100.0,168475.0,1.0
559407.4379285,309287.1875,299405.375,319823.78125,313406.875,330023.0,298478.78125,298001.96875,298940.125,-0.038330078125,0.798583984375,-0.616455078125,0.3356933295726776,2.899169683456421,1.0681151151657104,100.0,168476.0,1.0
559407.4401524,309095.5,298713.03125,318989.90625,313044.0625,325552.46875,297394.71875,296639.125,298514.96875,-0.0400390625,0.7998046875,-0.613525390625,0.4272460639476776,2.960204839706421,1.1901854276657104,100.0,168477.0,1.0
559407.4401735,308818.5,299450.4375,319736.625,313751.1875,328307.28125,298813.25,297767.4375,299155.125,-0.037841796875,0.7978515625,-0.6123046875,0.3662109076976776,2.990722417831421,1.2512205839157104,100.0,168478.0,1.0
559407.4633687,308793.9375,300610.6875,321058.0625,314579.625,334774.15625,300859.6875,299915.0,300005.5,-0.03857421875,0.800537109375,-0.610595703125,0.3356933295726776,2.960204839706421,1.4953612089157104,100.0,168479.0,1.0
559407.4891573,309081.90625,300586.90625,321105.34375,314346.71875,335900.15625,300654.9375,300048.125,299860.375,-0.03955078125,0.800048828125,-0.6123046875,0.2746581733226776,2.929687261581421,1.6479490995407104,100.0,168480.0,1.0
559407.4891981,309299.25,299481.03125,319882.625,313416.53125,330298.09375,298551.5625,298041.65625,298952.90625,-0.0400390625,0.799560546875,-0.613525390625,0.3051757514476776,2.990722417831421,1.7700194120407104,100.0,168481.0,1.0
559407.491703,309117.9375,298804.3125,319058.46875,313057.84375,325852.0625,297475.4375,296685.8125,298532.15625,-0.039306640625,0.798583984375,-0.609619140625,0.3967284858226776,2.929687261581421,1.7700194120407104,100.0,168482.0,1.0
559407.494294,308834.25,299519.1875,319782.21875,313752.625,328576.75,298871.28125,297792.21875,299154.78125,-0.039794921875,0.79931640625,-0.613037109375,0.2441406100988388,3.082275152206421,1.9226073026657104,100.0,168483.0,1.0
559407.4992474,308804.46875,300663.25,321092.9375,314580.15625,335029.40625,300910.65625,299938.53125,300006.1875,-0.0419921875,0.80078125,-0.615234375,0.1831054538488388,3.051757574081421,2.197265386581421,100.0,168484.0,1.0
559407.5017599,309100.9375,300644.46875,321151.65625,314358.4375,336177.75,300720.375,300091.5,299877.53125,-0.0400390625,0.80224609375,-0.61376953125,0.1831054538488388,2.990722417831421,2.288818120956421,100.0,168485.0,1.0
559407.5042763,309320.09375,299536.53125,319932.15625,313440.125,330591.4375,298621.8125,298092.96875,298973.0,-0.037841796875,0.802001953125,-0.614013671875,0.1220703050494194,2.868652105331421,2.410888433456421,100.0,168486.0,1.0
559407.5066716,309137.15625,298851.40625,319102.375,313075.0,326134.21875,297537.75,296730.25,298549.75,-0.039306640625,0.802001953125,-0.61279296875,-0.1220703050494194,2.716064214706421,2.593993902206421,100.0,168487.0,1.0
559407.5090648,308844.875,299554.59375,319814.3125,313761.375,328836.03125,298923.40625,297831.46875,299171.5,-0.04052734375,0.80078125,-0.614013671875,-0.1831054538488388,2.563476324081421,2.716064214706421,100.0,168488.0,1.0
559407.5142198,308805.28125,300681.75,321109.90625,314588.75,335262.5,300952.9375,299974.28125,300019.34375,-0.040283203125,0.800537109375,-0.616943359375,-0.1525878757238388,2.410888433456421,2.777099370956421,100.0,168489.0,1.0
559407.5230116,309103.53125,300655.46875,321163.375,314365.6875,336402.1875,300757.125,300122.96875,299884.0625,-0.03955078125,0.801513671875,-0.6162109375,-0.2136230319738388,2.288818120956421,2.807616949081421,100.0,168490.0,1.0
559407.5255252,309314.8125,299549.15625,319942.25,313430.03125,330817.71875,298653.84375,298118.8125,298972.65625,-0.03662109375,0.80224609375,-0.615234375,-0.2746581733226776,2.136230230331421,2.838134527206421,100.0,168491.0,1.0
559407.5303712,309132.96875,298861.96875,319111.03125,313062.21875,326355.4375,297566.28125,296752.5,298545.5625,-0.036865234375,0.8017578125,-0.61328125,-0.3051757514476776,2.014159917831421,2.960204839706421,100.0,168492.0,1.0
559407.5328377,308842.03125,299556.5625,319814.75,313750.28125,329028.59375,298941.09375,297842.28125,299164.78125,-0.03515625,0.799560546875,-0.612060546875,-0.4882812201976776,1.8615721464157104,3.021239995956421,100.0,168493.0,1.0
559407.5353455,308810.03125,300677.5625,321108.21875,314580.0625,335438.46875,300967.25,299980.8125,300013.96875,-0.037109375,0.800537109375,-0.6142578125,-0.4272460639476776,1.8920897245407104,3.204345464706421,100.0,168494.0,1.0
559407.5380209,309107.125,300659.125,321170.0,314357.625,336586.09375,300778.21875,300137.1875,299880.6875,-0.035888671875,0.800537109375,-0.614501953125,-0.5493163466453552,1.9531248807907104,3.173827886581421,100.0,168495.0,1.0
559407.5380513,309338.15625,299575.09375,319971.125,313437.71875,331026.9375,298691.65625,298144.9375,298983.03125,-0.033447265625,0.80029296875,-0.613525390625,-0.4577636420726776,2.075195074081421,3.265380620956421,100.0,168496.0,1.0
559407.5428958,309158.25,298898.53125,319147.15625,313078.03125,326573.5,297610.71875,296785.5,298564.0625,-0.036376953125,0.79931640625,-0.613525390625,-0.6408690810203552,2.075195074081421,3.234863042831421,100.0,168497.0,1.0
559407.5429267,308864.75,299582.9375,319843.28125,313762.8125,329225.46875,298977.3125,297871.875,299177.03125,-0.03515625,0.7978515625,-0.615966796875,-0.5493163466453552,2.197265386581421,3.112792730331421,100.0,168498.0,1.0
559407.5454831,308809.84375,300685.4375,321120.28125,314574.875,335617.4375,300991.09375,299997.34375,300014.53125,-0.03662109375,0.798095703125,-0.613037109375,-0.5493163466453552,2.288818120956421,3.082275152206421,100.0,168499.0,1.0
559407.5505062,309112.75,300677.65625,321191.28125,314365.21875,336793.25,300818.8125,300166.40625,299894.09375,-0.0361328125,0.798828125,-0.613525390625,-0.5187987685203552,2.349853277206421,3.143310308456421,100.0,168500.0,1.0
559407.5531775,309344.5,299604.59375,319999.03125,313448.1875,331263.6875,298742.34375,298185.34375,298998.75,-0.034423828125,0.797607421875,-0.61279296875,-0.5798339247703552,2.410888433456421,3.051757574081421,100.0,168501.0,1.0
559407.5532154,309166.9375,298926.25,319172.03125,313083.03125,326804.78125,297653.1875,296816.0625,298574.0,-0.032958984375,0.798828125,-0.610595703125,-0.6103515028953552,2.502441167831421,2.899169683456421,100.0,168502.0,1.0
559407.5581074,308869.75,299598.9375,319859.75,313762.8125,329438.09375,299010.75,297892.1875,299186.96875,-0.03125,0.80029296875,-0.611328125,-0.6408690810203552,2.532958745956421,2.929687261581421,100.0,168503.0,1.0
559407.5581447,308820.125,300702.875,321137.28125,314585.09375,335819.6875,301026.875,300021.84375,300029.71875,-0.02978515625,0.7998046875,-0.612060546875,-0.5798339247703552,2.685546636581421,2.838134527206421,100.0,168504.0,1.0
559407.5603872,309116.59375,300689.375,321202.90625,314371.9375,336990.75,300845.03125,300185.1875,299899.90625,-0.029052734375,0.80029296875,-0.61279296875,-0.8239745497703552,2.746581792831421,2.807616949081421,100.0,168505.0,1.0
559407.5631346,309359.25,299633.46875,320024.78125,313461.40625,331486.03125,298778.71875,298220.21875,299009.5,-0.029052734375,0.801513671875,-0.60986328125,-1.0375975370407104,2.746581792831421,2.807616949081421,100.0,168506.0,1.0
559407.5655721,309178.90625,298952.8125,319192.59375,313088.21875,327020.4375,297683.75,296845.75,298576.6875,-0.02880859375,0.802734375,-0.609130859375,-1.0986326932907104,2.746581792831421,2.716064214706421,100.0,168507.0,1.0
559407.5656109,308871.8125,299610.65625,319865.8125,313761.46875,329623.25,299026.84375,297905.6875,299180.4375,-0.028076171875,0.80126953125,-0.61083984375,-1.1596678495407104,2.777099370956421,2.716064214706421,100.0,168508.0,1.0
559407.5679488,308820.3125,300708.03125,321140.03125,314586.15625,335998.3125,301038.125,300037.84375,300026.125,-0.025146484375,0.801513671875,-0.611328125,-1.1596678495407104,2.899169683456421,2.685546636581421,100.0,168509.0,1.0
559407.5705089,309121.5,300702.15625,321210.0625,314374.15625,337186.71875,300864.0625,300208.25,299898.1875,-0.025390625,0.800048828125,-0.61181640625,-1.1291502714157104,2.929687261581421,2.655029058456421,100.0,168510.0,1.0
559407.5779254,309359.59375,299646.875,320032.03125,313463.90625,331690.34375,298798.5,298234.59375,299006.71875,-0.02783203125,0.798828125,-0.611083984375,-1.2512205839157104,2.960204839706421,2.441406011581421,100.0,168511.0,1.0
559407.5779644,309185.34375,298960.9375,319202.78125,313090.5625,327222.5,297703.25,296856.9375,298574.96875,-0.027099609375,0.79833984375,-0.610595703125,-1.1901854276657104,3.051757574081421,2.410888433456421,100.0,168512.0,1.0
559407.5805987,308881.90625,299614.875,319871.90625,313757.4375,329807.6875,299040.78125,297915.78125,299176.9375,-0.0283203125,0.80029296875,-0.614990234375,-1.1901854276657104,3.112792730331421,2.319335699081421,100.0,168513.0,1.0
559407.5829944,308834.4375,300722.53125,321147.46875,314587.75,336182.84375,301062.46875,300055.28125,300031.78125,-0.02734375,0.801025390625,-0.615966796875,-1.3122557401657104,3.265380620956421,2.258300542831421,100.0,168514.0,1.0
559407.5929932,309138.40625,300719.59375,321225.34375,314383.8125,337393.34375,300900.09375,300234.09375,299915.375,-0.026611328125,0.802490234375,-0.615478515625,-1.2512205839157104,3.326415777206421,2.105712652206421,100.0,168515.0,1.0
559407.6004429,309391.34375,299686.3125,320068.875,313478.75,331930.9375,298851.0625,298276.09375,299033.53125,-0.02880859375,0.80322265625,-0.611083984375,-1.3427733182907104,3.448486089706421,2.075195074081421,100.0,168516.0,1.0
559407.6004835,309212.34375,299014.84375,319248.375,313110.3125,327477.3125,297762.0,296908.59375,298608.40625,-0.029541015625,0.802001953125,-0.611328125,-1.4038084745407104,3.631591558456421,2.075195074081421,100.0,168517.0,1.0
559407.6030577,308897.625,299658.3125,319905.15625,313777.65625,330046.40625,299093.90625,297964.9375,299208.875,-0.02685546875,0.803955078125,-0.6103515625,-1.4343260526657104,3.784179449081421,1.9226073026657104,100.0,168518.0,1.0
559407.6054918,308829.40625,300731.375,321153.09375,314589.8125,336385.1875,301090.53125,300079.59375,300040.34375,-0.026123046875,0.802490234375,-0.612060546875,-1.4953612089157104,4.089354991912842,1.8310545682907104,100.0,168519.0,1.0
559407.6080215,309136.34375,300733.25,321234.71875,314390.625,337605.5,300925.84375,300260.28125,299920.46875,-0.025634765625,0.804443359375,-0.60888671875,-1.6784666776657104,4.150390148162842,1.7395018339157104,100.0,168520.0,1.0
559407.6129831,309390.53125,299703.125,320080.65625,313488.0625,332156.6875,298876.53125,298303.34375,299040.6875,-0.02685546875,0.803955078125,-0.608642578125,-1.7700194120407104,4.211425304412842,1.8005369901657104,100.0,168521.0,1.0
559407.6155281,309196.96875,299005.65625,319235.3125,313097.71875,327677.21875,297764.0625,296912.1875,298595.8125,-0.027587890625,0.806640625,-0.608642578125,-1.8615721464157104,4.302978038787842,1.8920897245407104,100.0,168522.0,1.0
559407.6176785,308878.78125,299635.34375,319882.90625,313759.9375,330221.8125,299082.53125,297954.5,299187.9375,-0.028564453125,0.806884765625,-0.608154296875,-2.014159917831421,4.394530773162842,1.8615721464157104,100.0,168523.0,1.0
559407.617717,308813.875,300712.0625,321137.0,314579.1875,336564.4375,301085.6875,300074.96875,300028.8125,-0.02880859375,0.807373046875,-0.608642578125,-2.075195074081421,4.486083507537842,1.6479490995407104,100.0,168524.0,1.0
559407.6241953,309115.25,300720.65625,321219.4375,314375.59375,337804.78125,300932.0,300261.5625,299911.6875,-0.02880859375,0.806640625,-0.6103515625,-2.319335699081421,4.425048351287842,1.6479490995407104,100.0,168525.0,1.0
559407.6367699,309370.6875,299696.5,320069.3125,313469.46875,332372.34375,298885.5625,298304.4375,299024.25,-0.02978515625,0.80517578125,-0.609130859375,-2.380370855331421,4.394530773162842,1.5869139432907104,100.0,168526.0,1.0
559407.636813,309200.46875,299023.96875,319246.9375,313099.0625,327912.71875,297788.625,296926.75,298593.21875,-0.0302734375,0.80322265625,-0.604736328125,-2.441406011581421,4.364013195037842,1.3732908964157104,100.0,168527.0,1.0
559407.6417675,308885.5625,299660.8125,319896.9375,313765.5,330454.65625,299109.53125,297971.03125,299190.53125,-0.029541015625,0.8017578125,-0.60693359375,-2.563476324081421,4.425048351287842,1.3732908964157104,100.0,168528.0,1.0
559407.6418018,308814.125,300737.09375,321143.4375,314577.84375,336791.375,301109.03125,300087.375,300025.6875,-0.0283203125,0.800048828125,-0.606689453125,-2.593993902206421,4.364013195037842,1.1901854276657104,100.0,168529.0,1.0
559407.6418114,309121.59375,300755.0625,321240.71875,314384.71875,338061.9375,300970.53125,300288.0,299917.875,-0.0283203125,0.799072265625,-0.60595703125,-2.716064214706421,4.425048351287842,1.1291502714157104,100.0,168530.0,1.0
559407.6618388,309381.3125,299733.25,320099.71875,313482.6875,332643.15625,298925.8125,298333.03125,299036.6875,-0.02978515625,0.798583984375,-0.60888671875,-2.777099370956421,4.394530773162842,1.0375975370407104,100.0,168531.0,1.0
559407.6618751,309204.03125,299048.90625,319266.6875,313099.9375,328156.78125,297810.46875,296939.1875,298593.75,-0.030029296875,0.79638671875,-0.60693359375,-2.777099370956421,4.455565929412842,0.8850097060203552,100.0,168532.0,1.0
559407.6642994,308881.09375,299668.5,319901.59375,313754.5,330665.375,299119.09375,297970.125,299181.25,-0.025634765625,0.795654296875,-0.608154296875,-2.777099370956421,4.516601085662842,0.8850097060203552,100.0,168533.0,1.0
559407.6643343,308815.125,300743.90625,321149.78125,314576.6875,337003.78125,301128.09375,300094.34375,300026.125,-0.02392578125,0.796142578125,-0.609619140625,-2.685546636581421,4.608153820037842,0.7934569716453552,100.0,168534.0,1.0
559407.6694692,309121.40625,300756.0625,321244.46875,314382.75,338275.6875,300987.96875,300297.75,299918.9375,-0.0263671875,0.796142578125,-0.60986328125,-2.563476324081421,4.669188976287842,0.7324218153953552,100.0,168535.0,1.0
559407.6695068,309375.53125,299719.75,320094.875,313474.03125,332848.96875,298934.9375,298338.9375,299035.40625,-0.026123046875,0.79541015625,-0.610107421875,-2.471923589706421,4.669188976287842,0.6408690810203552,100.0,168536.0,1.0
559407.6695167,309199.46875,299027.5625,319258.28125,313093.0625,328347.0625,297815.1875,296942.84375,298595.53125,-0.026611328125,0.795654296875,-0.608154296875,-2.349853277206421,4.882812023162842,0.5187987685203552,100.0,168537.0,1.0
559407.6729662,308884.21875,299653.84375,319893.1875,313757.1875,330839.09375,299125.1875,297974.53125,299189.65625,-0.029541015625,0.797119140625,-0.611328125,-2.319335699081421,5.004882335662842,0.4272460639476776,100.0,168538.0,1.0
559407.6867354,308809.9375,300720.46875,321134.3125,314576.59375,337162.75,301129.15625,300090.875,300027.75,-0.02880859375,0.797119140625,-0.61083984375,-2.197265386581421,5.065917491912842,0.3662109076976776,100.0,168539.0,1.0
559407.6867718,309109.09375,300731.84375,321229.375,314380.53125,338448.875,300988.96875,300292.75,299917.25,-0.029052734375,0.796875,-0.60791015625,-2.044677495956421,5.096435070037842,0.2441406100988388,100.0,168540.0,1.0
559407.6892929,309366.21875,299695.34375,320078.96875,313474.65625,333021.25,298930.625,298331.25,299027.28125,-0.029296875,0.79833984375,-0.603271484375,-1.9836424589157104,5.157470226287842,-0.03051757626235485,100.0,168541.0,1.0
559407.6893296,309190.25,299000.71875,319235.75,313088.3125,328495.75,297800.1875,296924.6875,298579.625,-0.02978515625,0.79833984375,-0.6064453125,-1.9226073026657104,5.126952648162842,-0.1525878757238388,100.0,168542.0,1.0
559407.6917346,308869.28125,299626.125,319866.96875,313741.09375,330973.46875,299105.25,297946.96875,299167.46875,-0.03076171875,0.79833984375,-0.607666015625,-1.8920897245407104,5.096435070037842,-0.2136230319738388,100.0,168543.0,1.0
559407.7117131,308791.5,300701.53125,321108.84375,314555.21875,337308.03125,301110.03125,300063.15625,300005.40625,-0.032958984375,0.798828125,-0.6083984375,-1.8920897245407104,5.218505382537842,-0.3356933295726776,100.0,168544.0,1.0
559407.716792,309095.3125,300718.5,321212.375,314368.8125,338614.625,300980.1875,300276.84375,299903.21875,-0.036376953125,0.79736328125,-0.60791015625,-1.8005369901657104,5.157470226287842,-0.4882812201976776,100.0,168545.0,1.0
559407.7168317,309369.09375,299694.53125,320082.09375,313480.1875,333206.3125,298941.53125,298338.65625,299034.09375,-0.037353515625,0.797119140625,-0.605224609375,-1.7700194120407104,5.065917491912842,-0.6103515028953552,100.0,168546.0,1.0
559407.7192891,309194.90625,298998.0625,319237.03125,313092.34375,328660.34375,297805.34375,296928.09375,298585.25,-0.0419921875,0.794921875,-0.606201171875,-1.6479490995407104,4.821776866912842,-0.7019042372703552,100.0,168547.0,1.0
559407.7216333,308870.625,299617.90625,319864.46875,313741.34375,331114.8125,299101.40625,297940.53125,299169.0,-0.039794921875,0.79248046875,-0.606689453125,-1.6479490995407104,4.608153820037842,-0.7934569716453552,100.0,168548.0,1.0
559407.7233721,308799.46875,300701.6875,321116.09375,314566.9375,337452.78125,301115.21875,300059.5,300012.5625,-0.040283203125,0.794677734375,-0.6064453125,-1.5563963651657104,4.425048351287842,-0.8239745497703552,100.0,168549.0,1.0
559407.7304253,309094.5,300717.0625,321215.15625,314375.0625,338766.71875,300986.1875,300269.9375,299909.09375,-0.03759765625,0.7958984375,-0.609375,-1.5258787870407104,4.180907726287842,-0.8544921278953552,100.0,168550.0,1.0
559407.7304643,309347.0,299671.71875,320062.34375,313470.53125,333333.5625,298927.25,298314.875,299022.71875,-0.0380859375,0.79736328125,-0.607177734375,-1.4343260526657104,3.997802495956421,-0.8544921278953552,100.0,168551.0,1.0
559407.7330374,309180.78125,298972.125,319221.28125,313092.34375,328771.28125,297794.4375,296908.15625,298583.03125,-0.036865234375,0.79833984375,-0.60986328125,-1.4343260526657104,3.845214605331421,-0.9155272841453552,100.0,168552.0,1.0
559407.7353886,308852.21875,299586.0625,319838.8125,313734.375,331197.53125,299082.625,297905.0625,299163.1875,-0.036865234375,0.79833984375,-0.609130859375,-1.3732908964157104,3.570556402206421,-0.8544921278953552,100.0,168553.0,1.0
559407.7380175,308780.0625,300681.75,321093.5625,314553.53125,337544.71875,301103.125,300029.8125,300007.28125,-0.0361328125,0.801513671875,-0.609619140625,-1.2817381620407104,3.479003667831421,-0.7934569716453552,100.0,168554.0,1.0
559407.7616867,309079.84375,300701.875,321195.5625,314363.96875,338868.03125,300974.75,300244.65625,299898.1875,-0.035400390625,0.80322265625,-0.611328125,-1.1596678495407104,3.356933355331421,-0.8544921278953552,100.0,168555.0,1.0
559407.761727,309343.59375,299659.75,320048.28125,313467.21875,333439.21875,298918.65625,298284.125,299014.40625,-0.037109375,0.807861328125,-0.611083984375,-1.1291502714157104,3.234863042831421,-0.7019042372703552,100.0,168556.0,1.0
559407.7667914,309173.09375,298949.78125,319195.71875,313079.03125,328852.375,297772.28125,296851.65625,298561.28125,-0.040771484375,0.8076171875,-0.6083984375,-1.3122557401657104,3.051757574081421,-0.6103515028953552,100.0,168557.0,1.0
559407.7668275,308851.5,299577.40625,319821.90625,313728.46875,331273.34375,299071.625,297861.40625,299145.03125,-0.044677734375,0.80712890625,-0.60693359375,-1.4038084745407104,3.021239995956421,-0.5187987685203552,100.0,168558.0,1.0
559407.769361,308777.90625,300671.84375,321081.3125,314555.03125,337622.59375,301095.71875,299984.9375,299992.25,-0.047119140625,0.808349609375,-0.6064453125,-1.3122557401657104,2.990722417831421,-0.5187987685203552,100.0,168559.0,1.0
559407.7718062,309075.1875,300699.65625,321191.90625,314368.1875,338977.53125,300982.0,300209.25,299894.53125,-0.04931640625,0.808349609375,-0.60498046875,-1.4343260526657104,2.960204839706421,-0.4882812201976776,100.0,168560.0,1.0
559407.7741621,309328.40625,299651.53125,320037.3125,313461.5,333553.65625,298922.5,298256.96875,299007.625,-0.048828125,0.81005859375,-0.6025390625,-1.4648436307907104,2.899169683456421,-0.4882812201976776,100.0,168561.0,1.0
559407.7767755,309153.0625,298941.8125,319182.125,313068.65625,328960.75,297775.84375,296839.125,298560.21875,-0.050048828125,0.810546875,-0.60302734375,-1.4648436307907104,2.746581792831421,-0.5798339247703552,100.0,168562.0,1.0
559407.7892078,308825.21875,299554.875,319798.3125,313708.625,331362.3125,299062.6875,297835.84375,299138.40625,-0.0498046875,0.813232421875,-0.60107421875,-1.6174315214157104,2.441406011581421,-0.6103515028953552,100.0,168563.0,1.0
559407.7932588,308755.375,300650.75,321059.59375,314537.0625,337716.09375,301092.5,299968.125,299988.5,-0.049560546875,0.81591796875,-0.6044921875,-1.8005369901657104,2.227782964706421,-0.5798339247703552,100.0,168564.0,1.0
559407.7932992,309054.28125,300684.625,321176.0,314361.375,339087.6875,300986.1875,300204.40625,299891.65625,-0.049072265625,0.816162109375,-0.601806640625,-2.075195074081421,1.9836424589157104,-0.4577636420726776,100.0,168565.0,1.0
559407.793308,309311.78125,299644.90625,320029.6875,313464.28125,333682.78125,298933.84375,298257.59375,299002.15625,-0.046630859375,0.8173828125,-0.601806640625,-2.227782964706421,1.7395018339157104,-0.4272460639476776,100.0,168566.0,1.0
559407.7933288,309138.21875,298933.3125,319170.0625,313067.40625,329080.1875,297780.6875,296832.0625,298547.71875,-0.046142578125,0.81689453125,-0.6005859375,-2.471923589706421,1.4648436307907104,-0.4272460639476776,100.0,168567.0,1.0
559407.7955233,308818.25,299559.6875,319793.21875,313708.90625,331477.625,299070.375,297830.46875,299135.5625,-0.044189453125,0.816650390625,-0.59765625,-2.777099370956421,1.0986326932907104,-0.2746581733226776,100.0,168568.0,1.0
559407.7980467,308752.96875,300668.34375,321061.625,314536.71875,337841.34375,301108.9375,299967.5625,299995.90625,-0.043701171875,0.819580078125,-0.5966796875,-3.112792730331421,0.6713866591453552,0.0,100.0,168569.0,1.0
559407.8004909,309050.625,300701.4375,321178.59375,314351.46875,339235.46875,301011.3125,300211.5625,299901.78125,-0.03955078125,0.818603515625,-0.600341796875,-3.479003667831421,0.3662109076976776,0.2136230319738388,100.0,168570.0,1.0
559407.8181104,309310.53125,299658.21875,320032.84375,313450.5,333837.53125,298959.15625,298268.84375,299014.59375,-0.0380859375,0.81494140625,-0.601318359375,-3.540038824081421,0.1220703050494194,0.2746581733226776,100.0,168571.0,1.0
559407.8469816,309138.78125,298944.3125,319174.15625,313054.15625,329224.9375,297802.6875,296843.875,298554.40625,-0.036865234375,0.810302734375,-0.603759765625,-3.631591558456421,-0.1220703050494194,0.4882812201976776,100.0,168572.0,1.0
559407.8469978,308822.1875,299571.875,319795.8125,313698.0,331616.3125,299093.90625,297852.3125,299134.84375,-0.034423828125,0.811279296875,-0.603759765625,-3.509521245956421,-0.2746581733226776,0.7019042372703552,100.0,168573.0,1.0
559407.8470008,308747.0625,300674.15625,321057.625,314522.84375,337978.15625,301130.6875,299991.53125,299983.75,-0.034912109375,0.80859375,-0.603515625,-3.356933355331421,-0.3662109076976776,0.9155272841453552,100.0,168574.0,1.0
559407.859225,309040.25,300706.4375,321175.625,314334.75,339377.09375,301027.75,300235.4375,299885.875,-0.036376953125,0.806884765625,-0.604248046875,-3.326415777206421,-0.5187987685203552,1.0681151151657104,100.0,168575.0,1.0
559407.8665495,309317.84375,299685.15625,320049.1875,313444.875,334002.59375,298988.65625,298309.15625,299010.75,-0.034912109375,0.806640625,-0.606201171875,-3.295898199081421,-0.3356933295726776,1.1901854276657104,100.0,168576.0,1.0
559407.8767598,309159.15625,298980.4375,319199.65625,313054.625,329398.84375,297837.1875,296895.375,298560.65625,-0.03515625,0.805419921875,-0.607177734375,-3.173827886581421,-0.3356933295726776,1.2207030057907104,100.0,168577.0,1.0
559407.8791005,308838.90625,299593.3125,319813.96875,313696.1875,331769.0,299122.0625,297894.78125,299140.46875,-0.031982421875,0.803466796875,-0.60595703125,-2.899169683456421,-0.2136230319738388,1.4038084745407104,100.0,168578.0,1.0
559407.906591,308761.5625,300693.65625,321072.46875,314522.9375,338129.78125,301158.125,300035.625,299990.28125,-0.03076171875,0.80517578125,-0.60693359375,-2.899169683456421,-0.0915527269244194,1.4343260526657104,100.0,168579.0,1.0
559407.9117,309059.46875,300737.28125,321195.3125,314345.90625,339554.125,301063.4375,300286.5,299894.71875,-0.033447265625,0.80322265625,-0.602294921875,-2.716064214706421,0.0610351525247097,1.4953612089157104,100.0,168580.0,1.0
559407.9142788,309326.15625,299709.71875,320060.8125,313448.1875,334185.78125,299019.40625,298353.0625,299014.0625,-0.032470703125,0.802978515625,-0.599853515625,-2.716064214706421,0.2136230319738388,1.6174315214157104,100.0,168581.0,1.0
559407.9165998,309158.09375,298993.03125,319199.90625,313047.46875,329565.125,297857.84375,296924.6875,298556.75,-0.033935546875,0.802978515625,-0.600830078125,-2.716064214706421,0.3967284858226776,1.6174315214157104,100.0,168582.0,1.0
559407.9191201,308837.03125,299596.1875,319807.6875,313685.125,331919.5625,299131.25,297916.5,299133.15625,-0.033203125,0.80224609375,-0.601806640625,-2.716064214706421,0.5187987685203552,1.5869139432907104,100.0,168583.0,1.0
559407.9216261,308766.65625,300694.375,321073.53125,314518.46875,338287.6875,301168.65625,300059.5625,299988.6875,-0.03515625,0.800537109375,-0.600341796875,-2.716064214706421,0.6713866591453552,1.7089842557907104,100.0,168584.0,1.0
559407.9242618,309070.09375,300741.03125,321210.40625,314351.65625,339734.5625,301087.21875,300322.4375,299905.71875,-0.0361328125,0.800537109375,-0.59814453125,-2.624511480331421,0.7019042372703552,1.6784666776657104,100.0,168585.0,1.0
559407.9291296,309330.375,299702.125,320067.59375,313444.4375,334351.96875,299029.15625,298375.25,299012.625,-0.036376953125,0.800537109375,-0.59912109375,-2.624511480331421,0.7629393935203552,1.6479490995407104,100.0,168586.0,1.0
559407.9316268,309164.53125,298982.40625,319199.75,313041.46875,329705.3125,297856.0625,296936.59375,298549.9375,-0.034423828125,0.798583984375,-0.59716796875,-2.685546636581421,0.8239745497703552,1.6174315214157104,100.0,168587.0,1.0
559407.934069,308838.625,299586.71875,319802.78125,313680.28125,332043.40625,299127.96875,297923.09375,299125.8125,-0.032958984375,0.797119140625,-0.599609375,-2.532958745956421,0.6713866591453552,1.5869139432907104,100.0,168588.0,1.0
