Time,FZ,C3,CZ,C4,PZ,PO7,OZ,PO8,AccX,AccY,AccZ,Gyro1,Gyro2,Gyro3,Battery,Counter,Validation
473608.572067,267007.78125,268736.75,283503.09375,273921.625,278909.625,261821.28125,244967.4375,242047.40625,0.083984375,0.91162109375,-0.446044921875,-6.896972179412842,-8.209227561950684,-4.882812023162842,80.0,1030739.0,1.0
473608.5720797,266535.53125,268628.90625,282971.5,273091.03125,278133.78125,261827.09375,244536.5,241983.75,0.084228515625,0.9111328125,-0.4462890625,-7.904052257537842,-8.178709983825684,-5.249022960662842,80.0,1030740.0,1.0
473608.5720816,265927.3125,268682.375,283493.8125,274117.15625,279037.3125,261872.515625,245432.984375,242373.390625,0.08056640625,0.908935546875,-0.44580078125,-8.819579124450684,-7.995604991912842,-5.645751476287842,80.0,1030741.0,1.0
473608.579107,265971.8125,268816.84375,284350.9375,275613.46875,280401.21875,261897.453125,246454.1875,242753.28125,0.079345703125,0.908447265625,-0.449951171875,-9.735106468200684,-7.843017101287842,-6.225585460662842,80.0,1030742.0,1.0
473608.5816958,266666.59375,268859.125,284358.28125,275487.9375,280314.40625,261872.609375,246164.875,242657.34375,0.080078125,0.908203125,-0.45263671875,-10.528563499450684,-7.904052257537842,-6.500243663787842,80.0,1030743.0,1.0
473608.5817082,267001.625,268729.03125,283498.53125,273933.25,278899.34375,261821.46875,244972.265625,242273.15625,0.077392578125,0.909423828125,-0.451416015625,-11.199950218200684,-7.568358898162842,-6.927489757537842,80.0,1030744.0,1.0
473608.5842913,266515.875,268609.25,282940.8125,273070.03125,278097.03125,261821.1875,244518.796875,242175.703125,0.07763671875,0.908935546875,-0.4541015625,-11.810301780700684,-7.659911632537842,-7.385253429412842,80.0,1030745.0,1.0
473608.5843044,265905.21875,268669.21875,283452.84375,274081.84375,278988.59375,261868.40625,245393.109375,242534.953125,0.080810546875,0.912353515625,-0.454345703125,-12.420653343200684,-7.415771007537842,-7.995604991912842,80.0,1030746.0,1.0
473608.58675,265937.65625,268797.96875,284304.8125,275577.1875,280342.125,261888.34375,246403.859375,242880.140625,0.07958984375,0.914794921875,-0.453369140625,-13.519286155700684,-7.049560070037842,-8.514403343200684,80.0,1030747.0,1.0
473608.5892932,266636.9375,268843.3125,284323.21875,275463.1875,280260.3125,261861.421875,246118.109375,242765.53125,0.074951171875,0.909423828125,-0.453857421875,-14.190672874450684,-6.774901866912842,-8.789061546325684,80.0,1030748.0,1.0
473608.5918706,266997.78125,268732.4375,283482.375,273922.53125,278862.875,261822.53125,244932.578125,242379.46875,0.0693359375,0.90625,-0.455078125,-14.526366233825684,-6.652831554412842,-8.941649436950684,80.0,1030749.0,1.0
473608.5966607,266528.03125,268628.03125,282926.78125,273052.9375,278057.875,261833.625,244471.59375,242284.78125,0.061767578125,0.902587890625,-0.455810546875,-14.739989280700684,-6.652831554412842,-9.460448265075684,80.0,1030750.0,1.0
473608.5991397,265902.71875,268676.5625,283413.0625,274035.25,278916.15625,261884.5,245328.46875,242630.078125,0.0546875,0.903564453125,-0.455078125,-15.014647483825684,-6.774901866912842,-9.948729515075684,80.0,1030751.0,1.0
473608.6018205,265930.78125,268805.59375,284264.03125,275531.5,280272.375,261917.390625,246344.9375,242972.0625,0.05029296875,0.904052734375,-0.456298828125,-15.228270530700684,-6.835937023162842,-10.498045921325684,80.0,1030752.0,1.0
473608.6018368,266626.8125,268844.65625,284291.21875,275430.8125,280208.28125,261890.578125,246069.296875,242843.3125,0.044677734375,0.910400390625,-0.459716796875,-15.411375999450684,-6.988524913787842,-11.077879905700684,80.0,1030753.0,1.0
473608.6067845,267000.28125,268738.0,283461.34375,273902.84375,278824.25,261850.96875,244895.109375,242425.421875,0.0419921875,0.9130859375,-0.458251953125,-15.594481468200684,-7.263183116912842,-11.657713890075684,80.0,1030754.0,1.0
473608.6143409,266525.625,268619.34375,282893.34375,273022.375,278002.6875,261852.125,244423.21875,242274.5,0.03857421875,0.91845703125,-0.450927734375,-15.869139671325684,-7.568358898162842,-12.359618186950684,80.0,1030755.0,1.0
473608.6166348,265887.78125,268656.4375,283367.75,273995.375,278846.6875,261896.296875,245270.4375,242579.109375,0.036865234375,0.922119140625,-0.446533203125,-16.143796920776367,-7.843017101287842,-13.092040061950684,80.0,1030756.0,1.0
473608.6166472,265902.71875,268787.6875,284224.15625,275509.5,280208.53125,261911.578125,246289.40625,242890.875,0.036865234375,0.927734375,-0.43798828125,-16.693113327026367,-8.300780296325684,-13.610838890075684,80.0,1030757.0,1.0
473608.6193342,266615.90625,268841.78125,284286.125,275452.625,280184.75,261878.6875,246037.828125,242717.78125,0.038330078125,0.931640625,-0.43798828125,-17.364500045776367,-8.636473655700684,-13.946532249450684,80.0,1030758.0,1.0
473608.6216849,267005.375,268739.5,283478.53125,273939.25,278827.21875,261838.453125,244878.296875,242281.65625,0.040771484375,0.93505859375,-0.436767578125,-17.944334030151367,-8.789061546325684,-14.312743186950684,80.0,1030759.0,1.0
473608.6242874,266515.15625,268601.0,282883.25,273022.1875,277981.5,261828.4375,244388.078125,242131.0,0.041259765625,0.939453125,-0.440673828125,-18.280027389526367,-8.972167015075684,-14.831542015075684,80.0,1030760.0,1.0
473608.6518257,265858.46875,268632.40625,283331.96875,273967.59375,278808.4375,261875.546875,245240.21875,242449.203125,0.0390625,0.942626953125,-0.44189453125,-18.493650436401367,-8.880614280700684,-15.563963890075684,80.0,1030761.0,1.0
473608.6543818,265882.96875,268783.0625,284208.0625,275502.53125,280202.65625,261931.96875,246310.328125,242787.609375,0.041015625,0.9443359375,-0.443115234375,-18.981931686401367,-8.819579124450684,-16.235349655151367,80.0,1030762.0,1.0
473608.6544238,266635.84375,268878.8125,284326.53125,275502.25,280240.46875,261949.765625,246123.75,242625.78125,0.04248046875,0.948486328125,-0.445556640625,-19.439695358276367,-8.972167015075684,-16.693113327026367,80.0,1030763.0,1.0
473608.6569054,266999.125,268737.09375,283488.34375,273954.0,278845.53125,261859.109375,244917.109375,242075.03125,0.04296875,0.94921875,-0.4453125,-20.172117233276367,-9.094237327575684,-16.784666061401367,80.0,1030764.0,1.0
473608.6618864,266506.3125,268593.9375,282875.90625,273014.78125,277981.78125,261834.6875,244407.390625,241841.6875,0.04443359375,0.94580078125,-0.444091796875,-20.812986373901367,-9.216307640075684,-16.723630905151367,80.0,1030765.0,1.0
473608.6619265,265856.21875,268639.28125,283319.46875,273955.0625,278804.0625,261888.875,245259.796875,242117.421875,0.046630859375,0.94482421875,-0.447021484375,-21.453855514526367,-9.307860374450684,-16.815183639526367,80.0,1030766.0,1.0
473608.6643461,265862.46875,268776.6875,284176.34375,275480.71875,280180.375,261922.578125,246305.328125,242420.6875,0.0478515625,0.943359375,-0.45068359375,-21.881101608276367,-9.246825218200684,-16.998289108276367,80.0,1030767.0,1.0
473608.6692893,266596.96875,268845.0,284282.71875,275470.875,280205.875,261907.375,246086.109375,242278.703125,0.046142578125,0.943115234375,-0.453369140625,-22.125242233276367,-8.850096702575684,-17.303464889526367,80.0,1030768.0,1.0
473608.6709174,267007.78125,268738.15625,283495.40625,273969.625,278865.5625,261858.390625,244927.125,241850.265625,0.0458984375,0.936767578125,-0.45361328125,-22.125242233276367,-8.758543968200684,-17.242429733276367,80.0,1030769.0,1.0
473608.6780704,266526.25,268607.90625,282887.96875,273031.75,278004.40625,261856.15625,244431.984375,241699.34375,0.04736328125,0.9326171875,-0.455078125,-21.942136764526367,-8.544920921325684,-17.425535202026367,80.0,1030770.0,1.0
473608.678113,265841.28125,268629.0,283288.25,273927.09375,278775.96875,261894.6875,245247.203125,241999.671875,0.04443359375,0.931396484375,-0.458251953125,-21.514890670776367,-8.422850608825684,-17.578123092651367,80.0,1030771.0,1.0
473608.680467,265829.125,268758.8125,284132.09375,275442.4375,280133.34375,261922.140625,246274.75,242335.65625,0.043701171875,0.931396484375,-0.456787109375,-20.660398483276367,-8.209227561950684,-17.608640670776367,80.0,1030772.0,1.0
473608.6830971,266562.90625,268825.875,284247.25,275446.90625,280162.40625,261898.703125,246050.78125,242167.125,0.041259765625,0.92822265625,-0.45751953125,-19.744871139526367,-7.873534679412842,-17.730710983276367,80.0,1030773.0,1.0
473608.6855783,266994.0,268731.71875,283478.96875,273963.375,278836.9375,261862.046875,244896.09375,241684.78125,0.0400390625,0.927490234375,-0.449462890625,-18.646238327026367,-7.354735851287842,-18.096921920776367,80.0,1030774.0,1.0
473608.6856179,266502.8125,268590.5625,282851.78125,272995.46875,277955.21875,261863.75,244379.328125,241453.21875,0.03564453125,0.92578125,-0.44140625,-17.944334030151367,-7.019042491912842,-18.371580123901367,80.0,1030775.0,1.0
473608.6879816,265790.6875,268595.375,283216.65625,273851.53125,278688.4375,261896.46875,245167.359375,241643.203125,0.037841796875,0.92529296875,-0.438720703125,-17.517087936401367,-6.439208507537842,-18.463132858276367,80.0,1030776.0,1.0
473608.6880152,265763.40625,268719.46875,284051.78125,275367.96875,280036.875,261920.4375,246201.265625,241909.71875,0.03466796875,0.9228515625,-0.436767578125,-16.876218795776367,-5.828856945037842,-18.585203170776367,80.0,1030777.0,1.0
473608.7018404,266519.625,268806.46875,284203.15625,275420.53125,280105.5625,261901.75,246016.453125,241774.546875,0.02734375,0.92626953125,-0.433837890625,-16.387937545776367,-5.371093273162842,-18.310544967651367,80.0,1030778.0,1.0
473608.7280918,266980.34375,268721.90625,283461.53125,273968.21875,278812.0,261861.34375,244878.921875,241345.828125,0.02099609375,0.927734375,-0.4404296875,-16.510007858276367,-5.340575695037842,-17.547605514526367,80.0,1030779.0,1.0
473608.728132,266487.96875,268570.4375,282818.15625,272981.40625,277913.375,261843.90625,244340.515625,241149.046875,0.02001953125,0.924072265625,-0.44580078125,-16.571043014526367,-5.157470226287842,-16.906736373901367,80.0,1030780.0,1.0
473608.728142,265767.4375,268577.3125,283168.71875,273818.1875,278633.09375,261880.828125,245124.4375,241430.5,0.02099609375,0.915771484375,-0.447509765625,-16.082761764526367,-5.096435070037842,-16.662595748901367,80.0,1030781.0,1.0
473608.730577,265744.90625,268721.53125,284022.375,275350.53125,280001.65625,261919.453125,246179.359375,241793.5,0.022216796875,0.9091796875,-0.450439453125,-15.472411155700684,-4.791259288787842,-16.479490280151367,80.0,1030782.0,1.0
473608.7306162,266514.625,268816.21875,284213.25,275444.40625,280114.59375,261908.71875,246025.3125,241650.0,0.017822265625,0.905517578125,-0.446044921875,-14.923094749450684,-3.997802495956421,-16.326902389526367,80.0,1030783.0,1.0
473608.7345353,266993.46875,268731.1875,283501.9375,274019.15625,278850.09375,261858.65625,244900.296875,241116.421875,0.01220703125,0.904296875,-0.44580078125,-14.587401390075684,-3.570556402206421,-15.960692405700684,80.0,1030784.0,1.0
473608.7345751,266525.25,268588.6875,282876.90625,273049.625,277972.3125,261842.46875,244379.59375,240876.796875,0.010009765625,0.900146484375,-0.442626953125,-13.702391624450684,-3.448486089706421,-15.136717796325684,80.0,1030785.0,1.0
473608.7345836,265807.6875,268595.03125,283228.1875,273890.6875,278696.5,261882.890625,245181.296875,241153.78125,0.0107421875,0.89208984375,-0.4462890625,-12.176512718200684,-3.326415777206421,-14.282225608825684,80.0,1030786.0,1.0
473608.7345928,265782.0,268734.9375,284086.9375,275433.3125,280079.96875,261924.8125,246261.515625,241447.3125,0.010986328125,0.888427734375,-0.444580078125,-10.772704124450684,-3.051757574081421,-13.671874046325684,80.0,1030787.0,1.0
473608.7367154,266556.71875,268833.46875,284292.125,275545.4375,280215.78125,261911.578125,246121.421875,241315.609375,0.007080078125,0.887939453125,-0.445556640625,-9.857176780700684,-2.746581792831421,-13.214110374450684,80.0,1030788.0,1.0
473608.7392199,267027.4375,268734.5,283568.0,274105.71875,278941.125,261845.609375,244978.96875,240862.953125,0.007080078125,0.886474609375,-0.443359375,-8.605956077575684,-2.380370855331421,-12.603758811950684,80.0,1030789.0,1.0
473608.7454704,266538.65625,268573.03125,282906.3125,273088.53125,278023.875,261817.265625,244426.4375,240646.140625,0.006591796875,0.884521484375,-0.4404296875,-7.568358898162842,-2.136230230331421,-12.084959983825684,80.0,1030790.0,1.0
473608.7769103,265818.03125,268583.21875,283236.9375,273896.6875,278725.0,261864.375,245214.109375,240919.1875,0.006591796875,0.88134765625,-0.440673828125,-6.561278820037842,-1.9531248807907104,-11.352538108825684,80.0,1030791.0,1.0
473608.7769507,265795.15625,268732.71875,284095.78125,275437.53125,280101.53125,261911.765625,246293.171875,241233.09375,0.01025390625,0.879150390625,-0.443359375,-5.676269054412842,-1.6174315214157104,-10.589598655700684,80.0,1030792.0,1.0
473608.7807132,266571.9375,268832.03125,284309.71875,275561.34375,280244.5,261901.921875,246159.59375,241057.578125,0.009033203125,0.875732421875,-0.441650390625,-4.760741710662842,-1.1291502714157104,-9.765624046325684,80.0,1030793.0,1.0
473608.7807524,267071.96875,268753.28125,283612.71875,274146.03125,279000.9375,261860.4375,245041.109375,240583.546875,0.00927734375,0.871826171875,-0.438720703125,-3.601073980331421,-0.7324218153953552,-9.063719749450684,80.0,1030794.0,1.0
473608.7807625,266592.9375,268596.53125,282952.1875,273122.9375,278082.34375,261840.6875,244488.578125,240340.1875,0.00439453125,0.867431640625,-0.44140625,-2.624511480331421,-0.4272460639476776,-8.422850608825684,80.0,1030795.0,1.0
473608.7820744,265847.0,268592.34375,283255.90625,273900.78125,278753.0,261876.1875,245257.125,240555.203125,0.00146484375,0.865234375,-0.44384765625,-1.6174315214157104,-0.0610351525247097,-7.690429210662842,80.0,1030796.0,1.0
473608.7892011,265795.4375,268730.46875,284102.65625,275431.96875,280120.3125,261914.265625,246329.46875,240858.46875,-0.00439453125,0.861328125,-0.443359375,-0.3967284858226776,0.2746581733226776,-7.019042491912842,80.0,1030797.0,1.0
473608.7918121,266566.375,268834.625,284328.15625,275574.84375,280281.3125,261897.1875,246203.5,240746.53125,-0.00537109375,0.856201171875,-0.446044921875,0.7324218153953552,0.5798339247703552,-6.500243663787842,80.0,1030798.0,1.0
473608.7943437,267082.34375,268767.5,283646.59375,274178.75,279056.4375,261855.96875,245095.921875,240328.296875,-0.005859375,0.851318359375,-0.44775390625,2.014159917831421,0.7934569716453552,-5.950927257537842,80.0,1030799.0,1.0
473608.7992126,266622.15625,268622.90625,282992.5,273156.9375,278143.0625,261843.640625,244551.515625,240121.765625,-0.0068359375,0.850341796875,-0.44873046875,3.143310308456421,0.9460448622703552,-5.493163585662842,80.0,1030800.0,1.0
473608.8017417,265879.5625,268616.125,283289.875,273929.125,278803.0625,261877.15625,245315.5,240329.984375,-0.009033203125,0.854248046875,-0.452392578125,4.486083507537842,1.1901854276657104,-4.852294445037842,80.0,1030801.0,1.0
473608.8043389,265816.875,268740.65625,284128.78125,275462.1875,280160.53125,261906.125,246379.0,240600.53125,-0.009521484375,0.855224609375,-0.453857421875,5.706786632537842,1.4953612089157104,-4.425048351287842,80.0,1030802.0,1.0
473608.806687,266590.96875,268847.0625,284368.375,275629.9375,280339.71875,261897.640625,246268.40625,240443.265625,-0.01123046875,0.853271484375,-0.45361328125,6.896972179412842,1.5869139432907104,-4.028319835662842,80.0,1030803.0,1.0
473608.8091847,267104.15625,268777.5,283687.375,274234.0,279117.25,261859.015625,245158.5,239947.59375,-0.010986328125,0.857177734375,-0.45263671875,7.995604991912842,1.8920897245407104,-3.509521245956421,80.0,1030804.0,1.0
473608.8091912,266637.46875,268629.4375,283022.375,273193.75,278191.53125,261852.578125,244599.71875,239703.96875,-0.01171875,0.860595703125,-0.4560546875,8.941649436950684,2.105712652206421,-3.204345464706421,80.0,1030805.0,1.0
473608.8116733,265889.40625,268618.53125,283309.34375,273945.0625,278836.59375,261889.6875,245348.3125,239892.515625,-0.0107421875,0.86376953125,-0.454833984375,9.918211936950684,2.227782964706421,-2.868652105331421,80.0,1030806.0,1.0
473608.8167892,265830.28125,268754.09375,284156.03125,275484.28125,280199.15625,261923.296875,246416.015625,240171.46875,-0.009033203125,0.865966796875,-0.4560546875,10.742186546325684,2.471923589706421,-2.563476324081421,80.0,1030807.0,1.0
473608.819299,266596.34375,268859.84375,284398.4375,275663.375,280388.0,261915.34375,246313.203125,240071.6875,-0.00634765625,0.865966796875,-0.459228515625,11.627196311950684,2.807616949081421,-2.288818120956421,80.0,1030808.0,1.0
473608.8229805,267112.65625,268790.125,283715.53125,274271.375,279168.125,261878.6875,245206.515625,239724.078125,-0.0048828125,0.8671875,-0.461181640625,12.329100608825684,3.051757574081421,-2.014159917831421,80.0,1030809.0,1.0
473608.8229956,266643.0,268630.53125,283027.5625,273205.5625,278215.84375,261855.96875,244622.6875,239657.03125,-0.004150390625,0.867919921875,-0.46044921875,13.183592796325684,3.265380620956421,-1.6479490995407104,80.0,1030810.0,1.0
473608.9131127,265889.9375,268612.375,283299.25,273932.96875,278837.65625,261880.296875,245350.734375,240044.328125,0.00244140625,0.869384765625,-0.462890625,13.854979515075684,3.570556402206421,-1.5258787870407104,80.0,1030811.0,1.0
473608.9206531,265828.15625,268744.96875,284149.15625,275477.03125,280205.3125,261911.046875,246420.65625,240507.28125,0.006591796875,0.872314453125,-0.466796875,14.434813499450684,3.875732183456421,-1.2512205839157104,80.0,1030812.0,1.0
473608.920691,266591.15625,268850.1875,284397.34375,275670.6875,280406.03125,261900.140625,246328.21875,240523.921875,0.013916015625,0.87548828125,-0.463623046875,15.014647483825684,4.333495616912842,-1.0986326932907104,80.0,1030813.0,1.0
473608.920701,267107.375,268780.90625,283715.71875,274280.875,279188.3125,261861.0625,245224.578125,240187.921875,0.018310546875,0.87890625,-0.465087890625,15.380858421325684,4.882812023162842,-0.8850097060203552,80.0,1030814.0,1.0
473608.9229516,266654.90625,268634.28125,283038.8125,273215.9375,278238.09375,261848.640625,244644.953125,240046.03125,0.02294921875,0.8798828125,-0.464599609375,15.869139671325684,5.432128429412842,-0.8239745497703552,80.0,1030815.0,1.0
473608.9256092,265915.21875,268628.46875,283320.25,273942.8125,278859.3125,261887.890625,245371.46875,240359.140625,0.026123046875,0.88134765625,-0.468017578125,16.235349655151367,5.950927257537842,-0.6103515028953552,80.0,1030816.0,1.0
473608.9280055,265840.65625,268755.96875,284165.96875,275485.1875,280223.65625,261918.46875,246438.90625,240749.75,0.029541015625,0.884765625,-0.468017578125,16.540525436401367,6.561278820037842,-0.5798339247703552,80.0,1030817.0,1.0
473608.9305913,266589.09375,268854.84375,284409.78125,275689.28125,280429.75,261901.03125,246349.765625,240713.015625,0.03076171875,0.8876953125,-0.466796875,16.632078170776367,7.232665538787842,-0.3967284858226776,80.0,1030818.0,1.0
473608.9355892,267103.0,268780.90625,283723.125,274305.375,279210.21875,261858.921875,245246.296875,240381.578125,0.0302734375,0.891845703125,-0.46875,16.754148483276367,7.934569835662842,-0.3967284858226776,80.0,1030819.0,1.0
473608.9381039,266652.125,268627.65625,283034.0625,273226.65625,278247.75,261845.6875,244657.015625,240229.40625,0.0283203125,0.893798828125,-0.470458984375,16.815183639526367,8.636473655700684,-0.3356933295726776,80.0,1030820.0,1.0
473608.940653,265919.0,268624.25,283316.15625,273942.90625,278864.59375,261886.28125,245375.671875,240499.78125,0.02783203125,0.897216796875,-0.470458984375,16.754148483276367,9.338377952575684,-0.3967284858226776,80.0,1030821.0,1.0
473608.9429582,265848.0,268760.6875,284175.0,275490.53125,280236.0,261922.9375,246443.375,240859.734375,0.02978515625,0.900634765625,-0.470947265625,16.601560592651367,9.857176780700684,-0.5493163466453552,80.0,1030822.0,1.0
473608.9479773,266586.9375,268860.75,284423.375,275706.8125,280451.03125,261907.109375,246362.015625,240811.359375,0.030517578125,0.903564453125,-0.467529296875,16.265867233276367,10.528563499450684,-0.6103515028953552,80.0,1030823.0,1.0
473608.9506082,267098.09375,268786.53125,283736.1875,274328.0625,279234.90625,261870.015625,245263.828125,240434.421875,0.031005859375,0.907470703125,-0.472412109375,15.747069358825684,10.925292015075684,-0.7629393935203552,80.0,1030824.0,1.0
473608.9530975,266654.4375,268639.0,283048.90625,273240.34375,278269.75,261859.015625,244667.75,240254.890625,0.03662109375,0.907470703125,-0.47119140625,15.350340843200684,11.444090843200684,-0.9460448622703552,80.0,1030825.0,1.0
473608.9605591,265929.71875,268635.4375,283323.03125,273930.75,278869.9375,261890.3125,245370.046875,240521.859375,0.03955078125,0.90673828125,-0.472900390625,14.892577171325684,12.084959983825684,-1.0375975370407104,80.0,1030826.0,1.0
473608.9629577,265860.875,268769.90625,284179.90625,275472.125,280236.4375,261916.6875,246431.65625,240891.90625,0.0400390625,0.910400390625,-0.4755859375,14.465331077575684,12.725829124450684,-1.2207030057907104,80.0,1030827.0,1.0
473608.9658482,266597.21875,268864.125,284430.0,275699.125,280453.6875,261901.484375,246357.265625,240849.09375,0.0419921875,0.910400390625,-0.47802734375,14.038084983825684,13.336180686950684,-1.4343260526657104,80.0,1030828.0,1.0
473608.9680839,267102.65625,268781.09375,283731.1875,274313.0625,279225.875,261863.484375,245252.5625,240460.796875,0.042724609375,0.9091796875,-0.477294921875,13.916014671325684,13.732909202575684,-1.4648436307907104,80.0,1030829.0,1.0
473608.970473,266659.8125,268626.84375,283029.5,273201.0,278236.59375,261850.25,244637.53125,240264.640625,0.04296875,0.909912109375,-0.47802734375,13.549803733825684,14.312743186950684,-1.5869139432907104,80.0,1030830.0,1.0
473608.9730949,265935.25,268627.84375,283304.875,273881.46875,278832.3125,261889.765625,245331.328125,240469.28125,0.04541015625,0.914794921875,-0.477783203125,12.786864280700684,14.984129905700684,-1.9226073026657104,80.0,1030831.0,1.0
473608.9754615,265860.875,268768.5625,284171.34375,275430.625,280214.96875,261933.046875,246402.25,240762.09375,0.0498046875,0.920166015625,-0.476806640625,11.596678733825684,15.808104515075684,-2.319335699081421,80.0,1030832.0,1.0
473608.9781315,266585.5,268866.65625,284427.46875,275674.90625,280452.8125,261925.0,246339.125,240687.265625,0.0546875,0.921875,-0.47705078125,10.437010765075684,16.723630905151367,-2.593993902206421,80.0,1030833.0,1.0
473608.9805826,267090.75,268786.90625,283728.0625,274296.15625,279228.375,261885.390625,245234.859375,240318.015625,0.05615234375,0.9228515625,-0.47314453125,9.460448265075684,17.517087936401367,-2.532958745956421,80.0,1030834.0,1.0
473608.9829499,266658.03125,268636.96875,283023.875,273173.46875,278225.0625,261869.75,244608.5625,240178.796875,0.05810546875,0.92578125,-0.472900390625,8.666991233825684,18.280027389526367,-2.593993902206421,80.0,1030835.0,1.0
473608.9854576,265940.875,268638.9375,283301.84375,273842.0625,278810.21875,261905.234375,245291.546875,240434.328125,0.060546875,0.9267578125,-0.4765625,7.934569835662842,18.890378952026367,-2.685546636581421,80.0,1030836.0,1.0
473608.9879905,265860.0625,268775.28125,284173.125,275398.375,280199.6875,261940.1875,246363.53125,240761.640625,0.064453125,0.927490234375,-0.478271484375,7.080077648162842,19.714353561401367,-2.746581792831421,80.0,1030837.0,1.0
473608.9896507,266568.53125,268865.3125,284427.125,275657.28125,280448.6875,261923.65625,246308.453125,240770.140625,0.0654296875,0.929443359375,-0.480224609375,6.378173351287842,20.324705123901367,-2.593993902206421,80.0,1030838.0,1.0
473608.9992824,267067.96875,268780.09375,283717.9375,274280.40625,279218.71875,261880.375,245194.796875,240517.828125,0.066650390625,0.92822265625,-0.4814453125,5.432128429412842,21.362302780151367,-2.777099370956421,80.0,1030839.0,1.0
473608.9993237,266640.84375,268630.15625,283006.71875,273145.84375,278202.0625,261867.6875,244548.03125,240471.515625,0.068115234375,0.929931640625,-0.480712890625,4.394530773162842,22.308347702026367,-2.990722417831421,80.0,1030840.0,1.0
473609.0032224,265934.375,268640.09375,283289.59375,273806.46875,278785.09375,261908.71875,245226.28125,240832.375,0.070556640625,0.9326171875,-0.479736328125,3.234863042831421,23.010251998901367,-3.082275152206421,80.0,1030841.0,1.0
473609.0032633,265862.5625,268789.5,284175.4375,275374.5,280190.40625,261948.6875,246313.828125,241269.5625,0.076904296875,0.9375,-0.48046875,2.136230230331421,23.925779342651367,-3.234863042831421,80.0,1030842.0,1.0
473609.0032734,266567.8125,268878.34375,284433.375,275653.15625,280450.5625,261931.96875,246272.96875,241305.328125,0.079833984375,0.93994140625,-0.476318359375,1.1291502714157104,24.932859420776367,-3.295898199081421,80.0,1030843.0,1.0
473609.0054486,267060.96875,268783.40625,283714.375,274278.53125,279211.65625,261879.046875,245155.375,241022.09375,0.08447265625,0.942626953125,-0.478271484375,-0.3356933295726776,25.970457077026367,-3.448486089706421,80.0,1030844.0,1.0
473609.0080463,266642.375,268635.09375,282996.96875,273133.78125,278179.90625,261868.21875,244500.640625,240917.9375,0.08935546875,0.9462890625,-0.4794921875,-1.7700194120407104,27.099607467651367,-3.479003667831421,80.0,1030845.0,1.0
473609.0080871,265943.75,268647.5,283277.0,273782.59375,278757.03125,261912.203125,245182.28125,241272.25,0.093994140625,0.949462890625,-0.4794921875,-3.143310308456421,28.320310592651367,-3.662109136581421,80.0,1030846.0,1.0
473609.0106017,265867.5625,268789.21875,284166.9375,275351.96875,280171.71875,261952.265625,246282.0,241744.59375,0.098876953125,0.95068359375,-0.478759765625,-4.486083507537842,29.510496139526367,-3.540038824081421,80.0,1030847.0,1.0
473609.01296,266565.65625,268869.5,284426.5,275640.46875,280435.71875,261931.515625,246245.515625,241794.125,0.099609375,0.94775390625,-0.475341796875,-5.737304210662842,30.578611373901367,-3.479003667831421,80.0,1030848.0,1.0
473609.0282507,267058.65625,268763.03125,283699.0,274262.96875,279181.09375,261870.546875,245117.015625,241480.125,0.099853515625,0.947021484375,-0.476318359375,-6.958007335662842,31.646726608276367,-3.234863042831421,80.0,1030849.0,1.0
473609.0282918,266653.09375,268616.03125,282979.1875,273100.40625,278135.1875,261856.59375,244451.75,241357.359375,0.0986328125,0.94775390625,-0.4765625,-8.239745140075684,32.867427825927734,-3.326415777206421,80.0,1030850.0,1.0
473609.0283004,265961.28125,268633.90625,283262.25,273731.53125,278710.34375,261903.453125,245126.9375,241701.671875,0.095947265625,0.951416015625,-0.47412109375,-9.521483421325684,33.874507904052734,-3.173827886581421,80.0,1030851.0,1.0
473609.0283095,265880.4375,268782.4375,284163.375,275308.3125,280141.59375,261947.34375,246241.84375,242155.59375,0.092041015625,0.9482421875,-0.47021484375,-10.894774436950684,34.820552825927734,-3.173827886581421,80.0,1030852.0,1.0
473609.0355132,266585.78125,268878.8125,284446.15625,275632.34375,280439.5625,261940.640625,246233.265625,242188.140625,0.090087890625,0.946044921875,-0.46826171875,-12.176512718200684,35.705562591552734,-3.265380620956421,80.0,1030853.0,1.0
473609.0355549,267091.375,268784.65625,283730.28125,274274.15625,279194.40625,261892.359375,245106.921875,241834.4375,0.085205078125,0.94384765625,-0.4677734375,-13.305663108825684,36.437984466552734,-3.387450933456421,80.0,1030854.0,1.0
473609.038087,266688.15625,268639.375,283005.28125,273098.09375,278132.5,261875.28125,244421.171875,241638.109375,0.078857421875,0.94091796875,-0.47021484375,-14.434813499450684,37.109371185302734,-3.601073980331421,80.0,1030855.0,1.0
473609.0406476,265991.125,268660.90625,283285.21875,273714.1875,278703.03125,261914.890625,245087.421875,241903.90625,0.073974609375,0.933837890625,-0.464111328125,-15.533446311950684,37.506099700927734,-3.875732183456421,80.0,1030856.0,1.0
473609.0406902,265898.34375,268808.15625,284185.71875,275297.78125,280146.75,261953.34375,246211.984375,242303.921875,0.0703125,0.9306640625,-0.46484375,-16.052244186401367,37.750240325927734,-3.906249761581421,80.0,1030857.0,1.0
473609.0429983,266583.0,268886.03125,284461.71875,275640.28125,280449.21875,261931.25,246206.171875,242298.375,0.062255859375,0.925537109375,-0.461669921875,-16.998289108276367,38.024898529052734,-4.211425304412842,80.0,1030858.0,1.0
473609.0454813,267104.25,268796.8125,283753.875,274308.84375,279211.21875,261888.609375,245080.1875,241931.453125,0.053466796875,0.921875,-0.463134765625,-18.005369186401367,38.360591888427734,-4.669188976287842,80.0,1030859.0,1.0
473609.0480704,266711.84375,268651.34375,283019.15625,273119.46875,278132.4375,261878.0625,244377.984375,241729.125,0.04296875,0.917724609375,-0.462158203125,-18.920896530151367,38.360591888427734,-4.943847179412842,80.0,1030860.0,1.0
473609.050614,266007.21875,268666.5625,283283.0625,273705.96875,278685.5,261915.78125,245035.84375,241999.125,0.03076171875,0.913818359375,-0.464599609375,-19.653318405151367,38.299556732177734,-5.401610851287842,80.0,1030861.0,1.0
473609.0529844,265910.03125,268822.65625,284194.21875,275301.625,280154.90625,261963.703125,246197.0625,242423.640625,0.01806640625,0.908447265625,-0.4619140625,-20.263669967651367,37.933345794677734,-5.950927257537842,80.0,1030862.0,1.0
473609.0556058,266602.5,268914.375,284495.34375,275683.125,280490.96875,261958.078125,246225.9375,242433.375,0.00732421875,0.900146484375,-0.4599609375,-20.904539108276367,37.353511810302734,-6.591796398162842,80.0,1030863.0,1.0
473609.0581144,267108.53125,268799.9375,283768.03125,274338.25,279227.21875,261897.015625,245064.359375,242048.9375,-0.001708984375,0.894775390625,-0.45654296875,-21.545408248901367,36.560054779052734,-7.202147960662842,80.0,1030864.0,1.0
473609.0604546,266726.40625,268659.125,283029.78125,273131.96875,278134.46875,261892.984375,244349.8125,241877.890625,-0.01318359375,0.88916015625,-0.450927734375,-22.064207077026367,35.461421966552734,-7.843017101287842,80.0,1030865.0,1.0
473609.0657756,266025.03125,268681.21875,283291.3125,273702.3125,278686.125,261935.453125,245023.671875,242185.640625,-0.025634765625,0.885498046875,-0.448486328125,-22.644041061401367,34.301753997802734,-8.575438499450684,80.0,1030866.0,1.0
473609.0679655,265916.84375,268827.03125,284194.03125,275296.25,280157.9375,261967.203125,246204.75,242622.65625,-0.036376953125,0.88037109375,-0.44970703125,-23.101804733276367,32.928462982177734,-9.338377952575684,80.0,1030867.0,1.0
473609.0705976,266595.15625,268895.15625,284484.34375,275687.6875,280496.625,261941.53125,246234.78125,242645.71875,-0.044921875,0.874267578125,-0.4462890625,-23.223875045776367,31.433103561401367,-9.948729515075684,80.0,1030868.0,1.0
473609.0730701,267109.4375,268777.0625,283758.375,274351.59375,279233.28125,261883.515625,245060.421875,242270.484375,-0.05810546875,0.869384765625,-0.451171875,-22.949216842651367,28.930662155151367,-10.864256858825684,80.0,1030869.0,1.0
473609.0731121,266718.28125,268622.46875,282996.15625,273109.90625,278110.0625,261870.28125,244306.453125,242055.359375,-0.067626953125,0.87158203125,-0.4501953125,-22.491453170776367,26.824949264526367,-11.657713890075684,80.0,1030870.0,1.0
473609.0780182,266010.71875,268647.25,283254.375,273659.21875,278657.78125,261921.59375,244989.53125,242324.65625,-0.077880859375,0.8740234375,-0.44873046875,-21.972654342651367,24.627683639526367,-12.542723655700684,80.0,1030871.0,1.0
473609.0806025,265888.40625,268797.8125,284168.5625,275258.25,280152.3125,261965.234375,246209.125,242742.546875,-0.0830078125,0.877197265625,-0.4453125,-21.392820358276367,22.216794967651367,-13.580321311950684,80.0,1030872.0,1.0
473609.0830266,266561.90625,268871.375,284475.5,275680.4375,280518.0625,261941.890625,246266.890625,242755.421875,-0.085693359375,0.880615234375,-0.436279296875,-20.721433639526367,19.927976608276367,-14.434813499450684,80.0,1030873.0,1.0
473609.0830614,267091.03125,268759.53125,283760.59375,274366.25,279260.125,261885.390625,245091.0,242373.03125,-0.0849609375,0.880615234375,-0.4267578125,-20.141599655151367,17.486570358276367,-15.136717796325684,80.0,1030874.0,1.0
473609.0855783,266719.90625,268612.375,283000.1875,273118.125,278124.46875,261871.625,244324.609375,242155.40625,-0.084228515625,0.880615234375,-0.425048828125,-19.744871139526367,15.014647483825684,-15.808104515075684,80.0,1030875.0,1.0
473609.0893464,266021.34375,268646.875,283260.0,273658.5,278668.25,261924.8125,245016.265625,242438.46875,-0.08349609375,0.87646484375,-0.42041015625,-19.256589889526367,12.664793968200684,-16.265867233276367,80.0,1030876.0,1.0
473609.1044117,265905.125,268813.34375,284190.03125,275281.15625,280186.09375,261977.921875,246271.890625,242866.828125,-0.083984375,0.874755859375,-0.4189453125,-18.951414108276367,10.131834983825684,-16.723630905151367,80.0,1030877.0,1.0
473609.1044526,266579.53125,268894.09375,284513.65625,275733.0,280573.3125,261960.140625,246351.734375,242867.265625,-0.080322265625,0.873779296875,-0.418701171875,-18.615720748901367,7.751464366912842,-17.211912155151367,80.0,1030878.0,1.0
473609.1069056,267112.75,268779.125,283801.71875,274424.4375,279312.0625,261899.25,245167.09375,242456.53125,-0.079345703125,0.869873046875,-0.418701171875,-18.310544967651367,5.493163585662842,-17.608640670776367,80.0,1030879.0,1.0
473609.1069458,266737.59375,268627.46875,283026.5625,273158.1875,278156.03125,261882.796875,244380.84375,242198.0625,-0.0771484375,0.867431640625,-0.42041015625,-17.730710983276367,3.295898199081421,-17.852781295776367,80.0,1030880.0,1.0
473609.1118175,266031.46875,268666.625,283276.90625,273688.28125,278692.1875,261940.46875,245072.046875,242437.140625,-0.072509765625,0.86376953125,-0.423583984375,-16.967771530151367,1.0986326932907104,-18.127439498901367,80.0,1030881.0,1.0
473609.1143813,265900.3125,268833.03125,284207.625,275320.3125,280221.25,261998.671875,246340.90625,242841.796875,-0.0673828125,0.860107421875,-0.425048828125,-16.021726608276367,-0.9155272841453552,-18.341062545776367,80.0,1030882.0,1.0
473609.116712,266567.09375,268908.75,284537.09375,275788.34375,280626.25,261977.75,246431.125,242831.6875,-0.0615234375,0.8623046875,-0.42724609375,-14.892577171325684,-2.807616949081421,-18.463132858276367,80.0,1030883.0,1.0
473609.1268354,267103.09375,268792.15625,283825.0625,274477.5625,279364.90625,261913.109375,245238.53125,242426.046875,-0.052978515625,0.865234375,-0.4267578125,-13.946532249450684,-4.791259288787842,-18.493650436401367,80.0,1030884.0,1.0
473609.131914,266730.34375,268636.0625,283035.3125,273184.03125,278186.34375,261890.125,244428.9375,242173.203125,-0.048095703125,0.864990234375,-0.42578125,-12.969969749450684,-6.317138195037842,-18.432615280151367,80.0,1030885.0,1.0
473609.1319564,266019.84375,268668.34375,283267.15625,273687.46875,278700.53125,261943.0625,245106.46875,242427.390625,-0.04443359375,0.864990234375,-0.423583984375,-11.993407249450684,-7.873534679412842,-18.280027389526367,80.0,1030886.0,1.0
473609.1319661,265878.21875,268825.6875,284191.28125,275312.34375,280227.9375,261989.09375,246378.828125,242842.78125,-0.03857421875,0.8603515625,-0.42138671875,-10.986327171325684,-9.399413108825684,-18.249509811401367,80.0,1030887.0,1.0
473609.135611,266537.78125,268894.53125,284523.6875,275786.84375,280640.28125,261960.578125,246476.625,242831.328125,-0.0302734375,0.861572265625,-0.42333984375,-9.857176780700684,-10.620116233825684,-18.096921920776367,80.0,1030888.0,1.0
473609.151824,267079.9375,268774.28125,283809.84375,274473.8125,279376.34375,261895.765625,245279.296875,242414.96875,-0.0244140625,0.867919921875,-0.42333984375,-8.880614280700684,-11.718749046325684,-17.883298873901367,80.0,1030889.0,1.0
473609.1593858,266711.9375,268613.71875,283010.5625,273167.65625,278179.90625,261873.859375,244456.03125,242149.875,-0.018310546875,0.8759765625,-0.421630859375,-7.873534679412842,-12.603758811950684,-17.761228561401367,80.0,1030890.0,1.0
473609.1594292,265998.375,268642.40625,283235.40625,273659.21875,278680.84375,261925.890625,245122.109375,242367.21875,-0.013916015625,0.87890625,-0.42236328125,-7.049560070037842,-13.488768577575684,-17.333982467651367,80.0,1030891.0,1.0
473609.1617939,265855.9375,268804.15625,284168.75,275290.90625,280217.03125,261976.5,246401.703125,242765.53125,-0.0107421875,0.881591796875,-0.419921875,-6.469726085662842,-14.129637718200684,-16.937253952026367,80.0,1030892.0,1.0
473609.1643158,266519.34375,268876.125,284518.3125,275785.3125,280649.15625,261952.71875,246512.578125,242759.71875,-0.00830078125,0.882080078125,-0.416015625,-5.859374523162842,-14.617918968200684,-16.601560592651367,80.0,1030893.0,1.0
473609.1667075,267068.75,268755.5,283811.03125,274482.28125,279390.65625,261889.046875,245313.171875,242330.734375,-0.00439453125,0.8837890625,-0.417236328125,-5.310058116912842,-15.197752952575684,-16.326902389526367,80.0,1030894.0,1.0
473609.1693349,266708.34375,268596.28125,283003.9375,273166.59375,278183.65625,261868.9375,244479.453125,242058.140625,0.0009765625,0.887451171875,-0.41455078125,-4.760741710662842,-15.533446311950684,-15.899657249450684,80.0,1030895.0,1.0
473609.17315,265997.3125,268623.53125,283220.5,273650.90625,278671.71875,261919.71875,245136.515625,242294.984375,-0.002197265625,0.887939453125,-0.414794921875,-4.394530773162842,-15.777586936950684,-15.655516624450684,80.0,1030896.0,1.0
473609.17319,265854.6875,268786.34375,284162.9375,275295.625,280213.1875,261973.0,246420.3125,242717.515625,-0.001708984375,0.888671875,-0.4189453125,-3.936767339706421,-15.869139671325684,-15.411375999450684,80.0,1030897.0,1.0
473609.1754882,266522.3125,268874.0625,284534.3125,275811.5,280669.4375,261956.109375,246545.828125,242737.28125,-0.0009765625,0.89111328125,-0.418701171875,-3.509521245956421,-16.113279342651367,-15.289305686950684,80.0,1030898.0,1.0
473609.2019339,267087.1875,268772.40625,283841.875,274513.5,279425.4375,261896.65625,245352.25,242342.0,0.002685546875,0.890869140625,-0.42041015625,-3.021239995956421,-16.143796920776367,-15.106200218200684,80.0,1030899.0,1.0
473609.2019746,266739.21875,268623.8125,283035.78125,273189.125,278211.625,261878.328125,244508.421875,242095.59375,0.000732421875,0.89208984375,-0.423095703125,-2.655029058456421,-16.204832077026367,-15.014647483825684,80.0,1030900.0,1.0
473609.2056897,266032.96875,268657.96875,283251.59375,273671.90625,278690.78125,261934.46875,245156.984375,242355.421875,0.000244140625,0.892578125,-0.4228515625,-2.227782964706421,-16.174314498901367,-15.014647483825684,80.0,1030901.0,1.0
473609.2057303,265889.5625,268825.34375,284200.3125,275333.625,280237.6875,261987.578125,246447.03125,242801.921875,0.00048828125,0.890625,-0.421875,-1.8005369901657104,-16.204832077026367,-14.923094749450684,80.0,1030902.0,1.0
473609.20574,266546.8125,268901.96875,284569.28125,275855.5,280697.34375,261964.6875,246576.59375,242841.34375,-0.000244140625,0.892333984375,-0.417724609375,-1.3732908964157104,-15.960692405700684,-14.892577171325684,80.0,1030903.0,1.0
473609.2419407,267101.5625,268785.28125,283865.28125,274548.28125,279448.40625,261904.34375,245376.296875,242467.984375,-0.002685546875,0.894287109375,-0.418701171875,-0.9460448622703552,-15.624999046325684,-15.075682640075684,80.0,1030904.0,1.0
473609.2419816,266742.875,268621.40625,283034.96875,273201.71875,278212.28125,261885.828125,244515.671875,242230.609375,-0.001220703125,0.896240234375,-0.418212890625,-0.5187987685203552,-15.533446311950684,-15.167235374450684,80.0,1030905.0,1.0
473609.2419919,266023.3125,268642.0625,283226.375,273665.21875,278669.21875,261941.796875,245150.8125,242492.5625,-0.0029296875,0.89599609375,-0.418212890625,-0.1220703050494194,-15.411375999450684,-15.380858421325684,80.0,1030906.0,1.0
473609.2433211,265863.90625,268799.3125,284164.28125,275319.0625,280211.125,261992.046875,246437.828125,242941.390625,-0.00146484375,0.89892578125,-0.419677734375,-0.1525878757238388,-15.136717796325684,-15.655516624450684,80.0,1030907.0,1.0
473609.2605835,266511.84375,268879.34375,284538.15625,275841.28125,280682.3125,261966.84375,246576.328125,242976.796875,-0.000732421875,0.898681640625,-0.417724609375,0.0915527269244194,-14.862059593200684,-15.655516624450684,80.0,1030908.0,1.0
473609.2630925,267067.3125,268765.6875,283833.90625,274523.15625,279433.5625,261900.5,245379.078125,242554.078125,-0.00244140625,0.89794921875,-0.4169921875,0.1831054538488388,-14.343260765075684,-15.869139671325684,80.0,1030909.0,1.0
473609.2668408,266714.25,268598.96875,282994.1875,273155.21875,278180.96875,261878.5,244507.71875,242260.734375,-0.00390625,0.894287109375,-0.42041015625,0.3662109076976776,-14.007567405700684,-15.930174827575684,80.0,1030910.0,1.0
473609.2668816,265999.53125,268615.3125,283178.5625,273606.03125,278622.28125,261929.015625,245131.234375,242480.765625,-0.00146484375,0.8955078125,-0.4169921875,0.4577636420726776,-13.580321311950684,-16.204832077026367,80.0,1030911.0,1.0
473609.2668923,265842.09375,268769.71875,284120.8125,275262.8125,280164.28125,261970.859375,246419.140625,242892.84375,-0.001708984375,0.89453125,-0.42041015625,0.5493163466453552,-13.061522483825684,-16.326902389526367,80.0,1030912.0,1.0
473609.2692376,266488.78125,268846.4375,284500.96875,275800.15625,280646.46875,261936.265625,246564.515625,242866.109375,-0.0029296875,0.889892578125,-0.420166015625,0.8544921278953552,-12.481688499450684,-16.510007858276367,80.0,1030913.0,1.0
473609.2717214,267042.46875,268733.34375,283797.78125,274485.34375,279400.3125,261873.140625,245366.828125,242375.890625,-0.0078125,0.88818359375,-0.4169921875,0.8239745497703552,-11.932372093200684,-16.632078170776367,80.0,1030914.0,1.0
473609.2743259,266694.0625,268564.4375,282951.8125,273112.40625,278137.625,261851.234375,244487.859375,242055.015625,-0.0107421875,0.88818359375,-0.418701171875,1.1291502714157104,-11.444090843200684,-16.876218795776367,80.0,1030915.0,1.0
473609.2793712,265982.46875,268579.1875,283134.3125,273560.40625,278569.09375,261901.484375,245104.6875,242227.921875,-0.012451171875,0.889404296875,-0.422607421875,1.4648436307907104,-10.955809593200684,-17.211912155151367,80.0,1030916.0,1.0
473609.2817502,265829.03125,268741.90625,284089.53125,275232.59375,280122.71875,261950.296875,246398.125,242538.171875,-0.0146484375,0.896484375,-0.421630859375,1.7395018339157104,-10.375975608825684,-17.517087936401367,80.0,1030917.0,1.0
473609.2842032,266479.125,268826.9375,284490.96875,275794.96875,280633.0625,261926.34375,246563.53125,242442.5,-0.015869140625,0.895751953125,-0.421875,2.014159917831421,-10.009764671325684,-17.669675827026367,80.0,1030918.0,1.0
473609.286826,267042.375,268717.4375,283798.9375,274493.21875,279399.15625,261860.4375,245374.25,241875.03125,-0.01904296875,0.89453125,-0.416259765625,2.197265386581421,-9.429930686950684,-18.005369186401367,80.0,1030919.0,1.0
473609.289213,266697.375,268554.53125,282950.65625,273114.28125,278129.125,261839.4375,244489.109375,241477.078125,-0.016357421875,0.89697265625,-0.4140625,2.410888433456421,-8.728026390075684,-18.157957077026367,80.0,1030920.0,1.0
473609.2943649,265992.3125,268579.5625,283136.53125,273558.0,278558.0,261897.90625,245098.15625,241644.8125,-0.017578125,0.8984375,-0.411376953125,2.380370855331421,-8.117674827575684,-18.188474655151367,80.0,1030921.0,1.0
473609.2944062,265842.8125,268752.125,284110.0,275246.0,280126.28125,261959.859375,246402.0625,242049.203125,-0.021484375,0.901611328125,-0.410400390625,2.349853277206421,-7.446288585662842,-18.188474655151367,80.0,1030922.0,1.0
473609.2967947,266492.8125,268848.03125,284530.125,275828.75,280660.9375,261949.21875,246583.921875,242094.96875,-0.024169921875,0.90283203125,-0.41357421875,2.319335699081421,-6.805419445037842,-18.218992233276367,80.0,1030923.0,1.0
473609.299203,267056.0625,268742.0,283840.4375,274537.28125,279440.09375,261891.203125,245402.046875,241758.359375,-0.025634765625,0.905029296875,-0.414306640625,2.349853277206421,-6.164550304412842,-18.188474655151367,80.0,1030924.0,1.0
473609.3017179,266712.5625,268575.09375,282982.75,273148.0625,278161.03125,261872.875,244506.90625,241546.46875,-0.02734375,0.9052734375,-0.4140625,2.410888433456421,-5.493163585662842,-18.188474655151367,80.0,1030925.0,1.0
473609.3043224,266004.625,268595.90625,283155.3125,273574.375,278573.125,261926.78125,245105.484375,241809.5,-0.028076171875,0.905517578125,-0.413330078125,2.288818120956421,-4.882812023162842,-18.096921920776367,80.0,1030926.0,1.0
473609.3068974,265847.0,268764.625,284122.0625,275256.65625,280141.40625,261976.21875,246408.234375,242295.6875,-0.027587890625,0.904052734375,-0.412109375,2.441406011581421,-4.241942882537842,-17.974851608276367,80.0,1030927.0,1.0
473609.3069397,266491.28125,268857.4375,284542.5625,275847.09375,280682.84375,261956.46875,246600.8125,242395.03125,-0.027099609375,0.905029296875,-0.412353515625,2.471923589706421,-3.448486089706421,-17.791746139526367,80.0,1030928.0,1.0
473609.3093933,267055.53125,268746.03125,283846.0625,274550.59375,279455.75,261895.671875,245418.859375,242033.640625,-0.0302734375,0.90478515625,-0.4130859375,2.441406011581421,-2.624511480331421,-17.639158248901367,80.0,1030929.0,1.0
473609.309434,266718.375,268573.65625,282970.78125,273142.875,278154.34375,261868.046875,244509.765625,241769.265625,-0.03173828125,0.90576171875,-0.4111328125,2.441406011581421,-2.288818120956421,-17.486570358276367,80.0,1030930.0,1.0
473609.3108231,266015.09375,268596.28125,283132.0625,273552.5625,278547.8125,261915.421875,245092.96875,242007.625,-0.0380859375,0.90625,-0.41162109375,2.410888433456421,-1.4953612089157104,-17.333982467651367,80.0,1030931.0,1.0
473609.3180708,265859.96875,268771.96875,284106.0625,275239.125,280119.125,261970.859375,246397.859375,242467.53125,-0.04052734375,0.905029296875,-0.410400390625,2.380370855331421,-0.7324218153953552,-17.120359420776367,80.0,1030932.0,1.0
473609.3181114,266494.59375,268859.3125,284532.1875,275840.46875,280670.6875,261948.875,246596.4375,242496.859375,-0.04345703125,0.90283203125,-0.410400390625,2.349853277206421,-0.0915527269244194,-16.876218795776367,80.0,1030933.0,1.0
473609.3229604,267052.3125,268744.0625,283834.09375,274545.875,279445.1875,261885.125,245416.265625,242083.796875,-0.04443359375,0.901123046875,-0.410400390625,2.319335699081421,0.5187987685203552,-16.540525436401367,80.0,1030934.0,1.0
473609.3254713,266715.78125,268573.3125,282952.0,273124.5625,278130.71875,261861.0625,244497.15625,241824.078125,-0.047119140625,0.90234375,-0.41259765625,2.380370855331421,1.1291502714157104,-16.204832077026367,80.0,1030935.0,1.0
473609.3306354,266013.9375,268591.625,283106.59375,273516.0625,278507.03125,261908.71875,245066.421875,242045.0,-0.046875,0.901611328125,-0.414794921875,2.441406011581421,1.8005369901657104,-15.930174827575684,80.0,1030936.0,1.0
473609.3306777,265861.75,268770.0,284091.84375,275206.65625,280087.65625,261966.390625,246376.859375,242458.6875,-0.048828125,0.901611328125,-0.4150390625,2.532958745956421,2.441406011581421,-15.563963890075684,80.0,1030937.0,1.0
473609.3331895,266490.28125,268856.625,284525.46875,275824.375,280654.5,261945.734375,246588.21875,242489.078125,-0.051025390625,0.90185546875,-0.412841796875,2.563476324081421,3.051757574081421,-15.228270530700684,80.0,1030938.0,1.0
473609.3518329,267043.09375,268734.9375,283820.40625,274540.0625,279431.5,261876.625,245410.0,242081.5625,-0.05224609375,0.902099609375,-0.41259765625,2.746581792831421,3.631591558456421,-14.923094749450684,80.0,1030939.0,1.0
473609.3543985,266709.625,268561.0625,282932.34375,273114.1875,278113.65625,261857.5,244485.984375,241805.109375,-0.055908203125,0.903076171875,-0.410400390625,2.777099370956421,4.302978038787842,-14.434813499450684,80.0,1030940.0,1.0
473609.3544397,266011.53125,268585.375,283088.96875,273494.78125,278487.0,261919.0,245053.546875,242054.390625,-0.05615234375,0.905029296875,-0.407958984375,2.624511480331421,4.821776866912842,-14.038084983825684,80.0,1030941.0,1.0
473609.3567229,265856.59375,268767.03125,284086.03125,275191.21875,280075.78125,261984.265625,246373.359375,242533.15625,-0.05712890625,0.903564453125,-0.40771484375,2.685546636581421,5.340575695037842,-13.671874046325684,80.0,1030942.0,1.0
473609.3593528,266487.96875,268865.5625,284543.09375,275835.375,280676.0625,261970.953125,246611.09375,242610.9375,-0.056884765625,0.9033203125,-0.41162109375,2.685546636581421,5.950927257537842,-13.214110374450684,80.0,1030943.0,1.0
473609.3617787,267048.1875,268751.125,283848.65625,274564.90625,279471.46875,261910.515625,245442.640625,242214.515625,-0.0576171875,0.90283203125,-0.413330078125,2.593993902206421,6.469726085662842,-12.634276390075684,80.0,1030944.0,1.0
473609.3618206,266722.03125,268577.9375,282954.40625,273131.09375,278144.21875,261892.453125,244509.234375,241921.703125,-0.060791015625,0.90234375,-0.412109375,2.532958745956421,7.415771007537842,-11.840819358825684,80.0,1030945.0,1.0
473609.3767089,266026.53125,268598.5,283106.84375,273499.0,278507.125,261946.71875,245065.609375,242143.875,-0.066162109375,0.903564453125,-0.4091796875,2.532958745956421,7.873534679412842,-11.291502952575684,80.0,1030946.0,1.0
473609.3793977,265873.65625,268780.28125,284109.90625,275201.3125,280102.15625,262006.171875,246385.96875,242595.203125,-0.07080078125,0.904296875,-0.41015625,2.410888433456421,8.300780296325684,-10.864256858825684,80.0,1030947.0,1.0
473609.3794379,266504.40625,268875.0625,284576.53125,275867.3125,280718.25,261994.28125,246635.78125,242658.6875,-0.07275390625,0.90283203125,-0.41015625,2.349853277206421,8.728026390075684,-10.314940452575684,80.0,1030948.0,1.0
473609.3817642,267066.4375,268757.65625,283883.96875,274607.5625,279518.6875,261928.75,245470.890625,242261.890625,-0.07373046875,0.902587890625,-0.41259765625,2.227782964706421,9.155272483825684,-9.826659202575684,80.0,1030949.0,1.0
473609.3843119,266745.65625,268580.8125,282980.0625,273157.8125,278173.375,261901.75,244521.03125,241953.796875,-0.07568359375,0.903076171875,-0.4130859375,2.227782964706421,9.460448265075684,-9.338377952575684,80.0,1030950.0,1.0
473609.3881037,266059.34375,268603.34375,283128.03125,273507.5,278522.78125,261960.140625,245068.921875,242107.9375,-0.077880859375,0.905029296875,-0.4150390625,2.319335699081421,9.796141624450684,-8.758543968200684,80.0,1030951.0,1.0
473609.4018891,265903.53125,268783.59375,284131.90625,275209.4375,280119.5,262017.984375,246395.453125,242453.671875,-0.080078125,0.9052734375,-0.413330078125,2.288818120956421,10.070799827575684,-8.300780296325684,80.0,1030952.0,1.0
473609.4019316,266523.375,268874.0625,284598.78125,275884.375,280743.8125,261995.1875,246651.515625,242446.25,-0.083251953125,0.906982421875,-0.415771484375,2.288818120956421,10.314940452575684,-7.843017101287842,80.0,1030953.0,1.0
473609.4043729,267085.03125,268758.1875,283904.375,274632.0625,279545.875,261926.15625,245487.25,242048.296875,-0.083251953125,0.908935546875,-0.417236328125,2.227782964706421,10.589598655700684,-7.385253429412842,80.0,1030954.0,1.0
473609.406905,266765.125,268585.71875,282989.28125,273175.78125,278187.40625,261897.546875,244527.921875,241780.0,-0.082763671875,0.910400390625,-0.415283203125,2.136230230331421,10.803221702575684,-6.988524913787842,80.0,1030955.0,1.0
473609.4069467,266079.375,268616.21875,283128.21875,273508.5625,278518.3125,261955.75,245060.25,242020.953125,-0.0849609375,0.910400390625,-0.417724609375,2.166747808456421,10.986327171325684,-6.500243663787842,80.0,1030956.0,1.0
473609.4092945,265922.5625,268806.375,284139.6875,275206.21875,280115.90625,262020.125,246390.359375,242469.40625,-0.0869140625,0.913330078125,-0.415771484375,2.197265386581421,11.169432640075684,-5.950927257537842,80.0,1030957.0,1.0
473609.426845,266533.46875,268898.46875,284612.5625,275895.28125,280754.1875,261999.921875,246657.953125,242509.546875,-0.087890625,0.914794921875,-0.41845703125,2.136230230331421,11.260985374450684,-5.645751476287842,80.0,1030958.0,1.0
473609.434277,267089.59375,268778.03125,283912.3125,274650.03125,279552.65625,261929.5625,245494.140625,242109.453125,-0.09033203125,0.916259765625,-0.41552734375,1.8920897245407104,11.413573265075684,-5.187987804412842,80.0,1030959.0,1.0
473609.4343163,266775.6875,268601.0,282986.78125,273181.78125,278179.625,261901.75,244523.890625,241825.6875,-0.091796875,0.917236328125,-0.416748046875,1.5869139432907104,11.505125999450684,-4.760741710662842,80.0,1030960.0,1.0
473609.4367028,266091.09375,268628.28125,283116.6875,273496.0625,278495.5,261954.328125,245042.28125,242064.9375,-0.093505859375,0.91845703125,-0.416259765625,1.4648436307907104,11.566161155700684,-4.272460460662842,80.0,1030961.0,1.0
473609.4392857,265928.28125,268816.125,284127.15625,275188.34375,280090.96875,262016.375,246366.125,242493.46875,-0.09326171875,0.9189453125,-0.413818359375,1.3122557401657104,11.566161155700684,-3.906249761581421,80.0,1030962.0,1.0
473609.4417595,266530.875,268903.9375,284605.75,275893.21875,280739.71875,261997.0625,246644.0,242518.671875,-0.0947265625,0.919189453125,-0.415771484375,1.0681151151657104,11.657713890075684,-3.479003667831421,80.0,1030963.0,1.0
473609.4442197,267083.78125,268774.90625,283903.65625,274656.0,279543.71875,261926.96875,245485.109375,242100.609375,-0.095458984375,0.916748046875,-0.41552734375,0.8239745497703552,11.779784202575684,-2.960204839706421,80.0,1030964.0,1.0
473609.4543942,266767.1875,268591.0,282969.78125,273172.84375,278156.84375,261900.3125,244505.125,241784.109375,-0.092529296875,0.916259765625,-0.415771484375,0.6408690810203552,11.688231468200684,-2.471923589706421,80.0,1030965.0,1.0
473609.454435,266081.875,268617.75,283093.875,273463.15625,278460.1875,261959.328125,245018.40625,241993.3125,-0.09130859375,0.91796875,-0.417724609375,0.5187987685203552,11.627196311950684,-2.075195074081421,80.0,1030966.0,1.0
473609.4568469,265910.75,268804.15625,284101.0625,275145.4375,280057.96875,262023.078125,246347.96875,242447.859375,-0.093994140625,0.91845703125,-0.41748046875,0.4577636420726776,11.627196311950684,-1.6784666776657104,80.0,1030967.0,1.0
473609.4592333,266511.5625,268899.1875,284592.15625,275867.03125,280727.46875,262009.9375,246642.75,242497.75,-0.094482421875,0.92041015625,-0.418212890625,0.5187987685203552,11.627196311950684,-1.3122557401657104,80.0,1030968.0,1.0
473609.461744,267068.59375,268771.15625,283897.75,274645.09375,279539.6875,261940.640625,245489.3125,242070.484375,-0.096435546875,0.923828125,-0.4169921875,0.3662109076976776,11.627196311950684,-0.8544921278953552,80.0,1030969.0,1.0
473609.4781573,266759.6875,268588.6875,282961.03125,273157.8125,278146.8125,261912.125,244499.75,241747.625,-0.096435546875,0.927001953125,-0.4150390625,0.1831054538488388,11.413573265075684,-0.4577636420726776,80.0,1030970.0,1.0
473609.4781972,266070.15625,268609.96875,283071.90625,273431.0625,278439.28125,261966.03125,244999.53125,241936.28125,-0.095458984375,0.930908203125,-0.41357421875,-0.0915527269244194,11.322020530700684,-0.1525878757238388,80.0,1030971.0,1.0
473609.4805336,265894.65625,268796.625,284082.46875,275117.1875,280042.15625,262028.078125,246334.109375,242364.453125,-0.094482421875,0.933837890625,-0.4111328125,-0.3356933295726776,11.230467796325684,0.2441406100988388,80.0,1030972.0,1.0
473609.4829682,266493.6875,268887.28125,284581.625,275860.0625,280725.9375,262008.765625,246642.84375,242423.71875,-0.096435546875,0.93408203125,-0.409912109375,-0.6408690810203552,11.169432640075684,0.4882812201976776,80.0,1030973.0,1.0
473609.4847382,267057.125,268756.3125,283892.75,274654.75,279544.15625,261931.875,245491.71875,242011.109375,-0.096435546875,0.93603515625,-0.40966796875,-0.9765624403953552,11.077879905700684,0.9765624403953552,80.0,1030974.0,1.0
473609.5106407,266761.1875,268573.46875,282957.625,273165.5,278145.5625,261904.25,244493.9375,241684.15625,-0.096435546875,0.93798828125,-0.40966796875,-1.4343260526657104,10.894774436950684,1.4038084745407104,80.0,1030975.0,1.0
473609.5129681,266083.9375,268599.75,283070.8125,273429.625,278427.125,261964.15625,244987.109375,241878.25,-0.095947265625,0.93603515625,-0.4111328125,-1.8920897245407104,10.742186546325684,1.7700194120407104,80.0,1030976.0,1.0
473609.5155455,265909.34375,268792.53125,284086.75,275117.53125,280034.1875,262032.109375,246328.3125,242327.171875,-0.094482421875,0.936279296875,-0.41015625,-2.136230230331421,10.620116233825684,2.166747808456421,80.0,1030977.0,1.0
473609.5180855,266499.0625,268885.875,284594.40625,275875.4375,280733.90625,262012.078125,246651.15625,242403.25,-0.095703125,0.934814453125,-0.4091796875,-2.593993902206421,10.528563499450684,2.502441167831421,80.0,1030978.0,1.0
473609.5206241,267061.78125,268755.78125,283907.84375,274680.875,279561.40625,261934.03125,245504.328125,242002.4375,-0.0947265625,0.933349609375,-0.410888671875,-2.899169683456421,10.314940452575684,2.716064214706421,80.0,1030979.0,1.0
473609.5292351,266768.4375,268574.0,282961.375,273178.65625,278152.625,261901.578125,244495.1875,241692.640625,-0.0947265625,0.930908203125,-0.412353515625,-2.960204839706421,10.192870140075684,3.051757574081421,80.0,1030980.0,1.0
473609.5318393,266091.09375,268606.5625,283065.28125,273422.09375,278417.8125,261954.5,244974.421875,241903.46875,-0.095458984375,0.93017578125,-0.412353515625,-3.143310308456421,9.918211936950684,3.326415777206421,80.0,1030981.0,1.0
473609.5368086,265911.46875,268803.625,284077.71875,275102.6875,280023.90625,262018.15625,246315.703125,242364.265625,-0.094482421875,0.928466796875,-0.41357421875,-3.326415777206421,9.582518577575684,3.479003667831421,80.0,1030982.0,1.0
473609.5393431,266498.625,268900.25,284590.125,275872.5625,280738.625,262000.984375,246651.875,242458.5,-0.093505859375,0.925048828125,-0.41552734375,-3.387450933456421,9.399413108825684,3.784179449081421,80.0,1030983.0,1.0
473609.541832,267073.3125,268779.84375,283918.21875,274694.71875,279580.90625,261930.625,245515.5,242080.21875,-0.094970703125,0.92431640625,-0.415771484375,-3.356933355331421,9.002684593200684,4.058837413787842,80.0,1030984.0,1.0
473609.5443426,266793.90625,268600.125,282974.53125,273189.75,278167.84375,261902.015625,244498.40625,241780.703125,-0.095458984375,0.9208984375,-0.41845703125,-3.387450933456421,8.789061546325684,4.119872570037842,80.0,1030985.0,1.0
473609.5468972,266116.125,268626.75,283066.34375,273413.625,278419.875,261960.046875,244964.9375,241988.578125,-0.0947265625,0.91796875,-0.418701171875,-3.295898199081421,8.575438499450684,4.486083507537842,80.0,1030986.0,1.0
473609.5469384,265930.4375,268824.625,284082.0,275093.5625,280029.65625,262029.875,246313.546875,242450.90625,-0.09375,0.916259765625,-0.41796875,-3.234863042831421,8.270262718200684,4.699706554412842,80.0,1030987.0,1.0
473609.5491992,266521.15625,268933.4375,284614.53125,275890.53125,280770.03125,262030.765625,246674.84375,242547.109375,-0.09130859375,0.910888671875,-0.41796875,-2.929687261581421,8.117674827575684,4.821776866912842,80.0,1030988.0,1.0
473609.5543401,267083.0625,268799.21875,283933.25,274710.09375,279608.8125,261951.546875,245531.421875,242143.703125,-0.088623046875,0.908203125,-0.4208984375,-2.716064214706421,7.843017101287842,5.065917491912842,80.0,1030989.0,1.0
473609.5568699,266809.3125,268617.28125,282987.65625,273201.1875,278188.03125,261923.46875,244505.125,241804.671875,-0.0888671875,0.907958984375,-0.4208984375,-2.410888433456421,7.568358898162842,5.004882335662842,80.0,1030990.0,1.0
473609.5593408,266129.71875,268637.125,283070.1875,273410.65625,278423.28125,261979.796875,244961.359375,241966.234375,-0.086669921875,0.90771484375,-0.423095703125,-1.9531248807907104,7.263183116912842,5.126952648162842,80.0,1030991.0,1.0
473609.5593806,265932.21875,268820.40625,284072.96875,275079.4375,280019.0,262044.984375,246305.421875,242400.75,-0.08642578125,0.9072265625,-0.421875,-1.5869139432907104,7.080077648162842,5.462646007537842,80.0,1030992.0,1.0
473609.561771,266504.59375,268912.875,284602.375,275880.34375,280758.40625,262029.875,246668.40625,242471.28125,-0.086669921875,0.90380859375,-0.41943359375,-1.3122557401657104,6.652831554412842,5.676269054412842,80.0,1030993.0,1.0
473609.5618061,267087.0,268792.15625,283946.65625,274733.0,279622.84375,261956.109375,245545.1875,242067.078125,-0.086669921875,0.90283203125,-0.419677734375,-1.0375975370407104,6.439208507537842,5.767821788787842,80.0,1030994.0,1.0
473609.5643544,266816.4375,268607.71875,282997.6875,273216.21875,278192.96875,261918.015625,244508.0625,241739.046875,-0.0859375,0.900634765625,-0.420654296875,-0.6713866591453552,6.164550304412842,5.859374523162842,80.0,1030995.0,1.0
473609.5669311,266126.40625,268618.4375,283059.28125,273396.53125,278401.71875,261953.78125,244942.765625,241917.40625,-0.082275390625,0.901123046875,-0.42041015625,-0.3967284858226776,5.828856945037842,5.981444835662842,80.0,1030996.0,1.0
473609.6217761,265925.96875,268811.125,284065.125,275066.3125,280000.40625,262013.953125,246294.875,242362.75,-0.08203125,0.90087890625,-0.420166015625,0.0610351525247097,5.737304210662842,6.042479991912842,80.0,1030997.0,1.0
473609.6218156,266494.3125,268912.34375,284607.375,275885.0,280756.96875,261999.203125,246676.28125,242438.921875,-0.0810546875,0.901123046875,-0.423095703125,0.3967284858226776,5.432128429412842,6.011962413787842,80.0,1030998.0,1.0
473609.6292788,267076.4375,268788.40625,283955.78125,274744.0,279630.96875,261927.671875,245554.046875,242031.578125,-0.0810546875,0.89990234375,-0.422607421875,0.6713866591453552,5.187987804412842,6.225585460662842,80.0,1030999.0,1.0
473609.6293181,266813.15625,268599.21875,283002.96875,273221.3125,278197.34375,261889.953125,244505.65625,241693.890625,-0.079345703125,0.897705078125,-0.422607421875,1.2512205839157104,4.913329601287842,6.317138195037842,80.0,1031000.0,1.0
473609.6308123,266134.8125,268618.625,283071.96875,273404.125,278411.8125,261947.078125,244943.390625,241874.765625,-0.078857421875,0.898193359375,-0.422119140625,1.5258787870407104,4.699706554412842,6.225585460662842,80.0,1031001.0,1.0
473609.6406096,265927.03125,268811.75,284073.34375,275068.8125,280008.90625,262019.59375,246294.875,242337.984375,-0.076904296875,0.8984375,-0.4248046875,1.8615721464157104,4.455565929412842,6.256103038787842,80.0,1031002.0,1.0
473609.6431493,266492.1875,268911.875,284620.34375,275899.5,280780.75,262012.796875,246687.90625,242456.890625,-0.07568359375,0.896728515625,-0.4287109375,2.319335699081421,4.272460460662842,6.347655773162842,80.0,1031003.0,1.0
473609.6454762,267074.5625,268786.34375,283973.46875,274769.03125,279663.15625,261940.546875,245572.8125,242088.8125,-0.07421875,0.89599609375,-0.4267578125,2.685546636581421,4.058837413787842,6.225585460662842,80.0,1031004.0,1.0
473609.6479303,266814.3125,268602.0,283016.71875,273238.09375,278224.34375,261904.4375,244520.671875,241764.4375,-0.073486328125,0.895263671875,-0.421875,3.051757574081421,3.845214605331421,6.317138195037842,80.0,1031005.0,1.0
473609.6503276,266129.28125,268613.4375,283064.03125,273388.3125,278412.1875,261955.75,244940.703125,241944.328125,-0.071533203125,0.8955078125,-0.426025390625,3.570556402206421,3.753661870956421,6.317138195037842,80.0,1031006.0,1.0
473609.6530969,265918.8125,268804.875,284059.84375,275046.09375,279999.78125,262022.0,246288.15625,242404.59375,-0.070556640625,0.896484375,-0.4248046875,3.997802495956421,3.540038824081421,6.286620616912842,80.0,1031007.0,1.0
473609.6531095,266482.4375,268909.46875,284614.875,275891.25,280781.375,262009.03125,246693.359375,242502.671875,-0.071044921875,0.89599609375,-0.42578125,4.333495616912842,3.265380620956421,6.347655773162842,80.0,1031008.0,1.0
473609.6555701,267072.78125,268792.0625,283979.71875,274774.3125,279676.46875,261933.21875,245588.1875,242109.375,-0.06884765625,0.896484375,-0.42626953125,4.760741710662842,3.143310308456421,6.378173351287842,80.0,1031009.0,1.0
473609.6580733,266827.8125,268613.1875,283029.875,273245.71875,278239.71875,261901.75,244532.390625,241777.3125,-0.06689453125,0.89501953125,-0.42724609375,5.035399913787842,3.112792730331421,6.347655773162842,80.0,1031010.0,1.0
473609.660564,266150.28125,268631.40625,283079.125,273390.28125,278422.09375,261954.234375,244942.3125,241954.6875,-0.064208984375,0.89306640625,-0.428955078125,5.371093273162842,2.899169683456421,6.347655773162842,80.0,1031011.0,1.0
473609.6630204,265931.9375,268821.21875,284071.8125,275040.375,280007.28125,262025.3125,246285.296875,242417.640625,-0.062744140625,0.891357421875,-0.42578125,5.676269054412842,3.021239995956421,6.439208507537842,80.0,1031012.0,1.0
473609.6655002,266491.09375,268924.9375,284629.625,275897.4375,280801.21875,262021.5625,246702.109375,242536.46875,-0.064453125,0.892578125,-0.4287109375,6.072997570037842,2.929687261581421,6.347655773162842,80.0,1031013.0,1.0
473609.6680359,267067.25,268786.71875,283985.1875,274779.75,279691.0625,261939.484375,245592.578125,242154.34375,-0.06201171875,0.892578125,-0.4287109375,6.408690929412842,2.685546636581421,6.347655773162842,80.0,1031014.0,1.0
473609.6705553,266823.0625,268600.125,283028.4375,273242.84375,278244.625,261907.109375,244529.265625,241848.84375,-0.0595703125,0.89404296875,-0.42919921875,6.713866710662842,2.655029058456421,6.378173351287842,80.0,1031015.0,1.0
473609.6730255,266153.9375,268622.28125,283073.3125,273378.3125,278417.28125,261973.8125,244934.09375,242036.0625,-0.05859375,0.89501953125,-0.431396484375,7.080077648162842,2.441406011581421,6.317138195037842,80.0,1031016.0,1.0
473609.6755163,265932.75,268813.1875,284063.6875,275028.03125,279996.75,262047.21875,246275.015625,242489.078125,-0.056884765625,0.898193359375,-0.42919921875,7.263183116912842,2.471923589706421,6.317138195037842,80.0,1031017.0,1.0
473609.6793835,266474.75,268914.5625,284624.34375,275893.84375,280797.1875,262036.84375,246695.671875,242605.484375,-0.05615234375,0.897705078125,-0.4287109375,7.385253429412842,2.319335699081421,6.317138195037842,80.0,1031018.0,1.0
473609.6794013,267063.75,268797.96875,283998.3125,274799.78125,279711.34375,261960.40625,245606.703125,242244.90625,-0.056640625,0.897216796875,-0.430419921875,7.537841320037842,2.197265386581421,6.317138195037842,80.0,1031019.0,1.0
473609.6794046,266828.78125,268614.0625,283039.34375,273263.84375,278261.4375,261920.53125,244541.859375,241922.0625,-0.055419921875,0.896240234375,-0.43115234375,7.843017101287842,2.136230230331421,6.347655773162842,80.0,1031020.0,1.0
473609.6817744,266151.875,268627.46875,283069.75,273379.625,278411.90625,261966.296875,244926.40625,242095.875,-0.055419921875,0.896484375,-0.43359375,7.995604991912842,2.166747808456421,6.347655773162842,80.0,1031021.0,1.0
473609.6842081,265918.625,268810.9375,284049.28125,275017.21875,279976.34375,262027.546875,246257.046875,242572.5,-0.05419921875,0.898193359375,-0.431640625,8.148192405700684,2.075195074081421,6.317138195037842,80.0,1031022.0,1.0
473609.6842272,266457.84375,268912.78125,284610.21875,275887.9375,280780.75,262020.296875,246686.734375,242683.09375,-0.0546875,0.900390625,-0.4326171875,8.209227561950684,2.075195074081421,6.286620616912842,80.0,1031023.0,1.0
473609.6867739,267048.8125,268794.125,283982.59375,274795.84375,279701.0625,261947.34375,245603.296875,242270.03125,-0.0537109375,0.899658203125,-0.434326171875,8.361815452575684,1.9836424589157104,6.103515148162842,80.0,1031024.0,1.0
473609.689336,266813.78125,268603.53125,283016.09375,273246.0625,278238.5625,261909.703125,244528.625,241928.859375,-0.0517578125,0.903076171875,-0.435546875,8.392333030700684,1.9531248807907104,6.011962413787842,80.0,1031025.0,1.0
473609.6893581,266136.6875,268607.375,283039.15625,273344.6875,278375.0625,261962.1875,244905.578125,242103.46875,-0.052001953125,0.9013671875,-0.43701171875,8.453368186950684,1.8310545682907104,5.950927257537842,80.0,1031026.0,1.0
473609.6917853,265902.0,268786.4375,284016.5625,274975.28125,279938.71875,262031.5625,246240.953125,242531.453125,-0.052490234375,0.90234375,-0.435546875,8.514403343200684,1.7395018339157104,5.889892101287842,80.0,1031027.0,1.0
473609.6955787,266433.0625,268884.625,284582.34375,275854.15625,280753.40625,262017.796875,246683.96875,242632.75,-0.05224609375,0.902587890625,-0.43798828125,8.544920921325684,1.7395018339157104,5.737304210662842,80.0,1031028.0,1.0
473609.7267771,267022.53125,268766.875,283966.0625,274780.46875,279689.625,261945.109375,245618.953125,242275.3125,-0.052490234375,0.90185546875,-0.439453125,8.575438499450684,1.6174315214157104,5.645751476287842,80.0,1031029.0,1.0
473609.7268145,266797.5,268582.40625,283006.625,273237.40625,278236.84375,261906.125,244547.9375,241958.453125,-0.050048828125,0.90185546875,-0.436279296875,8.605956077575684,1.4038084745407104,5.584716320037842,80.0,1031030.0,1.0
473609.7343398,266132.84375,268594.75,283027.90625,273329.03125,278366.75,261954.671875,244913.890625,242129.125,-0.050537109375,0.901123046875,-0.43798828125,8.483885765075684,1.3732908964157104,5.523681163787842,80.0,1031031.0,1.0
473609.7343893,265900.21875,268778.5625,284010.5625,274961.4375,279930.75,262021.640625,246246.59375,242583.21875,-0.04931640625,0.89990234375,-0.439453125,8.544920921325684,1.2207030057907104,5.401610851287842,80.0,1031032.0,1.0
473609.7344004,266434.6875,268883.8125,284596.625,275864.34375,280770.46875,262008.234375,246705.6875,242701.953125,-0.048828125,0.8994140625,-0.4384765625,8.514403343200684,1.2817381620407104,5.249022960662842,80.0,1031033.0,1.0
473609.7532631,267033.96875,268775.09375,284000.28125,274815.96875,279733.4375,261939.5625,245654.171875,242330.921875,-0.046875,0.90087890625,-0.43994140625,8.453368186950684,1.2512205839157104,5.157470226287842,80.0,1031034.0,1.0
473609.7533045,266821.375,268598.4375,283054.28125,273283.625,278293.90625,261912.65625,244588.71875,241995.828125,-0.0478515625,0.900634765625,-0.440185546875,8.361815452575684,1.1291502714157104,5.065917491912842,80.0,1031035.0,1.0
473609.7533134,266170.3125,268620.40625,283088.6875,273382.9375,278434.625,261970.765625,244958.859375,242137.4375,-0.047607421875,0.8994140625,-0.441162109375,8.331297874450684,1.0375975370407104,4.974364757537842,80.0,1031036.0,1.0
473609.7533232,265951.96875,268823.1875,284095.0625,275037.78125,280025.71875,262047.484375,246304.875,242592.609375,-0.048828125,0.900634765625,-0.441162109375,8.300780296325684,0.8850097060203552,4.943847179412842,80.0,1031037.0,1.0
473609.7604744,266489.21875,268938.53125,284699.5625,275965.8125,280894.21875,262046.765625,246781.515625,242748.890625,-0.046875,0.900634765625,-0.441650390625,8.270262718200684,0.8850097060203552,4.669188976287842,80.0,1031038.0,1.0
473609.7630988,267092.71875,268830.0625,284108.9375,274929.96875,279875.59375,261981.859375,245742.59375,242409.234375,-0.04541015625,0.898193359375,-0.4423828125,8.117674827575684,0.7324218153953552,4.577636241912842,80.0,1031039.0,1.0
473609.7679616,266891.46875,268650.71875,283160.21875,273397.25,278436.3125,261952.09375,244674.984375,242093.984375,-0.04443359375,0.89892578125,-0.44384765625,8.087157249450684,0.7629393935203552,4.516601085662842,80.0,1031040.0,1.0
473609.7706,266240.3125,268671.1875,283183.75,273481.46875,278565.25,262008.6875,245030.46875,242255.015625,-0.04345703125,0.899169921875,-0.443603515625,7.873534679412842,0.5798339247703552,4.425048351287842,80.0,1031041.0,1.0
473609.7706395,266007.59375,268862.25,284174.625,275116.71875,280137.5625,262082.0,246363.890625,242717.0625,-0.04150390625,0.900634765625,-0.443359375,7.812499523162842,0.6103515028953552,4.241942882537842,80.0,1031042.0,1.0
473609.7729773,266524.09375,268964.71875,284765.8125,276036.8125,280995.3125,262071.171875,246839.09375,242863.875,-0.0400390625,0.900390625,-0.44384765625,7.751464366912842,0.5187987685203552,4.241942882537842,80.0,1031043.0,1.0
473609.7756107,267117.125,268850.375,284167.125,274996.125,279970.28125,262001.171875,245801.078125,242515.8125,-0.04150390625,0.900146484375,-0.44091796875,7.690429210662842,0.4882812201976776,4.028319835662842,80.0,1031044.0,1.0
473609.7779647,266891.71875,268646.34375,283182.3125,273425.15625,278495.0625,261946.0,244703.6875,242171.421875,-0.041259765625,0.8994140625,-0.445068359375,7.537841320037842,0.5493163466453552,4.058837413787842,80.0,1031045.0,1.0
473609.7805779,266234.3125,268651.09375,283181.0625,273475.75,278587.5,261989.28125,245037.265625,242335.75,-0.0419921875,0.899658203125,-0.442626953125,7.385253429412842,0.5187987685203552,3.875732183456421,80.0,1031046.0,1.0
473609.7856086,265995.34375,268832.75,284155.59375,275092.0625,280135.40625,262052.578125,246357.71875,242802.90625,-0.0439453125,0.8994140625,-0.44384765625,7.232665538787842,0.5493163466453552,3.784179449081421,80.0,1031047.0,1.0
473609.7906004,266503.25,268929.59375,284736.90625,276009.0,280985.84375,262039.890625,246831.84375,242940.9375,-0.041748046875,0.898681640625,-0.444091796875,7.019042491912842,0.3967284858226776,3.662109136581421,80.0,1031048.0,1.0
473609.7930637,267090.21875,268807.09375,284128.0625,274964.90625,279946.125,261958.703125,245784.625,242577.140625,-0.039306640625,0.89794921875,-0.44580078125,6.988524913787842,0.4577636420726776,3.601073980331421,80.0,1031049.0,1.0
473609.7954804,266884.21875,268615.15625,283150.21875,273395.8125,278460.1875,261913.734375,244682.234375,242220.859375,-0.03759765625,0.897705078125,-0.44970703125,6.744384288787842,0.3356933295726776,3.509521245956421,80.0,1031050.0,1.0
473609.7955163,266226.46875,268620.5,283138.15625,273427.28125,278528.78125,261959.953125,244994.0,242359.34375,-0.03515625,0.897705078125,-0.445556640625,6.652831554412842,0.3356933295726776,3.448486089706421,80.0,1031051.0,1.0
473609.8009209,265981.5625,268809.5,284108.84375,275033.21875,280062.09375,262026.03125,246304.25,242811.84375,-0.033935546875,0.899169921875,-0.450439453125,6.561278820037842,0.2746581733226776,3.265380620956421,80.0,1031052.0,1.0
473609.8029521,266485.46875,268915.0,284699.09375,275962.59375,280919.15625,262014.21875,246786.609375,242949.890625,-0.035888671875,0.901123046875,-0.44921875,6.439208507537842,0.2746581733226776,3.143310308456421,80.0,1031053.0,1.0
473609.8055882,267075.5625,268797.96875,284101.0625,274935.6875,279896.4375,261940.90625,245753.78125,242601.734375,-0.03662109375,0.900146484375,-0.45166015625,6.225585460662842,0.3356933295726776,2.960204839706421,80.0,1031054.0,1.0
473609.8081374,266877.96875,268617.375,283131.0,273378.03125,278423.96875,261905.140625,244658.625,242262.515625,-0.035400390625,0.899658203125,-0.44921875,5.981444835662842,0.3662109076976776,2.868652105331421,80.0,1031055.0,1.0
473609.8081801,266227.25,268630.25,283122.3125,273411.8125,278497.03125,261965.046875,244970.21875,242411.296875,-0.033935546875,0.9013671875,-0.451416015625,5.767821788787842,0.3051757514476776,2.838134527206421,80.0,1031056.0,1.0
473609.8104944,265982.09375,268819.875,284096.59375,275020.875,280038.21875,262041.671875,246284.671875,242873.53125,-0.034423828125,0.899658203125,-0.45361328125,5.645751476287842,0.3356933295726776,2.685546636581421,80.0,1031057.0,1.0
473609.8293664,266484.5625,268928.0625,284699.8125,275968.59375,280916.375,262034.34375,246780.171875,243020.15625,-0.03369140625,0.902587890625,-0.456298828125,5.401610851287842,0.4272460639476776,2.716064214706421,80.0,1031058.0,1.0
473609.8294088,267075.90625,268816.40625,284111.34375,274959.1875,279909.03125,261966.84375,245759.59375,242659.578125,-0.033447265625,0.90234375,-0.455810546875,5.310058116912842,0.4272460639476776,2.685546636581421,80.0,1031059.0,1.0
473609.8331982,266878.5,268630.6875,283135.625,273392.875,278429.96875,261935.015625,244659.796875,242317.15625,-0.031005859375,0.90234375,-0.45751953125,5.004882335662842,0.4882812201976776,2.624511480331421,80.0,1031060.0,1.0
473609.8332383,266222.96875,268639.46875,283116.875,273406.1875,278486.9375,261989.8125,244957.078125,242458.59375,-0.02978515625,0.9013671875,-0.45703125,4.882812023162842,0.6103515028953552,2.593993902206421,80.0,1031061.0,1.0
473609.8332481,265975.03125,268830.4375,284090.25,275010.34375,280024.28125,262067.78125,246266.25,242911.4375,-0.03125,0.9013671875,-0.457763671875,4.577636241912842,0.7019042372703552,2.624511480331421,80.0,1031062.0,1.0
473609.8442053,266474.65625,268940.5,284696.34375,275965.28125,280911.375,262062.5,246770.421875,243049.390625,-0.029052734375,0.903076171875,-0.456787109375,4.364013195037842,0.8239745497703552,2.624511480331421,80.0,1031063.0,1.0
473609.8468323,267060.25,268821.59375,284100.53125,274954.09375,279907.59375,261988.125,245753.328125,242687.296875,-0.028564453125,0.904296875,-0.456298828125,4.150390148162842,0.8850097060203552,2.563476324081421,80.0,1031064.0,1.0
473609.8493321,266860.53125,268629.4375,283114.1875,273374.625,278416.125,261943.859375,244644.328125,242333.875,-0.027587890625,0.90283203125,-0.459228515625,3.936767339706421,1.0375975370407104,2.624511480331421,80.0,1031065.0,1.0
473609.8518002,266209.5625,268631.25,283083.875,273371.5,278457.34375,261992.234375,244930.96875,242456.796875,-0.02587890625,0.904541015625,-0.4619140625,3.845214605331421,1.0681151151657104,2.593993902206421,80.0,1031066.0,1.0
473609.8567116,265958.5,268813.53125,284051.34375,274966.96875,279985.46875,262058.296875,246233.625,242894.90625,-0.0263671875,0.906005859375,-0.462890625,3.601073980331421,1.1901854276657104,2.593993902206421,80.0,1031067.0,1.0
473609.861834,266448.375,268916.1875,284661.90625,275928.71875,280874.90625,262046.328125,246745.203125,243024.71875,-0.025146484375,0.907958984375,-0.458740234375,3.417968511581421,1.2207030057907104,2.655029058456421,80.0,1031068.0,1.0
473609.8692356,267037.1875,268799.59375,284076.75,274930.59375,279879.4375,261971.84375,245735.265625,242655.375,-0.0244140625,0.91015625,-0.46142578125,3.295898199081421,1.4038084745407104,2.746581792831421,80.0,1031069.0,1.0
473609.8692763,266850.34375,268605.03125,283090.40625,273353.53125,278385.71875,261927.5,244620.71875,242290.0625,-0.021728515625,0.909912109375,-0.462646484375,2.960204839706421,1.5869139432907104,2.838134527206421,80.0,1031070.0,1.0
473609.8718225,266205.09375,268609.59375,283056.5,273341.1875,278409.0625,261973.71875,244894.84375,242416.296875,-0.018310546875,0.908935546875,-0.461181640625,2.716064214706421,1.6784666776657104,2.899169683456421,80.0,1031071.0,1.0
473609.8743548,265944.09375,268794.5,284015.3125,274924.15625,279922.8125,262041.84375,246190.890625,242861.8125,-0.018798828125,0.908935546875,-0.45751953125,2.380370855331421,1.9226073026657104,3.234863042831421,80.0,1031072.0,1.0
473609.8767422,266419.75,268897.125,284617.5625,275883.5625,280806.6875,262032.015625,246699.796875,243004.515625,-0.019287109375,0.907958984375,-0.459228515625,2.105712652206421,2.166747808456421,3.295898199081421,80.0,1031073.0,1.0
473609.8792249,267011.09375,268787.96875,284031.9375,274889.46875,279805.6875,261960.3125,245689.765625,242651.078125,-0.0205078125,0.91064453125,-0.458984375,1.9226073026657104,2.410888433456421,3.479003667831421,80.0,1031074.0,1.0
473609.8831093,266826.03125,268597.875,283034.4375,273296.5,278286.5625,261912.84375,244558.671875,242300.875,-0.019287109375,0.90966796875,-0.462158203125,1.6174315214157104,2.624511480331421,3.631591558456421,80.0,1031075.0,1.0
473609.9017748,266175.84375,268597.625,282980.6875,273256.4375,278282.625,261959.421875,244809.734375,242430.609375,-0.019775390625,0.9111328125,-0.464599609375,1.3732908964157104,2.868652105331421,3.845214605331421,80.0,1031076.0,1.0
473609.901815,265907.90625,268780.46875,283929.21875,274826.59375,279781.625,262025.578125,246095.484375,242872.90625,-0.020263671875,0.90966796875,-0.4638671875,1.1291502714157104,3.021239995956421,4.028319835662842,80.0,1031077.0,1.0
473609.9044095,266379.875,268887.84375,284539.875,275798.53125,280678.125,262017.078125,246617.8125,243021.234375,-0.02099609375,0.908447265625,-0.463623046875,0.8544921278953552,3.082275152206421,4.302978038787842,80.0,1031078.0,1.0
473609.9044501,266973.90625,268778.5625,283964.875,274819.71875,279695.96875,261950.921875,245618.953125,242667.625,-0.02001953125,0.90673828125,-0.462646484375,0.7324218153953552,3.326415777206421,4.455565929412842,80.0,1031079.0,1.0
473609.9092643,266801.53125,268591.71875,282975.59375,273232.21875,278187.84375,261918.46875,244492.875,242311.609375,-0.019287109375,0.904052734375,-0.46240234375,0.5187987685203552,3.540038824081421,4.486083507537842,80.0,1031080.0,1.0
473609.9116966,266148.3125,268589.03125,282911.75,273177.9375,278169.25,261967.203125,244731.046875,242421.578125,-0.01611328125,0.90380859375,-0.463623046875,0.3051757514476776,3.631591558456421,4.669188976287842,80.0,1031081.0,1.0
473609.9143629,265871.15625,268767.3125,283854.28125,274743.28125,279657.53125,262039.265625,246010.546875,242824.890625,-0.0166015625,0.901611328125,-0.463134765625,0.1220703050494194,3.875732183456421,4.882812023162842,80.0,1031082.0,1.0
473609.9167465,266339.65625,268874.59375,284473.71875,275730.59375,280565.8125,262032.90625,246546.90625,242934.6875,-0.016845703125,0.9013671875,-0.464599609375,0.0,4.058837413787842,5.035399913787842,80.0,1031083.0,1.0
473609.9640704,266937.40625,268769.8125,283909.0,274767.6875,279600.21875,261965.765625,245559.671875,242536.828125,-0.013671875,0.900634765625,-0.4619140625,-0.0610351525247097,4.364013195037842,5.310058116912842,80.0,1031084.0,1.0
473609.9641121,266771.9375,268581.96875,282916.59375,273176.15625,278089.96875,261926.78125,244424.109375,242131.90625,-0.013427734375,0.896240234375,-0.46337890625,-0.1831054538488388,4.608153820037842,5.432128429412842,80.0,1031085.0,1.0
473610.0005946,266116.03125,268570.875,282835.78125,273099.78125,278052.40625,261969.96875,244646.828125,242213.890625,-0.011962890625,0.895751953125,-0.46142578125,-0.3662109076976776,4.730224132537842,5.676269054412842,80.0,1031086.0,1.0
473610.0006343,265828.0625,268745.21875,283767.21875,274650.125,279531.5625,262034.4375,245924.28125,242628.28125,-0.01220703125,0.894775390625,-0.464599609375,-0.3967284858226776,4.974364757537842,5.920409679412842,80.0,1031087.0,1.0
473610.0006449,266288.78125,268849.5625,284391.625,275646.90625,280452.71875,262028.625,246472.96875,242764.625,-0.011474609375,0.892333984375,-0.465576171875,-0.3967284858226776,5.187987804412842,6.195067882537842,80.0,1031088.0,1.0
473610.0029629,266891.5625,268743.4375,283840.625,274700.4375,279505.71875,261955.484375,245498.703125,242413.265625,-0.0126953125,0.892578125,-0.46337890625,-0.3967284858226776,5.310058116912842,6.317138195037842,80.0,1031089.0,1.0
473610.0056289,266734.03125,268550.15625,282852.75,273114.28125,278000.5625,261912.5625,244364.390625,242057.875,-0.015625,0.8916015625,-0.464599609375,-0.4272460639476776,5.584716320037842,6.439208507537842,80.0,1031090.0,1.0
473610.0080472,266085.71875,268545.125,282777.125,273037.375,277960.3125,261957.625,244585.046875,242167.84375,-0.014404296875,0.890625,-0.4638671875,-0.4882812201976776,5.767821788787842,6.591796398162842,80.0,1031091.0,1.0
473610.0105765,265808.75,268732.1875,283732.96875,274608.0,279460.65625,262031.5625,245880.015625,242593.5,-0.01416015625,0.890380859375,-0.465087890625,-0.5798339247703552,5.920409679412842,6.713866710662842,80.0,1031092.0,1.0
473610.0130764,266290.03125,268858.15625,284405.3125,275661.03125,280434.65625,262034.703125,246465.640625,242737.359375,-0.013916015625,0.889892578125,-0.4658203125,-0.5798339247703552,6.134032726287842,6.896972179412842,80.0,1031093.0,1.0
473610.0156466,266918.375,268764.1875,283899.4375,274767.40625,279545.78125,261965.9375,245529.71875,242392.34375,-0.01513671875,0.88916015625,-0.464599609375,-0.5798339247703552,6.378173351287842,7.019042491912842,80.0,1031094.0,1.0
473610.020605,266786.3125,268581.625,282942.0,273206.625,278078.59375,261924.734375,244417.59375,242029.796875,-0.013916015625,0.887451171875,-0.46533203125,-0.5493163466453552,6.530761241912842,7.080077648162842,80.0,1031095.0,1.0
473610.0230758,266146.96875,268575.09375,282872.59375,273128.5,278054.65625,261966.296875,244645.484375,242124.296875,-0.012939453125,0.8857421875,-0.468017578125,-0.4882812201976776,6.713866710662842,7.110595226287842,80.0,1031096.0,1.0
473610.0255635,265862.46875,268749.625,283820.78125,274691.59375,279565.0,262035.765625,245946.359375,242553.71875,-0.01416015625,0.885009765625,-0.470947265625,-0.4577636420726776,6.805419445037842,7.141112804412842,80.0,1031097.0,1.0
473610.0280989,266328.5625,268868.96875,284486.59375,275741.78125,280549.0,262037.375,246544.9375,242717.96875,-0.01416015625,0.88525390625,-0.467041015625,-0.3051757514476776,6.958007335662842,7.171630382537842,80.0,1031098.0,1.0
473610.0306031,266951.625,268773.46875,283978.5625,274850.84375,279665.75,261971.75,245612.515625,242374.8125,-0.015625,0.885498046875,-0.46923828125,-0.1831054538488388,7.049560070037842,7.263183116912842,80.0,1031099.0,1.0
473610.0329667,266822.53125,268589.9375,283015.03125,273278.875,278190.1875,261934.203125,244485.890625,241990.546875,-0.016845703125,0.885986328125,-0.466796875,-0.1525878757238388,7.141112804412842,7.232665538787842,80.0,1031100.0,1.0
473610.035537,266186.125,268587.4375,282941.09375,273187.15625,278157.0,261984.984375,244703.609375,242046.515625,-0.0166015625,0.884033203125,-0.46337890625,0.1525878757238388,7.141112804412842,7.232665538787842,80.0,1031101.0,1.0
473610.0405766,265894.3125,268769.375,283884.5,274743.0,279660.21875,262058.21875,246004.5625,242409.78125,-0.015625,0.88525390625,-0.464599609375,0.0915527269244194,7.263183116912842,7.202147960662842,80.0,1031102.0,1.0
473610.0456083,266351.09375,268889.96875,284550.0625,275798.1875,280647.8125,262053.390625,246608.328125,242506.78125,-0.014404296875,0.886474609375,-0.464599609375,0.1831054538488388,7.263183116912842,7.293700695037842,80.0,1031103.0,1.0
473610.0481174,266972.75,268793.34375,284040.875,274911.28125,279764.09375,261983.109375,245674.203125,242140.84375,-0.01220703125,0.88671875,-0.46533203125,0.3051757514476776,7.171630382537842,7.324218273162842,80.0,1031104.0,1.0
473610.0504885,266846.40625,268605.65625,283065.375,273327.4375,278271.0,261940.015625,244532.484375,241762.015625,-0.012939453125,0.884521484375,-0.462646484375,0.2746581733226776,7.324218273162842,7.202147960662842,80.0,1031105.0,1.0
473610.0529872,266205.8125,268595.46875,282971.125,273206.71875,278209.75,261982.9375,244730.0625,241851.78125,-0.013916015625,0.884521484375,-0.46240234375,0.3967284858226776,7.324218273162842,7.202147960662842,80.0,1031106.0,1.0
473610.0545673,265902.4375,268774.03125,283900.15625,274744.34375,279695.96875,262051.59375,246022.4375,242286.484375,-0.013427734375,0.885986328125,-0.462646484375,0.3051757514476776,7.263183116912842,7.141112804412842,80.0,1031107.0,1.0
473610.0632078,266352.34375,268894.375,284567.5,275805.34375,280687.21875,262049.546875,246637.203125,242466.8125,-0.01171875,0.8857421875,-0.4638671875,0.2746581733226776,7.385253429412842,7.049560070037842,80.0,1031108.0,1.0
473610.0632491,266977.5625,268798.25,284064.65625,274929.25,279810.78125,261977.75,245712.375,242143.796875,-0.011962890625,0.885498046875,-0.462646484375,0.4272460639476776,7.324218273162842,7.080077648162842,80.0,1031109.0,1.0
473610.0632593,266856.0625,268611.65625,283087.375,273343.96875,278310.34375,261935.28125,244565.921875,241780.703125,-0.011962890625,0.8857421875,-0.45947265625,0.3967284858226776,7.293700695037842,7.049560070037842,80.0,1031110.0,1.0
473610.0705959,266215.5625,268601.65625,282983.46875,273208.0625,278230.15625,261980.421875,244749.921875,241878.25,-0.0126953125,0.88818359375,-0.45947265625,0.5187987685203552,7.415771007537842,6.927489757537842,80.0,1031111.0,1.0
473610.0819525,265898.5,268774.09375,283904.625,274735.5,279703.125,262040.515625,246034.25,242314.203125,-0.01318359375,0.88818359375,-0.459716796875,0.5493163466453552,7.354735851287842,7.019042491912842,80.0,1031112.0,1.0
473610.0819937,266337.0625,268891.15625,284572.40625,275809.90625,280702.96875,262037.921875,246654.109375,242480.59375,-0.01171875,0.88623046875,-0.460693359375,0.4577636420726776,7.324218273162842,6.835937023162842,80.0,1031113.0,1.0
473610.0820041,266968.625,268797.96875,284076.28125,274952.65625,279837.5,261976.40625,245735.09375,242150.234375,-0.010986328125,0.886474609375,-0.46337890625,0.5187987685203552,7.263183116912842,6.805419445037842,80.0,1031114.0,1.0
473610.0842767,266852.125,268607.28125,283089.875,273360.15625,278327.59375,261933.40625,244577.625,241767.921875,-0.0126953125,0.888671875,-0.461669921875,0.4882812201976776,7.141112804412842,6.744384288787842,80.0,1031115.0,1.0
473610.0843158,266212.25,268596.8125,282973.90625,273207.4375,278231.65625,261976.671875,244746.421875,241845.171875,-0.011962890625,0.888671875,-0.461669921875,0.5493163466453552,7.080077648162842,6.744384288787842,80.0,1031116.0,1.0
473610.0867021,265899.75,268770.71875,283896.5,274734.34375,279705.53125,262049.0,246032.28125,242273.96875,-0.011474609375,0.89208984375,-0.46142578125,0.3662109076976776,7.080077648162842,6.652831554412842,80.0,1031117.0,1.0
473610.0893448,266334.28125,268883.375,284571.25,275819.09375,280713.6875,262048.203125,246660.90625,242448.3125,-0.009521484375,0.893798828125,-0.457275390625,0.2746581733226776,7.019042491912842,6.530761241912842,80.0,1031118.0,1.0
473610.0917794,266965.3125,268786.8125,284080.9375,274972.6875,279856.625,261980.25,245746.09375,242117.5,-0.00830078125,0.896484375,-0.45654296875,0.2441406100988388,7.080077648162842,6.439208507537842,80.0,1031119.0,1.0
473610.0918147,266861.6875,268600.125,283102.8125,273384.1875,278345.46875,261933.671875,244584.78125,241747.625,-0.00732421875,0.89892578125,-0.457275390625,0.0,6.958007335662842,6.347655773162842,80.0,1031120.0,1.0
473610.0968514,266221.4375,268587.4375,282977.46875,273216.375,278233.46875,261972.921875,244739.71875,241849.734375,-0.005615234375,0.90087890625,-0.453857421875,-0.2441406100988388,6.927489757537842,6.317138195037842,80.0,1031121.0,1.0
473610.0993566,265907.4375,268769.46875,283899.90625,274739.53125,279705.71875,262050.171875,246027.1875,242321.4375,-0.005615234375,0.901611328125,-0.454833984375,-0.5187987685203552,7.080077648162842,6.286620616912842,80.0,1031122.0,1.0
473610.1042952,266343.75,268891.21875,284586.96875,275842.34375,280732.5625,262057.046875,246673.328125,242539.59375,-0.006103515625,0.9033203125,-0.45458984375,-0.7629393935203552,6.988524913787842,6.256103038787842,80.0,1031123.0,1.0
473610.106822,266975.0625,268795.9375,284100.4375,275002.5625,279881.3125,261987.40625,245762.71875,242247.6875,-0.008544921875,0.908203125,-0.4541015625,-0.9765624403953552,6.866454601287842,6.134032726287842,80.0,1031124.0,1.0
473610.1118478,266877.53125,268606.65625,283117.03125,273402.4375,278363.375,261944.390625,244592.828125,241909.453125,-0.0078125,0.90673828125,-0.454345703125,-1.3122557401657104,6.805419445037842,6.103515148162842,80.0,1031125.0,1.0
473610.1142002,266240.84375,268591.34375,282984.71875,273216.65625,278235.4375,261989.09375,244737.046875,241999.578125,-0.0048828125,0.907958984375,-0.451416015625,-1.5563963651657104,6.805419445037842,6.011962413787842,80.0,1031126.0,1.0
473610.1181608,265910.125,268763.90625,283890.5,274721.1875,279687.46875,262056.25,246012.78125,242436.234375,-0.006591796875,0.911376953125,-0.448974609375,-1.9836424589157104,6.713866710662842,5.889892101287842,80.0,1031127.0,1.0
473610.1182051,266336.25,268885.6875,284575.90625,275825.8125,280718.625,262057.140625,246664.125,242634.1875,-0.006591796875,0.912353515625,-0.44921875,-2.136230230331421,6.744384288787842,5.859374523162842,80.0,1031128.0,1.0
473610.1182149,266978.28125,268800.84375,284105.25,275008.625,279892.40625,261996.25,245774.078125,242345.140625,-0.007080078125,0.91455078125,-0.446044921875,-2.502441167831421,6.713866710662842,5.737304210662842,80.0,1031129.0,1.0
473610.1206203,266883.6875,268612.46875,283121.34375,273406.46875,278373.90625,261952.0,244601.59375,241997.515625,-0.0068359375,0.915771484375,-0.449462890625,-2.868652105331421,6.622313976287842,5.615233898162842,80.0,1031130.0,1.0
473610.1230303,266238.25,268593.15625,282973.1875,273196.71875,278229.34375,261994.640625,244730.953125,242094.890625,-0.00537109375,0.91650390625,-0.44775390625,-3.265380620956421,6.439208507537842,5.554198741912842,80.0,1031131.0,1.0
473610.124723,265903.78125,268769.8125,283874.84375,274692.59375,279677.46875,262071.890625,246006.078125,242547.109375,-0.00390625,0.918701171875,-0.444580078125,-3.723144292831421,6.347655773162842,5.493163585662842,80.0,1031132.0,1.0
473610.1531469,266324.53125,268893.65625,284565.4375,275807.65625,280719.40625,262072.78125,246668.859375,242750.0625,-0.004150390625,0.91845703125,-0.44580078125,-4.150390148162842,6.225585460662842,5.249022960662842,80.0,1031133.0,1.0
473610.1531955,266966.375,268806.125,284099.96875,275002.09375,279898.03125,262001.625,245778.359375,242443.296875,-0.004150390625,0.91943359375,-0.442138671875,-4.516601085662842,6.256103038787842,5.065917491912842,80.0,1031134.0,1.0
473610.155661,266883.34375,268619.25,283122.5,273406.625,278379.0,261955.84375,244601.140625,242084.25,-0.003662109375,0.92041015625,-0.43701171875,-4.882812023162842,6.103515148162842,4.943847179412842,80.0,1031135.0,1.0
473610.1579289,266240.03125,268594.84375,282967.46875,273188.21875,278221.03125,261995.453125,244718.796875,242169.265625,-0.00537109375,0.919921875,-0.435302734375,-5.493163585662842,5.981444835662842,4.791259288787842,80.0,1031136.0,1.0
473610.1605893,265894.40625,268764.0,283861.09375,274677.375,279660.3125,262064.921875,245988.203125,242622.65625,-0.006103515625,0.920654296875,-0.434326171875,-6.011962413787842,5.950927257537842,4.638671398162842,80.0,1031137.0,1.0
473610.1620286,266308.875,268886.3125,284557.5625,275808.03125,280710.46875,262065.1875,246659.921875,242839.28125,-0.0068359375,0.919189453125,-0.434326171875,-6.500243663787842,5.798339366912842,4.486083507537842,80.0,1031138.0,1.0
473610.1717993,266965.59375,268804.59375,284110.0,275025.09375,279908.9375,261998.046875,245785.609375,242555.328125,-0.00732421875,0.916748046875,-0.433837890625,-7.141112804412842,5.645751476287842,4.302978038787842,80.0,1031139.0,1.0
473610.1743364,266903.09375,268623.0,283135.46875,273432.3125,278392.5,261954.5,244608.390625,242216.65625,-0.00830078125,0.916259765625,-0.43359375,-7.537841320037842,5.554198741912842,4.150390148162842,80.0,1031140.0,1.0
473610.1767358,266261.40625,268596.625,282968.0,273195.09375,278214.9375,261988.65625,244709.234375,242320.1875,-0.00634765625,0.9140625,-0.43212890625,-7.904052257537842,5.401610851287842,3.906249761581421,80.0,1031141.0,1.0
473610.1792994,265896.8125,268755.40625,283849.65625,274668.875,279641.53125,262051.421875,245972.203125,242786.8125,-0.004638671875,0.9091796875,-0.43310546875,-8.148192405700684,5.218505382537842,3.814697027206421,80.0,1031142.0,1.0
473610.181809,266304.59375,268882.375,284559.28125,275815.09375,280710.375,262058.296875,246662.78125,242996.203125,-0.00537109375,0.9072265625,-0.433837890625,-8.270262718200684,5.187987804412842,3.692626714706421,80.0,1031143.0,1.0
473610.1841961,266969.0625,268805.65625,284126.53125,275053.53125,279928.15625,261998.9375,245802.328125,242682.640625,-0.005859375,0.905517578125,-0.4287109375,-8.453368186950684,4.974364757537842,3.540038824081421,80.0,1031144.0,1.0
473610.1893841,266901.84375,268612.1875,283143.25,273449.75,278398.84375,261949.765625,244607.75,242279.78125,-0.006103515625,0.90380859375,-0.431396484375,-8.636473655700684,4.699706554412842,3.204345464706421,80.0,1031145.0,1.0
473610.1894257,266260.34375,268584.46875,282966.5625,273196.34375,278209.125,261991.875,244699.21875,242329.84375,-0.005126953125,0.902587890625,-0.42919921875,-8.758543968200684,4.516601085662842,3.204345464706421,80.0,1031146.0,1.0
473610.1917168,265893.9375,268750.9375,283842.84375,274663.78125,279630.0,262059.015625,245960.84375,242766.234375,-0.005126953125,0.899169921875,-0.428466796875,-8.850096702575684,4.394530773162842,2.990722417831421,80.0,1031147.0,1.0
473610.1968514,266302.625,268885.0625,284562.84375,275824.03125,280714.9375,262066.53125,246665.109375,242975.984375,-0.004150390625,0.89892578125,-0.4267578125,-8.819579124450684,4.180907726287842,2.838134527206421,80.0,1031148.0,1.0
473610.1992672,266968.90625,268806.5625,284137.90625,275070.15625,279942.125,261995.359375,245806.703125,242647.515625,-0.006103515625,0.899169921875,-0.428466796875,-8.941649436950684,4.180907726287842,2.746581792831421,80.0,1031149.0,1.0
473610.1993082,266918.375,268626.125,283163.0,273468.59375,278416.375,261945.46875,244610.265625,242274.59375,-0.00732421875,0.89697265625,-0.427978515625,-8.911131858825684,3.967284917831421,2.624511480331421,80.0,1031150.0,1.0
473610.2017329,266277.3125,268598.15625,282974.625,273195.375,278211.5625,261981.6875,244689.125,242360.6875,-0.0068359375,0.896728515625,-0.4267578125,-8.911131858825684,3.875732183456421,2.380370855331421,80.0,1031151.0,1.0
473610.2043008,265898.78125,268760.0625,283838.90625,274645.65625,279623.28125,262051.5,245951.28125,242822.484375,-0.006103515625,0.894775390625,-0.427001953125,-8.819579124450684,3.692626714706421,2.319335699081421,80.0,1031152.0,1.0
473610.2067878,266296.09375,268891.15625,284556.84375,275808.46875,280712.96875,262059.828125,246663.671875,243066.65625,-0.0048828125,0.89404296875,-0.42626953125,-8.789061546325684,3.479003667831421,2.227782964706421,80.0,1031153.0,1.0
473610.2091765,266971.75,268815.3125,284145.75,275071.75,279955.875,261992.234375,245814.9375,242810.5,-0.005126953125,0.893798828125,-0.426025390625,-8.575438499450684,3.356933355331421,2.014159917831421,80.0,1031154.0,1.0
473610.2117775,266935.0,268632.5,283173.8125,273470.21875,278430.875,261946.0,244612.046875,242465.921875,-0.0068359375,0.897216796875,-0.423583984375,-8.483885765075684,3.112792730331421,1.9531248807907104,80.0,1031155.0,1.0
473610.2118193,266292.4375,268603.96875,282972.90625,273176.875,278210.75,261983.734375,244676.328125,242544.6875,-0.009033203125,0.89794921875,-0.423095703125,-8.392333030700684,2.838134527206421,1.7395018339157104,80.0,1031156.0,1.0
473610.2167653,265908.4375,268767.9375,283831.6875,274619.0,279614.625,262054.640625,245937.5,243004.15625,-0.0087890625,0.900634765625,-0.423095703125,-8.178709983825684,2.685546636581421,1.6174315214157104,80.0,1031157.0,1.0
473610.2193891,266298.96875,268895.34375,284555.4375,275798.0,280713.96875,262061.96875,246665.90625,243236.703125,-0.010498046875,0.902099609375,-0.4228515625,-8.056639671325684,2.502441167831421,1.4648436307907104,80.0,1031158.0,1.0
473610.2194308,266980.5,268822.3125,284159.25,275083.90625,279974.65625,261999.46875,245829.953125,242938.078125,-0.0126953125,0.90234375,-0.418701171875,-7.995604991912842,2.258300542831421,1.1901854276657104,80.0,1031159.0,1.0
473610.2217482,266944.9375,268635.4375,283183.75,273478.875,278444.46875,261952.984375,244620.0,242555.15625,-0.014892578125,0.902099609375,-0.41845703125,-7.934569835662842,1.9836424589157104,1.0681151151657104,80.0,1031160.0,1.0
473610.2542258,266296.09375,268600.125,282968.4375,273169.0,278207.15625,261990.984375,244674.546875,242622.75,-0.014404296875,0.903076171875,-0.41796875,-7.904052257537842,1.7089842557907104,0.8850097060203552,80.0,1031161.0,1.0
473610.2581838,265900.65625,268765.25,283818.34375,274605.84375,279604.78125,262068.765625,245938.3125,243067.453125,-0.016845703125,0.904296875,-0.417236328125,-7.995604991912842,1.4648436307907104,0.7019042372703552,80.0,1031162.0,1.0
473610.2582247,266279.75,268889.96875,284547.46875,275797.84375,280714.5,262074.9375,246676.8125,243301.078125,-0.01708984375,0.906494140625,-0.417236328125,-7.965087413787842,1.1596678495407104,0.3356933295726776,80.0,1031163.0,1.0
473610.2582347,266966.03125,268813.625,284160.59375,275100.90625,279989.40625,262003.3125,245846.40625,243021.671875,-0.013427734375,0.90576171875,-0.419677734375,-7.873534679412842,0.8850097060203552,0.1525878757238388,80.0,1031164.0,1.0
473610.2620559,266945.28125,268625.34375,283190.0,273498.71875,278457.0625,261950.484375,244631.265625,242648.9375,-0.01513671875,0.904296875,-0.422119140625,-7.843017101287842,0.6408690810203552,-0.2136230319738388,80.0,1031165.0,1.0
473610.2620972,266293.6875,268582.96875,282959.78125,273167.03125,278193.3125,261984.09375,244667.296875,242701.875,-0.015625,0.903564453125,-0.423095703125,-7.659911632537842,0.4272460639476776,-0.3662109076976776,80.0,1031166.0,1.0
473610.2621077,265881.6875,268736.5625,283793.84375,274590.21875,279572.15625,262051.78125,245918.203125,243135.9375,-0.015625,0.906494140625,-0.419189453125,-7.385253429412842,0.03051757626235485,-0.5798339247703552,80.0,1031167.0,1.0
473610.2642429,266258.46875,268866.28125,284531.71875,275794.96875,280694.5625,262057.859375,246667.0625,243363.390625,-0.01318359375,0.906494140625,-0.420166015625,-7.354735851287842,-0.2441406100988388,-0.7934569716453552,80.0,1031168.0,1.0
473610.2642818,266954.75,268799.6875,284162.21875,275115.21875,279989.40625,261994.015625,245853.375,243055.65625,-0.01171875,0.90625,-0.417236328125,-7.263183116912842,-0.4577636420726776,-0.8239745497703552,80.0,1031169.0,1.0
473610.2667188,266943.6875,268613.4375,283194.5625,273515.28125,278463.78125,261950.03125,244639.234375,242645.0,-0.009521484375,0.905517578125,-0.416015625,-7.049560070037842,-0.7019042372703552,-0.9765624403953552,80.0,1031170.0,1.0
473610.2692298,266292.625,268571.5,282952.90625,273173.125,278190.4375,261986.859375,244663.546875,242678.0,-0.008056640625,0.905029296875,-0.414794921875,-6.958007335662842,-0.8544921278953552,-1.0986326932907104,80.0,1031171.0,1.0
473610.2793493,265874.28125,268730.75,283781.15625,274585.21875,279564.46875,262056.78125,245913.71875,243096.328125,-0.00830078125,0.90625,-0.41455078125,-6.866454601287842,-0.9765624403953552,-1.2207030057907104,80.0,1031172.0,1.0
473610.2819264,266249.78125,268871.46875,284531.71875,275802.46875,280705.1875,262069.03125,246680.21875,243327.265625,-0.007568359375,0.905517578125,-0.414794921875,-6.683349132537842,-1.0986326932907104,-1.3732908964157104,80.0,1031173.0,1.0
473610.281966,266948.78125,268806.21875,284171.40625,275132.8125,280010.875,261998.046875,245870.28125,243044.65625,-0.006591796875,0.90478515625,-0.415771484375,-6.591796398162842,-1.2817381620407104,-1.2207030057907104,80.0,1031174.0,1.0
473610.2842798,266945.90625,268627.375,283205.5625,273527.96875,278480.125,261951.1875,244646.296875,242649.03125,-0.004638671875,0.90283203125,-0.417236328125,-6.469726085662842,-1.4038084745407104,-1.1596678495407104,80.0,1031175.0,1.0
473610.2843194,266294.6875,268589.65625,282956.8125,273164.25,278191.0625,261987.578125,244658.0,242664.671875,-0.0048828125,0.903076171875,-0.41748046875,-6.378173351287842,-1.3732908964157104,-1.0986326932907104,80.0,1031176.0,1.0
473610.3017487,265869.0,268746.75,283777.59375,274564.71875,279556.6875,262059.109375,245903.984375,243042.421875,-0.005126953125,0.898681640625,-0.419677734375,-6.195067882537842,-1.4038084745407104,-0.9460448622703552,80.0,1031177.0,1.0
473610.3057266,266234.875,268885.78125,284532.1875,275790.3125,280705.46875,262071.796875,246680.84375,243273.0,-0.005859375,0.89794921875,-0.41845703125,-5.889892101287842,-1.6479490995407104,-0.9765624403953552,80.0,1031178.0,1.0
473610.3057668,266937.78125,268824.0,284183.3125,275133.28125,280026.6875,262006.265625,245882.25,243037.859375,-0.00634765625,0.895751953125,-0.419677734375,-5.615233898162842,-1.6479490995407104,-1.0681151151657104,80.0,1031179.0,1.0
473610.3057765,266944.46875,268639.46875,283214.75,273526.1875,278494.96875,261954.953125,244652.015625,242712.234375,-0.007568359375,0.8955078125,-0.4208984375,-5.157470226287842,-1.7089842557907104,-1.0375975370407104,80.0,1031180.0,1.0
473610.3080382,266297.71875,268597.53125,282955.40625,273150.21875,278191.96875,261994.28125,244655.140625,242806.65625,-0.00830078125,0.893798828125,-0.42041015625,-4.730224132537842,-1.8005369901657104,-1.0681151151657104,80.0,1031181.0,1.0
473610.3105736,265868.8125,268750.3125,283769.28125,274544.625,279549.875,262070.640625,245901.65625,243284.53125,-0.0087890625,0.894287109375,-0.41943359375,-4.547118663787842,-1.8310545682907104,-1.0070799589157104,80.0,1031182.0,1.0
473610.3134225,266225.65625,268882.90625,284526.53125,275783.09375,280705.1875,262080.390625,246687.625,243558.5625,-0.013916015625,0.894287109375,-0.420654296875,-4.241942882537842,-2.014159917831421,-0.8239745497703552,80.0,1031183.0,1.0
473610.3454569,266934.03125,268825.0625,284189.84375,275148.75,280042.96875,262014.046875,245899.328125,243301.515625,-0.01513671875,0.8955078125,-0.422119140625,-3.936767339706421,-2.166747808456421,-0.9460448622703552,80.0,1031184.0,1.0
473610.3481204,266951.71875,268640.96875,283225.84375,273544.6875,278509.53125,261962.90625,244667.484375,242922.25,-0.014892578125,0.894287109375,-0.417236328125,-3.601073980331421,-2.288818120956421,-1.0070799589157104,80.0,1031185.0,1.0
473610.349624,266304.875,268592.25,282953.6875,273154.5,278189.5625,261995.0,244655.5,242967.046875,-0.01416015625,0.89453125,-0.41943359375,-3.204345464706421,-2.380370855331421,-1.0986326932907104,80.0,1031186.0,1.0
473610.3643353,265870.4375,268743.09375,283757.65625,274541.46875,279536.84375,262064.203125,245891.828125,243415.78125,-0.01318359375,0.893310546875,-0.42236328125,-2.807616949081421,-2.471923589706421,-1.0375975370407104,80.0,1031187.0,1.0
473610.3668615,266229.3125,268882.1875,284522.875,275790.6875,280704.5,262073.5,246686.203125,243681.59375,-0.014892578125,0.8916015625,-0.4228515625,-2.410888433456421,-2.655029058456421,-1.1291502714157104,80.0,1031188.0,1.0
473610.3691804,266943.15625,268824.25,284197.15625,275169.9375,280057.09375,262007.25,245909.96875,243428.65625,-0.01806640625,0.893310546875,-0.424560546875,-2.075195074081421,-2.685546636581421,-1.1291502714157104,80.0,1031189.0,1.0
473610.3707818,266963.53125,268637.21875,283229.59375,273562.65625,278518.5625,261949.3125,244669.984375,243056.09375,-0.01708984375,0.892333984375,-0.42529296875,-1.7395018339157104,-2.746581792831421,-1.2512205839157104,80.0,1031190.0,1.0
473610.3780927,266314.6875,268583.3125,282947.53125,273157.8125,278183.03125,261979.71875,244646.375,243115.90625,-0.01513671875,0.891845703125,-0.4248046875,-1.2207030057907104,-2.899169683456421,-1.2817381620407104,80.0,1031191.0,1.0
473610.3806287,265877.40625,268735.03125,283751.46875,274539.875,279524.59375,262056.953125,245885.734375,243583.875,-0.014404296875,0.890869140625,-0.426025390625,-0.7934569716453552,-3.051757574081421,-1.2817381620407104,80.0,1031192.0,1.0
473610.3830535,266232.8125,268876.65625,284525.28125,275799.625,280704.75,262069.65625,246695.046875,243851.734375,-0.015380859375,0.8916015625,-0.4287109375,-0.4272460639476776,-3.143310308456421,-1.3427733182907104,80.0,1031193.0,1.0
473610.3854348,266945.1875,268819.15625,284205.84375,275185.40625,280068.53125,262004.84375,245924.71875,243589.140625,-0.014404296875,0.89111328125,-0.427734375,0.0610351525247097,-3.173827886581421,-1.2512205839157104,80.0,1031194.0,1.0
473610.3879465,266970.6875,268634.90625,283236.65625,273571.875,278532.34375,261955.65625,244681.078125,243196.46875,-0.014404296875,0.893310546875,-0.428466796875,0.5798339247703552,-3.204345464706421,-1.2207030057907104,80.0,1031195.0,1.0
473610.3905813,266327.5625,268584.75,282946.46875,273151.03125,278184.71875,261987.484375,244644.59375,243228.921875,-0.012451171875,0.891845703125,-0.429931640625,0.8850097060203552,-3.173827886581421,-1.3122557401657104,80.0,1031196.0,1.0
473610.392918,265884.125,268738.25,283745.40625,274525.125,279519.40625,262063.484375,245879.125,243665.671875,-0.012451171875,0.892822265625,-0.4248046875,1.2512205839157104,-3.234863042831421,-1.1596678495407104,80.0,1031197.0,1.0
473610.3956167,266228.59375,268880.78125,284522.15625,275791.65625,280704.75,262081.09375,246695.59375,243912.265625,-0.0107421875,0.8896484375,-0.427490234375,1.7700194120407104,-3.173827886581421,-1.1901854276657104,80.0,1031198.0,1.0
473610.3956579,266936.53125,268824.34375,284206.03125,275188.6875,280078.5625,262011.453125,245932.765625,243643.859375,-0.01025390625,0.891357421875,-0.431396484375,2.044677495956421,-3.112792730331421,-1.0070799589157104,80.0,1031199.0,1.0
473610.3979704,266969.59375,268641.4375,283237.28125,273575.8125,278541.71875,261968.09375,244692.25,243253.59375,-0.010009765625,0.890625,-0.431884765625,2.349853277206421,-3.082275152206421,-1.0375975370407104,80.0,1031200.0,1.0
473610.400559,266331.0625,268592.78125,282943.40625,273147.71875,278182.75,262003.671875,244649.78125,243280.953125,-0.007568359375,0.888916015625,-0.43603515625,2.716064214706421,-3.051757574081421,-0.9155272841453552,80.0,1031201.0,1.0
473610.4005989,265881.0,268739.96875,283733.59375,274512.78125,279503.75,262066.4375,245871.34375,243712.796875,-0.0068359375,0.884033203125,-0.439208984375,3.112792730331421,-2.929687261581421,-0.7934569716453552,80.0,1031202.0,1.0
473610.4030131,266221.28125,268887.28125,284521.90625,275797.21875,280703.3125,262087.453125,246700.15625,243980.828125,-0.00634765625,0.881103515625,-0.440185546875,3.753661870956421,-2.838134527206421,-0.7324218153953552,80.0,1031203.0,1.0
473610.4079596,266929.1875,268834.90625,284216.5625,275207.75,280094.0,262032.46875,245958.421875,243719.859375,-0.007080078125,0.88037109375,-0.4375,4.333495616912842,-2.685546636581421,-0.6408690810203552,80.0,1031204.0,1.0
473610.4106024,266969.25,268645.4375,283246.9375,273590.8125,278557.375,261959.421875,244706.734375,243322.625,-0.00634765625,0.878662109375,-0.439208984375,4.974364757537842,-2.593993902206421,-0.6408690810203552,80.0,1031205.0,1.0
473610.4106438,266329.28125,268590.46875,282939.5625,273141.5625,278178.28125,261990.890625,244647.09375,243339.515625,-0.006591796875,0.874755859375,-0.44140625,5.584716320037842,-2.471923589706421,-0.5493163466453552,80.0,1031206.0,1.0
473610.4131438,265877.59375,268739.15625,283727.6875,274500.34375,279494.1875,262063.390625,245863.203125,243755.984375,-0.005859375,0.8701171875,-0.44482421875,6.286620616912842,-2.166747808456421,-0.3967284858226776,80.0,1031207.0,1.0
473610.4131842,266214.5625,268884.4375,284519.65625,275791.3125,280699.9375,262076.453125,246696.75,244019.1875,-0.00537109375,0.862548828125,-0.4501953125,7.019042491912842,-2.044677495956421,-0.2441406100988388,80.0,1031208.0,1.0
473610.4155767,266930.0,268835.25,284224.53125,275218.28125,280102.875,262014.046875,245954.9375,243757.765625,-0.0048828125,0.85693359375,-0.451171875,7.873534679412842,-1.8615721464157104,-0.1525878757238388,80.0,1031209.0,1.0
473610.42683,266977.125,268650.8125,283256.34375,273600.9375,278564.34375,261963.0,244710.84375,243355.4375,-0.0029296875,0.85205078125,-0.451171875,8.911131858825684,-1.6174315214157104,0.1220703050494194,80.0,1031210.0,1.0
473610.4530762,266345.0,268594.5,282947.78125,273146.5625,278180.09375,262000.09375,244649.328125,243363.65625,-0.0029296875,0.850830078125,-0.450439453125,9.979247093200684,-1.3427733182907104,0.2136230319738388,80.0,1031211.0,1.0
473610.4531161,265892.875,268739.875,283731.625,274499.09375,279484.15625,262076.8125,245859.28125,243785.03125,0.00146484375,0.85205078125,-0.447021484375,11.016844749450684,-1.0375975370407104,0.4882812201976776,80.0,1031212.0,1.0
473610.4531262,266216.8125,268879.0625,284522.6875,275796.3125,280696.625,262083.515625,246693.625,244040.46875,0.001953125,0.85546875,-0.442626953125,11.779784202575684,-0.7324218153953552,0.7629393935203552,80.0,1031213.0,1.0
473610.4555442,266920.34375,268823.0,284226.125,275228.75,280108.3125,262011.625,245965.40625,243778.328125,0.00244140625,0.857666015625,-0.443359375,12.451170921325684,-0.5187987685203552,1.2817381620407104,80.0,1031214.0,1.0
473610.4555789,266964.15625,268637.21875,283250.34375,273605.5625,278563.53125,261957.71875,244716.390625,243368.125,0.00244140625,0.856201171875,-0.44091796875,13.153075218200684,-0.03051757626235485,1.6784666776657104,80.0,1031215.0,1.0
473610.4605975,266337.6875,268586.96875,282934.5625,273135.90625,278168.90625,261991.328125,244641.375,243371.4375,0.002197265625,0.859375,-0.442138671875,13.885497093200684,0.3967284858226776,2.136230230331421,80.0,1031216.0,1.0
473610.4679484,265896.09375,268740.9375,283725.46875,274486.40625,279478.0,262069.390625,245857.3125,243796.921875,-0.0009765625,0.8623046875,-0.44287109375,14.526366233825684,0.7934569716453552,2.441406011581421,80.0,1031217.0,1.0
473610.470592,266221.90625,268882.65625,284526.46875,275794.25,280701.09375,262085.390625,246705.875,244038.40625,-0.006591796875,0.864501953125,-0.4462890625,15.350340843200684,1.1901854276657104,2.777099370956421,80.0,1031218.0,1.0
473610.4721816,266932.5,268841.625,284246.34375,275246.53125,280136.03125,262031.65625,245999.734375,243786.28125,-0.009521484375,0.86474609375,-0.44775390625,16.021726608276367,1.4953612089157104,3.021239995956421,80.0,1031219.0,1.0
473610.4791873,266983.90625,268662.25,283272.25,273621.40625,278593.125,261971.390625,244750.984375,243399.875,-0.0087890625,0.865478515625,-0.449462890625,16.876218795776367,1.8310545682907104,3.051757574081421,80.0,1031220.0,1.0
473610.481825,266353.59375,268602.09375,282943.25,273128.84375,278178.75,261992.3125,244656.21875,243404.34375,-0.008544921875,0.867431640625,-0.447998046875,17.700193405151367,2.014159917831421,3.051757574081421,80.0,1031221.0,1.0
473610.4842095,265904.21875,268742.71875,283725.90625,274466.03125,279474.96875,262069.484375,245856.421875,243834.390625,-0.00927734375,0.870361328125,-0.452392578125,18.341062545776367,2.410888433456421,3.295898199081421,80.0,1031222.0,1.0
473610.4866701,266226.09375,268889.8125,284536.03125,275785.59375,280709.125,262089.234375,246713.734375,244096.796875,-0.00830078125,0.87451171875,-0.451171875,19.134519577026367,2.502441167831421,3.356933355331421,80.0,1031223.0,1.0
473610.4891231,266918.09375,268833.75,284243.65625,275239.9375,280143.0,262020.390625,246009.125,243842.4375,-0.0087890625,0.87939453125,-0.451416015625,19.866941452026367,2.746581792831421,3.295898199081421,80.0,1031224.0,1.0
473610.4916389,266963.25,268648.125,283257.21875,273611.5625,278594.3125,261953.96875,244758.140625,243442.96875,-0.00927734375,0.885986328125,-0.44921875,20.416257858276367,3.051757574081421,3.204345464706421,80.0,1031225.0,1.0
473610.4942485,266341.96875,268592.6875,282925.96875,273115.34375,278173.09375,261987.671875,244662.390625,243454.59375,-0.0107421875,0.890380859375,-0.445556640625,20.812986373901367,3.387450933456421,3.295898199081421,80.0,1031226.0,1.0
473610.4942795,265895.84375,268737.1875,283708.28125,274444.03125,279451.90625,262059.109375,245844.078125,243881.765625,-0.009521484375,0.89697265625,-0.444580078125,20.935056686401367,3.570556402206421,3.448486089706421,80.0,1031227.0,1.0
473610.4966625,266209.75,268881.9375,284521.34375,275769.5625,280685.09375,262079.3125,246698.8125,244169.390625,-0.00927734375,0.90185546875,-0.44287109375,20.660398483276367,3.753661870956421,3.662109136581421,80.0,1031228.0,1.0
473610.5065846,266900.3125,268834.46875,284236.5,275240.125,280133.71875,262022.265625,246010.46875,243933.890625,-0.00927734375,0.903564453125,-0.44677734375,20.416257858276367,3.936767339706421,4.089354991912842,80.0,1031229.0,1.0
473610.509123,266949.59375,268645.71875,283245.875,273611.28125,278581.15625,261967.46875,244766.28125,243531.75,-0.010986328125,0.9033203125,-0.447509765625,20.080564498901367,4.028319835662842,4.394530773162842,80.0,1031230.0,1.0
473610.5091296,266329.375,268577.78125,282903.90625,273096.65625,278137.96875,261993.125,244648.171875,243528.34375,-0.015380859375,0.902587890625,-0.44921875,19.989011764526367,3.997802495956421,4.516601085662842,80.0,1031231.0,1.0
473610.5115799,265887.0625,268721.1875,283689.875,274421.3125,279417.46875,262065.28125,245817.25,243945.4375,-0.016357421875,0.901123046875,-0.44921875,20.080564498901367,4.180907726287842,4.516601085662842,80.0,1031232.0,1.0
473610.5141025,266191.9375,268863.96875,284504.5625,275749.09375,280658.34375,262076.984375,246669.65625,244214.546875,-0.01904296875,0.904541015625,-0.447021484375,20.233152389526367,4.272460460662842,4.180907726287842,80.0,1031233.0,1.0
473610.526625,266873.03125,268812.09375,284222.21875,275228.9375,280117.0,262020.84375,245994.734375,243970.015625,-0.020263671875,0.907958984375,-0.4501953125,20.324705123901367,4.516601085662842,3.845214605331421,80.0,1031234.0,1.0
473610.5266337,266915.25,268621.3125,283228.625,273605.40625,278568.5625,261967.015625,244755.453125,243562.953125,-0.024169921875,0.911376953125,-0.450439453125,20.538328170776367,4.730224132537842,3.387450933456421,80.0,1031235.0,1.0
473610.5343069,266301.125,268567.03125,282892.90625,273090.3125,278130.625,261999.203125,244632.703125,243559.28125,-0.02880859375,0.916259765625,-0.44970703125,20.355222702026367,4.760741710662842,3.173827886581421,80.0,1031236.0,1.0
473610.536789,265863.5625,268718.125,283687.28125,274407.46875,279409.34375,262071.265625,245788.734375,243976.453125,-0.03173828125,0.923828125,-0.452392578125,19.866941452026367,4.669188976287842,2.899169683456421,80.0,1031237.0,1.0
473610.5418037,266175.03125,268863.15625,284513.40625,275747.59375,280666.03125,262087.625,246651.78125,244254.25,-0.03125,0.929931640625,-0.457763671875,18.859861373901367,4.211425304412842,3.295898199081421,80.0,1031238.0,1.0
473610.5443303,266852.9375,268804.78125,284229.09375,275237.4375,280133.8125,262019.5,245986.859375,244009.453125,-0.03369140625,0.92919921875,-0.45751953125,17.944334030151367,3.845214605331421,3.479003667831421,80.0,1031239.0,1.0
473610.5467829,266909.96875,268615.40625,283236.3125,273613.4375,278585.28125,261961.921875,244753.21875,243609.34375,-0.033447265625,0.927490234375,-0.455078125,16.998289108276367,3.448486089706421,3.479003667831421,80.0,1031240.0,1.0
473610.5493113,266310.3125,268563.375,282893.625,273081.03125,278124.1875,261988.296875,244617.59375,243598.625,-0.033447265625,0.926513671875,-0.455810546875,16.174314498901367,2.960204839706421,3.540038824081421,80.0,1031241.0,1.0
473610.5493268,265885.1875,268721.71875,283690.9375,274394.15625,279393.15625,262066.890625,245772.1875,244012.84375,-0.032470703125,0.928955078125,-0.45654296875,15.563963890075684,2.624511480331421,3.448486089706421,80.0,1031242.0,1.0
473610.5603366,266193.71875,268876.03125,284526.53125,275741.59375,280654.34375,262085.296875,246639.0,244287.234375,-0.03173828125,0.931884765625,-0.45849609375,14.831542015075684,2.258300542831421,3.326415777206421,80.0,1031243.0,1.0
473610.5628816,266866.34375,268825.875,284246.0,275244.59375,280133.875,262023.796875,245986.953125,244042.53125,-0.030517578125,0.93310546875,-0.4580078125,14.373778343200684,2.075195074081421,3.234863042831421,80.0,1031244.0,1.0
473610.56289,266926.34375,268643.65625,283252.75,273623.53125,278590.625,261970.6875,244757.78125,243646.8125,-0.031005859375,0.935302734375,-0.457275390625,13.610838890075684,1.8615721464157104,3.021239995956421,80.0,1031245.0,1.0
473610.5768228,266331.15625,268586.625,282904.6875,273075.9375,278124.90625,262000.71875,244616.078125,243636.171875,-0.030517578125,0.937255859375,-0.459228515625,12.969969749450684,1.5563963651657104,2.838134527206421,80.0,1031246.0,1.0
473610.576841,265901.1875,268737.8125,283695.875,274375.09375,279382.78125,262073.140625,245759.046875,244043.59375,-0.0302734375,0.939208984375,-0.461669921875,12.268065452575684,1.3427733182907104,2.746581792831421,80.0,1031247.0,1.0
473610.5792966,266203.5625,268892.75,284539.6875,275738.65625,280656.84375,262096.921875,246641.40625,244326.125,-0.02978515625,0.939208984375,-0.460693359375,11.383055686950684,0.9155272841453552,2.777099370956421,80.0,1031248.0,1.0
473610.5793169,266871.34375,268844.1875,284269.6875,275261.9375,280157.9375,262038.28125,246009.921875,244088.65625,-0.026611328125,0.939697265625,-0.462158203125,10.498045921325684,0.5493163466453552,2.685546636581421,80.0,1031249.0,1.0
473610.580856,266928.9375,268651.34375,283272.6875,273641.15625,278615.03125,261981.140625,244780.578125,243687.578125,-0.02587890625,0.93701171875,-0.463134765625,9.674071311950684,0.2746581733226776,2.624511480331421,80.0,1031250.0,1.0
