Time,FZ,C3,CZ,C4,PZ,PO7,OZ,PO8,AccX,AccY,AccZ,Gyro1,Gyro2,Gyro3,Battery,Counter,Validation
1136333.4403757,287806.8125,282316.9375,316629.8125,288207.96875,294056.0625,274281.84375,274350.34375,283779.0,-0.08935546875,0.873046875,-0.374755859375,-7.751464366912842,3.509521245956421,4.699706554412842,60.0,2875775.0,1.0
1136333.442787,288305.15625,282200.09375,317080.625,289064.5,294207.09375,274116.71875,274320.8125,283698.8125,-0.08837890625,0.872802734375,-0.373291015625,-7.385253429412842,3.479003667831421,4.516601085662842,60.0,2875776.0,1.0
1136333.4453396,288315.6875,282230.125,317175.90625,289189.9375,294259.75,274099.09375,274326.46875,283725.71875,-0.092041015625,0.8740234375,-0.374267578125,-7.080077648162842,3.753661870956421,4.272460460662842,60.0,2875777.0,1.0
1136333.4521031,287852.5625,282376.75,316848.34375,288512.21875,294196.8125,274275.84375,274397.09375,283907.3125,-0.095703125,0.877685546875,-0.37548828125,-6.774901866912842,3.906249761581421,4.089354991912842,60.0,2875778.0,1.0
1136333.4521305,287493.15625,282396.25,316462.375,287840.9375,294025.84375,274354.96875,274372.6875,283890.6875,-0.098388671875,0.880126953125,-0.3759765625,-6.408690929412842,4.089354991912842,3.784179449081421,60.0,2875779.0,1.0
1136333.4584075,287773.1875,282299.25,316609.875,288186.96875,294032.28125,274263.34375,274334.25,283764.34375,-0.102294921875,0.883056640625,-0.376953125,-6.225585460662842,3.997802495956421,3.509521245956421,60.0,2875780.0,1.0
1136333.4584352,288293.71875,282201.53125,317083.75,289066.09375,294209.9375,274124.03125,274331.75,283707.5,-0.10205078125,0.88525390625,-0.374267578125,-6.011962413787842,4.028319835662842,3.234863042831421,60.0,2875781.0,1.0
1136333.4665873,288325.8125,282245.40625,317199.4375,289216.03125,294282.90625,274120.28125,274351.75,283742.625,-0.1025390625,0.886962890625,-0.373291015625,-5.859374523162842,3.967284917831421,3.021239995956421,60.0,2875782.0,1.0
1136333.4734847,287857.75,282388.71875,316870.9375,288542.4375,294219.4375,274292.5625,274415.59375,283917.5,-0.105712890625,0.88623046875,-0.3720703125,-5.645751476287842,3.967284917831421,2.807616949081421,60.0,2875783.0,1.0
1136333.4735325,287504.15625,282418.25,316494.1875,287878.15625,294064.40625,274385.75,274403.71875,283920.46875,-0.10498046875,0.8857421875,-0.375244140625,-5.432128429412842,3.845214605331421,2.563476324081421,60.0,2875784.0,1.0
1136333.4799111,287761.03125,282301.375,316618.03125,288190.53125,294050.28125,274274.5,274344.34375,283777.65625,-0.10302734375,0.884765625,-0.374755859375,-5.157470226287842,3.845214605331421,2.288818120956421,60.0,2875785.0,1.0
1136333.4799569,288256.6875,282177.71875,317063.96875,289039.09375,294194.75,274103.125,274309.46875,283686.3125,-0.103515625,0.883544921875,-0.371826171875,-4.974364757537842,3.723144292831421,2.075195074081421,60.0,2875786.0,1.0
1136333.4909868,288286.90625,282210.625,317172.96875,289189.125,294252.5,274084.53125,274315.8125,283706.6875,-0.103759765625,0.879638671875,-0.375732421875,-4.760741710662842,3.723144292831421,1.8310545682907104,60.0,2875787.0,1.0
1136333.4910287,287836.3125,282367.28125,316855.5625,288528.5,294194.75,274265.03125,274388.78125,283892.75,-0.10302734375,0.878662109375,-0.376220703125,-4.425048351287842,3.601073980331421,1.6174315214157104,60.0,2875788.0,1.0
1136333.5203704,287480.90625,282393.65625,316475.25,287860.71875,294038.5625,274355.78125,274376.71875,283897.46875,-0.103515625,0.877197265625,-0.3759765625,-4.150390148162842,3.417968511581421,1.3427733182907104,60.0,2875789.0,1.0
1136333.5204132,287733.46875,282276.15625,316588.6875,288160.125,294022.5625,274246.96875,274318.3125,283754.6875,-0.104248046875,0.875,-0.376708984375,-3.784179449081421,3.417968511581421,1.0986326932907104,60.0,2875790.0,1.0
1136333.5204252,288257.125,282178.1875,317054.5,289029.96875,294186.34375,274096.25,274306.0,283680.125,-0.107177734375,0.875732421875,-0.376220703125,-3.448486089706421,3.204345464706421,0.8544921278953552,60.0,2875791.0,1.0
1136333.5229445,288305.875,282216.53125,317180.5625,289205.5625,294260.09375,274086.125,274323.59375,283708.75,-0.1103515625,0.876220703125,-0.373291015625,-3.143310308456421,3.051757574081421,0.5187987685203552,60.0,2875792.0,1.0
1136333.5273346,287854.09375,282369.0625,316871.40625,288558.0,294212.71875,274268.6875,274399.5,283900.96875,-0.11279296875,0.8779296875,-0.373779296875,-2.838134527206421,2.990722417831421,0.2746581733226776,60.0,2875793.0,1.0
1136333.5273809,287487.96875,282398.75,316490.15625,287880.375,294054.5625,274361.0625,274386.28125,283911.25,-0.116943359375,0.87890625,-0.37353515625,-2.563476324081421,2.716064214706421,-0.1525878757238388,60.0,2875794.0,1.0
1136333.5273919,287731.4375,282282.25,316597.1875,288165.40625,294034.4375,274251.71875,274327.8125,283765.59375,-0.119873046875,0.883056640625,-0.372802734375,-2.349853277206421,2.441406011581421,-0.4577636420726776,60.0,2875795.0,1.0
1136333.527403,288249.28125,282171.125,317052.625,289026.3125,294186.875,274090.0625,274305.71875,283677.8125,-0.122802734375,0.884765625,-0.37109375,-2.197265386581421,2.105712652206421,-0.8850097060203552,60.0,2875796.0,1.0
1136333.5297933,288297.65625,282204.375,317173.875,289199.59375,294251.625,274072.375,274315.65625,283693.8125,-0.12451171875,0.885986328125,-0.3662109375,-2.105712652206421,1.8005369901657104,-1.3427733182907104,60.0,2875797.0,1.0
1136333.5298366,287855.0625,282361.03125,316869.875,288558.71875,294204.75,274255.65625,274391.0,283886.46875,-0.1259765625,0.8876953125,-0.36767578125,-2.075195074081421,1.4038084745407104,-1.4953612089157104,60.0,2875798.0,1.0
1136333.5317021,287494.3125,282404.75,316497.21875,287888.78125,294059.75,274362.5,274386.71875,283917.3125,-0.130859375,0.889404296875,-0.363037109375,-2.136230230331421,1.0375975370407104,-2.014159917831421,60.0,2875799.0,1.0
1136333.5379296,287739.28125,282292.09375,316606.84375,288171.03125,294047.84375,274264.40625,274334.96875,283792.25,-0.134521484375,0.89306640625,-0.36279296875,-2.197265386581421,0.5187987685203552,-2.410888433456421,60.0,2875800.0,1.0
1136333.5473209,288262.59375,282184.78125,317064.25,289033.5625,294203.40625,274108.5,274318.40625,283696.9375,-0.135009765625,0.89697265625,-0.364501953125,-2.227782964706421,0.0915527269244194,-2.746581792831421,60.0,2875801.0,1.0
1136333.547365,288316.59375,282216.09375,317189.25,289214.0625,294269.59375,274087.90625,274324.21875,283701.9375,-0.135986328125,0.902099609375,-0.363037109375,-2.410888433456421,-0.4882812201976776,-3.082275152206421,60.0,2875802.0,1.0
1136333.5585818,287867.875,282365.40625,316881.84375,288573.375,294217.71875,274263.59375,274392.09375,283888.96875,-0.135986328125,0.908447265625,-0.359619140625,-2.685546636581421,-0.8850097060203552,-3.540038824081421,60.0,2875803.0,1.0
1136333.5586251,287499.6875,282406.0,316506.09375,287902.65625,294073.5,274370.4375,274388.6875,283924.9375,-0.134521484375,0.9130859375,-0.35693359375,-3.112792730331421,-1.2512205839157104,-3.814697027206421,60.0,2875804.0,1.0
1136333.5835316,287735.625,282296.1875,316607.75,288169.25,294056.0,274273.4375,274331.8125,283789.65625,-0.13330078125,0.91845703125,-0.35302734375,-3.540038824081421,-1.7395018339157104,-4.089354991912842,60.0,2875805.0,1.0
1136333.5835743,288250.0,282181.3125,317058.4375,289019.0625,294203.40625,274108.3125,274302.21875,283689.34375,-0.128662109375,0.922119140625,-0.3525390625,-4.333495616912842,-2.105712652206421,-4.211425304412842,60.0,2875806.0,1.0
1136333.5854164,288306.125,282207.875,317187.4375,289209.15625,294266.8125,274081.21875,274309.5625,283694.53125,-0.12646484375,0.9228515625,-0.354248046875,-5.035399913787842,-2.441406011581421,-4.394530773162842,60.0,2875807.0,1.0
1136333.5885873,287859.90625,282353.6875,316886.6875,288584.0,294224.15625,274257.34375,274386.375,283895.6875,-0.121826171875,0.92333984375,-0.3525390625,-5.798339366912842,-2.716064214706421,-4.394530773162842,60.0,2875808.0,1.0
1136333.5886316,287489.9375,282400.28125,316515.90625,287915.15625,294089.96875,274374.65625,274396.375,283949.96875,-0.115478515625,0.92724609375,-0.350830078125,-6.347655773162842,-2.899169683456421,-4.333495616912842,60.0,2875809.0,1.0
1136333.5903751,287719.1875,282290.5625,316607.375,288169.15625,294068.40625,274279.0625,274345.25,283819.59375,-0.111572265625,0.926513671875,-0.34912109375,-7.232665538787842,-2.960204839706421,-4.150390148162842,60.0,2875810.0,1.0
1136333.5929512,288226.65625,282162.4375,317043.78125,289010.3125,294202.71875,274102.0625,274311.09375,283707.40625,-0.10400390625,0.923095703125,-0.346923828125,-7.934569835662842,-2.990722417831421,-3.967284917831421,60.0,2875811.0,1.0
1136333.595481,288284.0625,282180.15625,317172.15625,289207.625,294258.125,274067.4375,274314.84375,283705.875,-0.09326171875,0.920654296875,-0.349609375,-8.758543968200684,-2.960204839706421,-3.753661870956421,60.0,2875812.0,1.0
1136333.5980616,287849.09375,282342.59375,316889.0,288594.90625,294224.6875,274255.5625,274403.875,283922.59375,-0.086669921875,0.918701171875,-0.346923828125,-9.490965843200684,-2.685546636581421,-3.417968511581421,60.0,2875813.0,1.0
1136333.6004717,287480.46875,282398.46875,316523.78125,287923.5625,294099.875,274382.6875,274421.6875,283987.96875,-0.080322265625,0.91455078125,-0.348876953125,-10.223387718200684,-2.410888433456421,-2.960204839706421,60.0,2875814.0,1.0
1136333.6029517,287715.15625,282304.0625,316621.40625,288178.8125,294085.75,274300.0,274379.65625,283858.84375,-0.0712890625,0.908935546875,-0.345458984375,-10.925292015075684,-2.044677495956421,-2.441406011581421,60.0,2875815.0,1.0
1136333.605479,288229.25,282176.40625,317062.28125,289026.125,294216.5625,274123.9375,274337.09375,283741.46875,-0.0654296875,0.905029296875,-0.349853515625,-11.505125999450684,-1.4953612089157104,-1.7700194120407104,60.0,2875816.0,1.0
1136333.6086488,288291.375,282187.75,317186.5625,289221.5625,294263.15625,274079.25,274322.25,283727.6875,-0.06005859375,0.90185546875,-0.349853515625,-12.054442405700684,-0.8544921278953552,-1.0986326932907104,60.0,2875817.0,1.0
1136333.608694,287843.8125,282335.90625,316882.84375,288589.1875,294209.5,274246.96875,274389.59375,283909.09375,-0.0576171875,0.898193359375,-0.349609375,-12.542723655700684,-0.3051757514476776,-0.3356933295726776,60.0,2875818.0,1.0
1136333.610422,287483.78125,282402.9375,316524.15625,287924.1875,294092.28125,274380.1875,274415.5,283975.4375,-0.05517578125,0.89892578125,-0.348876953125,-13.031004905700684,0.4272460639476776,0.4272460639476776,60.0,2875819.0,1.0
1136333.624782,287709.15625,282298.0625,316614.25,288166.5625,294073.96875,274290.59375,274364.90625,283849.5625,-0.055908203125,0.8994140625,-0.3505859375,-13.458250999450684,1.1901854276657104,1.0986326932907104,60.0,2875820.0,1.0
1136333.6248251,288235.0625,282178.0,317066.21875,289025.3125,294216.84375,274120.46875,274327.8125,283739.59375,-0.05810546875,0.903076171875,-0.349365234375,-13.854979515075684,1.8615721464157104,1.8615721464157104,60.0,2875821.0,1.0
1136333.6272941,288315.53125,282199.28125,317212.5,289244.1875,294283.625,274086.84375,274328.4375,283730.65625,-0.0625,0.90478515625,-0.35009765625,-14.221190452575684,2.410888433456421,2.593993902206421,60.0,2875822.0,1.0
1136333.6273383,287883.6875,282361.8125,316930.59375,288635.34375,294249.03125,274269.6875,274411.125,283930.46875,-0.068115234375,0.90966796875,-0.347900390625,-14.617918968200684,3.021239995956421,3.234863042831421,60.0,2875823.0,1.0
1136333.6292282,287501.84375,282419.5,316554.8125,287949.5,294116.875,274395.03125,274422.21875,283989.9375,-0.072265625,0.91455078125,-0.349609375,-15.167235374450684,3.448486089706421,3.906249761581421,60.0,2875824.0,1.0
1136333.6353989,287723.75,282324.375,316641.4375,288184.0,294100.875,274313.5,274373.65625,283863.40625,-0.076171875,0.917236328125,-0.34765625,-15.747069358825684,3.845214605331421,4.516601085662842,60.0,2875825.0,1.0
1136333.6448278,288243.0,282195.25,317087.9375,289039.0,294242.59375,274140.03125,274338.96875,283755.40625,-0.07763671875,0.91943359375,-0.34619140625,-16.387937545776367,4.150390148162842,5.218505382537842,60.0,2875826.0,1.0
1136333.6448812,288316.59375,282200.1875,317221.78125,289252.0625,294296.59375,274090.0625,274326.625,283738.25,-0.08056640625,0.919677734375,-0.343505859375,-16.998289108276367,4.302978038787842,5.798339366912842,60.0,2875827.0,1.0
1136333.6465153,287889.3125,282362.625,316942.84375,288649.90625,294263.0625,274270.3125,274409.25,283942.09375,-0.081787109375,0.919189453125,-0.3447265625,-17.578123092651367,4.516601085662842,6.347655773162842,60.0,2875828.0,1.0
1136333.6542915,287501.75,282417.6875,316563.75,287958.0,294132.78125,274394.78125,274421.59375,284008.25,-0.085205078125,0.91796875,-0.34375,-18.096921920776367,4.669188976287842,6.713866710662842,60.0,2875829.0,1.0
1136333.6566477,287707.375,282312.375,316634.75,288171.75,294104.34375,274303.5625,274365.4375,283876.09375,-0.085693359375,0.914794921875,-0.341796875,-18.463132858276367,4.821776866912842,7.232665538787842,60.0,2875830.0,1.0
1136333.6610352,288226.46875,282176.03125,317078.46875,289023.53125,294238.03125,274121.28125,274324.59375,283759.6875,-0.084228515625,0.915283203125,-0.3408203125,-18.920896530151367,4.821776866912842,7.568358898162842,60.0,2875831.0,1.0
1136333.6610788,288313.65625,282188.1875,317223.03125,289251.0625,294295.6875,274075.21875,274316.1875,283741.46875,-0.086669921875,0.9130859375,-0.3427734375,-19.378660202026367,4.821776866912842,7.843017101287842,60.0,2875832.0,1.0
1136333.6691529,287885.21875,282347.78125,316944.09375,288648.125,294263.5,274257.875,274402.71875,283942.90625,-0.087646484375,0.9091796875,-0.34375,-19.622800827026367,4.852294445037842,7.995604991912842,60.0,2875833.0,1.0
1136333.6723463,287490.75,282400.71875,316557.03125,287942.875,294127.34375,274381.625,274421.15625,284013.53125,-0.08740234375,0.905029296875,-0.345458984375,-19.866941452026367,4.852294445037842,8.178709983825684,60.0,2875834.0,1.0
1136333.6723884,287693.15625,282295.9375,316621.40625,288145.1875,294095.875,274295.625,274372.0625,283885.40625,-0.0869140625,0.900146484375,-0.3466796875,-19.866941452026367,4.852294445037842,8.148192405700684,60.0,2875835.0,1.0
1136333.682959,288235.875,282184.4375,317084.0,289020.0625,294247.125,274134.25,274349.15625,283783.84375,-0.08740234375,0.897216796875,-0.346435546875,-19.775388717651367,4.730224132537842,8.056639671325684,60.0,2875836.0,1.0
1136333.685948,288349.21875,282215.90625,317259.15625,289286.9375,294329.9375,274106.53125,274359.90625,283782.3125,-0.088134765625,0.893798828125,-0.352294921875,-19.561765670776367,4.760741710662842,7.934569835662842,60.0,2875837.0,1.0
1136333.6859893,287903.90625,282354.65625,316961.34375,288671.4375,294277.28125,274264.84375,274420.25,283958.375,-0.08447265625,0.89013671875,-0.35009765625,-19.317625045776367,4.638671398162842,7.659911632537842,60.0,2875838.0,1.0
1136333.6917138,287492.0,282400.09375,316558.90625,287948.96875,294128.75,274378.3125,274421.0625,284013.4375,-0.0859375,0.884521484375,-0.348388671875,-19.042966842651367,4.547118663787842,7.537841320037842,60.0,2875839.0,1.0
1136333.695564,287694.15625,282305.6875,316626.78125,288148.5,294102.46875,274298.9375,274372.875,283895.25,-0.084228515625,0.883056640625,-0.345703125,-18.737791061401367,4.547118663787842,7.354735851287842,60.0,2875840.0,1.0
1136333.7072764,288237.03125,282191.0625,317091.4375,289023.90625,294252.0625,274133.78125,274347.8125,283787.6875,-0.08154296875,0.88037109375,-0.345947265625,-18.157957077026367,4.516601085662842,7.110595226287842,60.0,2875841.0,1.0
1136333.7073179,288336.0,282193.75,317244.5,289270.03125,294309.46875,274076.21875,274331.46875,283754.4375,-0.079345703125,0.874267578125,-0.347900390625,-17.639158248901367,4.516601085662842,6.866454601287842,60.0,2875842.0,1.0
1136333.7097809,287902.1875,282340.71875,316955.8125,288663.3125,294259.65625,274239.09375,274396.46875,283929.84375,-0.077392578125,0.87158203125,-0.347900390625,-16.998289108276367,4.455565929412842,6.622313976287842,60.0,2875843.0,1.0
1136333.7098238,287502.09375,282406.53125,316569.75,287951.46875,294127.875,274372.25,274415.40625,284003.15625,-0.0751953125,0.869873046875,-0.347412109375,-16.448972702026367,4.547118663787842,6.347655773162842,60.0,2875844.0,1.0
1136333.7179615,287709.25,282321.6875,316643.15625,288149.6875,294109.09375,274304.90625,274376.53125,283889.0625,-0.073486328125,0.866455078125,-0.349365234375,-15.716551780700684,4.577636241912842,5.920409679412842,60.0,2875845.0,1.0
1136333.7205867,288252.65625,282202.9375,317105.90625,289025.5,294255.625,274138.4375,274345.0625,283781.59375,-0.07470703125,0.870849609375,-0.349853515625,-14.862059593200684,4.486083507537842,5.584716320037842,60.0,2875846.0,1.0
1136333.7242014,288360.125,282209.46875,317265.59375,289288.0,294314.71875,274084.34375,274331.8125,283750.03125,-0.074951171875,0.87158203125,-0.350341796875,-14.160155296325684,4.394530773162842,5.279540538787842,60.0,2875847.0,1.0
1136333.7384263,287931.0625,282365.65625,316981.625,288687.28125,294271.0,274252.53125,274401.75,283929.40625,-0.0751953125,0.8740234375,-0.34619140625,-13.488768577575684,4.455565929412842,4.913329601287842,60.0,2875848.0,1.0
1136333.7384753,287514.71875,282426.46875,316582.4375,287960.75,294131.28125,274383.84375,274415.59375,283997.34375,-0.075439453125,0.874755859375,-0.34375,-12.786864280700684,4.425048351287842,4.608153820037842,60.0,2875849.0,1.0
1136333.7410263,287705.6875,282333.46875,316638.3125,288140.46875,294105.25,274311.96875,274372.0625,283878.6875,-0.07421875,0.878173828125,-0.34375,-12.237547874450684,4.455565929412842,4.364013195037842,60.0,2875850.0,1.0
1136333.7410699,288246.84375,282208.59375,317093.3125,289010.21875,294247.9375,274139.25,274339.15625,283766.75,-0.072998046875,0.882568359375,-0.34619140625,-11.505125999450684,4.516601085662842,4.058837413787842,60.0,2875851.0,1.0
1136333.7430629,288353.6875,282200.4375,317253.15625,289274.875,294300.34375,274072.53125,274317.6875,283725.90625,-0.07421875,0.886474609375,-0.34375,-11.016844749450684,4.486083507537842,3.784179449081421,60.0,2875852.0,1.0
1136333.7454659,287916.84375,282340.0,316963.03125,288666.8125,294245.53125,274231.6875,274381.34375,283894.34375,-0.07470703125,0.891845703125,-0.33984375,-10.681151390075684,4.272460460662842,3.509521245956421,60.0,2875853.0,1.0
1136333.7766669,287495.65625,282404.8125,316560.1875,287931.25,294105.25,274367.0625,274399.78125,283964.625,-0.077880859375,0.89599609375,-0.33935546875,-10.070799827575684,4.302978038787842,3.204345464706421,60.0,2875854.0,1.0
1136333.7842631,287671.71875,282307.375,316604.15625,288097.71875,294073.0625,274291.78125,274355.4375,283845.25,-0.0810546875,0.901123046875,-0.33935546875,-9.857176780700684,4.180907726287842,2.838134527206421,60.0,2875855.0,1.0
1136333.7843072,288208.40625,282176.3125,317056.125,288971.78125,294211.90625,274114.5625,274320.1875,283735.03125,-0.082275390625,0.905029296875,-0.337158203125,-9.582518577575684,3.936767339706421,2.471923589706421,60.0,2875856.0,1.0
1136333.7843189,288340.8125,282190.0625,317240.75,289265.46875,294289.25,274069.875,274321.53125,283714.28125,-0.085693359375,0.90771484375,-0.336181640625,-9.307860374450684,3.784179449081421,2.075195074081421,60.0,2875857.0,1.0
1136333.7843303,287917.03125,282346.71875,316964.28125,288675.03125,294251.25,274241.53125,274398.4375,283894.71875,-0.088134765625,0.9130859375,-0.33251953125,-9.246825218200684,3.540038824081421,1.8615721464157104,60.0,2875858.0,1.0
1136333.7843404,287475.28125,282396.875,316538.53125,287916.84375,294094.96875,274359.8125,274398.53125,283949.5,-0.089111328125,0.91357421875,-0.33203125,-9.124754905700684,3.234863042831421,1.4343260526657104,60.0,2875859.0,1.0
1136333.7843516,287640.78125,282297.8125,316572.59375,288062.40625,294053.40625,274280.78125,274345.15625,283823.28125,-0.0927734375,0.916748046875,-0.330810546875,-9.033202171325684,2.960204839706421,1.0070799589157104,60.0,2875860.0,1.0
1136333.7880009,288197.6875,282186.40625,317049.40625,288960.9375,294213.6875,274126.1875,274331.5625,283735.5625,-0.09619140625,0.920166015625,-0.330078125,-8.972167015075684,2.655029058456421,0.6713866591453552,60.0,2875861.0,1.0
1136333.7880447,288335.71875,282195.0,317238.25,289266.90625,294294.71875,274077.90625,274331.09375,283718.84375,-0.096923828125,0.9208984375,-0.3251953125,-8.972167015075684,2.197265386581421,0.1525878757238388,60.0,2875862.0,1.0
1136333.7880568,287892.4375,282329.71875,316939.78125,288653.21875,294233.8125,274227.9375,274385.90625,283873.78125,-0.100830078125,0.921875,-0.32763671875,-8.972167015075684,1.7089842557907104,-0.3356933295726776,60.0,2875863.0,1.0
1136333.7904782,287463.75,282398.84375,316530.125,287903.09375,294091.5625,274365.96875,274406.84375,283950.0625,-0.1044921875,0.92431640625,-0.325927734375,-9.124754905700684,1.2207030057907104,-0.7934569716453552,60.0,2875864.0,1.0
1136333.7928955,287630.84375,282306.65625,316567.3125,288047.3125,294053.21875,274296.5,274361.96875,283830.34375,-0.104736328125,0.9248046875,-0.32666015625,-9.185790061950684,0.6713866591453552,-1.1901854276657104,60.0,2875865.0,1.0
1136333.8017301,288177.3125,282178.28125,317029.03125,288932.96875,294197.0625,274123.40625,274329.15625,283719.75,-0.10693359375,0.9267578125,-0.32421875,-9.307860374450684,0.2136230319738388,-1.6479490995407104,60.0,2875866.0,1.0
1136333.8111451,288319.53125,282174.78125,317218.3125,289241.6875,294267.25,274059.21875,274315.90625,283686.21875,-0.107421875,0.92578125,-0.322509765625,-9.429930686950684,-0.3356933295726776,-2.014159917831421,60.0,2875867.0,1.0
1136333.8111881,287902.1875,282327.9375,316945.0625,288651.59375,294223.53125,274224.71875,274386.8125,283858.59375,-0.107666015625,0.92431640625,-0.319580078125,-9.674071311950684,-0.9765624403953552,-2.502441167831421,60.0,2875868.0,1.0
1136333.822306,287474.5625,282407.59375,316536.84375,287897.46875,294083.53125,274369.375,274411.125,283937.34375,-0.109375,0.923828125,-0.320556640625,-9.826659202575684,-1.5563963651657104,-2.990722417831421,60.0,2875869.0,1.0
1136333.8223485,287637.8125,282318.5625,316568.21875,288033.90625,294044.46875,274303.125,274368.9375,283820.78125,-0.111083984375,0.925537109375,-0.322021484375,-10.009764671325684,-2.014159917831421,-3.295898199081421,60.0,2875870.0,1.0
1136333.8315809,288190.09375,282190.78125,317038.15625,288934.125,294199.03125,274134.6875,274343.1875,283726.25,-0.10888671875,0.92529296875,-0.3212890625,-10.070799827575684,-2.258300542831421,-3.479003667831421,60.0,2875871.0,1.0
1136333.8316236,288343.25,282189.8125,317236.53125,289265.21875,294283.0,274078.1875,274337.375,283702.5625,-0.10986328125,0.9248046875,-0.320068359375,-10.345458030700684,-2.960204839706421,-3.875732183456421,60.0,2875872.0,1.0
1136333.831636,287924.8125,282342.40625,316959.90625,288675.5625,294240.4375,274244.21875,274406.65625,283869.9375,-0.109130859375,0.921630859375,-0.317138671875,-10.467528343200684,-3.601073980331421,-4.180907726287842,60.0,2875873.0,1.0
1136333.8347524,287473.125,282410.09375,316529.875,287890.9375,294083.0625,274377.34375,274415.34375,283934.125,-0.109130859375,0.9228515625,-0.315673828125,-10.681151390075684,-3.997802495956421,-4.425048351287842,60.0,2875874.0,1.0
1136333.8348698,287622.96875,282318.625,316549.34375,288010.28125,294036.59375,274311.15625,274368.21875,283814.6875,-0.10986328125,0.92236328125,-0.3193359375,-10.742186546325684,-4.547118663787842,-4.608153820037842,60.0,2875875.0,1.0
1136333.8368214,288191.6875,282201.96875,317036.09375,288929.65625,294203.40625,274153.90625,274352.5625,283732.96875,-0.109130859375,0.920654296875,-0.315673828125,-10.711668968200684,-5.065917491912842,-4.913329601287842,60.0,2875876.0,1.0
1136333.8479325,288352.625,282199.625,317245.84375,289278.625,294291.9375,274092.40625,274346.03125,283711.5,-0.1103515625,0.916259765625,-0.316650390625,-10.894774436950684,-5.645751476287842,-5.126952648162842,60.0,2875877.0,1.0
1136333.8510902,287907.8125,282322.46875,316944.0,288665.28125,294221.84375,274228.125,274391.625,283850.625,-0.111572265625,0.916015625,-0.314453125,-11.047362327575684,-6.042479991912842,-5.157470226287842,60.0,2875878.0,1.0
1136333.8511345,287441.125,282380.6875,316497.59375,287862.5,294055.1875,274355.6875,274398.6875,283905.0625,-0.11328125,0.91650390625,-0.31884765625,-11.230467796325684,-6.500243663787842,-5.187987804412842,60.0,2875879.0,1.0
1136333.8529417,287583.1875,282287.78125,316508.21875,287968.53125,294003.3125,274287.21875,274349.625,283786.0625,-0.111328125,0.917724609375,-0.315673828125,-11.230467796325684,-6.927489757537842,-5.218505382537842,60.0,2875880.0,1.0
1136333.8668261,288157.53125,282173.09375,317003.90625,288899.53125,294175.34375,274132.8125,274331.90625,283713.46875,-0.113037109375,0.917236328125,-0.312744140625,-11.199950218200684,-7.354735851287842,-5.187987804412842,60.0,2875881.0,1.0
1136333.8698281,288328.84375,282169.59375,317225.4375,289261.90625,294268.34375,274072.90625,274324.03125,283694.78125,-0.109375,0.9150390625,-0.314208984375,-11.138915061950684,-7.690429210662842,-5.218505382537842,60.0,2875882.0,1.0
1136333.8698702,287899.5,282307.65625,316936.65625,288658.3125,294212.71875,274221.84375,274381.90625,283843.125,-0.11279296875,0.91650390625,-0.310546875,-11.047362327575684,-7.995604991912842,-5.126952648162842,60.0,2875883.0,1.0
1136333.8716867,287438.71875,282380.6875,316495.4375,287850.59375,294054.75,274359.90625,274398.4375,283906.34375,-0.114501953125,0.91259765625,-0.312744140625,-11.077879905700684,-8.331297874450684,-5.065917491912842,60.0,2875884.0,1.0
1136333.8741721,287589.625,282305.59375,316515.5625,287961.46875,294014.9375,274306.34375,274361.5,283804.3125,-0.115966796875,0.91015625,-0.305908203125,-11.108397483825684,-8.697508811950684,-5.065917491912842,60.0,2875885.0,1.0
1136333.8830654,288163.4375,282186.21875,317009.53125,288899.71875,294187.59375,274142.46875,274342.375,283736.90625,-0.11669921875,0.907470703125,-0.3095703125,-11.016844749450684,-9.063719749450684,-4.913329601287842,60.0,2875886.0,1.0
1136333.8872987,288338.9375,282178.625,317237.53125,289275.40625,294283.34375,274076.125,274333.78125,283726.71875,-0.116455078125,0.9052734375,-0.30859375,-10.833739280700684,-9.368895530700684,-4.852294445037842,60.0,2875887.0,1.0
1136333.8873414,287912.125,282318.90625,316949.4375,288672.875,294225.6875,274226.15625,274392.34375,283875.9375,-0.11669921875,0.9052734375,-0.3056640625,-10.589598655700684,-9.490965843200684,-4.760741710662842,60.0,2875888.0,1.0
1136333.8954048,287442.375,282390.34375,316497.40625,287853.03125,294057.875,274360.78125,274405.3125,283922.6875,-0.11767578125,0.903564453125,-0.30419921875,-10.406493186950684,-9.826659202575684,-4.577636241912842,60.0,2875889.0,1.0
1136333.9022538,287603.21875,282324.8125,316527.0,287971.21875,294028.625,274318.40625,274380.625,283827.21875,-0.12060546875,0.905029296875,-0.30517578125,-10.162352561950684,-10.131834983825684,-4.577636241912842,60.0,2875890.0,1.0
1136333.9022949,288195.1875,282212.34375,317035.1875,288929.03125,294212.53125,274165.4375,274370.8125,283766.6875,-0.121826171875,0.903564453125,-0.302001953125,-9.765624046325684,-10.498045921325684,-4.516601085662842,60.0,2875891.0,1.0
1136333.9049318,288366.65625,282183.8125,317251.46875,289303.03125,294290.21875,274078.71875,274342.09375,283729.46875,-0.123779296875,0.905029296875,-0.29931640625,-9.674071311950684,-10.742186546325684,-4.272460460662842,60.0,2875892.0,1.0
1136333.9049757,287932.3125,282307.46875,316953.84375,288691.65625,294222.375,274214.0,274388.34375,283861.625,-0.123291015625,0.9072265625,-0.300048828125,-9.490965843200684,-11.047362327575684,-4.150390148162842,60.0,2875893.0,1.0
1136333.9154623,287449.96875,282379.4375,316495.71875,287858.28125,294058.03125,274354.90625,274406.125,283925.625,-0.125732421875,0.90869140625,-0.29833984375,-9.368895530700684,-11.230467796325684,-3.967284917831421,60.0,2875894.0,1.0
1136333.9198591,287582.5625,282301.28125,316496.15625,287941.1875,294008.6875,274300.4375,274362.59375,283817.28125,-0.1259765625,0.91162109375,-0.296875,-9.277342796325684,-11.505125999450684,-3.845214605331421,60.0,2875895.0,1.0
1136333.9199058,288176.9375,282191.78125,317009.96875,288905.15625,294195.5625,274151.21875,274354.4375,283758.8125,-0.125244140625,0.9130859375,-0.298828125,-9.033202171325684,-11.718749046325684,-3.601073980331421,60.0,2875896.0,1.0
1136333.9254058,288369.15625,282178.375,317252.28125,289306.875,294295.25,274080.3125,274343.625,283737.34375,-0.126220703125,0.916015625,-0.294677734375,-8.972167015075684,-11.993407249450684,-3.417968511581421,60.0,2875897.0,1.0
1136333.929913,287924.53125,282298.25,316952.03125,288693.1875,294225.40625,274213.28125,274389.21875,283863.5,-0.125244140625,0.919677734375,-0.293701171875,-9.002684593200684,-12.176512718200684,-3.204345464706421,60.0,2875898.0,1.0
1136333.9299573,287429.5,282368.78125,316485.15625,287847.46875,294055.1875,274353.1875,274406.03125,283924.5625,-0.125244140625,0.922119140625,-0.291015625,-9.002684593200684,-12.268065452575684,-3.021239995956421,60.0,2875899.0,1.0
1136333.9354012,287561.375,282300.125,316487.5625,287928.46875,294012.4375,274308.65625,274371.34375,283828.0,-0.125,0.92431640625,-0.288818359375,-9.094237327575684,-12.542723655700684,-2.868652105331421,60.0,2875900.0,1.0
1136333.9442246,288160.21875,282189.71875,317002.1875,288897.75,294199.21875,274156.125,274358.5625,283767.84375,-0.124755859375,0.927001953125,-0.287841796875,-9.124754905700684,-12.603758811950684,-2.685546636581421,60.0,2875901.0,1.0
1136333.9473233,288355.125,282169.78125,317246.90625,289314.1875,294299.875,274079.15625,274340.75,283738.96875,-0.122802734375,0.927490234375,-0.286865234375,-9.246825218200684,-12.786864280700684,-2.471923589706421,60.0,2875902.0,1.0
1136333.9473661,287922.125,282298.15625,316956.59375,288711.59375,294237.9375,274217.75,274389.65625,283870.5625,-0.12451171875,0.928466796875,-0.284912109375,-9.429930686950684,-12.878417015075684,-2.197265386581421,60.0,2875903.0,1.0
1136333.9555658,287430.65625,282376.9375,316490.4375,287861.59375,294069.3125,274362.21875,274412.28125,283939.21875,-0.123291015625,0.929443359375,-0.282470703125,-9.460448265075684,-12.969969749450684,-1.8920897245407104,60.0,2875904.0,1.0
1136333.9597974,287547.875,282297.28125,316473.34375,287915.96875,294011.71875,274304.03125,274364.625,283831.6875,-0.123046875,0.9306640625,-0.284423828125,-9.613036155700684,-13.031004905700684,-1.6784666776657104,60.0,2875905.0,1.0
1136333.9598401,288142.25,282178.4375,316979.125,288876.46875,294189.75,274141.125,274339.96875,283764.8125,-0.124755859375,0.9306640625,-0.279296875,-9.613036155700684,-13.031004905700684,-1.3122557401657104,60.0,2875906.0,1.0
1136333.9678271,288365.84375,282169.40625,317248.6875,289322.4375,294307.40625,274074.59375,274338.53125,283745.75,-0.1240234375,0.931640625,-0.279296875,-9.765624046325684,-13.092040061950684,-1.1291502714157104,60.0,2875907.0,1.0
1136333.9748073,287937.34375,282296.375,316962.15625,288723.84375,294249.03125,274211.40625,274392.71875,283873.25,-0.122314453125,0.934814453125,-0.279296875,-9.796141624450684,-13.031004905700684,-0.9155272841453552,60.0,2875908.0,1.0
1136333.974851,287443.34375,282384.25,316500.28125,287872.59375,294088.875,274366.6875,274423.375,283953.34375,-0.120849609375,0.93408203125,-0.277587890625,-9.979247093200684,-13.092040061950684,-0.6103515028953552,60.0,2875909.0,1.0
1136333.9892837,287570.3125,282325.625,316497.84375,287937.40625,294045.625,274332.0,274395.9375,283859.65625,-0.121337890625,0.933837890625,-0.27587890625,-10.070799827575684,-13.061522483825684,-0.4577636420726776,60.0,2875910.0,1.0
1136333.9893291,288176.3125,282213.0625,317013.46875,288910.4375,294228.90625,274175.1875,274380.375,283789.03125,-0.1220703125,0.93408203125,-0.27294921875,-10.040282249450684,-13.000487327575684,-0.2136230319738388,60.0,2875911.0,1.0
1136333.9893403,288379.71875,282177.09375,317265.5,289343.4375,294327.15625,274083.28125,274354.4375,283751.21875,-0.1201171875,0.934326171875,-0.2734375,-10.284422874450684,-12.786864280700684,0.03051757626235485,60.0,2875912.0,1.0
1136333.9923074,287933.65625,282288.96875,316966.09375,288732.15625,294251.6875,274206.125,274393.34375,283866.71875,-0.119140625,0.9326171875,-0.27392578125,-10.345458030700684,-12.542723655700684,0.2136230319738388,60.0,2875913.0,1.0
1136333.9923499,287404.65625,282356.28125,316472.1875,287839.875,294063.3125,274340.0625,274403.34375,283927.875,-0.11767578125,0.928955078125,-0.271728515625,-10.406493186950684,-12.481688499450684,0.3967284858226776,60.0,2875914.0,1.0
1136333.9942334,287538.75,282314.09375,316476.65625,287902.8125,294030.5,274321.4375,274389.5,283857.25,-0.117919921875,0.927001953125,-0.269287109375,-10.192870140075684,-12.390135765075684,0.5798339247703552,60.0,2875915.0,1.0
1136333.9979597,288145.65625,282201.34375,316996.84375,288882.53125,294216.21875,274170.1875,274376.53125,283791.25,-0.1201171875,0.927490234375,-0.269287109375,-10.223387718200684,-12.268065452575684,0.6713866591453552,60.0,2875916.0,1.0
1136334.0068277,288356.75,282164.15625,317253.4375,289326.625,294315.8125,274081.9375,274352.75,283748.34375,-0.12060546875,0.9267578125,-0.26953125,-10.253905296325684,-12.054442405700684,0.8850097060203552,60.0,2875917.0,1.0
1136334.0097963,287915.34375,282276.96875,316958.65625,288720.71875,294242.5,274207.09375,274393.78125,283865.65625,-0.118408203125,0.929443359375,-0.26904296875,-10.070799827575684,-11.993407249450684,1.0070799589157104,60.0,2875918.0,1.0
1136334.0099016,287384.96875,282346.4375,316460.84375,287819.40625,294052.15625,274340.59375,274403.25,283923.6875,-0.116943359375,0.930419921875,-0.268310546875,-10.040282249450684,-11.779784202575684,1.2207030057907104,60.0,2875919.0,1.0
1136334.0117285,287495.03125,282285.90625,316437.5,287848.71875,293993.9375,274299.0,274362.65625,283823.28125,-0.11474609375,0.9306640625,-0.268310546875,-10.009764671325684,-11.596678733825684,1.4038084745407104,60.0,2875920.0,1.0
1136334.0254582,288141.96875,282201.78125,316986.65625,288857.15625,294205.21875,274168.21875,274365.8125,283779.0,-0.115478515625,0.93310546875,-0.264892578125,-10.070799827575684,-11.352538108825684,1.4648436307907104,60.0,2875921.0,1.0
1136334.0286578,288400.09375,282190.59375,317285.4375,289352.90625,294334.9375,274096.9375,274361.875,283765.78125,-0.113525390625,0.933349609375,-0.262451171875,-10.101317405700684,-11.077879905700684,1.7395018339157104,60.0,2875922.0,1.0
1136334.0287019,287952.25,282292.625,316982.625,288743.5,294254.125,274205.03125,274387.0,283870.46875,-0.11474609375,0.935546875,-0.261962890625,-10.223387718200684,-10.864256858825684,1.9226073026657104,60.0,2875923.0,1.0
1136334.0304463,287415.65625,282365.40625,316480.875,287840.25,294068.5,274343.625,274399.9375,283920.90625,-0.115966796875,0.93701171875,-0.260986328125,-10.253905296325684,-10.681151390075684,2.105712652206421,60.0,2875924.0,1.0
1136334.039229,287509.96875,282298.78125,316444.65625,287855.25,294008.25,274303.5625,274361.34375,283819.96875,-0.116455078125,0.937255859375,-0.25830078125,-10.314940452575684,-10.437010765075684,2.075195074081421,60.0,2875925.0,1.0
1136334.054217,288141.625,282195.34375,316981.46875,288855.4375,294208.4375,274159.28125,274355.34375,283772.75,-0.11767578125,0.9375,-0.257568359375,-10.345458030700684,-10.253905296325684,2.166747808456421,60.0,2875926.0,1.0
1136334.05426,288391.0625,282170.03125,317274.53125,289351.46875,294329.9375,274076.03125,274339.15625,283750.5,-0.115966796875,0.93798828125,-0.259521484375,-10.131834983825684,-10.009764671325684,2.258300542831421,60.0,2875927.0,1.0
1136334.0542724,287958.25,282285.46875,316993.0,288764.875,294264.65625,274201.75,274380.71875,283868.59375,-0.1162109375,0.939453125,-0.2587890625,-10.101317405700684,-9.674071311950684,2.288818120956421,60.0,2875928.0,1.0
1136334.0574114,287421.1875,282367.28125,316497.6875,287859.28125,294084.0625,274351.21875,274404.96875,283943.34375,-0.11669921875,0.9384765625,-0.2578125,-10.131834983825684,-9.521483421325684,2.410888433456421,60.0,2875929.0,1.0
1136334.0574562,287520.875,282316.6875,316466.375,287871.96875,294028.53125,274324.21875,274379.21875,283851.625,-0.116943359375,0.937255859375,-0.256103515625,-10.162352561950684,-9.399413108825684,2.502441167831421,60.0,2875930.0,1.0
1136334.0592293,288160.40625,282223.78125,317008.46875,288878.0625,294231.03125,274187.15625,274378.5,283799.40625,-0.1171875,0.938232421875,-0.256591796875,-10.131834983825684,-9.185790061950684,2.380370855331421,60.0,2875931.0,1.0
1136334.0617262,288407.96875,282186.84375,317296.71875,289370.4375,294344.78125,274092.65625,274354.25,283763.53125,-0.117431640625,0.936279296875,-0.25537109375,-10.070799827575684,-9.002684593200684,2.410888433456421,60.0,2875932.0,1.0
1136334.0641804,287963.625,282284.125,317002.46875,288774.8125,294269.59375,274202.4375,274387.15625,283870.5625,-0.1171875,0.9345703125,-0.252197265625,-9.979247093200684,-8.728026390075684,2.288818120956421,60.0,2875933.0,1.0
1136334.0730387,287411.15625,282357.625,316491.25,287849.1875,294078.875,274346.9375,274403.875,283934.03125,-0.1162109375,0.933349609375,-0.25244140625,-9.948729515075684,-8.453368186950684,2.319335699081421,60.0,2875934.0,1.0
1136334.0758685,287506.9375,282311.5625,316453.15625,287848.0,294022.375,274325.125,274381.1875,283848.5625,-0.115234375,0.932861328125,-0.250244140625,-9.796141624450684,-8.209227561950684,2.136230230331421,60.0,2875935.0,1.0
1136334.075911,288157.09375,282220.65625,317001.21875,288864.84375,294232.84375,274192.875,274387.25,283807.0,-0.115234375,0.931640625,-0.24658203125,-9.643553733825684,-7.965087413787842,2.136230230331421,60.0,2875936.0,1.0
1136334.0817261,288416.09375,282182.03125,317297.96875,289374.71875,294351.84375,274097.3125,274362.84375,283770.25,-0.11474609375,0.929931640625,-0.243408203125,-9.368895530700684,-7.781981945037842,2.014159917831421,60.0,2875937.0,1.0
1136334.0854122,287956.71875,282263.5625,316988.6875,288762.5625,294259.21875,274189.21875,274375.53125,283856.4375,-0.115234375,0.92724609375,-0.24658203125,-9.307860374450684,-7.476806163787842,1.8920897245407104,60.0,2875938.0,1.0
1136334.0942814,287395.09375,282337.5,316474.625,287830.21875,294068.15625,274329.78125,274390.46875,283923.84375,-0.1123046875,0.926513671875,-0.24267578125,-9.063719749450684,-7.263183116912842,1.8310545682907104,60.0,2875939.0,1.0
1136334.0985553,287481.28125,282289.9375,316430.0,287819.3125,294008.4375,274303.75,274363.125,283836.0625,-0.11279296875,0.926513671875,-0.244384765625,-8.789061546325684,-7.019042491912842,1.6479490995407104,60.0,2875940.0,1.0
1136334.0985985,288129.46875,282198.3125,316975.03125,288831.59375,294212.28125,274166.40625,274363.03125,283786.25,-0.111572265625,0.926513671875,-0.248291015625,-8.514403343200684,-6.866454601287842,1.5869139432907104,60.0,2875941.0,1.0
1136334.1117098,288423.625,282184.71875,317304.125,289379.8125,294354.78125,274092.21875,274360.53125,283770.96875,-0.11181640625,0.927490234375,-0.2470703125,-8.178709983825684,-6.530761241912842,1.4953612089157104,60.0,2875942.0,1.0
1136334.1148054,288002.0625,282297.09375,317031.625,288809.59375,294294.875,274210.6875,274401.65625,283883.34375,-0.11181640625,0.92626953125,-0.2421875,-7.873534679412842,-6.195067882537842,1.3427733182907104,60.0,2875943.0,1.0
1136334.1148491,287422.25,282359.59375,316499.28125,287855.0,294089.0625,274339.875,274403.34375,283938.59375,-0.110107421875,0.92529296875,-0.242431640625,-7.720946788787842,-6.011962413787842,1.3122557401657104,60.0,2875944.0,1.0
1136334.1167535,287474.28125,282289.40625,316418.28125,287801.78125,293997.78125,274291.5,274349.625,283816.75,-0.110595703125,0.92724609375,-0.239990234375,-7.446288585662842,-5.706786632537842,1.1901854276657104,60.0,2875945.0,1.0
1136334.1211188,288133.5,282207.15625,316975.5625,288829.0625,294211.8125,274165.96875,274356.5,283778.5625,-0.1103515625,0.92529296875,-0.240478515625,-7.202147960662842,-5.462646007537842,1.1596678495407104,60.0,2875946.0,1.0
1136334.1211617,288422.28125,282182.21875,317304.40625,289385.1875,294348.875,274085.96875,274350.78125,283757.90625,-0.111572265625,0.927490234375,-0.242919921875,-6.988524913787842,-5.187987804412842,1.2207030057907104,60.0,2875947.0,1.0
1136334.1292076,287983.8125,282277.4375,317017.5,288804.59375,294274.9375,274193.96875,274381.4375,283855.0,-0.1103515625,0.929443359375,-0.239013671875,-6.713866710662842,-4.821776866912842,1.0986326932907104,60.0,2875948.0,1.0
1136334.1335527,287415.09375,282360.75,316497.125,287860.875,294084.5,274342.09375,274404.0625,283924.03125,-0.1103515625,0.92919921875,-0.244140625,-6.439208507537842,-4.608153820037842,0.9155272841453552,60.0,2875949.0,1.0
1136334.133596,287485.28125,282316.3125,316435.8125,287813.9375,294014.3125,274318.78125,274372.3125,283830.40625,-0.111083984375,0.9296875,-0.242431640625,-6.256103038787842,-4.333495616912842,0.8544921278953552,60.0,2875950.0,1.0
1136334.1415994,288138.0625,282221.09375,316980.84375,288825.40625,294218.625,274181.625,274368.40625,283782.3125,-0.11181640625,0.93115234375,-0.2421875,-5.859374523162842,-4.119872570037842,0.7934569716453552,60.0,2875951.0,1.0
1136334.1447388,288430.0625,282182.75,317309.5,289387.0625,294352.8125,274088.0,274347.375,283751.9375,-0.113525390625,0.931396484375,-0.240234375,-5.462646007537842,-3.753661870956421,0.6713866591453552,60.0,2875952.0,1.0
1136334.1447838,287995.71875,282272.59375,317024.71875,288813.0625,294276.71875,274185.8125,274372.9375,283844.71875,-0.1171875,0.93115234375,-0.239990234375,-5.279540538787842,-3.509521245956421,0.5187987685203552,60.0,2875953.0,1.0
1136334.1466796,287410.0,282343.9375,316490.0,287850.53125,294075.125,274322.34375,274384.3125,283905.0,-0.115966796875,0.930908203125,-0.23828125,-5.035399913787842,-3.326415777206421,0.4882812201976776,60.0,2875954.0,1.0
1136334.1604969,287455.78125,282286.8125,316406.5625,287782.3125,293990.09375,274287.9375,274342.375,283810.3125,-0.117431640625,0.92919921875,-0.23828125,-4.821776866912842,-3.143310308456421,0.3356933295726776,60.0,2875955.0,1.0
1136334.1630209,288109.25,282196.96875,316954.28125,288801.09375,294196.0,274155.59375,274345.15625,283769.09375,-0.11669921875,0.930419921875,-0.23779296875,-4.699706554412842,-2.929687261581421,0.1831054538488388,60.0,2875956.0,1.0
1136334.1654777,288431.40625,282182.65625,317309.5,289397.96875,294354.59375,274080.9375,274348.71875,283747.71875,-0.115966796875,0.9296875,-0.237548828125,-4.394530773162842,-2.807616949081421,-0.0610351525247097,60.0,2875957.0,1.0
1136334.1679887,288007.96875,282280.28125,317034.75,288835.15625,294285.9375,274186.28125,274380.5625,283840.25,-0.116943359375,0.930908203125,-0.23779296875,-4.211425304412842,-2.593993902206421,-0.1220703050494194,60.0,2875958.0,1.0
1136334.1823072,287410.28125,282348.84375,316491.6875,287861.25,294078.875,274324.125,274390.65625,283899.1875,-0.114990234375,0.932373046875,-0.236328125,-3.936767339706421,-2.471923589706421,-0.2746581733226776,60.0,2875959.0,1.0
1136334.1823503,287447.03125,282293.15625,316397.09375,287774.34375,293990.0,274296.78125,274351.59375,283797.34375,-0.11474609375,0.93359375,-0.236083984375,-3.662109136581421,-2.258300542831421,-0.3967284858226776,60.0,2875960.0,1.0
1136334.1843579,288101.3125,282204.28125,316944.71875,288789.28125,294195.28125,274164.1875,274352.03125,283755.0625,-0.11279296875,0.93603515625,-0.23974609375,-3.448486089706421,-2.136230230331421,-0.4577636420726776,60.0,2875961.0,1.0
1136334.1866685,288421.8125,282174.78125,317298.0625,289386.71875,294342.34375,274075.84375,274342.09375,283734.5625,-0.11279296875,0.934814453125,-0.23486328125,-3.295898199081421,-2.014159917831421,-0.5493163466453552,60.0,2875962.0,1.0
1136334.1891947,288009.40625,282272.6875,317032.78125,288837.65625,294275.3125,274181.09375,274375.09375,283830.0625,-0.11328125,0.933837890625,-0.233642578125,-3.143310308456421,-1.7395018339157104,-0.5798339247703552,60.0,2875963.0,1.0
1136334.1986074,287411.96875,282342.40625,316488.03125,287857.21875,294065.65625,274316.71875,274382.59375,283883.96875,-0.11572265625,0.93505859375,-0.236328125,-3.173827886581421,-1.5258787870407104,-0.5187987685203552,60.0,2875964.0,1.0
1136334.1986524,287435.59375,282283.59375,316381.625,287749.5,293965.5,274282.125,274336.75,283776.78125,-0.11865234375,0.933349609375,-0.238525390625,-2.960204839706421,-1.4038084745407104,-0.6713866591453552,60.0,2875965.0,1.0
1136334.223081,288093.78125,282197.40625,316933.34375,288770.34375,294174.28125,274155.15625,274342.28125,283744.3125,-0.12158203125,0.933837890625,-0.23681640625,-2.746581792831421,-1.3732908964157104,-0.7629393935203552,60.0,2875966.0,1.0
1136334.2254592,288438.5625,282183.375,317308.78125,289399.03125,294342.8125,274081.5,274347.46875,283742.53125,-0.124755859375,0.932861328125,-0.234130859375,-2.624511480331421,-1.3732908964157104,-1.0070799589157104,60.0,2875967.0,1.0
1136334.2285561,288023.6875,282275.375,317039.5625,288846.5,294272.8125,274177.59375,274375.1875,283825.0625,-0.126220703125,0.934326171875,-0.23486328125,-2.349853277206421,-1.2512205839157104,-1.0986326932907104,60.0,2875968.0,1.0
1136334.2285992,287411.96875,282336.78125,316484.90625,287850.6875,294056.53125,274309.03125,274379.3125,283877.0,-0.12890625,0.935302734375,-0.232666015625,-2.227782964706421,-1.2512205839157104,-1.2512205839157104,60.0,2875969.0,1.0
1136334.2303903,287435.59375,282284.5625,316379.46875,287742.875,293964.875,274284.4375,274340.59375,283773.125,-0.130615234375,0.936279296875,-0.233642578125,-2.014159917831421,-1.2817381620407104,-1.3122557401657104,60.0,2875970.0,1.0
1136334.2330778,288095.125,282201.15625,316926.46875,288762.46875,294175.15625,274157.125,274345.5,283731.53125,-0.130126953125,0.937744140625,-0.23388671875,-1.8920897245407104,-1.3427733182907104,-1.4038084745407104,60.0,2875971.0,1.0
1136334.2354293,288446.5,282182.125,317304.21875,289399.6875,294341.1875,274076.5625,274346.125,283718.9375,-0.1279296875,0.937744140625,-0.232421875,-1.7089842557907104,-1.3427733182907104,-1.4648436307907104,60.0,2875972.0,1.0
1136334.2380139,288029.0625,282261.875,317034.21875,288854.125,294266.09375,274162.03125,274364.5625,283796.90625,-0.125732421875,0.93798828125,-0.236083984375,-1.5258787870407104,-1.3427733182907104,-1.5563963651657104,60.0,2875973.0,1.0
1136334.240483,287416.96875,282327.9375,316481.75,287858.375,294052.59375,274295.34375,274370.4375,283849.90625,-0.126708984375,0.9365234375,-0.2373046875,-1.3732908964157104,-1.3427733182907104,-1.5258787870407104,60.0,2875974.0,1.0
1136334.2431064,287437.625,282285.125,316373.03125,287736.34375,293958.1875,274277.03125,274336.21875,283755.15625,-0.125732421875,0.938232421875,-0.240234375,-1.2817381620407104,-1.3427733182907104,-1.4953612089157104,60.0,2875975.0,1.0
1136334.246071,288109.15625,282214.5625,316935.59375,288768.8125,294182.21875,274163.28125,274355.53125,283735.03125,-0.126953125,0.940185546875,-0.23974609375,-1.2207030057907104,-1.5258787870407104,-1.4953612089157104,60.0,2875976.0,1.0
1136334.2461131,288458.75,282184.4375,317315.65625,289414.875,294346.375,274074.78125,274349.875,283720.0,-0.12646484375,0.93994140625,-0.237548828125,-1.0681151151657104,-1.5258787870407104,-1.5258787870407104,60.0,2875977.0,1.0
1136334.2479753,288047.3125,282267.5,317050.21875,288878.34375,294272.53125,274162.21875,274368.84375,283799.9375,-0.12890625,0.94189453125,-0.2373046875,-1.0375975370407104,-1.4648436307907104,-1.4038084745407104,60.0,2875978.0,1.0
1136334.2504591,287439.59375,282349.3125,316504.03125,287887.09375,294067.25,274309.46875,274387.25,283863.40625,-0.126953125,0.9423828125,-0.2353515625,-1.0070799589157104,-1.6174315214157104,-1.3732908964157104,60.0,2875979.0,1.0
1136334.2599134,287435.21875,282294.5,316374.03125,287737.6875,293962.375,274282.5625,274339.59375,283756.21875,-0.129150390625,0.941650390625,-0.2353515625,-0.9460448622703552,-1.5869139432907104,-1.3732908964157104,60.0,2875980.0,1.0
1136334.2599574,288088.78125,282206.6875,316917.25,288747.09375,294169.09375,274153.90625,274343.90625,283721.96875,-0.130126953125,0.940185546875,-0.23876953125,-1.0986326932907104,-1.5258787870407104,-1.2207030057907104,60.0,2875981.0,1.0
1136334.2616822,288440.59375,282172.46875,317298.75,289399.59375,294333.0625,274061.46875,274334.5,283708.84375,-0.13134765625,0.9384765625,-0.240234375,-0.9765624403953552,-1.6784666776657104,-1.3427733182907104,60.0,2875982.0,1.0
1136334.2754027,288046.3125,282263.5625,317049.59375,288879.78125,294272.25,274157.46875,274361.59375,283795.28125,-0.1318359375,0.937255859375,-0.235595703125,-0.9765624403953552,-1.7395018339157104,-1.2817381620407104,60.0,2875983.0,1.0
1136334.2784187,287439.34375,282345.71875,316499.90625,287883.59375,294065.90625,274306.4375,274380.46875,283852.6875,-0.1337890625,0.937255859375,-0.241943359375,-0.8544921278953552,-1.8615721464157104,-1.3732908964157104,60.0,2875984.0,1.0
1136334.2784509,287437.0,282300.84375,316370.625,287732.21875,293964.875,274292.9375,274347.75,283755.3125,-0.134033203125,0.9384765625,-0.244140625,-0.8544921278953552,-1.9531248807907104,-1.4648436307907104,60.0,2875985.0,1.0
1136334.2803106,288091.375,282214.5625,316911.8125,288741.09375,294169.8125,274167.9375,274354.0,283721.875,-0.135009765625,0.9404296875,-0.23828125,-0.7629393935203552,-2.044677495956421,-1.5258787870407104,60.0,2875986.0,1.0
1136334.286605,288453.65625,282179.875,317303.40625,289410.03125,294337.25,274075.125,274346.9375,283706.78125,-0.1337890625,0.94384765625,-0.23876953125,-0.7934569716453552,-2.075195074081421,-1.4343260526657104,60.0,2875987.0,1.0
1136334.2896699,288065.8125,282270.8125,317064.4375,288905.0625,294281.375,274170.4375,274377.25,283797.96875,-0.133056640625,0.94580078125,-0.23828125,-0.8544921278953552,-2.227782964706421,-1.4343260526657104,60.0,2875988.0,1.0
1136334.2897042,287438.1875,282339.46875,316504.21875,287894.40625,294066.0,274306.34375,274380.46875,283851.875,-0.13232421875,0.942626953125,-0.2412109375,-0.8850097060203552,-2.288818120956421,-1.3122557401657104,60.0,2875989.0,1.0
1136334.2979609,287427.625,282300.5,316370.0,287727.3125,293962.03125,274294.71875,274345.59375,283758.09375,-0.132080078125,0.940185546875,-0.23876953125,-0.8850097060203552,-2.288818120956421,-1.3122557401657104,60.0,2875990.0,1.0
1136334.3012019,288075.90625,282214.125,316907.875,288727.25,294162.46875,274169.09375,274348.71875,283725.375,-0.130126953125,0.93603515625,-0.240234375,-0.8544921278953552,-2.380370855331421,-1.2207030057907104,60.0,2875991.0,1.0
1136334.3012478,288441.78125,282174.34375,317302.78125,289403.4375,294332.34375,274072.90625,274342.09375,283711.34375,-0.13037109375,0.934814453125,-0.2421875,-0.7324218153953552,-2.441406011581421,-1.1901854276657104,60.0,2875992.0,1.0
1136334.3029383,288051.9375,282257.125,317061.65625,288900.25,294272.1875,274157.46875,274363.75,283783.03125,-0.130126953125,0.93408203125,-0.24169921875,-0.6103515028953552,-2.380370855331421,-1.2817381620407104,60.0,2875993.0,1.0
1136334.3167115,287437.71875,282336.34375,316508.84375,287898.875,294062.96875,274301.59375,274376.25,283847.78125,-0.1279296875,0.93310546875,-0.244873046875,-0.3356933295726776,-2.410888433456421,-1.3122557401657104,60.0,2875994.0,1.0
1136334.3197849,287424.65625,282300.21875,316365.25,287718.8125,293954.875,274291.40625,274340.9375,283752.71875,-0.1259765625,0.933837890625,-0.239990234375,-0.0915527269244194,-2.349853277206421,-1.3427733182907104,60.0,2875995.0,1.0
1136334.3198291,288064.90625,282208.125,316894.71875,288710.6875,294151.28125,274157.21875,274337.8125,283712.75,-0.126220703125,0.932861328125,-0.23974609375,0.1525878757238388,-2.349853277206421,-1.2207030057907104,60.0,2875996.0,1.0
1136334.3218136,288450.0,282176.40625,317303.6875,289405.9375,294328.40625,274063.875,274330.84375,283703.09375,-0.12451171875,0.931884765625,-0.2412109375,0.2441406100988388,-2.258300542831421,-1.1291502714157104,60.0,2875997.0,1.0
1136334.3279621,288077.25,282261.78125,317073.8125,288925.5625,294272.8125,274153.375,274357.9375,283783.40625,-0.12255859375,0.932373046875,-0.24169921875,0.4272460639476776,-2.044677495956421,-1.0986326932907104,60.0,2875998.0,1.0
1136334.3372632,287449.71875,282336.34375,316515.5625,287915.59375,294062.5,274298.75,274375.1875,283836.78125,-0.120849609375,0.93212890625,-0.24658203125,0.7629393935203552,-1.9836424589157104,-1.0375975370407104,60.0,2875999.0,1.0
1136334.3373049,287434.78125,282313.71875,316377.15625,287730.25,293967.84375,274305.1875,274356.40625,283754.25,-0.120849609375,0.929931640625,-0.244384765625,0.9460448622703552,-1.9531248807907104,-0.9765624403953552,60.0,2876000.0,1.0
1136334.339231,288079.21875,282229.15625,316906.1875,288719.03125,294168.09375,274180.46875,274358.125,283722.0625,-0.119873046875,0.9296875,-0.245849609375,1.3732908964157104,-1.7395018339157104,-0.8850097060203552,60.0,2876001.0,1.0
1136334.343088,288448.125,282174.96875,317299.03125,289405.46875,294326.34375,274068.875,274336.75,283690.0625,-0.120849609375,0.928955078125,-0.24365234375,1.6174315214157104,-1.4953612089157104,-0.7019042372703552,60.0,2876002.0,1.0
1136334.3548111,288063.65625,282247.75,317057.375,288915.4375,294259.21875,274143.1875,274354.1875,283756.40625,-0.11962890625,0.927490234375,-0.244140625,1.9226073026657104,-1.2817381620407104,-0.5187987685203552,60.0,2876003.0,1.0
1136334.3548563,287429.9375,282322.125,316495.625,287897.46875,294044.90625,274285.875,274366.0625,283818.71875,-0.119384765625,0.924560546875,-0.24267578125,2.288818120956421,-1.1901854276657104,-0.3967284858226776,60.0,2876004.0,1.0
1136334.3572665,287398.5625,282288.96875,316340.3125,287687.34375,293935.28125,274284.78125,274331.28125,283723.9375,-0.119140625,0.925048828125,-0.2412109375,2.563476324081421,-0.9765624403953552,-0.3967284858226776,60.0,2876005.0,1.0
1136334.3573083,288048.5625,282206.53125,316871.125,288677.09375,294137.25,274164.375,274338.53125,283691.9375,-0.120361328125,0.923828125,-0.24169921875,2.990722417831421,-0.8239745497703552,-0.3356933295726776,60.0,2876006.0,1.0
1136334.3629837,288447.40625,282168.53125,317290.71875,289393.78125,294317.15625,274068.25,274337.28125,283679.3125,-0.119873046875,0.924072265625,-0.242919921875,3.234863042831421,-0.6713866591453552,-0.2746581733226776,60.0,2876007.0,1.0
1136334.3692794,288076.09375,282242.28125,317065.59375,288924.46875,294255.0,274142.625,274354.4375,283752.46875,-0.118896484375,0.924560546875,-0.243896484375,3.570556402206421,-0.4272460639476776,-0.2746581733226776,60.0,2876008.0,1.0
1136334.3734662,287449.96875,282321.40625,316510.90625,287920.78125,294046.78125,274290.15625,274373.21875,283823.8125,-0.119873046875,0.925537109375,-0.242919921875,3.845214605331421,-0.3662109076976776,-0.1831054538488388,60.0,2876009.0,1.0
1136334.3734983,287419.03125,282299.40625,316359.0,287711.9375,293943.4375,274296.96875,274349.15625,283737.15625,-0.121337890625,0.926513671875,-0.243408203125,4.211425304412842,-0.2441406100988388,-0.1220703050494194,60.0,2876010.0,1.0
1136334.3816928,288064.03125,282223.78125,316885.0625,288691.65625,294144.15625,274179.90625,274355.96875,283700.96875,-0.121337890625,0.925537109375,-0.242919921875,4.577636241912842,-0.0915527269244194,-0.1831054538488388,60.0,2876011.0,1.0
1136334.3856936,288450.53125,282169.40625,317289.90625,289400.375,294310.4375,274069.0625,274337.1875,283671.09375,-0.124267578125,0.92578125,-0.244140625,4.882812023162842,0.0,-0.3356933295726776,60.0,2876012.0,1.0
1136334.3857364,288071.8125,282230.40625,317057.625,288927.96875,294242.3125,274131.03125,274344.59375,283728.6875,-0.120849609375,0.92724609375,-0.24560546875,5.096435070037842,0.1831054538488388,-0.3356933295726776,60.0,2876013.0,1.0
1136334.3918132,287445.0625,282320.15625,316509.65625,287924.1875,294042.03125,274283.90625,274369.65625,283808.53125,-0.12255859375,0.93115234375,-0.244140625,5.432128429412842,0.1831054538488388,-0.3356933295726776,60.0,2876014.0,1.0
1136334.3955093,287389.71875,282290.125,316338.53125,287684.9375,293927.0625,274284.625,274336.28125,283720.28125,-0.1240234375,0.931884765625,-0.243408203125,5.615233898162842,0.3662109076976776,-0.3662109076976776,60.0,2876015.0,1.0
1136334.3997682,288020.5625,282203.03125,316852.8125,288648.375,294118.46875,274162.3125,274337.1875,283678.34375,-0.123779296875,0.933837890625,-0.242919921875,5.706786632537842,0.4272460639476776,-0.4272460639476776,60.0,2876016.0,1.0
1136334.3998102,288422.375,282154.84375,317271.125,289373.75,294288.34375,274054.3125,274324.59375,283653.21875,-0.12548828125,0.937744140625,-0.246337890625,5.737304210662842,0.4577636420726776,-0.4272460639476776,60.0,2876017.0,1.0
1136334.4079638,288076.4375,282234.0625,317066.75,288938.0625,294241.875,274130.75,274344.25,283728.84375,-0.124267578125,0.9384765625,-0.246826171875,5.889892101287842,0.5798339247703552,-0.4882812201976776,60.0,2876018.0,1.0
1136334.4123997,287460.34375,282326.40625,316527.375,287943.78125,294049.625,274289.0,274371.15625,283818.71875,-0.125,0.939453125,-0.248291015625,5.950927257537842,0.6408690810203552,-0.5187987685203552,60.0,2876019.0,1.0
1136334.412446,287396.59375,282289.65625,316343.53125,287687.4375,293926.625,274286.40625,274333.0,283719.90625,-0.1240234375,0.939697265625,-0.247314453125,6.011962413787842,0.6408690810203552,-0.5187987685203552,60.0,2876020.0,1.0
1136334.4179739,288025.5,282201.6875,316852.96875,288641.40625,294112.9375,274161.875,274332.4375,283664.125,-0.121337890625,0.93994140625,-0.250244140625,6.011962413787842,0.7629393935203552,-0.5493163466453552,60.0,2876021.0,1.0
1136334.4267065,288433.09375,282153.9375,317277.125,289374.46875,294289.34375,274053.9375,274320.03125,283637.65625,-0.123046875,0.9423828125,-0.251220703125,5.920409679412842,0.8850097060203552,-0.5493163466453552,60.0,2876022.0,1.0
1136334.4311436,288094.6875,282236.03125,317079.0,288946.5625,294248.46875,274129.6875,274342.90625,283712.75,-0.123779296875,0.943115234375,-0.25048828125,6.011962413787842,0.9765624403953552,-0.5187987685203552,60.0,2876023.0,1.0
1136334.4311862,287471.625,282327.03125,316533.53125,287945.03125,294050.53125,274284.78125,274368.03125,283794.65625,-0.123779296875,0.946533203125,-0.25244140625,5.981444835662842,1.0070799589157104,-0.4882812201976776,60.0,2876024.0,1.0
1136334.4391096,287406.625,282304.0625,316351.6875,287683.15625,293932.0625,274293.375,274341.375,283711.0625,-0.125244140625,0.94873046875,-0.25,5.889892101287842,1.0986326932907104,-0.3662109076976776,60.0,2876025.0,1.0
1136334.4422573,288026.46875,282218.9375,316852.8125,288625.9375,294114.1875,274169.28125,274341.5625,283665.5625,-0.1259765625,0.949462890625,-0.24951171875,5.798339366912842,1.1291502714157104,-0.5187987685203552,60.0,2876026.0,1.0
1136334.4423022,288439.25,282173.4375,317281.5,289371.34375,294293.90625,274065.21875,274334.0625,283643.75,-0.128662109375,0.94970703125,-0.2529296875,5.493163585662842,1.1291502714157104,-0.5187987685203552,60.0,2876027.0,1.0
1136334.444221,288102.5625,282253.71875,317090.1875,288955.59375,294252.0625,274142.09375,274358.90625,283720.625,-0.12744140625,0.949462890625,-0.2548828125,5.279540538787842,1.2512205839157104,-0.5493163466453552,60.0,2876028.0,1.0
1136334.4579517,287469.46875,282337.59375,316539.25,287950.65625,294049.28125,274290.78125,274378.5,283800.75,-0.126953125,0.949951171875,-0.25439453125,5.004882335662842,1.3427733182907104,-0.5798339247703552,60.0,2876029.0,1.0
1136334.4899291,287374.4375,282292.71875,316329.6875,287654.34375,293911.25,274283.71875,274329.59375,283697.125,-0.12744140625,0.949951171875,-0.254150390625,4.943847179412842,1.2512205839157104,-0.5798339247703552,60.0,2876030.0,1.0
1136334.4899682,287993.21875,282206.25,316827.84375,288592.9375,294093.8125,274160.0625,274324.5,283651.875,-0.129150390625,0.949462890625,-0.256103515625,4.791259288787842,1.2817381620407104,-0.5187987685203552,60.0,2876031.0,1.0
1136334.4899783,288430.78125,282172.71875,317275.0625,289362.375,294285.84375,274061.90625,274326.09375,283639.71875,-0.12744140625,0.94873046875,-0.255615234375,4.455565929412842,1.2512205839157104,-0.4882812201976776,60.0,2876032.0,1.0
1136334.4899878,288104.25,282244.625,317087.21875,288961.84375,294241.875,274131.03125,274343.90625,283702.03125,-0.127197265625,0.9453125,-0.25634765625,4.272460460662842,1.3732908964157104,-0.5493163466453552,60.0,2876033.0,1.0
1136334.4899983,287484.5,282336.34375,316547.3125,287969.34375,294049.625,274289.53125,274372.3125,283788.3125,-0.126708984375,0.94091796875,-0.25732421875,4.089354991912842,1.4038084745407104,-0.5187987685203552,60.0,2876034.0,1.0
1136334.4926775,287399.0,282306.46875,316343.1875,287674.46875,293922.875,274296.25,274337.71875,283702.125,-0.127197265625,0.9365234375,-0.2607421875,4.089354991912842,1.4038084745407104,-0.5187987685203552,60.0,2876035.0,1.0
1136334.4927124,288006.09375,282213.5,316827.6875,288595.625,294093.625,274168.65625,274329.3125,283650.09375,-0.12890625,0.9375,-0.260498046875,3.997802495956421,1.4038084745407104,-0.5493163466453552,60.0,2876036.0,1.0
1136334.4927235,288425.84375,282155.125,317257.09375,289351.40625,294266.0,274050.5625,274311.25,283618.96875,-0.128662109375,0.935302734375,-0.26171875,3.936767339706421,1.3732908964157104,-0.6103515028953552,60.0,2876037.0,1.0
1136334.5003831,288111.40625,282233.78125,317083.03125,288963.71875,294229.96875,274122.15625,274332.8125,283689.34375,-0.126708984375,0.93505859375,-0.260498046875,3.936767339706421,1.4038084745407104,-0.8239745497703552,60.0,2876038.0,1.0
1136334.5004277,287495.21875,282336.78125,316553.5625,287976.75,294045.4375,274287.9375,274369.8125,283788.84375,-0.127685546875,0.939453125,-0.260498046875,3.936767339706421,1.5563963651657104,-1.0070799589157104,60.0,2876039.0,1.0
1136334.5004399,287389.625,282304.875,316340.3125,287665.71875,293912.40625,274293.5625,274335.03125,283703.71875,-0.125244140625,0.940185546875,-0.260498046875,3.814697027206421,1.5869139432907104,-1.0986326932907104,60.0,2876040.0,1.0
1136334.5029655,287987.5,282211.875,316818.375,288572.9375,294082.71875,274167.5,274330.21875,283643.90625,-0.126953125,0.94189453125,-0.2587890625,3.662109136581421,1.5869139432907104,-1.0681151151657104,60.0,2876041.0,1.0
1136334.5056157,288423.09375,282161.1875,317264.78125,289351.5625,294271.0,274057.875,274323.15625,283627.1875,-0.12841796875,0.93896484375,-0.258544921875,3.479003667831421,1.5258787870407104,-0.9155272841453552,60.0,2876042.0,1.0
1136334.5079495,288116.40625,282239.34375,317098.84375,288981.78125,294242.9375,274127.0,274347.375,283704.71875,-0.13134765625,0.937744140625,-0.261962890625,3.295898199081421,1.5258787870407104,-0.7629393935203552,60.0,2876043.0,1.0
1136334.5117281,287489.03125,282328.21875,316554.09375,287984.09375,294044.625,274278.1875,274368.65625,283793.75,-0.128173828125,0.93115234375,-0.25830078125,3.112792730331421,1.4343260526657104,-0.8850097060203552,60.0,2876044.0,1.0
1136334.5261688,287385.25,282303.4375,316338.8125,287667.5,293914.625,274290.6875,274339.4375,283715.4375,-0.1259765625,0.925537109375,-0.26513671875,3.173827886581421,1.3122557401657104,-0.8544921278953552,60.0,2876045.0,1.0
1136334.5262131,287986.5,282218.5,316818.375,288576.78125,294087.28125,274173.84375,274342.09375,283667.6875,-0.124267578125,0.9248046875,-0.2705078125,3.295898199081421,1.5258787870407104,-0.8544921278953552,60.0,2876046.0,1.0
1136334.5286803,288430.40625,282169.25,317270.40625,289361.75,294275.03125,274067.09375,274337.0,283641.78125,-0.122802734375,0.923828125,-0.270263671875,3.540038824081421,1.5258787870407104,-0.8239745497703552,60.0,2876047.0,1.0
1136334.5287236,288118.90625,282230.3125,317094.28125,288987.40625,294230.6875,274121.09375,274343.90625,283696.03125,-0.1220703125,0.92626953125,-0.26806640625,3.692626714706421,1.5563963651657104,-0.7629393935203552,60.0,2876048.0,1.0
1136334.5304256,287494.15625,282322.5625,316555.0,287994.46875,294037.9375,274276.3125,274367.75,283781.25,-0.121826171875,0.9306640625,-0.2666015625,3.692626714706421,1.5563963651657104,-0.7324218153953552,60.0,2876049.0,1.0
1136334.5448035,287378.09375,282294.40625,316329.15625,287657.40625,293903.5625,274287.03125,274332.71875,283691.46875,-0.119140625,0.931640625,-0.269775390625,3.814697027206421,1.6784666776657104,-0.6713866591453552,60.0,2876050.0,1.0
1136334.5448466,287971.3125,282202.21875,316800.125,288554.5,294071.8125,274166.40625,274330.9375,283641.40625,-0.1201171875,0.9306640625,-0.264892578125,3.692626714706421,1.7700194120407104,-0.6713866591453552,60.0,2876051.0,1.0
1136334.5473157,288430.40625,282160.21875,317266.03125,289355.9375,294268.96875,274067.53125,274334.3125,283629.875,-0.122314453125,0.930419921875,-0.261474609375,3.662109136581421,1.8615721464157104,-0.4577636420726776,60.0,2876052.0,1.0
1136334.5473578,288152.90625,282251.0625,317126.375,289015.5,294253.5625,274145.21875,274363.90625,283709.90625,-0.125,0.930908203125,-0.261474609375,3.723144292831421,1.8615721464157104,-0.3967284858226776,60.0,2876053.0,1.0
1136334.5493606,287526.25,282349.3125,316592.09375,288022.28125,294065.71875,274302.59375,274386.625,283797.96875,-0.127197265625,0.930908203125,-0.265380859375,3.692626714706421,1.9531248807907104,-0.2746581733226776,60.0,2876054.0,1.0
1136334.555407,287395.34375,282318.90625,316356.875,287668.84375,293921.15625,274305.4375,274337.71875,283704.625,-0.130126953125,0.930908203125,-0.265625,3.631591558456421,1.8615721464157104,-0.2136230319738388,60.0,2876055.0,1.0
1136334.5641542,287984.0,282226.8125,316820.71875,288552.8125,294082.1875,274181.875,274327.96875,283651.78125,-0.134033203125,0.927734375,-0.268798828125,3.448486089706421,1.6784666776657104,-0.1831054538488388,60.0,2876056.0,1.0
1136334.5691695,288446.875,282180.5,317285.625,289360.5,294277.625,274073.875,274326.625,283638.65625,-0.136962890625,0.925537109375,-0.267578125,3.570556402206421,1.5869139432907104,-0.2136230319738388,60.0,2876057.0,1.0
1136334.5692156,288168.4375,282260.25,317141.59375,289028.8125,294253.9375,274139.15625,274349.0,283708.28125,-0.135986328125,0.925048828125,-0.26904296875,3.601073980331421,1.3732908964157104,-0.3356933295726776,60.0,2876058.0,1.0
1136334.5692268,287546.1875,282360.125,316611.84375,288046.59375,294069.65625,274300.09375,274381.1875,283806.625,-0.136962890625,0.92724609375,-0.26611328125,3.723144292831421,1.2817381620407104,-0.4577636420726776,60.0,2876059.0,1.0
1136334.5730842,287390.59375,282314.4375,316353.03125,287665.53125,293908.5625,274293.8125,274327.34375,283709.28125,-0.1357421875,0.92822265625,-0.26708984375,3.692626714706421,1.0375975370407104,-0.4272460639476776,60.0,2876060.0,1.0
1136334.5842503,287967.71875,282220.65625,316808.1875,288541.1875,294069.9375,274172.59375,274322.96875,283661.8125,-0.135009765625,0.93017578125,-0.267333984375,3.753661870956421,0.9765624403953552,-0.3356933295726776,60.0,2876061.0,1.0
1136334.5873152,288428.0,282169.40625,317270.40625,289356.75,294263.0625,274062.1875,274320.65625,283652.15625,-0.134521484375,0.930419921875,-0.26708984375,3.692626714706421,0.8239745497703552,-0.5493163466453552,60.0,2876062.0,1.0
1136334.5873583,288156.8125,282245.3125,317130.6875,289036.15625,294241.59375,274126.28125,274346.5,283713.46875,-0.134765625,0.93212890625,-0.268310546875,3.753661870956421,0.6103515028953552,-0.5798339247703552,60.0,2876063.0,1.0
1136334.5891997,287526.3125,282336.6875,316590.40625,288041.21875,294051.34375,274280.15625,274370.09375,283793.5,-0.13427734375,0.930908203125,-0.270751953125,3.692626714706421,0.3967284858226776,-0.7019042372703552,60.0,2876064.0,1.0
1136334.6035831,287371.75,282301.125,316332.4375,287652.125,293897.5625,274286.9375,274322.78125,283698.90625,-0.13330078125,0.930908203125,-0.270751953125,3.631591558456421,0.3051757514476776,-0.8544921278953552,60.0,2876065.0,1.0
1136334.6036206,287947.875,282215.28125,316785.125,288510.34375,294055.1875,274171.6875,274316.4375,283643.125,-0.13232421875,0.931396484375,-0.27001953125,3.540038824081421,0.0610351525247097,-0.7934569716453552,60.0,2876066.0,1.0
1136334.6053135,288420.9375,282169.78125,317261.46875,289337.96875,294257.6875,274069.5,274322.25,283629.625,-0.130615234375,0.9287109375,-0.271484375,3.448486089706421,0.0915527269244194,-0.8850097060203552,60.0,2876067.0,1.0
1136334.607871,288168.625,282252.21875,317139.8125,289042.40625,294249.46875,274143.09375,274355.0625,283706.40625,-0.128173828125,0.929443359375,-0.27001953125,3.448486089706421,0.0610351525247097,-0.9460448622703552,60.0,2876068.0,1.0
1136334.6103527,287541.15625,282347.34375,316605.78125,288056.59375,294059.125,274297.59375,274379.75,283797.6875,-0.130615234375,0.9287109375,-0.27099609375,3.479003667831421,-0.0610351525247097,-0.9765624403953552,60.0,2876069.0,1.0
1136334.6141002,287383.625,282322.46875,316350.25,287665.71875,293911.9375,274314.125,274344.6875,283715.1875,-0.1279296875,0.93115234375,-0.27099609375,3.570556402206421,0.0,-0.9155272841453552,60.0,2876070.0,1.0
1136334.6259704,287950.5625,282230.3125,316793.4375,288514.8125,294066.09375,274196.375,274338.4375,283657.59375,-0.129150390625,0.933349609375,-0.2705078125,3.448486089706421,0.0,-0.9460448622703552,60.0,2876071.0,1.0
1136334.6260058,288422.53125,282171.21875,317262.5625,289342.09375,294261.4375,274078.90625,274328.59375,283630.96875,-0.128662109375,0.935546875,-0.267578125,3.387450933456421,-0.03051757626235485,-0.8239745497703552,60.0,2876072.0,1.0
1136334.6284411,288170.6875,282242.28125,317136.65625,289046.34375,294244.46875,274135.125,274346.9375,283694.4375,-0.128173828125,0.936279296875,-0.267822265625,3.173827886581421,-0.0915527269244194,-1.0070799589157104,60.0,2876073.0,1.0
1136334.6284731,287543.5,282336.4375,316604.96875,288059.09375,294054.46875,274287.75,274370.96875,283786.0625,-0.126708984375,0.9365234375,-0.270263671875,2.960204839706421,-0.2136230319738388,-0.9155272841453552,60.0,2876074.0,1.0
1136334.6341242,287367.09375,282297.90625,316329.875,287643.625,293891.5625,274292.84375,274323.25,283694.0,-0.127685546875,0.935302734375,-0.270751953125,2.868652105331421,-0.1831054538488388,-0.8850097060203552,60.0,2876075.0,1.0
1136334.6378577,287932.15625,282203.46875,316765.4375,288486.1875,294041.40625,274172.40625,274314.375,283639.53125,-0.127197265625,0.93310546875,-0.2705078125,2.746581792831421,-0.1831054538488388,-0.8239745497703552,60.0,2876076.0,1.0
1136334.6495825,288412.625,282148.40625,317242.71875,289325.5625,294241.96875,274057.0625,274310.90625,283621.375,-0.12890625,0.931884765625,-0.27001953125,2.685546636581421,-0.0915527269244194,-0.8850097060203552,60.0,2876077.0,1.0
1136334.6495982,288165.78125,282220.375,317124.40625,289042.59375,294226.9375,274110.0,274326.46875,283677.71875,-0.1279296875,0.930908203125,-0.26904296875,2.685546636581421,-0.0610351525247097,-0.8239745497703552,60.0,2876078.0,1.0
1136334.6520767,287544.84375,282325.4375,316603.0,288067.59375,294050.625,274272.71875,274362.3125,283782.84375,-0.129638671875,0.930908203125,-0.272705078125,2.777099370956421,-0.1831054538488388,-0.7934569716453552,60.0,2876079.0,1.0
1136334.6520902,287382.125,282313.8125,316342.28125,287658.1875,293905.6875,274300.09375,274335.75,283714.1875,-0.12890625,0.931884765625,-0.271728515625,2.746581792831421,-0.2746581733226776,-0.7324218153953552,60.0,2876080.0,1.0
1136334.6602612,287950.75,282231.375,316778.3125,288491.375,294058.03125,274187.96875,274335.9375,283661.34375,-0.128662109375,0.93017578125,-0.272216796875,2.685546636581421,-0.3356933295726776,-0.8239745497703552,60.0,2876081.0,1.0
1136334.6627664,288428.96875,282168.71875,317252.53125,289332.4375,294250.53125,274063.78125,274325.75,283633.1875,-0.130859375,0.928955078125,-0.2744140625,2.593993902206421,-0.3967284858226776,-0.8239745497703552,60.0,2876082.0,1.0
1136334.6689914,288173.28125,282222.53125,317131.125,289053.9375,294227.28125,274104.1875,274330.65625,283682.625,-0.130859375,0.928955078125,-0.27490234375,2.593993902206421,-0.5187987685203552,-0.7934569716453552,60.0,2876083.0,1.0
1136334.6758736,287544.125,282320.78125,316604.34375,288072.5,294044.28125,274261.625,274357.9375,283778.46875,-0.129150390625,0.927490234375,-0.27734375,2.655029058456421,-0.5493163466453552,-0.8239745497703552,60.0,2876084.0,1.0
1136334.6758806,287357.15625,282296.09375,316323.875,287637.5625,293886.65625,274282.5625,274319.3125,283694.4375,-0.130126953125,0.92431640625,-0.274169921875,2.685546636581421,-0.5187987685203552,-0.8544921278953552,60.0,2876085.0,1.0
1136334.6783007,287911.75,282209.90625,316750.0625,288459.65625,294034.0,274170.0,274316.28125,283638.03125,-0.130615234375,0.922607421875,-0.272705078125,2.807616949081421,-0.6713866591453552,-0.8239745497703552,60.0,2876086.0,1.0
1136334.6783077,288408.5,282163.15625,317243.5,289320.46875,294246.96875,274063.34375,274322.625,283623.53125,-0.1318359375,0.921142578125,-0.2734375,2.777099370956421,-0.7629393935203552,-0.9765624403953552,60.0,2876087.0,1.0
1136334.6914823,288182.40625,282240.6875,317146.6875,289070.125,294248.3125,274126.375,274349.625,283689.96875,-0.133056640625,0.92138671875,-0.27490234375,2.838134527206421,-0.7629393935203552,-0.9765624403953552,60.0,2876088.0,1.0
1136334.6939672,287553.0625,282332.125,316618.65625,288091.65625,294061.09375,274282.46875,274376.53125,283790.53125,-0.134521484375,0.921875,-0.2763671875,2.899169683456421,-0.8850097060203552,-1.0375975370407104,60.0,2876089.0,1.0
1136334.6964742,287363.15625,282303.09375,316330.125,287643.71875,293898.1875,274300.625,274335.40625,283709.90625,-0.13525390625,0.923095703125,-0.276611328125,2.929687261581421,-1.0681151151657104,-1.1901854276657104,60.0,2876090.0,1.0
1136334.6989632,287922.40625,282216.71875,316754.375,288461.0,294043.5625,274189.40625,274331.75,283648.5625,-0.134033203125,0.924072265625,-0.27685546875,2.990722417831421,-1.1596678495407104,-1.1596678495407104,60.0,2876091.0,1.0
1136334.7095681,288416.03125,282156.8125,317240.75,289323.125,294242.9375,274066.71875,274323.5,283630.59375,-0.133544921875,0.92626953125,-0.274169921875,3.021239995956421,-1.3427733182907104,-1.1596678495407104,60.0,2876092.0,1.0
1136334.7095814,288185.15625,282218.3125,317137.65625,289074.5,294231.21875,274110.0,274335.9375,283687.71875,-0.13134765625,0.92529296875,-0.2734375,3.021239995956421,-1.4953612089157104,-1.1901854276657104,60.0,2876093.0,1.0
1136334.7114623,287563.78125,282322.125,316619.90625,288101.5625,294054.1875,274273.71875,274370.4375,283784.8125,-0.1318359375,0.926025390625,-0.275390625,3.021239995956421,-1.5563963651657104,-1.2207030057907104,60.0,2876094.0,1.0
1136334.7139933,287372.46875,282312.46875,316333.4375,287647.75,293899.53125,274304.8125,274338.71875,283708.84375,-0.133056640625,0.927001953125,-0.2783203125,2.960204839706421,-1.6784666776657104,-1.2817381620407104,60.0,2876095.0,1.0
1136334.7227444,287918.5625,282225.46875,316746.40625,288448.75,294037.9375,274189.21875,274327.8125,283645.71875,-0.13134765625,0.923095703125,-0.27880859375,2.960204839706421,-1.8005369901657104,-1.2817381620407104,60.0,2876096.0,1.0
1136334.7270932,288409.03125,282158.6875,317230.53125,289308.375,294233.375,274062.1875,274314.375,283616.1875,-0.1337890625,0.924560546875,-0.27978515625,3.021239995956421,-1.8615721464157104,-1.2207030057907104,60.0,2876097.0,1.0
1136334.7271006,288193.65625,282226.375,317142.375,289079.78125,294230.40625,274109.90625,274332.90625,283675.75,-0.1328125,0.92626953125,-0.276123046875,3.021239995956421,-1.9836424589157104,-1.3122557401657104,60.0,2876098.0,1.0
1136334.733342,287586.59375,282340.8125,316637.34375,288122.75,294065.8125,274279.96875,274375.71875,283790.71875,-0.134765625,0.9248046875,-0.27880859375,2.990722417831421,-1.9531248807907104,-1.1901854276657104,60.0,2876099.0,1.0
1136334.7333484,287379.25,282318.5625,316336.75,287648.375,293901.75,274301.4375,274338.53125,283713.03125,-0.134521484375,0.923828125,-0.27783203125,3.082275152206421,-1.9836424589157104,-1.0986326932907104,60.0,2876100.0,1.0
1136334.7352514,287918.1875,282230.9375,316745.96875,288440.875,294038.8125,274190.84375,274333.53125,283652.40625,-0.135009765625,0.92529296875,-0.280517578125,3.021239995956421,-2.105712652206421,-1.0070799589157104,60.0,2876101.0,1.0
1136334.7490747,288425.59375,282173.4375,317245.375,289323.59375,294248.5625,274076.9375,274337.375,283633.28125,-0.133544921875,0.92431640625,-0.280517578125,3.021239995956421,-2.105712652206421,-1.0070799589157104,60.0,2876102.0,1.0
1136334.7521371,288202.5,282226.8125,317151.96875,289094.53125,294235.25,274112.78125,274343.96875,283680.65625,-0.134521484375,0.926513671875,-0.27783203125,2.929687261581421,-2.166747808456421,-0.9460448622703552,60.0,2876103.0,1.0
1136334.7521569,287569.59375,282320.0625,316628.84375,288121.875,294053.46875,274267.375,274369.90625,283785.4375,-0.135009765625,0.927490234375,-0.27734375,2.929687261581421,-2.166747808456421,-1.0070799589157104,60.0,2876104.0,1.0
1136334.7540727,287355.1875,282304.0625,316325.03125,287640.5,293890.0625,274295.875,274336.03125,283707.5625,-0.1328125,0.93017578125,-0.2802734375,2.868652105331421,-2.258300542831421,-0.9460448622703552,60.0,2876105.0,1.0
1136334.7565722,287882.0625,282208.9375,316718.34375,288413.34375,294020.84375,274179.03125,274322.78125,283635.6875,-0.133056640625,0.93359375,-0.280029296875,2.746581792831421,-2.380370855331421,-0.9155272841453552,60.0,2876106.0,1.0
1136334.7654153,288395.1875,282149.5625,317219.8125,289300.25,294231.21875,274060.84375,274321.53125,283616.90625,-0.133544921875,0.932373046875,-0.281005859375,2.746581792831421,-2.441406011581421,-0.7934569716453552,60.0,2876107.0,1.0
1136334.7684307,288197.78125,282217.6875,317146.78125,289096.84375,294234.625,274106.96875,274339.59375,283672.625,-0.1357421875,0.932861328125,-0.279052734375,2.532958745956421,-2.471923589706421,-0.6408690810203552,60.0,2876108.0,1.0
1136334.7684706,287589.4375,282332.84375,316644.46875,288147.0,294071.0,274277.03125,274380.375,283789.75,-0.1357421875,0.93115234375,-0.276123046875,2.441406011581421,-2.471923589706421,-0.5187987685203552,60.0,2876109.0,1.0
1136334.7790932,287375.78125,282326.875,316346.21875,287663.3125,293916.59375,274317.875,274353.1875,283728.21875,-0.13671875,0.9306640625,-0.27783203125,2.441406011581421,-2.441406011581421,-0.4577636420726776,60.0,2876110.0,1.0
1136334.7821418,287907.8125,282245.25,316746.9375,288433.71875,294053.65625,274213.8125,274350.40625,283661.8125,-0.13623046875,0.930908203125,-0.280517578125,2.319335699081421,-2.502441167831421,-0.3662109076976776,60.0,2876111.0,1.0
1136334.78217,288416.8125,282178.28125,317242.0,289315.375,294254.5625,274085.96875,274342.46875,283632.5625,-0.135009765625,0.92822265625,-0.2822265625,2.349853277206421,-2.471923589706421,-0.2441406100988388,60.0,2876112.0,1.0
1136334.7878132,288210.1875,282226.625,317157.6875,289106.59375,294239.53125,274110.53125,274341.84375,283671.0,-0.134521484375,0.930419921875,-0.28173828125,2.380370855331421,-2.410888433456421,-0.2136230319738388,60.0,2876113.0,1.0
1136334.7921786,287584.96875,282326.0625,316643.6875,288147.4375,294064.84375,274267.8125,274374.03125,283778.03125,-0.134521484375,0.931396484375,-0.28125,2.166747808456421,-2.471923589706421,-0.1220703050494194,60.0,2876114.0,1.0
1136334.7922132,287354.9375,282313.0,316330.3125,287646.03125,293901.65625,274303.3125,274342.65625,283711.6875,-0.132080078125,0.931884765625,-0.280517578125,2.044677495956421,-2.471923589706421,-0.03051757626235485,60.0,2876115.0,1.0
1136334.7940991,287884.3125,282235.65625,316722.53125,288405.46875,294033.0,274200.125,274335.3125,283650.34375,-0.13525390625,0.931396484375,-0.281982421875,1.9531248807907104,-2.471923589706421,0.0610351525247097,60.0,2876116.0,1.0
1136334.8078491,288426.65625,282190.6875,317245.75,289316.25,294257.78125,274091.6875,274342.71875,283639.28125,-0.13427734375,0.931396484375,-0.281982421875,1.8615721464157104,-2.441406011581421,0.1831054538488388,60.0,2876117.0,1.0
1136334.8107769,288230.3125,282236.84375,317169.46875,289120.09375,294251.78125,274118.84375,274347.125,283684.5,-0.13525390625,0.93115234375,-0.281494140625,1.7395018339157104,-2.471923589706421,0.1831054538488388,60.0,2876118.0,1.0
1136334.8108118,287597.5,282326.59375,316644.03125,288146.53125,294064.65625,274265.46875,274370.34375,283781.34375,-0.134765625,0.931396484375,-0.27734375,1.6784666776657104,-2.410888433456421,0.2746581733226776,60.0,2876119.0,1.0
1136334.8165849,287366.1875,282316.5,316331.65625,287640.84375,293900.5,274303.3125,274344.0625,283713.03125,-0.132568359375,0.9287109375,-0.279296875,1.5258787870407104,-2.502441167831421,0.3967284858226776,60.0,2876120.0,1.0
1136334.8191029,287880.03125,282231.125,316715.90625,288388.125,294027.28125,274197.4375,274336.75,283652.40625,-0.1337890625,0.92919921875,-0.279052734375,1.4953612089157104,-2.441406011581421,0.4882812201976776,60.0,2876121.0,1.0
1136334.8215266,288411.375,282172.625,317232.15625,289302.3125,294245.1875,274081.21875,274337.09375,283634.96875,-0.132080078125,0.926025390625,-0.28125,1.3732908964157104,-2.441406011581421,0.3356933295726776,60.0,2876122.0,1.0
1136334.830234,288236.84375,282234.6875,317176.8125,289136.90625,294253.84375,274120.65625,274351.75,283685.9375,-0.12939453125,0.92822265625,-0.2822265625,1.3732908964157104,-2.349853277206421,0.3967284858226776,60.0,2876123.0,1.0
1136334.833289,287603.125,282326.6875,316661.46875,288177.65625,294078.6875,274270.75,274377.59375,283790.71875,-0.1318359375,0.927978515625,-0.28125,1.3732908964157104,-2.288818120956421,0.4882812201976776,60.0,2876124.0,1.0
1136334.8333015,287343.40625,282306.375,316327.96875,287643.375,293901.03125,274299.46875,274336.84375,283720.4375,-0.132568359375,0.927490234375,-0.28271484375,1.3122557401657104,-2.227782964706421,0.5187987685203552,60.0,2876125.0,1.0
1136334.8352401,287878.0625,282243.90625,316725.125,288396.625,294043.65625,274211.3125,274343.8125,283671.0,-0.133544921875,0.927490234375,-0.283447265625,1.2512205839157104,-2.166747808456421,0.4577636420726776,60.0,2876126.0,1.0
1136334.8640185,288425.5,282194.09375,317252.53125,289320.375,294267.0625,274098.90625,274352.9375,283653.75,-0.1328125,0.92919921875,-0.281005859375,1.0681151151657104,-2.197265386581421,0.4882812201976776,60.0,2876127.0,1.0
1136334.8664985,288237.28125,282238.53125,317185.84375,289149.6875,294261.53125,274119.65625,274353.5625,283696.3125,-0.133056640625,0.930419921875,-0.28173828125,0.8850097060203552,-2.166747808456421,0.4882812201976776,60.0,2876128.0,1.0
1136334.8695608,287616.90625,282347.25,316685.15625,288206.90625,294104.1875,274286.6875,274397.28125,283826.125,-0.132080078125,0.93212890625,-0.2802734375,0.7934569716453552,-2.136230230331421,0.5493163466453552,60.0,2876129.0,1.0
1136334.8695748,287397.3125,282370.125,316384.03125,287702.0,293963.28125,274359.53125,274395.03125,283778.75,-0.1318359375,0.930419921875,-0.281982421875,0.6408690810203552,-2.014159917831421,0.5493163466453552,60.0,2876130.0,1.0
1136334.8714937,287890.84375,282272.6875,316738.90625,288410.65625,294059.375,274238.75,274367.125,283692.65625,-0.132568359375,0.93017578125,-0.280517578125,0.5798339247703552,-2.075195074081421,0.6408690810203552,60.0,2876131.0,1.0
1136334.8740128,288382.125,282162.1875,317212.65625,289281.375,294228.0,274067.34375,274321.09375,283624.34375,-0.131591796875,0.929443359375,-0.28076171875,0.3356933295726776,-2.014159917831421,0.5798339247703552,60.0,2876132.0,1.0
1136334.8765042,288247.84375,282240.84375,317199.78125,289168.46875,294277.8125,274129.59375,274365.625,283699.34375,-0.133544921875,0.929931640625,-0.28271484375,0.2136230319738388,-2.014159917831421,0.5798339247703552,60.0,2876133.0,1.0
1136334.8789964,287618.15625,282333.75,316684.1875,288208.59375,294097.90625,274278.09375,274386.53125,283804.3125,-0.13427734375,0.929931640625,-0.280029296875,0.03051757626235485,-1.8920897245407104,0.5493163466453552,60.0,2876134.0,1.0
1136334.8815058,287345.0,282314.71875,316329.3125,287638.90625,293904.53125,274305.4375,274336.65625,283726.71875,-0.13330078125,0.926025390625,-0.28271484375,-0.0610351525247097,-1.9531248807907104,0.6103515028953552,60.0,2876135.0,1.0
1136334.8839998,287854.53125,282241.03125,316698.5625,288354.5,294027.28125,274206.84375,274330.65625,283662.5,-0.1328125,0.926513671875,-0.2822265625,-0.2136230319738388,-1.8005369901657104,0.6713866591453552,60.0,2876136.0,1.0
1136334.8870778,288412.09375,282182.46875,317230.46875,289292.03125,294251.6875,274088.625,274336.28125,283646.25,-0.134033203125,0.925048828125,-0.28271484375,-0.3051757514476776,-1.8615721464157104,0.6713866591453552,60.0,2876137.0,1.0
1136334.887086,288254.1875,282231.5625,317188.625,289154.53125,294257.78125,274110.375,274342.71875,283685.9375,-0.132568359375,0.92138671875,-0.28173828125,-0.3356933295726776,-1.8310545682907104,0.5493163466453552,60.0,2876138.0,1.0
1136334.8889891,287629.25,282333.75,316683.8125,288209.21875,294087.5625,274262.09375,274372.59375,283796.8125,-0.13134765625,0.922119140625,-0.281982421875,-0.2746581733226776,-1.7395018339157104,0.4882812201976776,60.0,2876139.0,1.0
1136334.9008889,287362.34375,282330.71875,316343.1875,287653.1875,293916.15625,274308.75,274341.65625,283745.9375,-0.1298828125,0.919677734375,-0.2822265625,-0.2136230319738388,-1.5258787870407104,0.5798339247703552,60.0,2876140.0,1.0
1136334.9009015,287853.75,282243.1875,316697.78125,288354.59375,294030.875,274203.96875,274327.1875,283676.375,-0.130859375,0.9169921875,-0.28271484375,-0.0915527269244194,-1.4953612089157104,0.5493163466453552,60.0,2876141.0,1.0
1136334.9095944,288391.96875,282166.1875,317213.03125,289278.625,294234.09375,274068.0625,274310.28125,283631.65625,-0.13427734375,0.917724609375,-0.280517578125,-0.1220703050494194,-1.5258787870407104,0.5493163466453552,60.0,2876142.0,1.0
1136334.9096059,288256.0625,282228.0625,317195.21875,289170.15625,294256.53125,274103.5625,274329.5,283680.40625,-0.13525390625,0.912841796875,-0.28271484375,0.03051757626235485,-1.4343260526657104,0.4882812201976776,60.0,2876143.0,1.0
1136334.9158888,287635.59375,282332.59375,316698.5625,288228.4375,294094.53125,274263.15625,274365.8125,283797.34375,-0.135986328125,0.91064453125,-0.282958984375,0.2441406100988388,-1.4343260526657104,0.3356933295726776,60.0,2876144.0,1.0
1136334.9158985,287360.375,282335.71875,316354.90625,287663.9375,293924.65625,274317.25,274344.53125,283748.625,-0.13671875,0.906982421875,-0.2841796875,0.5493163466453552,-1.4953612089157104,0.3356933295726776,60.0,2876145.0,1.0
1136334.9259094,287847.3125,282251.84375,316701.78125,288353.0625,294032.125,274213.1875,274332.28125,283679.59375,-0.136962890625,0.90380859375,-0.2841796875,0.9460448622703552,-1.5563963651657104,0.3967284858226776,60.0,2876146.0,1.0
1136334.925932,288414.75,282197.65625,317244.21875,289307.6875,294262.0625,274099.90625,274346.9375,283667.53125,-0.13671875,0.905029296875,-0.285400390625,1.3122557401657104,-1.4953612089157104,0.3051757514476776,60.0,2876147.0,1.0
1136334.9370985,288298.34375,282268.75,317243.40625,289223.90625,294303.90625,274146.3125,274380.46875,283728.5,-0.1357421875,0.905517578125,-0.283447265625,1.7089842557907104,-1.5869139432907104,0.2441406100988388,60.0,2876148.0,1.0
1136334.9371074,287656.15625,282347.4375,316721.71875,288262.78125,294118.03125,274278.625,274390.65625,283824.15625,-0.134765625,0.906005859375,-0.279052734375,1.9531248807907104,-1.5563963651657104,0.3356933295726776,60.0,2876149.0,1.0
1136334.9402533,287344.90625,282316.03125,316338.1875,287653.8125,293912.59375,274300.0,274337.625,283750.40625,-0.134521484375,0.909423828125,-0.27783203125,2.319335699081421,-1.4648436307907104,0.2441406100988388,60.0,2876150.0,1.0
1136334.9402716,287832.46875,282240.78125,316683.46875,288332.875,294020.3125,274205.75,274333.78125,283674.59375,-0.13671875,0.91064453125,-0.280029296875,2.593993902206421,-1.5563963651657104,0.2746581733226776,60.0,2876151.0,1.0
1136334.9402748,288420.125,282203.03125,317241.375,289304.09375,294260.375,274106.0625,274357.3125,283667.78125,-0.135986328125,0.914794921875,-0.278076171875,2.777099370956421,-1.6174315214157104,0.2441406100988388,60.0,2876152.0,1.0
1136334.9540094,288278.875,282238.8125,317214.28125,289201.28125,294269.59375,274113.40625,274353.71875,283690.6875,-0.1357421875,0.91796875,-0.27978515625,2.960204839706421,-1.6784666776657104,0.3051757514476776,60.0,2876153.0,1.0
1136334.9602426,287645.5,282330.96875,316705.1875,288248.65625,294095.40625,274259.21875,274371.96875,283787.6875,-0.139404296875,0.9248046875,-0.2822265625,3.051757574081421,-1.7395018339157104,0.2746581733226776,60.0,2876154.0,1.0
1136334.9720875,287345.1875,282323.90625,316339.25,287647.125,293908.75,274306.78125,274341.65625,283731.09375,-0.137939453125,0.929443359375,-0.278076171875,2.929687261581421,-1.8005369901657104,0.3662109076976776,60.0,2876155.0,1.0
1136334.9720957,287818.875,282238.4375,316671.5625,288310.59375,294007.53125,274205.03125,274328.6875,283657.78125,-0.138916015625,0.935302734375,-0.276123046875,2.899169683456421,-1.8005369901657104,0.4272460639476776,60.0,2876156.0,1.0
1136334.9745815,288372.03125,282157.15625,317193.8125,289250.1875,294216.5625,274068.25,274319.75,283624.4375,-0.14013671875,0.93701171875,-0.2783203125,2.655029058456421,-1.9531248807907104,0.3662109076976776,60.0,2876157.0,1.0
1136334.9745886,288249.90625,282201.15625,317180.21875,289166.84375,294234.25,274084.96875,274327.96875,283661.625,-0.140625,0.93701171875,-0.277587890625,2.288818120956421,-2.044677495956421,0.4882812201976776,60.0,2876158.0,1.0
1136334.9776657,287650.78125,282324.375,316702.6875,288250.0,294086.21875,274255.375,274376.09375,283790.625,-0.139404296875,0.9384765625,-0.281005859375,2.136230230331421,-2.105712652206421,0.4882812201976776,60.0,2876159.0,1.0
1136334.9776727,287354.5,282320.25,316337.625,287649.875,293905.78125,274307.15625,274347.8125,283741.65625,-0.142822265625,0.9384765625,-0.284912109375,1.9226073026657104,-2.227782964706421,0.5187987685203552,60.0,2876160.0,1.0
1136334.9776752,287834.15625,282244.6875,316674.25,288306.5,294013.59375,274217.03125,274344.4375,283678.15625,-0.142578125,0.935546875,-0.283935546875,1.7395018339157104,-2.410888433456421,0.3662109076976776,60.0,2876161.0,1.0
1136334.9821046,288402.25,282168.71875,317205.78125,289257.78125,294227.5625,274078.09375,274332.1875,283642.21875,-0.138916015625,0.935302734375,-0.282470703125,1.5563963651657104,-2.532958745956421,0.4272460639476776,60.0,2876162.0,1.0
1136334.9821121,288286.28125,282207.40625,317199.0,289185.1875,294247.78125,274087.46875,274337.0,283674.5,-0.136962890625,0.936767578125,-0.281494140625,1.1901854276657104,-2.532958745956421,0.3662109076976776,60.0,2876163.0,1.0
1136334.9840285,287677.34375,282321.40625,316716.90625,288265.8125,294095.40625,274257.15625,274381.1875,283798.0625,-0.13427734375,0.93896484375,-0.2783203125,0.8850097060203552,-2.593993902206421,0.3356933295726776,60.0,2876164.0,1.0
1136334.9977762,287352.875,282304.875,316329.6875,287637.28125,293899.625,274299.5625,274341.9375,283737.625,-0.132568359375,0.93603515625,-0.278564453125,0.6713866591453552,-2.563476324081421,0.3051757514476776,60.0,2876165.0,1.0
1136335.0008612,287812.59375,282221.71875,316647.34375,288271.90625,293993.5,274198.25,274323.40625,283661.875,-0.131591796875,0.93359375,-0.278076171875,0.4272460639476776,-2.563476324081421,0.2746581733226776,60.0,2876166.0,1.0
1136335.0008684,288374.1875,282139.03125,317175.65625,289224.53125,294199.3125,274053.6875,274303.40625,283615.84375,-0.134033203125,0.9267578125,-0.28173828125,0.2746581733226776,-2.502441167831421,0.1831054538488388,60.0,2876167.0,1.0
1136335.0064936,288263.84375,282179.96875,317178.6875,289168.8125,294227.90625,274070.21875,274312.0625,283649.71875,-0.133056640625,0.9189453125,-0.282470703125,0.3662109076976776,-2.532958745956421,0.0610351525247097,60.0,2876168.0,1.0
1136335.0102231,287654.96875,282298.53125,316699.75,288250.78125,294083.15625,274237.84375,274357.46875,283783.46875,-0.13525390625,0.911376953125,-0.2822265625,0.4882812201976776,-2.532958745956421,-0.1220703050494194,60.0,2876169.0,1.0
1136335.0140102,287338.40625,282303.0,316324.0625,287622.34375,293898.8125,274293.75,274327.53125,283742.1875,-0.13720703125,0.90771484375,-0.281982421875,0.7629393935203552,-2.471923589706421,-0.2441406100988388,60.0,2876170.0,1.0
1136335.0296255,287790.71875,282221.09375,316632.875,288242.46875,293986.96875,274195.84375,274313.3125,283657.5,-0.134033203125,0.902099609375,-0.279541015625,1.1901854276657104,-2.471923589706421,-0.4882812201976776,60.0,2876171.0,1.0
1136335.0296432,288376.21875,282159.40625,317185.9375,289218.71875,294216.46875,274077.1875,274322.0,283630.59375,-0.13232421875,0.899658203125,-0.277099609375,1.4343260526657104,-2.502441167831421,-0.7629393935203552,60.0,2876172.0,1.0
1136335.0315735,288277.96875,282205.8125,317199.96875,289179.46875,294248.84375,274093.28125,274333.25,283666.09375,-0.1298828125,0.900146484375,-0.280029296875,1.8920897245407104,-2.471923589706421,-0.9155272841453552,60.0,2876173.0,1.0
1136335.0346129,287678.21875,282328.84375,316731.03125,288279.59375,294107.03125,274267.0,274387.875,283800.1875,-0.13037109375,0.902587890625,-0.2802734375,2.410888433456421,-2.319335699081421,-0.9765624403953552,60.0,2876174.0,1.0
1136335.0346323,287357.4375,282332.75,316348.09375,287645.34375,293919.09375,274326.09375,274360.78125,283752.5625,-0.130126953125,0.9052734375,-0.276611328125,2.746581792831421,-2.349853277206421,-1.0070799589157104,60.0,2876175.0,1.0
1136335.0377589,287793.5625,282240.21875,316644.125,288251.78125,293991.53125,274218.0,274333.625,283661.34375,-0.132568359375,0.90869140625,-0.279541015625,3.112792730331421,-2.227782964706421,-1.1596678495407104,60.0,2876176.0,1.0
1136335.0521,288360.0625,282153.78125,317178.78125,289216.3125,294199.125,274071.84375,274317.59375,283619.40625,-0.13330078125,0.909423828125,-0.279541015625,3.417968511581421,-2.197265386581421,-1.1596678495407104,60.0,2876177.0,1.0
1136335.0521156,288275.90625,282197.125,317202.75,289194.40625,294239.8125,274089.71875,274330.9375,283655.625,-0.134521484375,0.9140625,-0.281005859375,3.662109136581421,-2.075195074081421,-1.2512205839157104,60.0,2876178.0,1.0
1136335.0539864,287671.78125,282313.625,316726.46875,288285.03125,294093.625,274253.9375,274376.0,283781.4375,-0.134033203125,0.916015625,-0.280517578125,3.845214605331421,-2.014159917831421,-1.2207030057907104,60.0,2876179.0,1.0
1136335.0564862,287347.15625,282324.53125,316341.40625,287641.125,293909.0,274314.03125,274350.0625,283739.84375,-0.131591796875,0.91796875,-0.2822265625,4.150390148162842,-2.014159917831421,-1.0681151151657104,60.0,2876180.0,1.0
1136335.0602448,287780.59375,282236.46875,316631.59375,288237.1875,293989.65625,274211.03125,274327.875,283658.59375,-0.130615234375,0.918701171875,-0.285400390625,4.272460460662842,-1.8310545682907104,-0.9765624403953552,60.0,2876181.0,1.0
1136335.0695892,288342.34375,282139.03125,317158.125,289196.71875,294192.15625,274060.375,274307.25,283604.84375,-0.129638671875,0.920654296875,-0.28564453125,4.608153820037842,-1.7700194120407104,-0.8544921278953552,60.0,2876182.0,1.0
1136335.069601,288258.46875,282175.5,317182.28125,289177.75,294225.15625,274067.53125,274314.75,283630.5,-0.129150390625,0.919921875,-0.278564453125,4.669188976287842,-1.7089842557907104,-0.8850097060203552,60.0,2876183.0,1.0
1136335.0720823,287662.9375,282301.03125,316716.375,288279.75,294090.40625,274244.21875,274370.96875,283763.09375,-0.12890625,0.919921875,-0.280029296875,4.730224132537842,-1.6174315214157104,-0.7324218153953552,60.0,2876184.0,1.0
1136335.0720897,287333.65625,282312.1875,316333.15625,287633.96875,293909.09375,274309.90625,274349.96875,283727.6875,-0.131591796875,0.919677734375,-0.27978515625,4.760741710662842,-1.4648436307907104,-0.6408690810203552,60.0,2876185.0,1.0
1136335.0827633,287767.1875,282229.6875,316623.75,288220.9375,293987.5,274212.375,274328.53125,283643.75,-0.132080078125,0.916015625,-0.279052734375,4.730224132537842,-1.4648436307907104,-0.4882812201976776,60.0,2876186.0,1.0
1136335.085871,288341.375,282138.40625,317157.9375,289192.34375,294197.59375,274064.21875,274311.4375,283598.9375,-0.132080078125,0.9150390625,-0.281005859375,4.821776866912842,-1.4343260526657104,-0.4577636420726776,60.0,2876187.0,1.0
1136335.085878,288273.9375,282180.78125,317195.3125,289195.03125,294240.78125,274073.34375,274322.78125,283631.75,-0.1337890625,0.9169921875,-0.28173828125,5.035399913787842,-1.4953612089157104,-0.4882812201976776,60.0,2876188.0,1.0
1136335.0915138,287677.0625,282302.375,316730.9375,288299.96875,294098.09375,274238.75,274371.34375,283763.1875,-0.136474609375,0.92236328125,-0.28173828125,5.157470226287842,-1.4343260526657104,-0.5493163466453552,60.0,2876189.0,1.0
1136335.1008911,287314.53125,282295.46875,316319.5,287618.0625,293895.3125,274289.71875,274333.625,283717.3125,-0.1357421875,0.928466796875,-0.279541015625,5.065917491912842,-1.3732908964157104,-0.5798339247703552,60.0,2876190.0,1.0
1136335.1009132,287738.5,282216.53125,316597.1875,288182.65625,293970.34375,274199.6875,274321.53125,283633.71875,-0.13525390625,0.9326171875,-0.28125,4.791259288787842,-1.3427733182907104,-0.6713866591453552,60.0,2876191.0,1.0
1136335.1033281,288363.09375,282173.34375,317178.25,289199.75,294221.9375,274096.875,274348.71875,283632.46875,-0.13330078125,0.935302734375,-0.28271484375,4.699706554412842,-1.3732908964157104,-0.6713866591453552,60.0,2876192.0,1.0
1136335.1033362,288278.6875,282183.09375,317194.96875,289188.59375,294237.3125,274072.53125,274326.5625,283633.46875,-0.13330078125,0.936767578125,-0.2822265625,4.455565929412842,-1.2207030057907104,-0.7324218153953552,60.0,2876193.0,1.0
1136335.1114884,287663.46875,282281.53125,316712.78125,288275.375,294080.40625,274219.53125,274352.84375,283738.25,-0.13232421875,0.9345703125,-0.284423828125,4.272460460662842,-1.1901854276657104,-0.6408690810203552,60.0,2876194.0,1.0
1136335.1158721,287305.65625,282284.3125,316305.09375,287593.125,293887.625,274280.9375,274324.40625,283699.96875,-0.132080078125,0.933349609375,-0.28662109375,4.241942882537842,-1.0681151151657104,-0.6713866591453552,60.0,2876195.0,1.0
1136335.1158799,287716.9375,282197.84375,316570.46875,288145.84375,293948.96875,274180.0,274294.1875,283607.71875,-0.1328125,0.931396484375,-0.283935546875,4.180907726287842,-0.8544921278953552,-0.6713866591453552,60.0,2876196.0,1.0
1136335.1289985,288329.03125,282139.65625,317140.96875,289152.90625,294189.90625,274065.21875,274309.03125,283587.3125,-0.132568359375,0.92626953125,-0.284912109375,3.967284917831421,-0.7324218153953552,-0.7019042372703552,60.0,2876197.0,1.0
1136335.1314895,288276.53125,282172.28125,317192.5625,289186.875,294237.5625,274067.8125,274318.15625,283619.78125,-0.134033203125,0.9208984375,-0.283935546875,4.058837413787842,-0.5798339247703552,-0.6713866591453552,60.0,2876198.0,1.0
1136335.1345853,287688.4375,282295.75,316738.0,288309.0,294102.125,274232.40625,274365.875,283752.90625,-0.1357421875,0.91162109375,-0.28564453125,4.180907726287842,-0.6408690810203552,-0.6713866591453552,60.0,2876199.0,1.0
1136335.1345932,287320.25,282295.03125,316322.25,287616.1875,293900.25,274289.53125,274334.25,283710.09375,-0.13671875,0.909912109375,-0.285888671875,4.180907726287842,-0.6713866591453552,-0.5493163466453552,60.0,2876200.0,1.0
1136335.1365272,287747.6875,282231.75,316602.5625,288178.46875,293983.375,274212.90625,274324.75,283641.25,-0.136962890625,0.905517578125,-0.2880859375,4.394530773162842,-0.6408690810203552,-0.5187987685203552,60.0,2876201.0,1.0
1136335.1452347,288360.75,282173.875,317171.90625,289187.25,294220.59375,274094.53125,274335.59375,283621.125,-0.136474609375,0.90087890625,-0.2880859375,4.669188976287842,-0.5187987685203552,-0.3662109076976776,60.0,2876202.0,1.0
1136335.1483555,288301.65625,282199.1875,317215.34375,289213.625,294256.0,274087.03125,274334.96875,283629.34375,-0.134521484375,0.900634765625,-0.29052734375,5.065917491912842,-0.4272460639476776,-0.3051757514476776,60.0,2876203.0,1.0
1136335.1483634,287700.84375,282307.375,316751.59375,288328.125,294111.15625,274244.03125,274375.375,283752.09375,-0.135009765625,0.90185546875,-0.290283203125,5.432128429412842,-0.3356933295726776,-0.1220703050494194,60.0,2876204.0,1.0
1136335.1502559,287348.125,282329.71875,316350.59375,287644.4375,293927.0625,274321.375,274356.59375,283728.9375,-0.134765625,0.906982421875,-0.287109375,5.859374523162842,-0.2746581733226776,-0.03051757626235485,60.0,2876205.0,1.0
1136335.1639802,287726.25,282222.71875,316581.28125,288150.125,293964.25,274203.53125,274313.84375,283613.0625,-0.135986328125,0.911376953125,-0.284912109375,6.134032726287842,-0.1525878757238388,0.0610351525247097,60.0,2876206.0,1.0
1136335.1670569,288328.5,282148.5,317139.15625,289150.125,294189.28125,274070.21875,274310.8125,283580.25,-0.135009765625,0.915771484375,-0.28515625,6.286620616912842,0.03051757626235485,0.2136230319738388,60.0,2876207.0,1.0
1136335.167065,288315.15625,282208.9375,317226.15625,289223.0,294264.21875,274093.90625,274341.84375,283626.65625,-0.13720703125,0.91552734375,-0.28564453125,6.439208507537842,0.2136230319738388,0.3967284858226776,60.0,2876208.0,1.0
1136335.1689805,287705.3125,282304.59375,316751.78125,288327.875,294106.15625,274232.03125,274370.1875,283733.59375,-0.13916015625,0.912353515625,-0.2841796875,6.622313976287842,0.2136230319738388,0.3967284858226776,60.0,2876209.0,1.0
1136335.1726995,287343.59375,282323.46875,316348.8125,287641.84375,293927.78125,274310.71875,274356.78125,283716.15625,-0.138671875,0.911376953125,-0.286376953125,6.774901866912842,0.3356933295726776,0.4577636420726776,60.0,2876210.0,1.0
1136335.1871004,287741.71875,282245.5,316599.78125,288161.90625,293993.03125,274222.9375,274338.25,283634.96875,-0.140625,0.912353515625,-0.28759765625,7.110595226287842,0.2746581733226776,0.6103515028953552,60.0,2876211.0,1.0
1136335.1871098,288335.46875,282161.71875,317146.15625,289150.0625,294205.5625,274082.46875,274329.5,283587.40625,-0.142578125,0.91796875,-0.2861328125,7.141112804412842,0.2746581733226776,0.6408690810203552,60.0,2876212.0,1.0
1136335.1890055,288309.875,282197.59375,317219.09375,289218.34375,294254.90625,274080.21875,274332.1875,283601.4375,-0.144287109375,0.92529296875,-0.287841796875,7.141112804412842,0.3051757514476776,0.7019042372703552,60.0,2876213.0,1.0
1136335.1915298,287723.5625,282311.125,316771.4375,288352.4375,294120.1875,274238.9375,274377.15625,283730.71875,-0.1455078125,0.93017578125,-0.28857421875,7.049560070037842,0.2746581733226776,0.7019042372703552,60.0,2876214.0,1.0
1136335.195333,287339.1875,282320.15625,316349.25,287638.90625,293923.75,274306.15625,274352.75,283704.09375,-0.14404296875,0.9326171875,-0.286865234375,6.866454601287842,0.1831054538488388,0.8544921278953552,60.0,2876215.0,1.0
1136335.2046633,287732.78125,282251.0625,316598.15625,288147.875,293988.75,274230.25,274338.875,283626.125,-0.140869140625,0.9365234375,-0.285888671875,6.744384288787842,0.2136230319738388,0.9155272841453552,60.0,2876216.0,1.0
1136335.2046814,288334.46875,282166.46875,317147.03125,289144.0625,294204.03125,274089.53125,274329.5,283584.90625,-0.1416015625,0.93603515625,-0.2861328125,6.408690929412842,0.2136230319738388,0.9460448622703552,60.0,2876217.0,1.0
1136335.2071633,288307.9375,282189.625,317215.15625,289214.25,294248.40625,274073.875,274323.78125,283599.5625,-0.139404296875,0.93359375,-0.2861328125,5.981444835662842,0.1831054538488388,0.9460448622703552,60.0,2876218.0,1.0
1136335.2071836,287729.375,282308.1875,316779.03125,288361.375,294122.25,274236.34375,274370.28125,283739.3125,-0.13916015625,0.928955078125,-0.29052734375,5.554198741912842,0.1525878757238388,1.0986326932907104,60.0,2876219.0,1.0
1136335.2227782,287355.03125,282331.5,316369.03125,287654.96875,293939.59375,274321.53125,274360.25,283720.625,-0.139404296875,0.922607421875,-0.292724609375,5.462646007537842,0.1525878757238388,1.2207030057907104,60.0,2876220.0,1.0
1136335.2258981,287743.6875,282266.59375,316613.1875,288150.75,294005.90625,274248.59375,274352.03125,283647.21875,-0.137451171875,0.91943359375,-0.2939453125,5.462646007537842,0.1525878757238388,1.0681151151657104,60.0,2876221.0,1.0
1136335.225909,288345.46875,282187.125,317164.75,289147.90625,294220.59375,274115.375,274350.96875,283603.0625,-0.138916015625,0.9189453125,-0.293212890625,5.462646007537842,0.2441406100988388,0.9155272841453552,60.0,2876222.0,1.0
1136335.2277875,288336.96875,282216.96875,317245.65625,289234.0,294270.375,274103.46875,274354.53125,283613.78125,-0.13916015625,0.9208984375,-0.291748046875,5.523681163787842,0.2136230319738388,0.9155272841453552,60.0,2876223.0,1.0
1136335.2300794,287744.125,282314.09375,316792.53125,288370.96875,294121.4375,274235.0,274375.90625,283726.625,-0.13916015625,0.925048828125,-0.291259765625,5.371093273162842,0.2746581733226776,0.7934569716453552,60.0,2876224.0,1.0
1136335.2377533,287358.59375,282330.0,316375.1875,287652.9375,293931.53125,274308.59375,274350.78125,283709.1875,-0.141357421875,0.927490234375,-0.29443359375,5.249022960662842,0.3356933295726776,0.7324218153953552,60.0,2876225.0,1.0
1136335.2402395,287741.25,282269.28125,316618.46875,288141.09375,294000.65625,274245.46875,274345.6875,283637.125,-0.141845703125,0.92919921875,-0.297119140625,4.943847179412842,0.2441406100988388,0.6103515028953552,60.0,2876226.0,1.0
1136335.2427367,288337.0625,282178.0,317162.78125,289137.1875,294209.84375,274097.3125,274334.6875,283589.03125,-0.1416015625,0.928955078125,-0.29541015625,4.638671398162842,0.2746581733226776,0.6408690810203552,60.0,2876227.0,1.0
1136335.2470718,288341.375,282209.84375,317255.9375,289249.375,294270.5625,274089.96875,274342.09375,283611.03125,-0.143310546875,0.927490234375,-0.2978515625,4.455565929412842,0.2136230319738388,0.5798339247703552,60.0,2876228.0,1.0
1136335.2470792,287794.0,282347.59375,316849.03125,288435.875,294169.4375,274271.03125,274407.5625,283764.15625,-0.144287109375,0.928466796875,-0.2958984375,4.394530773162842,0.0,0.4272460639476776,60.0,2876229.0,1.0
1136335.2577369,287382.125,282348.84375,316409.15625,287688.34375,293966.21875,274336.46875,274376.0,283735.46875,-0.144287109375,0.927001953125,-0.299560546875,4.211425304412842,-0.03051757626235485,0.3967284858226776,60.0,2876230.0,1.0
1136335.2608977,287707.65625,282241.40625,316591.375,288112.125,293979.0,274226.3125,274324.84375,283620.3125,-0.14404296875,0.92431640625,-0.298583984375,4.180907726287842,-0.0610351525247097,0.3356933295726776,60.0,2876231.0,1.0
1136335.2609046,288308.5625,282156.28125,317136.65625,289108.125,294190.1875,274082.375,274314.125,283575.6875,-0.140380859375,0.924072265625,-0.29931640625,3.997802495956421,-0.0610351525247097,0.3967284858226776,60.0,2876232.0,1.0
1136335.2627368,288332.96875,282201.59375,317250.03125,289238.65625,294266.1875,274083.90625,274330.21875,283607.34375,-0.13671875,0.923583984375,-0.29931640625,3.845214605331421,-0.0915527269244194,0.2746581733226776,60.0,2876233.0,1.0
1136335.2764834,287769.0625,282321.84375,316831.0625,288409.65625,294152.5625,274246.875,274387.34375,283743.34375,-0.136962890625,0.924560546875,-0.298095703125,3.784179449081421,-0.03051757626235485,0.1525878757238388,60.0,2876234.0,1.0
1136335.2795814,287393.65625,282364.9375,316425.25,287693.78125,293982.75,274353.375,274396.71875,283748.875,-0.137451171875,0.923828125,-0.29736328125,3.540038824081421,0.0,0.0610351525247097,60.0,2876235.0,1.0
1136335.2795898,287741.34375,282282.53125,316625.09375,288127.6875,294018.34375,274267.375,274368.03125,283655.625,-0.1328125,0.919677734375,-0.297119140625,3.417968511581421,0.0610351525247097,-0.03051757626235485,60.0,2876236.0,1.0
1136335.281512,288337.96875,282187.65625,317162.59375,289116.625,294220.40625,274114.03125,274345.5,283601.09375,-0.1318359375,0.921142578125,-0.301513671875,3.479003667831421,0.2441406100988388,-0.0610351525247097,60.0,2876237.0,1.0
1136335.2839863,288345.84375,282205.4375,317262.09375,289245.71875,294271.28125,274090.15625,274342.1875,283601.375,-0.131103515625,0.920166015625,-0.30029296875,3.387450933456421,0.3356933295726776,0.0915527269244194,60.0,2876238.0,1.0
1136335.292767,287776.5625,282318.0,316837.875,288422.8125,294144.21875,274240.09375,274389.5,283735.125,-0.127197265625,0.91943359375,-0.30029296875,3.204345464706421,0.4577636420726776,0.1220703050494194,60.0,2876239.0,1.0
1136335.2995838,287365.3125,282338.9375,316402.46875,287678.84375,293952.53125,274322.0,274374.1875,283724.28125,-0.13037109375,0.919677734375,-0.296875,3.051757574081421,0.6103515028953552,0.0915527269244194,60.0,2876240.0,1.0
1136335.2995917,287716.0625,282271.34375,316607.03125,288115.96875,293996.625,274248.21875,274354.34375,283637.5625,-0.13134765625,0.918212890625,-0.29833984375,2.899169683456421,0.6408690810203552,0.1220703050494194,60.0,2876241.0,1.0
1136335.3027359,288325.09375,282188.65625,317156.4375,289111.78125,294208.0625,274109.46875,274345.5,283589.8125,-0.131103515625,0.916259765625,-0.29931640625,2.716064214706421,0.8239745497703552,0.03051757626235485,60.0,2876242.0,1.0
1136335.3120751,288351.375,282215.90625,317271.3125,289256.71875,294278.25,274099.625,274356.0625,283610.21875,-0.130615234375,0.918212890625,-0.298828125,2.563476324081421,0.9155272841453552,0.0915527269244194,60.0,2876243.0,1.0
1136335.3120821,287789.71875,282332.9375,316854.59375,288442.03125,294160.0625,274253.9375,274399.5,283747.71875,-0.1298828125,0.914306640625,-0.301513671875,2.502441167831421,1.0070799589157104,0.1525878757238388,60.0,2876244.0,1.0
1136335.320894,287357.96875,282335.0,316398.34375,287674.84375,293944.0625,274318.78125,274363.46875,283723.125,-0.128662109375,0.912841796875,-0.305908203125,2.471923589706421,1.1291502714157104,0.2136230319738388,60.0,2876245.0,1.0
1136335.3209107,287678.84375,282239.59375,316568.125,288069.375,293957.46875,274222.46875,274323.25,283616.90625,-0.129638671875,0.911865234375,-0.302734375,2.471923589706421,1.2207030057907104,0.2441406100988388,60.0,2876246.0,1.0
1136335.3320746,288320.34375,282184.09375,317150.34375,289101.0625,294204.3125,274109.5625,274345.15625,283595.46875,-0.129638671875,0.91015625,-0.304443359375,2.502441167831421,1.3427733182907104,0.1220703050494194,60.0,2876247.0,1.0
1136335.3320814,288361.5625,282222.78125,317282.03125,289267.96875,294291.3125,274111.0,274366.4375,283616.5625,-0.130126953125,0.911376953125,-0.306396484375,2.563476324081421,1.4038084745407104,0.0610351525247097,60.0,2876248.0,1.0
1136335.3350147,287789.625,282327.21875,316855.125,288444.1875,294160.6875,274253.15625,274400.40625,283740.9375,-0.13232421875,0.91162109375,-0.304443359375,2.563476324081421,1.5563963651657104,-0.1220703050494194,60.0,2876249.0,1.0
1136335.3350215,287358.0625,282337.3125,316401.375,287673.3125,293953.53125,274326.8125,274372.40625,283722.875,-0.13232421875,0.91259765625,-0.30322265625,2.532958745956421,1.6784666776657104,-0.1525878757238388,60.0,2876250.0,1.0
1136335.3350238,287683.15625,282260.96875,316581.09375,288072.25,293986.34375,274251.09375,274347.375,283629.53125,-0.1318359375,0.9130859375,-0.302978515625,2.532958745956421,1.6784666776657104,-0.1831054538488388,60.0,2876251.0,1.0
1136335.3427911,288312.75,282192.21875,317148.03125,289092.1875,294216.5625,274126.28125,274356.15625,283597.6875,-0.13232421875,0.910400390625,-0.302001953125,2.502441167831421,1.7089842557907104,-0.3051757514476776,60.0,2876252.0,1.0
1136335.3464915,288359.5,282220.03125,317278.8125,289268.59375,294289.34375,274110.53125,274365.1875,283613.875,-0.13427734375,0.90869140625,-0.305419921875,2.319335699081421,1.7700194120407104,-0.3051757514476776,60.0,2876253.0,1.0
1136335.3508903,287796.25,282330.0,316862.625,288460.4375,294167.75,274258.0625,274408.90625,283745.84375,-0.13623046875,0.909912109375,-0.3046875,2.349853277206421,1.6479490995407104,-0.3967284858226776,60.0,2876254.0,1.0
1136335.3509007,287367.375,282347.53125,316413.0,287686.90625,293970.34375,274338.8125,274387.78125,283743.4375,-0.139404296875,0.911865234375,-0.3046875,2.502441167831421,1.6479490995407104,-0.4577636420726776,60.0,2876255.0,1.0
1136335.3590118,287692.34375,282275.0,316592.09375,288076.4375,294004.125,274264.21875,274362.84375,283648.84375,-0.1396484375,0.912109375,-0.30810546875,2.532958745956421,1.5563963651657104,-0.5187987685203552,60.0,2876256.0,1.0
1136335.3683585,288273.6875,282156.0,317112.34375,289053.21875,294188.5,274092.84375,274329.15625,283573.5625,-0.140869140625,0.916748046875,-0.307373046875,2.563476324081421,1.5869139432907104,-0.7019042372703552,60.0,2876257.0,1.0
1136335.3683707,288313.90625,282170.40625,317235.28125,289227.65625,294252.78125,274065.40625,274327.96875,283574.90625,-0.14111328125,0.9169921875,-0.306884765625,2.563476324081421,1.4038084745407104,-0.8239745497703552,60.0,2876258.0,1.0
1136335.377096,287774.625,282296.5625,316838.9375,288443.09375,294145.75,274225.59375,274383.6875,283716.15625,-0.140380859375,0.917236328125,-0.3056640625,2.502441167831421,1.2817381620407104,-0.8239745497703552,60.0,2876259.0,1.0
1136335.3771174,287370.5,282348.21875,316414.53125,287690.84375,293975.4375,274338.0,274391.28125,283732.25,-0.14111328125,0.915283203125,-0.302734375,2.380370855331421,1.2512205839157104,-0.8239745497703552,60.0,2876260.0,1.0
1136335.3833262,287694.0625,282287.4375,316595.21875,288073.15625,294017.71875,274277.375,274382.34375,283651.0625,-0.14111328125,0.91552734375,-0.303955078125,2.410888433456421,1.1596678495407104,-0.7019042372703552,60.0,2876261.0,1.0
1136335.3833334,288312.21875,282201.34375,317150.78125,289085.75,294227.65625,274137.71875,274378.59375,283606.8125,-0.140869140625,0.91845703125,-0.307373046875,2.441406011581421,1.0681151151657104,-0.6408690810203552,60.0,2876262.0,1.0
1136335.3914731,288342.25,282195.875,317263.28125,289252.40625,294268.96875,274085.59375,274349.71875,283583.46875,-0.142578125,0.9248046875,-0.306884765625,2.258300542831421,0.9765624403953552,-0.7629393935203552,60.0,2876263.0,1.0
1136335.398955,287811.625,282322.21875,316873.625,288474.9375,294168.0,274246.875,274402.0,283725.09375,-0.14111328125,0.92919921875,-0.301513671875,2.197265386581421,0.8850097060203552,-0.7019042372703552,60.0,2876264.0,1.0
1136335.3989624,287379.15625,282351.1875,316424.09375,287702.1875,293976.25,274340.75,274388.0625,283731.71875,-0.14404296875,0.93017578125,-0.30078125,1.9531248807907104,0.7019042372703552,-0.7324218153953552,60.0,2876265.0,1.0
1136335.398965,287668.03125,282264.09375,316565.0,288047.40625,293979.53125,274253.0625,274343.96875,283620.9375,-0.146240234375,0.933837890625,-0.3046875,1.5258787870407104,0.5798339247703552,-0.7019042372703552,60.0,2876266.0,1.0
1136335.402062,288293.25,282181.03125,317121.1875,289064.5,294193.40625,274111.96875,274342.8125,283577.59375,-0.145751953125,0.93359375,-0.302001953125,1.2512205839157104,0.3662109076976776,-0.6408690810203552,60.0,2876267.0,1.0
1136335.4020791,288358.4375,282196.25,317265.3125,289272.09375,294266.90625,274082.46875,274343.34375,283585.90625,-0.146240234375,0.932861328125,-0.30517578125,0.9155272841453552,0.2746581733226776,-0.5798339247703552,60.0,2876268.0,1.0
1136335.4127473,287816.90625,282312.90625,316868.53125,288488.09375,294157.1875,274230.4375,274386.375,283715.96875,-0.14501953125,0.93115234375,-0.3046875,0.5187987685203552,0.03051757626235485,-0.5187987685203552,60.0,2876269.0,1.0
1136335.4270861,287376.40625,282343.75,316416.125,287698.4375,293968.0,274323.96875,274375.71875,283717.6875,-0.145751953125,0.93017578125,-0.30615234375,0.1220703050494194,-0.1831054538488388,-0.3662109076976776,60.0,2876270.0,1.0
1136335.4270989,287651.0625,282252.125,316544.25,288019.5,293961.3125,274231.15625,274324.65625,283604.03125,-0.1474609375,0.93310546875,-0.3076171875,-0.0915527269244194,-0.3356933295726776,-0.3967284858226776,60.0,2876271.0,1.0
1136335.432017,288276.4375,282170.75,317104.84375,289043.125,294178.5625,274096.40625,274324.21875,283569.875,-0.147705078125,0.9296875,-0.30615234375,-0.5187987685203552,-0.4882812201976776,-0.3662109076976776,60.0,2876272.0,1.0
1136335.432025,288361.75,282199.09375,317268.0,289279.5,294267.0625,274079.15625,274338.625,283582.125,-0.14697265625,0.927734375,-0.30419921875,-0.7324218153953552,-0.6713866591453552,-0.3662109076976776,60.0,2876273.0,1.0
1136335.4320275,287831.375,282324.53125,316882.40625,288512.5,294166.3125,274233.21875,274391.09375,283723.3125,-0.14697265625,0.927001953125,-0.305419921875,-0.8239745497703552,-0.8239745497703552,-0.2746581733226776,60.0,2876274.0,1.0
1136335.4320394,287386.59375,282364.5,316431.0625,287720.875,293985.28125,274339.5,274394.0625,283745.5,-0.145263671875,0.92431640625,-0.306396484375,-1.1291502714157104,-1.0070799589157104,-0.1525878757238388,60.0,2876275.0,1.0
1136335.4352323,287665.4375,282284.125,316565.34375,288041.125,293992.34375,274262.96875,274361.0625,283644.0,-0.141845703125,0.921630859375,-0.308837890625,-1.2817381620407104,-1.0986326932907104,-0.0610351525247097,60.0,2876276.0,1.0
1136335.441478,288283.25,282193.375,317116.8125,289052.3125,294200.1875,274119.40625,274356.21875,283592.6875,-0.142578125,0.917236328125,-0.31103515625,-1.4953612089157104,-1.2512205839157104,0.0,60.0,2876277.0,1.0
1136335.4521119,288358.875,282199.0,317270.875,289282.375,294272.875,274080.9375,274349.71875,283594.84375,-0.141845703125,0.912353515625,-0.308837890625,-1.6174315214157104,-1.4038084745407104,0.0610351525247097,60.0,2876278.0,1.0
1136335.4521297,287833.34375,282324.28125,316891.15625,288520.25,294171.84375,274233.9375,274399.25,283735.5625,-0.14404296875,0.91162109375,-0.306884765625,-1.5258787870407104,-1.4648436307907104,0.1220703050494194,60.0,2876279.0,1.0
1136335.4539778,287376.65625,282352.71875,316427.5,287706.9375,293974.09375,274326.0,274381.625,283736.53125,-0.1416015625,0.90673828125,-0.307861328125,-1.5563963651657104,-1.5563963651657104,0.2136230319738388,60.0,2876280.0,1.0
1136335.4577288,287648.46875,282273.125,316554.90625,288013.5,293977.21875,274250.03125,274342.46875,283629.25,-0.141357421875,0.905517578125,-0.307861328125,-1.5869139432907104,-1.6174315214157104,0.1831054538488388,60.0,2876281.0,1.0
1136335.4615006,288273.78125,282182.28125,317110.28125,289039.625,294190.1875,274108.65625,274339.34375,283586.96875,-0.138427734375,0.90283203125,-0.3095703125,-1.4343260526657104,-1.6174315214157104,0.1525878757238388,60.0,2876282.0,1.0
1136335.4708917,288362.375,282191.3125,317274.4375,289286.3125,294273.78125,274078.09375,274341.03125,283591.71875,-0.138671875,0.901123046875,-0.31298828125,-1.3427733182907104,-1.8005369901657104,0.2136230319738388,60.0,2876283.0,1.0
1136335.4709007,287831.125,282305.9375,316887.3125,288523.5625,294163.625,274222.84375,274384.21875,283722.25,-0.13720703125,0.9013671875,-0.311279296875,-1.1901854276657104,-1.7700194120407104,0.4577636420726776,60.0,2876284.0,1.0
1136335.4727417,287391.5,282358.4375,316438.03125,287728.46875,293985.8125,274340.0625,274391.0,283752.1875,-0.138427734375,0.902587890625,-0.310546875,-0.9765624403953552,-1.7395018339157104,0.5187987685203552,60.0,2876285.0,1.0
1136335.5033532,287639.59375,282265.625,316541.3125,288006.96875,293968.625,274253.5,274342.375,283635.96875,-0.138671875,0.902587890625,-0.31201171875,-0.8850097060203552,-1.7395018339157104,0.7324218153953552,60.0,2876286.0,1.0
1136335.5033676,288255.96875,282168.15625,317091.6875,289022.28125,294176.0625,274105.625,274331.75,283578.5625,-0.140380859375,0.9033203125,-0.309814453125,-0.6408690810203552,-1.7089842557907104,0.7629393935203552,60.0,2876287.0,1.0
1136335.5052677,288356.21875,282184.53125,317265.78125,289282.625,294268.59375,274076.65625,274336.46875,283585.4375,-0.140380859375,0.904541015625,-0.309326171875,-0.4272460639476776,-1.8005369901657104,0.8544921278953552,60.0,2876288.0,1.0
1136335.5077693,287835.9375,282307.5625,316889.90625,288530.90625,294171.9375,274228.75,274385.28125,283726.71875,-0.140380859375,0.907958984375,-0.307373046875,-0.3356933295726776,-1.7700194120407104,0.8544921278953552,60.0,2876289.0,1.0
