Time,FZ,C3,CZ,C4,PZ,PO7,OZ,PO8,AccX,AccY,AccZ,Gyro1,Gyro2,Gyro3,Battery,Counter,Validation
1163018.3011924,303555.3125,317908.53125,347773.59375,330851.625,309317.21875,299619.875,317949.125,312814.28125,-0.15478515625,0.974853515625,0.287109375,-1.2512205839157104,-1.1901854276657104,1.3732908964157104,100.0,107951.0,1.0
1163018.3012378,304484.78125,317844.15625,348296.53125,331483.625,309281.71875,299439.28125,317705.375,312469.625,-0.154052734375,0.976318359375,0.28515625,-1.1291502714157104,-1.2207030057907104,1.2817381620407104,100.0,107952.0,1.0
1163018.3036801,305366.78125,317710.40625,348592.375,331931.28125,309052.21875,299008.96875,317150.15625,311620.25,-0.154296875,0.975341796875,0.287109375,-0.9765624403953552,-1.2207030057907104,1.3122557401657104,100.0,107953.0,1.0
1163018.3037128,305000.65625,317696.90625,348262.90625,331599.9375,308953.78125,298927.25,317057.625,311447.53125,-0.153564453125,0.9765625,0.28515625,-0.8850097060203552,-1.2817381620407104,1.3427733182907104,100.0,107954.0,1.0
1163018.3056799,303918.375,317822.875,347830.09375,330994.75,309137.96875,299322.78125,317583.78125,312230.71875,-0.15576171875,0.97216796875,0.28369140625,-0.7934569716453552,-1.3122557401657104,1.3732908964157104,100.0,107955.0,1.0
1163018.3082386,303555.03125,317897.15625,347792.1875,330863.78125,309313.375,299618.96875,317954.75,312827.0625,-0.155517578125,0.972412109375,0.283935546875,-0.7324218153953552,-1.3732908964157104,1.2512205839157104,100.0,107956.0,1.0
1163018.3119098,304467.6875,317833.40625,348306.625,331478.4375,309277.15625,299441.3125,317713.34375,312490.28125,-0.154296875,0.971435546875,0.283447265625,-0.6408690810203552,-1.4953612089157104,1.0681151151657104,100.0,107957.0,1.0
1163018.3212777,305364.71875,317705.125,348608.90625,331934.96875,309049.8125,299010.375,317154.375,311635.46875,-0.15234375,0.97314453125,0.28271484375,-0.5798339247703552,-1.4648436307907104,1.0375975370407104,100.0,107958.0,1.0
1163018.321329,305021.65625,317695.28125,348287.40625,331618.09375,308953.34375,298928.5,317059.875,311450.375,-0.150390625,0.9736328125,0.28564453125,-0.4272460639476776,-1.4648436307907104,0.9460448622703552,100.0,107959.0,1.0
1163018.3350264,303936.09375,317824.3125,347857.1875,331013.09375,309137.4375,299323.3125,317585.125,312229.75,-0.151123046875,0.9736328125,0.285400390625,-0.3356933295726776,-1.4343260526657104,0.8239745497703552,100.0,107960.0,1.0
1163018.3350773,303554.125,317903.15625,347822.03125,330876.71875,309321.15625,299629.96875,317970.375,312843.34375,-0.14990234375,0.972412109375,0.2841796875,-0.2441406100988388,-1.3122557401657104,0.7934569716453552,100.0,107961.0,1.0
1163018.3368911,304457.40625,317839.84375,348333.53125,331489.15625,309288.0,299456.71875,317734.875,312522.65625,-0.146240234375,0.970458984375,0.28173828125,-0.1831054538488388,-1.1901854276657104,0.7324218153953552,100.0,107962.0,1.0
1163018.3399827,305375.71875,317713.0,348649.59375,331961.78125,309067.6875,299028.71875,317178.25,311673.09375,-0.14453125,0.96728515625,0.27978515625,-0.03051757626235485,-1.0681151151657104,0.8239745497703552,100.0,107963.0,1.0
1163018.3400325,305054.125,317702.53125,348347.5625,331660.28125,308973.625,298942.34375,317080.4375,311480.4375,-0.141845703125,0.96728515625,0.279296875,0.0,-0.9460448622703552,0.8544921278953552,100.0,107964.0,1.0
1163018.3418922,303967.65625,317824.375,347913.59375,331053.03125,309147.875,299327.34375,317599.53125,312253.625,-0.1396484375,0.968017578125,0.279296875,0.1525878757238388,-0.7934569716453552,1.0681151151657104,100.0,107965.0,1.0
1163018.3556385,303575.3125,317914.96875,347878.46875,330916.15625,309339.21875,299647.40625,317998.90625,312891.8125,-0.14013671875,0.970458984375,0.2802734375,0.3051757514476776,-0.6103515028953552,1.1596678495407104,100.0,107966.0,1.0
1163018.358777,304452.15625,317845.03125,348378.25,331514.90625,309302.03125,299472.96875,317763.78125,312576.8125,-0.142333984375,0.971923828125,0.27978515625,0.4882812201976776,-0.4882812201976776,1.2817381620407104,100.0,107967.0,1.0
1163018.3588337,305375.1875,317713.0,348697.59375,331989.03125,309076.375,299038.0,317197.28125,311714.21875,-0.1455078125,0.974853515625,0.279296875,0.5798339247703552,-0.3967284858226776,1.3122557401657104,100.0,107968.0,1.0
1163018.360664,305077.8125,317705.125,348403.71875,331700.15625,308979.71875,298945.75,317087.9375,311500.90625,-0.14794921875,0.974853515625,0.283203125,0.5187987685203552,-0.2746581733226776,1.3427733182907104,100.0,107969.0,1.0
1163018.3631855,303996.53125,317824.75,347977.4375,331096.21875,309159.875,299333.5,317605.59375,312269.71875,-0.149658203125,0.974365234375,0.28076171875,0.5187987685203552,-0.1831054538488388,1.4038084745407104,100.0,107970.0,1.0
1163018.3773036,303572.28125,317897.625,347917.4375,330929.75,309337.6875,299640.96875,317991.84375,312896.625,-0.1513671875,0.9736328125,0.276611328125,0.5493163466453552,-0.2136230319738388,1.2512205839157104,100.0,107971.0,1.0
1163018.3773537,304442.75,317835.46875,348417.75,331525.75,309310.78125,299477.90625,317769.5,312600.4375,-0.15234375,0.9736328125,0.275146484375,0.6103515028953552,-0.2136230319738388,1.1596678495407104,100.0,107972.0,1.0
1163018.3832827,305389.9375,317719.0625,348756.625,332022.9375,309102.90625,299060.1875,317216.25,311758.46875,-0.151611328125,0.974853515625,0.275634765625,0.6103515028953552,-0.2746581733226776,1.0986326932907104,100.0,107973.0,1.0
1163018.3857061,305090.15625,317690.53125,348442.6875,331721.8125,308983.09375,298940.8125,317079.0,311516.8125,-0.152587890625,0.97802734375,0.27685546875,0.7934569716453552,-0.2746581733226776,0.9460448622703552,100.0,107974.0,1.0
1163018.3882477,304010.90625,317816.25,348011.5,331114.5625,309161.46875,299325.0,317594.6875,312277.21875,-0.15234375,0.9814453125,0.279052734375,0.7019042372703552,-0.3356933295726776,0.8544921278953552,100.0,107975.0,1.0
1163018.3907118,303578.375,317899.84375,347957.84375,330949.25,309354.3125,299650.28125,318002.3125,312925.0625,-0.154541015625,0.9833984375,0.283935546875,0.7324218153953552,-0.4272460639476776,0.7629393935203552,100.0,107976.0,1.0
1163018.3950254,304433.71875,317837.1875,348454.15625,331538.15625,309328.125,299496.9375,317793.1875,312638.6875,-0.15673828125,0.988037109375,0.283203125,0.6408690810203552,-0.5187987685203552,0.7324218153953552,100.0,107977.0,1.0
1163018.3950813,305379.90625,317711.5625,348789.5,332030.34375,309107.125,299067.59375,317233.75,311780.84375,-0.15673828125,0.98681640625,0.284423828125,0.3967284858226776,-0.6408690810203552,0.4882812201976776,100.0,107978.0,1.0
1163018.4056729,305111.78125,317690.1875,348494.8125,331753.625,308995.28125,298951.125,317097.59375,311533.25,-0.15869140625,0.98779296875,0.282470703125,0.1220703050494194,-0.6713866591453552,0.5493163466453552,100.0,107979.0,1.0
1163018.4087367,304039.53125,317816.875,348066.46875,331155.6875,309173.71875,299336.625,317616.34375,312293.03125,-0.159912109375,0.98828125,0.284912109375,0.0,-0.7019042372703552,0.3356933295726776,100.0,107980.0,1.0
1163018.4087894,303586.6875,317904.9375,348004.0625,330978.5625,309366.5625,299666.375,318032.4375,312955.0,-0.158935546875,0.99072265625,0.284912109375,-0.2136230319738388,-0.9155272841453552,0.2746581733226776,100.0,107981.0,1.0
1163018.4119111,304428.53125,317849.875,348491.6875,331554.96875,309349.21875,299522.25,317831.625,312682.15625,-0.159423828125,0.99072265625,0.286376953125,-0.3051757514476776,-0.9460448622703552,0.3051757514476776,100.0,107982.0,1.0
1163018.4212314,305374.5625,317713.78125,348814.71875,332044.03125,309120.875,299083.4375,317254.3125,311807.46875,-0.156494140625,0.9892578125,0.2841796875,-0.5493163466453552,-1.0681151151657104,0.2746581733226776,100.0,107983.0,1.0
1163018.4212894,305126.4375,317694.84375,348521.5625,331771.4375,309006.4375,298962.71875,317103.40625,311538.09375,-0.155029296875,0.986572265625,0.28271484375,-0.6713866591453552,-1.0681151151657104,0.2136230319738388,100.0,107984.0,1.0
1163018.4231997,304054.0,317822.0625,348083.90625,331165.59375,309180.4375,299340.75,317609.4375,312284.0,-0.15380859375,0.986572265625,0.284423828125,-0.7934569716453552,-1.0986326932907104,0.3051757514476776,100.0,107985.0,1.0
1163018.4269611,303578.8125,317906.0,348000.6875,330969.4375,309367.28125,299667.71875,318021.15625,312943.46875,-0.15283203125,0.986328125,0.28564453125,-0.8850097060203552,-1.1291502714157104,0.4272460639476776,100.0,107986.0,1.0
1163018.4412833,304395.90625,317841.28125,348457.8125,331521.53125,309337.78125,299519.125,317814.03125,312669.28125,-0.150390625,0.98486328125,0.2841796875,-0.8544921278953552,-1.0681151151657104,0.5798339247703552,100.0,107987.0,1.0
1163018.4413351,305359.4375,317711.375,348784.0625,332018.46875,309117.84375,299087.90625,317247.34375,311803.625,-0.147216796875,0.981689453125,0.2841796875,-0.8850097060203552,-1.0681151151657104,0.7934569716453552,100.0,107988.0,1.0
1163018.4437348,305126.625,317686.53125,348487.40625,331749.71875,308995.90625,298954.5,317085.34375,311514.40625,-0.1474609375,0.979736328125,0.286865234375,-0.9460448622703552,-0.9155272841453552,1.0070799589157104,100.0,107989.0,1.0
1163018.4437931,304048.1875,317805.25,348035.375,331133.59375,309157.71875,299319.75,317575.3125,312238.0625,-0.145751953125,0.975830078125,0.28271484375,-0.8850097060203552,-0.8239745497703552,1.1596678495407104,100.0,107990.0,1.0
1163018.4456725,303559.3125,317894.5625,347945.0625,330928.21875,309348.5,299658.0625,318000.34375,312910.65625,-0.14599609375,0.972900390625,0.283447265625,-0.8239745497703552,-0.7934569716453552,1.4038084745407104,100.0,107991.0,1.0
1163018.4544117,304357.46875,317832.25,348392.71875,331467.96875,309319.8125,299510.34375,317797.375,312639.59375,-0.14599609375,0.97021484375,0.285400390625,-0.8239745497703552,-0.6408690810203552,1.5563963651657104,100.0,107992.0,1.0
1163018.4575271,305322.15625,317693.6875,348716.375,331965.8125,309089.25,299066.0,317215.34375,311757.84375,-0.14892578125,0.969482421875,0.28564453125,-0.8544921278953552,-0.6103515028953552,1.6784666776657104,100.0,107993.0,1.0
1163018.4575767,305110.8125,317669.625,348431.78125,331713.84375,308964.4375,298925.90625,317043.40625,311455.125,-0.149169921875,0.965576171875,0.285400390625,-0.7324218153953552,-0.7019042372703552,1.8615721464157104,100.0,107994.0,1.0
1163018.4594046,304043.28125,317791.75,347987.53125,331109.375,309130.90625,299291.46875,317539.09375,312183.6875,-0.148193359375,0.966064453125,0.28271484375,-0.4882812201976776,-0.6408690810203552,1.9531248807907104,100.0,107995.0,1.0
1163018.4757077,303535.71875,317880.96875,347892.65625,330896.03125,309328.84375,299635.25,317975.125,312874.71875,-0.148193359375,0.967041015625,0.283203125,-0.3051757514476776,-0.6103515028953552,2.075195074081421,100.0,107996.0,1.0
1163018.4787482,304327.59375,317831.4375,348352.9375,331440.96875,309321.15625,299514.1875,317802.46875,312640.03125,-0.148681640625,0.969970703125,0.28564453125,-0.2746581733226776,-0.6408690810203552,2.105712652206421,100.0,107997.0,1.0
1163018.4787987,305319.3125,317711.1875,348704.9375,331959.53125,309108.0,299088.625,317238.875,311775.28125,-0.14697265625,0.97216796875,0.284423828125,-0.1525878757238388,-0.6408690810203552,2.044677495956421,100.0,107998.0,1.0
1163018.4805576,305134.9375,317688.40625,348433.5,331718.59375,308982.84375,298943.0625,317060.40625,311460.3125,-0.147216796875,0.97412109375,0.280517578125,0.0,-0.6713866591453552,1.9226073026657104,100.0,107999.0,1.0
1163018.4869556,304067.15625,317803.09375,347982.78125,331110.625,309140.5625,299294.4375,317537.9375,312170.5625,-0.148193359375,0.9736328125,0.281982421875,0.0,-0.6408690810203552,1.7700194120407104,100.0,108000.0,1.0
1163018.4894528,303535.4375,317889.28125,347876.03125,330883.09375,309334.3125,299635.25,317971.28125,312864.1875,-0.1494140625,0.972412109375,0.28466796875,0.1220703050494194,-0.6408690810203552,1.7700194120407104,100.0,108001.0,1.0
1163018.4919549,304306.59375,317837.09375,348323.25,331414.59375,309320.4375,299513.03125,317799.1875,312634.59375,-0.147216796875,0.97265625,0.284912109375,0.0915527269244194,-0.8239745497703552,1.5869139432907104,100.0,108002.0,1.0
1163018.5012539,305292.03125,317700.46875,348666.75,331927.34375,309092.375,299069.84375,317222.0625,311756.25,-0.14501953125,0.970947265625,0.286376953125,0.1831054538488388,-0.7324218153953552,1.3732908964157104,100.0,108003.0,1.0
1163018.5013058,305121.34375,317669.09375,348396.75,331696.15625,308959.0625,298911.15625,317028.9375,311421.875,-0.1484375,0.97119140625,0.287109375,0.03051757626235485,-0.7934569716453552,1.2512205839157104,100.0,108004.0,1.0
1163018.5074957,304067.34375,317793.53125,347964.03125,331103.28125,309127.78125,299272.09375,317516.90625,312140.0625,-0.147705078125,0.971923828125,0.28515625,0.1831054538488388,-0.7324218153953552,1.0070799589157104,100.0,108005.0,1.0
1163018.5075526,303524.90625,317883.5,347858.53125,330873.59375,309327.5,299622.8125,317962.15625,312849.25,-0.14404296875,0.969970703125,0.287109375,0.2441406100988388,-0.6103515028953552,0.9460448622703552,100.0,108006.0,1.0
1163018.5137556,304284.25,317832.4375,348301.78125,331398.0625,309317.3125,299506.875,317800.78125,312640.21875,-0.143310546875,0.970458984375,0.28369140625,0.2136230319738388,-0.4882812201976776,0.8850097060203552,100.0,108007.0,1.0
1163018.5138078,305280.5,317698.21875,348656.46875,331921.53125,309094.34375,299067.15625,317227.875,311767.59375,-0.142333984375,0.973388671875,0.28369140625,0.3356933295726776,-0.4882812201976776,0.6103515028953552,100.0,108008.0,1.0
1163018.5219591,305128.0625,317666.6875,348393.34375,331700.4375,308958.25,298902.375,317024.90625,311418.5625,-0.143310546875,0.97265625,0.283935546875,0.3662109076976776,-0.4272460639476776,0.5187987685203552,100.0,108009.0,1.0
1163018.5287883,304073.875,317788.71875,347957.75,331106.0625,309123.125,299260.09375,317509.3125,312127.375,-0.142822265625,0.97314453125,0.283203125,0.4882812201976776,-0.3356933295726776,0.5493163466453552,100.0,108010.0,1.0
1163018.5288384,303516.40625,317885.8125,347849.125,330868.5,309325.90625,299620.3125,317963.5,312848.0,-0.1396484375,0.975341796875,0.27978515625,0.4272460639476776,-0.1525878757238388,0.3967284858226776,100.0,108011.0,1.0
1163018.5312761,304265.09375,317841.1875,348298.21875,331392.0625,309326.53125,299520.8125,317815.96875,312657.90625,-0.140380859375,0.976806640625,0.28076171875,0.5493163466453552,-0.0610351525247097,0.3967284858226776,100.0,108012.0,1.0
1163018.5313334,305271.46875,317705.28125,348663.96875,331921.71875,309105.96875,299083.4375,317244.9375,311790.125,-0.141845703125,0.980224609375,0.28076171875,0.4577636420726776,0.0610351525247097,0.4577636420726776,100.0,108013.0,1.0
1163018.5469546,305141.5625,317669.71875,348410.25,331712.0625,308968.28125,298913.03125,317035.1875,311426.15625,-0.140869140625,0.984130859375,0.280517578125,0.3662109076976776,0.1525878757238388,0.3967284858226776,100.0,108014.0,1.0
1163018.5518666,304094.96875,317790.9375,347976.28125,331120.71875,309130.8125,299266.34375,317513.15625,312123.15625,-0.145263671875,0.984619140625,0.2822265625,0.4272460639476776,0.2746581733226776,0.4882812201976776,100.0,108015.0,1.0
1163018.5519259,303518.65625,317886.34375,347858.78125,330868.25,309332.0625,299625.6875,317968.5,312848.25,-0.146728515625,0.986572265625,0.281982421875,0.3356933295726776,0.3662109076976776,0.5493163466453552,100.0,108016.0,1.0
1163018.5519426,304250.96875,317842.96875,348300.1875,331377.5,309333.0625,299529.75,317825.8125,312667.9375,-0.14697265625,0.985107421875,0.28271484375,0.1831054538488388,0.3967284858226776,0.4882812201976776,100.0,108017.0,1.0
1163018.5550245,305262.15625,317701.4375,348663.71875,331911.875,309107.21875,299087.0,317248.96875,311796.75,-0.145751953125,0.9853515625,0.2822265625,0.0915527269244194,0.4272460639476776,0.5493163466453552,100.0,108018.0,1.0
1163018.5550928,305150.3125,317661.9375,348411.9375,331708.9375,308958.4375,298901.5,317019.28125,311411.3125,-0.1455078125,0.981689453125,0.28125,-0.03051757626235485,0.4882812201976776,0.5187987685203552,100.0,108019.0,1.0
1163018.5682422,304113.5625,317786.21875,347976.71875,331119.125,309118.03125,299250.0,317490.53125,312100.375,-0.142822265625,0.977294921875,0.279052734375,-0.2441406100988388,0.4882812201976776,0.6713866591453552,100.0,108020.0,1.0
1163018.573213,303523.5625,317887.15625,347849.65625,330860.625,309322.3125,299617.1875,317957.0625,312838.78125,-0.141357421875,0.9736328125,0.276611328125,-0.2136230319738388,0.4882812201976776,0.8239745497703552,100.0,108021.0,1.0
1163018.5732622,304237.3125,317844.5,348281.15625,331361.84375,309323.21875,299520.90625,317820.28125,312669.0,-0.1416015625,0.97119140625,0.277587890625,-0.0915527269244194,0.6408690810203552,0.9460448622703552,100.0,108022.0,1.0
1163018.573276,305284.0625,317732.03125,348682.65625,331931.65625,309127.40625,299102.75,317265.0625,311820.15625,-0.14453125,0.97412109375,0.275390625,0.0610351525247097,0.9155272841453552,1.1596678495407104,100.0,108023.0,1.0
1163018.5757041,305192.96875,317691.25,348440.375,331739.0625,308978.375,298912.75,317028.9375,311418.90625,-0.1494140625,0.975830078125,0.27783203125,0.2441406100988388,0.9155272841453552,1.2207030057907104,100.0,108024.0,1.0
1163018.5894602,304144.9375,317798.375,347987.875,331134.9375,309118.65625,299243.28125,317482.6875,312081.96875,-0.152099609375,0.97705078125,0.281005859375,0.3662109076976776,0.8239745497703552,1.3122557401657104,100.0,108025.0,1.0
1163018.5943924,303543.21875,317901.90625,347862.28125,330872.34375,309332.34375,299620.15625,317962.25,312836.46875,-0.1533203125,0.977783203125,0.279296875,0.5493163466453552,0.8544921278953552,1.2512205839157104,100.0,108026.0,1.0
1163018.5944476,304235.15625,317855.9375,348280.875,331359.34375,309335.1875,299533.6875,317836.09375,312681.53125,-0.15576171875,0.9765625,0.279052734375,0.5493163466453552,0.7629393935203552,1.1596678495407104,100.0,108027.0,1.0
1163018.594465,305264.21875,317718.25,348659.6875,331910.71875,309117.9375,299097.65625,317266.3125,311815.875,-0.15234375,0.976318359375,0.27880859375,0.6713866591453552,0.6103515028953552,1.0986326932907104,100.0,108028.0,1.0
1163018.5982325,305192.6875,317678.125,348429.5625,331735.5,308972.03125,298907.46875,317026.78125,311407.90625,-0.150146484375,0.977783203125,0.28271484375,0.7324218153953552,0.6103515028953552,1.1596678495407104,100.0,108029.0,1.0
1163018.6019369,304156.84375,317793.375,347984.84375,331137.625,309119.46875,299241.0625,317480.71875,312069.09375,-0.15185546875,0.978759765625,0.281494140625,0.7934569716453552,0.5798339247703552,1.1596678495407104,100.0,108030.0,1.0
1163018.6162787,303539.9375,317901.375,347852.71875,330864.75,309334.65625,299622.1875,317966.28125,312830.46875,-0.151123046875,0.97998046875,0.280029296875,0.7934569716453552,0.4882812201976776,1.1901854276657104,100.0,108031.0,1.0
1163018.6163289,304211.09375,317854.25,348262.09375,331338.15625,309337.34375,299540.46875,317843.25,312687.0625,-0.152587890625,0.98388671875,0.2822265625,0.6408690810203552,0.3662109076976776,1.1291502714157104,100.0,108032.0,1.0
1163018.6187801,305250.46875,317718.53125,348649.59375,331899.625,309122.21875,299108.03125,317276.40625,311826.15625,-0.15283203125,0.988525390625,0.28369140625,0.5187987685203552,0.2441406100988388,1.2512205839157104,100.0,108033.0,1.0
1163018.6188399,305198.34375,317672.75,348422.59375,331730.5625,308965.21875,298903.0,317023.375,311395.84375,-0.15478515625,0.989013671875,0.282470703125,0.4577636420726776,0.1831054538488388,1.0681151151657104,100.0,108034.0,1.0
1163018.6294587,304182.5,317796.21875,347989.0625,331146.46875,309120.25,299238.09375,317478.65625,312053.625,-0.155029296875,0.9912109375,0.28271484375,0.2441406100988388,0.1220703050494194,0.9155272841453552,100.0,108035.0,1.0
1163018.6325278,303547.875,317905.46875,347850.90625,330867.96875,309338.9375,299624.34375,317968.0625,312824.65625,-0.154296875,0.991943359375,0.27783203125,0.0915527269244194,0.0915527269244194,0.9765624403953552,100.0,108036.0,1.0
1163018.6325789,304187.0625,317849.96875,348238.3125,331321.625,309334.3125,299536.71875,317844.3125,312684.8125,-0.154541015625,0.987548828125,0.279296875,-0.03051757626235485,-0.1525878757238388,0.8850097060203552,100.0,108037.0,1.0
1163018.6344302,305232.5625,317716.21875,348626.6875,331887.125,309120.09375,299101.59375,317276.21875,311825.09375,-0.154052734375,0.984130859375,0.280517578125,-0.2441406100988388,-0.2136230319738388,0.7629393935203552,100.0,108038.0,1.0
1163018.6487762,305204.0625,317671.78125,348415.6875,331735.3125,308966.65625,298892.71875,317012.75,311386.90625,-0.15234375,0.981689453125,0.2802734375,-0.2441406100988388,-0.2441406100988388,0.7324218153953552,100.0,108039.0,1.0
1163018.6488311,304185.0,317794.25,347980.1875,331148.0,309113.28125,299224.0625,317459.6875,312031.53125,-0.150634765625,0.980224609375,0.281005859375,-0.3662109076976776,-0.3051757514476776,0.7324218153953552,100.0,108040.0,1.0
1163018.6506596,303525.78125,317900.65625,347819.1875,330844.375,309319.09375,299609.59375,317946.875,312798.46875,-0.149658203125,0.979248046875,0.27880859375,-0.4577636420726776,-0.3356933295726776,0.6713866591453552,100.0,108041.0,1.0
1163018.653229,304157.28125,317850.03125,348205.40625,331291.59375,309319.375,299532.0,317833.25,312675.4375,-0.149169921875,0.978759765625,0.27880859375,-0.4882812201976776,-0.3967284858226776,0.6713866591453552,100.0,108042.0,1.0
1163018.6557105,305208.09375,317710.21875,348601.65625,331864.5,309102.5625,299089.6875,317259.875,311816.40625,-0.145263671875,0.9775390625,0.279296875,-0.6408690810203552,-0.4577636420726776,0.7934569716453552,100.0,108043.0,1.0
1163018.6594558,305198.96875,317665.5,348393.0,331721.625,308944.84375,298877.53125,316991.46875,311365.96875,-0.14501953125,0.9755859375,0.27880859375,-0.6103515028953552,-0.3662109076976776,0.8850097060203552,100.0,108044.0,1.0
1163018.6712868,304186.5,317783.53125,347957.5,331137.8125,309091.8125,299208.59375,317439.59375,312002.125,-0.143310546875,0.97412109375,0.27783203125,-0.6713866591453552,-0.2441406100988388,0.8239745497703552,100.0,108045.0,1.0
1163018.6713365,303517.84375,317892.15625,347798.78125,330833.8125,309310.4375,299599.84375,317940.4375,312782.8125,-0.146240234375,0.97265625,0.279052734375,-0.6103515028953552,-0.2441406100988388,1.0070799589157104,100.0,108046.0,1.0
1163018.6737746,304137.34375,317853.96875,348188.25,331279.5,309327.78125,299541.8125,317848.78125,312685.28125,-0.14892578125,0.971923828125,0.27587890625,-0.4577636420726776,-0.1831054538488388,0.9765624403953552,100.0,108047.0,1.0
1163018.6738256,305191.28125,317715.5,348594.78125,331858.96875,309116.0625,299107.40625,317284.0,311834.75,-0.148193359375,0.97314453125,0.276611328125,-0.3051757514476776,-0.1831054538488388,0.8850097060203552,100.0,108048.0,1.0
1163018.6757055,305184.75,317650.3125,348380.5625,331710.625,308935.90625,298868.21875,316988.25,311351.3125,-0.146728515625,0.972412109375,0.279052734375,-0.1525878757238388,-0.0915527269244194,0.9155272841453552,100.0,108049.0,1.0
1163018.6894547,304182.3125,317768.78125,347942.125,331126.96875,309077.0,299191.875,317421.0625,311971.1875,-0.1494140625,0.974365234375,0.278564453125,-0.1831054538488388,-0.1831054538488388,0.9765624403953552,100.0,108050.0,1.0
1163018.6925501,303516.125,317890.8125,347789.21875,330827.5625,309306.75,299598.3125,317935.15625,312770.125,-0.1494140625,0.974853515625,0.2802734375,-0.1831054538488388,-0.2441406100988388,1.1596678495407104,100.0,108051.0,1.0
1163018.6925995,304111.6875,317846.8125,348161.6875,331255.375,309314.4375,299535.28125,317840.75,312674.90625,-0.149658203125,0.975341796875,0.280029296875,-0.0915527269244194,-0.1831054538488388,0.9460448622703552,100.0,108052.0,1.0
1163018.6944126,305179.8125,317712.4375,348575.84375,331843.65625,309108.0,299108.03125,317281.5,311830.28125,-0.1494140625,0.97607421875,0.27734375,-0.1525878757238388,-0.2136230319738388,1.0375975370407104,100.0,108053.0,1.0
1163018.6969593,305215.9375,317665.59375,348392.46875,331728.6875,308950.125,298885.5625,316999.875,311358.125,-0.150146484375,0.97705078125,0.27734375,-0.1831054538488388,-0.1831054538488388,0.9765624403953552,100.0,108054.0,1.0
1163018.7006593,304212.625,317774.78125,347947.84375,331140.03125,309079.75,299191.15625,317418.75,311960.625,-0.150390625,0.978515625,0.279541015625,-0.1220703050494194,-0.3051757514476776,0.9460448622703552,100.0,108055.0,1.0
1163018.7069242,303507.5625,317881.0625,347769.90625,330810.5625,309292.09375,299582.5,317919.96875,312748.21875,-0.15234375,0.980712890625,0.280517578125,-0.1525878757238388,-0.3662109076976776,0.9765624403953552,100.0,108056.0,1.0
1163018.7156371,304093.34375,317851.375,348148.65625,331241.5,309319.8125,299539.40625,317848.0,312684.75,-0.152099609375,0.97998046875,0.28271484375,0.0,-0.3356933295726776,0.9155272841453552,100.0,108057.0,1.0
1163018.7187352,305159.71875,317711.28125,348568.125,331833.9375,309112.46875,299110.625,317286.875,311844.03125,-0.152099609375,0.98046875,0.283447265625,-0.03051757626235485,-0.3967284858226776,0.7934569716453552,100.0,108058.0,1.0
1163018.7187882,305210.03125,317654.4375,348390.75,331726.375,308943.6875,298875.125,316991.125,311350.6875,-0.152587890625,0.97705078125,0.283203125,-0.03051757626235485,-0.4272460639476776,0.8544921278953552,100.0,108059.0,1.0
1163018.7244574,304227.28125,317776.8125,347952.3125,331148.09375,309079.65625,299188.21875,317414.46875,311950.0,-0.15185546875,0.977294921875,0.280029296875,0.0,-0.4882812201976776,0.7019042372703552,100.0,108060.0,1.0
1163018.7287715,303514.1875,317890.0,347764.625,330809.78125,309296.21875,299586.4375,317925.3125,312747.9375,-0.14990234375,0.9775390625,0.28369140625,-0.0610351525247097,-0.5798339247703552,0.6713866591453552,100.0,108061.0,1.0
1163018.7288214,304065.46875,317839.9375,348118.25,331212.46875,309308.90625,299535.5625,317849.5,312679.09375,-0.150146484375,0.978515625,0.2802734375,-0.03051757626235485,-0.6103515028953552,0.6713866591453552,100.0,108062.0,1.0
1163018.7319599,305149.0625,317709.78125,348550.4375,331822.125,309114.0,299117.40625,317299.84375,311848.96875,-0.1484375,0.977783203125,0.2822265625,0.0610351525247097,-0.5798339247703552,0.5493163466453552,100.0,108063.0,1.0
1163018.7462402,305220.0625,317654.59375,348380.125,331728.6875,308944.5625,298874.65625,316992.90625,311342.28125,-0.14892578125,0.976806640625,0.28125,0.0915527269244194,-0.6103515028953552,0.5493163466453552,100.0,108064.0,1.0
1163018.7462918,304220.5625,317751.875,347915.65625,331128.59375,309053.46875,299156.03125,317381.03125,311907.6875,-0.149658203125,0.97607421875,0.28076171875,0.0610351525247097,-0.5798339247703552,0.6408690810203552,100.0,108065.0,1.0
1163018.7482314,303495.75,317867.21875,347723.5,330784.28125,309276.53125,299561.5,317899.125,312715.75,-0.151123046875,0.979248046875,0.28125,0.2136230319738388,-0.7019042372703552,0.5187987685203552,100.0,108066.0,1.0
1163018.7506567,304064.28125,317852.8125,348104.125,331212.53125,309326.78125,299548.78125,317865.6875,312694.75,-0.14990234375,0.978271484375,0.2783203125,0.3051757514476776,-0.6713866591453552,0.5187987685203552,100.0,108067.0,1.0
1163018.7569141,305151.84375,317722.5625,348548.46875,331827.5625,309131.15625,299132.875,317320.65625,311873.375,-0.14794921875,0.978515625,0.280517578125,0.3662109076976776,-0.7324218153953552,0.5187987685203552,100.0,108068.0,1.0
1163018.7662993,305229.96875,317652.625,348382.96875,331732.4375,308944.75,298873.15625,316993.71875,311346.40625,-0.147705078125,0.97998046875,0.279541015625,0.3967284858226776,-0.5798339247703552,0.5187987685203552,100.0,108069.0,1.0
1163018.7663517,304243.09375,317753.125,347935.0625,331144.6875,309058.375,299155.84375,317382.34375,311905.09375,-0.14697265625,0.981201171875,0.281005859375,0.4272460639476776,-0.5187987685203552,0.5798339247703552,100.0,108070.0,1.0
1163018.7687751,303493.875,317864.71875,347734.15625,330785.90625,309274.3125,299557.28125,317896.625,312712.8125,-0.1474609375,0.9814453125,0.279541015625,0.3662109076976776,-0.5187987685203552,0.5798339247703552,100.0,108071.0,1.0
1163018.7688323,304029.15625,317842.53125,348090.25,331188.21875,309310.4375,299535.5625,317854.6875,312692.96875,-0.147705078125,0.97900390625,0.279296875,0.3967284858226776,-0.4272460639476776,0.6103515028953552,100.0,108072.0,1.0
1163018.7793702,305123.9375,317717.625,348541.75,331815.6875,309121.875,299128.5,317318.34375,311882.3125,-0.1484375,0.978515625,0.280029296875,0.4272460639476776,-0.3662109076976776,0.5187987685203552,100.0,108073.0,1.0
1163018.7824025,305235.53125,317656.75,348399.875,331748.09375,308951.375,298878.6875,316997.625,311354.375,-0.148193359375,0.978759765625,0.279541015625,0.3662109076976776,-0.2136230319738388,0.5798339247703552,100.0,108074.0,1.0
1163018.7824323,304265.1875,317761.1875,347958.125,331167.5,309068.65625,299161.40625,317385.21875,311903.6875,-0.14794921875,0.977294921875,0.2802734375,0.4272460639476776,-0.2441406100988388,0.5187987685203552,100.0,108075.0,1.0
1163018.7931499,303509.53125,317873.46875,347754.09375,330803.40625,309285.46875,299564.0,317905.65625,312717.28125,-0.1494140625,0.979248046875,0.27978515625,0.3967284858226776,-0.3051757514476776,0.5493163466453552,100.0,108076.0,1.0
1163018.7962804,304031.65625,317860.25,348111.625,331202.0,309331.34375,299558.28125,317881.53125,312719.59375,-0.148681640625,0.9794921875,0.283203125,0.3051757514476776,-0.3356933295726776,0.5493163466453552,100.0,108077.0,1.0
1163018.796335,305122.59375,317726.40625,348561.53125,331825.4375,309137.15625,299143.96875,317338.625,311905.90625,-0.149169921875,0.981201171875,0.280029296875,0.3356933295726776,-0.2441406100988388,0.4577636420726776,100.0,108078.0,1.0
1163018.7982331,305262.34375,317670.53125,348430.53125,331773.5,308965.5,298890.03125,317010.25,311370.1875,-0.150146484375,0.98046875,0.278076171875,0.2746581733226776,-0.2441406100988388,0.4272460639476776,100.0,108079.0,1.0
1163018.8075247,304295.40625,317765.65625,347982.53125,331189.75,309070.0,299157.625,317378.15625,311900.5625,-0.1513671875,0.97900390625,0.279296875,0.3662109076976776,-0.1831054538488388,0.4272460639476776,100.0,108080.0,1.0
1163018.8075789,303508.09375,317865.0625,347755.0625,330800.125,309273.6875,299548.96875,317887.34375,312705.65625,-0.1513671875,0.979248046875,0.2783203125,0.2441406100988388,-0.3356933295726776,0.3967284858226776,100.0,108081.0,1.0
1163018.8162775,304006.28125,317847.53125,348103.125,331185.0,309324.46875,299551.84375,317874.09375,312723.53125,-0.14990234375,0.977294921875,0.27783203125,0.0915527269244194,-0.4272460639476776,0.3662109076976776,100.0,108082.0,1.0
1163018.8163313,305112.875,317725.875,348566.53125,331820.96875,309141.4375,299149.875,317341.21875,311923.0,-0.149658203125,0.97705078125,0.281494140625,0.1831054538488388,-0.3662109076976776,0.1831054538488388,100.0,108083.0,1.0
1163018.8182358,305257.78125,317656.5625,348427.3125,331765.09375,308952.34375,298877.78125,316992.8125,311356.96875,-0.1513671875,0.97705078125,0.280029296875,0.2136230319738388,-0.3967284858226776,0.1831054538488388,100.0,108084.0,1.0
1163018.8219574,304298.53125,317749.1875,347979.5625,331187.25,309055.0,299143.78125,317360.71875,311878.03125,-0.15283203125,0.9765625,0.281005859375,0.1220703050494194,-0.4577636420726776,0.1831054538488388,100.0,108085.0,1.0
1163018.8262989,303516.0625,317868.8125,347761.78125,330808.96875,309277.875,299556.84375,317895.28125,312706.65625,-0.153076171875,0.975830078125,0.28125,0.1831054538488388,-0.5187987685203552,0.03051757626235485,100.0,108086.0,1.0
1163018.8263513,303999.65625,317857.90625,348100.90625,331183.40625,309331.96875,299564.4375,317888.75,312735.34375,-0.153076171875,0.975830078125,0.27978515625,0.0915527269244194,-0.5493163466453552,0.0,100.0,108087.0,1.0
1163018.8400739,305113.9375,317738.28125,348578.25,331828.46875,309156.375,299167.03125,317363.125,311944.90625,-0.1533203125,0.976806640625,0.28173828125,0.1220703050494194,-0.6408690810203552,-0.0610351525247097,100.0,108088.0,1.0
1163018.8401243,305278.34375,317663.46875,348449.3125,331784.40625,308962.0,298882.71875,317000.84375,311365.96875,-0.153076171875,0.974365234375,0.281494140625,0.2136230319738388,-0.6408690810203552,-0.1525878757238388,100.0,108089.0,1.0
1163018.8419591,304320.90625,317753.21875,347991.65625,331200.46875,309052.59375,299130.71875,317345.6875,311860.40625,-0.15234375,0.97412109375,0.277099609375,0.2136230319738388,-0.6408690810203552,-0.1525878757238388,100.0,108090.0,1.0
1163018.8444154,303522.21875,317870.6875,347764.0,330809.6875,309273.9375,299544.5,317879.28125,312690.71875,-0.15380859375,0.97265625,0.279541015625,0.2136230319738388,-0.7324218153953552,-0.1525878757238388,100.0,108091.0,1.0
1163018.8482466,303984.1875,317855.40625,348094.71875,331173.125,309329.375,299556.21875,317883.21875,312736.5,-0.15234375,0.971923828125,0.278564453125,0.3356933295726776,-0.7019042372703552,-0.1525878757238388,100.0,108092.0,1.0
1163018.8625778,305088.71875,317727.28125,348561.875,331815.59375,309147.53125,299154.25,317355.28125,311947.03125,-0.1533203125,0.971923828125,0.28271484375,0.3356933295726776,-0.7629393935203552,0.0610351525247097,100.0,108093.0,1.0
1163018.862628,305275.3125,317652.8125,348442.6875,331788.9375,308956.1875,298873.15625,316995.5,311365.90625,-0.154052734375,0.97265625,0.278076171875,0.3051757514476776,-0.8850097060203552,0.0610351525247097,100.0,108094.0,1.0
1163018.8874042,304338.15625,317749.65625,347993.0625,331215.59375,309055.09375,299128.5,317346.40625,311859.40625,-0.154541015625,0.976318359375,0.2783203125,0.3051757514476776,-0.9155272841453552,0.03051757626235485,100.0,108095.0,1.0
1163018.8874614,303529.65625,317873.1875,347758.46875,330816.375,309281.1875,299549.875,317886.96875,312694.03125,-0.152587890625,0.977783203125,0.278076171875,0.3051757514476776,-0.9460448622703552,0.1220703050494194,100.0,108096.0,1.0
1163018.8944844,303971.40625,317862.90625,348079.09375,331164.53125,309338.15625,299573.125,317896.625,312747.6875,-0.152099609375,0.9775390625,0.280029296875,0.3356933295726776,-0.8850097060203552,0.1831054538488388,100.0,108097.0,1.0
1163018.8969228,305072.8125,317724.78125,348548.28125,331803.53125,309150.5625,299163.625,317362.6875,311955.625,-0.152099609375,0.97802734375,0.278076171875,0.3051757514476776,-0.8544921278953552,0.2746581733226776,100.0,108098.0,1.0
1163018.8994561,305304.375,317672.65625,348466.75,331814.875,308980.4375,298898.0,317019.625,311385.9375,-0.152099609375,0.9794921875,0.279296875,0.1220703050494194,-0.8850097060203552,0.3051757514476776,100.0,108099.0,1.0
1163018.9019674,304362.65625,317755.1875,348004.96875,331232.84375,309060.625,299133.78125,317347.65625,311851.1875,-0.150634765625,0.980712890625,0.283203125,0.03051757626235485,-0.9155272841453552,0.3967284858226776,100.0,108100.0,1.0
1163018.9044116,303519.90625,317864.4375,347743.1875,330807.4375,309271.1875,299542.1875,317875.71875,312674.375,-0.15234375,0.98095703125,0.28173828125,0.0,-1.0070799589157104,0.4882812201976776,100.0,108101.0,1.0
1163018.9070001,303940.71875,317855.59375,348050.65625,331142.1875,309331.25,299570.25,317895.09375,312743.9375,-0.1513671875,0.982177734375,0.280517578125,-0.1220703050494194,-1.0070799589157104,0.6103515028953552,100.0,108102.0,1.0
1163018.9094148,305063.0625,317734.8125,348547.9375,331802.8125,309162.5625,299181.25,317385.40625,311979.5,-0.152587890625,0.980712890625,0.281005859375,-0.2746581733226776,-1.0375975370407104,0.6408690810203552,100.0,108103.0,1.0
1163018.9119033,305295.4375,317659.96875,348463.53125,331807.46875,308970.40625,298890.9375,317014.1875,311380.75,-0.149658203125,0.981689453125,0.28125,-0.4272460639476776,-1.0070799589157104,0.6713866591453552,100.0,108104.0,1.0
1163018.9144134,304374.8125,317751.625,348013.625,331237.59375,309057.9375,299130.8125,317342.75,311840.46875,-0.15087890625,0.98291015625,0.279541015625,-0.4577636420726776,-1.0375975370407104,0.7324218153953552,100.0,108105.0,1.0
1163018.9168993,303528.46875,317869.0,347751.5,330810.65625,309273.0625,299545.3125,317877.59375,312673.46875,-0.150146484375,0.9814453125,0.279541015625,-0.5493163466453552,-0.9765624403953552,0.7324218153953552,100.0,108106.0,1.0
1163018.9194362,303929.75,317857.1875,348057.4375,331136.8125,309334.9375,299576.5,317903.4375,312757.5,-0.150634765625,0.980224609375,0.27490234375,-0.5798339247703552,-0.9765624403953552,0.8239745497703552,100.0,108107.0,1.0
1163018.9225563,305048.75,317729.96875,348553.3125,331797.625,309162.09375,299186.78125,317390.59375,311995.84375,-0.150146484375,0.980224609375,0.281494140625,-0.6103515028953552,-1.0681151151657104,0.7934569716453552,100.0,108108.0,1.0
1163018.9226154,305302.65625,317651.75,348480.53125,331816.9375,308967.09375,298888.625,317008.375,311386.46875,-0.1474609375,0.979736328125,0.281982421875,-0.6103515028953552,-1.0681151151657104,0.8850097060203552,100.0,108109.0,1.0
1163018.9244229,304393.03125,317739.8125,348030.90625,331252.25,309046.78125,299115.09375,317320.40625,311828.84375,-0.148193359375,0.98095703125,0.281982421875,-0.6408690810203552,-1.0070799589157104,0.8544921278953552,100.0,108110.0,1.0
1163018.9287518,303548.40625,317870.625,347777.6875,330829.15625,309275.375,299544.78125,317873.03125,312674.53125,-0.14990234375,0.98095703125,0.2841796875,-0.7629393935203552,-0.9765624403953552,0.8850097060203552,100.0,108111.0,1.0
1163018.9288057,303926.34375,317861.84375,348071.9375,331138.25,309339.5,299586.53125,317912.53125,312773.6875,-0.148681640625,0.980224609375,0.28271484375,-0.7934569716453552,-0.9460448622703552,0.7629393935203552,100.0,108112.0,1.0
1163018.9425617,305044.46875,317736.21875,348572.96875,331803.53125,309169.15625,299199.40625,317405.96875,312021.15625,-0.146728515625,0.98046875,0.28125,-0.6713866591453552,-0.9155272841453552,0.8544921278953552,100.0,108113.0,1.0
1163018.9426147,305325.90625,317664.71875,348517.96875,331845.28125,308984.28125,298907.5625,317028.9375,311410.875,-0.1474609375,0.9794921875,0.2822265625,-0.6408690810203552,-1.0375975370407104,0.8544921278953552,100.0,108114.0,1.0
1163018.9450089,304422.09375,317747.40625,348070.59375,331283.28125,309060.53125,299128.9375,317332.90625,311836.625,-0.147705078125,0.979736328125,0.279296875,-0.5798339247703552,-0.9765624403953552,0.8544921278953552,100.0,108115.0,1.0
1163018.9450669,303543.5,317859.625,347790.5625,330832.9375,309271.28125,299539.6875,317866.21875,312669.0,-0.145751953125,0.980712890625,0.2802734375,-0.7324218153953552,-0.9155272841453552,0.9155272841453552,100.0,108116.0,1.0
1163018.9556142,303910.78125,317860.5,348081.125,331138.78125,309346.90625,299596.0,317921.03125,312787.1875,-0.1455078125,0.98095703125,0.2802734375,-0.7324218153953552,-0.7019042372703552,0.8850097060203552,100.0,108117.0,1.0
1163018.9599454,305041.0625,317741.59375,348598.625,331817.84375,309190.1875,299220.65625,317429.75,312050.125,-0.144775390625,0.9814453125,0.281005859375,-0.8544921278953552,-0.7629393935203552,0.9765624403953552,100.0,108118.0,1.0
1163018.9599824,305335.5625,317661.3125,348544.0,331860.375,308990.1875,298909.96875,317030.8125,311418.65625,-0.14599609375,0.981689453125,0.282958984375,-0.7019042372703552,-0.7019042372703552,0.8544921278953552,100.0,108119.0,1.0
1163018.9661805,304446.25,317745.8125,348093.75,331297.5625,309061.15625,299122.0625,317326.9375,311831.25,-0.147216796875,0.981201171875,0.2822265625,-0.7934569716453552,-0.7324218153953552,0.8850097060203552,100.0,108120.0,1.0
1163018.9662152,303563.4375,317866.59375,347814.34375,330847.0625,309279.40625,299544.15625,317872.5,312676.15625,-0.148193359375,0.98193359375,0.28466796875,-0.7019042372703552,-0.6408690810203552,0.8544921278953552,100.0,108121.0,1.0
1163018.9800523,303904.53125,317864.96875,348086.6875,331138.15625,309350.75,299602.0,317928.375,312804.375,-0.147216796875,0.98193359375,0.283935546875,-0.7019042372703552,-0.7019042372703552,0.7629393935203552,100.0,108122.0,1.0
1163018.9801077,305026.9375,317741.3125,348599.96875,331812.90625,309188.46875,299224.4375,317437.4375,312070.40625,-0.147705078125,0.981201171875,0.285888671875,-0.7324218153953552,-0.6713866591453552,0.6103515028953552,100.0,108123.0,1.0
1163018.9825499,305346.5625,317663.28125,348567.6875,331874.6875,308995.71875,298915.4375,317038.15625,311433.40625,-0.146728515625,0.981201171875,0.283203125,-0.8239745497703552,-0.6713866591453552,0.5187987685203552,100.0,108124.0,1.0
1163018.9825995,304454.46875,317734.0,348106.71875,331304.09375,309052.9375,299112.125,317310.46875,311815.34375,-0.146728515625,0.9775390625,0.280517578125,-0.7934569716453552,-0.6408690810203552,0.4272460639476776,100.0,108125.0,1.0
1163018.9912253,303554.6875,317853.53125,347808.09375,330838.75,309264.03125,299529.21875,317848.4375,312654.53125,-0.144287109375,0.9755859375,0.282470703125,-0.7629393935203552,-0.6408690810203552,0.3967284858226776,100.0,108126.0,1.0
1163018.9912767,303883.875,317861.75,348076.59375,331122.25,309345.125,299598.40625,317919.34375,312802.03125,-0.142333984375,0.97412109375,0.282470703125,-0.7019042372703552,-0.5493163466453552,0.3662109076976776,100.0,108127.0,1.0
1163019.0013056,305006.03125,317738.1875,348588.25,331795.46875,309185.71875,299225.40625,317430.0,312073.625,-0.14111328125,0.968994140625,0.279052734375,-0.6103515028953552,-0.4882812201976776,0.3662109076976776,100.0,108128.0,1.0
1163019.0013556,305333.4375,317650.59375,348551.15625,331860.9375,308985.4375,298906.21875,317020.625,311418.09375,-0.1396484375,0.96630859375,0.280029296875,-0.3967284858226776,-0.3662109076976776,0.4272460639476776,100.0,108129.0,1.0
1163019.0100706,304463.84375,317726.125,348100.375,331308.5625,309049.625,299102.21875,317294.21875,311795.6875,-0.140380859375,0.965087890625,0.280029296875,-0.3051757514476776,-0.2136230319738388,0.4882812201976776,100.0,108130.0,1.0
1163019.0101238,303562.1875,317851.125,347803.53125,330842.40625,309270.65625,299529.40625,317846.75,312644.25,-0.141845703125,0.96533203125,0.27783203125,0.03051757626235485,-0.1525878757238388,0.6408690810203552,100.0,108131.0,1.0
1163019.0163018,303871.25,317866.5,348069.0625,331114.28125,309356.90625,299611.1875,317935.0625,312812.3125,-0.141357421875,0.96728515625,0.276123046875,0.1831054538488388,-0.1525878757238388,0.6713866591453552,100.0,108132.0,1.0
1163019.0163561,305002.25,317751.875,348599.53125,331802.90625,309209.40625,299251.53125,317462.125,312103.5,-0.142333984375,0.96826171875,0.27587890625,0.3967284858226776,-0.0915527269244194,0.6408690810203552,100.0,108133.0,1.0
1163019.0250089,305348.4375,317657.09375,348566.625,331876.5625,308997.40625,298914.8125,317034.375,311430.8125,-0.14306640625,0.97265625,0.278076171875,0.6103515028953552,0.0610351525247097,0.7019042372703552,100.0,108134.0,1.0
1163019.0250588,304483.96875,317725.40625,348108.6875,331319.03125,309048.03125,299093.71875,317287.9375,311786.28125,-0.14501953125,0.97216796875,0.2763671875,0.7019042372703552,0.1525878757238388,0.6713866591453552,100.0,108135.0,1.0
1163019.0275663,303565.59375,317848.875,347801.5625,330842.65625,309261.96875,299516.78125,317836.1875,312633.96875,-0.146728515625,0.972900390625,0.276611328125,0.8544921278953552,0.1220703050494194,0.6103515028953552,100.0,108136.0,1.0
1163019.0276203,303851.3125,317858.90625,348056.1875,331099.1875,309348.4375,299603.34375,317929.875,312812.0625,-0.148681640625,0.97412109375,0.27490234375,0.9460448622703552,0.0610351525247097,0.5798339247703552,100.0,108137.0,1.0
1163019.0407055,304973.75,317740.15625,348575.375,331779.125,309196.53125,299238.09375,317453.96875,312100.0,-0.148681640625,0.97802734375,0.275634765625,1.0681151151657104,0.03051757626235485,0.4882812201976776,100.0,108138.0,1.0
1163019.0438027,305345.9375,317650.3125,348556.96875,331869.6875,308989.46875,298907.03125,317027.59375,311422.75,-0.15087890625,0.98046875,0.273681640625,1.0986326932907104,0.03051757626235485,0.3967284858226776,100.0,108139.0,1.0
1163019.0438584,304501.75,317725.25,348114.59375,331327.78125,309044.09375,299088.875,317284.28125,311774.9375,-0.15087890625,0.9814453125,0.274658203125,1.0375975370407104,0.03051757626235485,0.3356933295726776,100.0,108140.0,1.0
1163019.0463251,303574.15625,317850.3125,347806.9375,330847.84375,309261.875,299515.28125,317839.40625,312628.9375,-0.153564453125,0.98486328125,0.27783203125,0.8850097060203552,-0.0610351525247097,0.2441406100988388,100.0,108141.0,1.0
1163019.0463748,303836.125,317858.1875,348043.9375,331091.75,309346.90625,299603.78125,317938.03125,312816.6875,-0.155517578125,0.986328125,0.279052734375,0.7934569716453552,-0.1831054538488388,0.1525878757238388,100.0,108142.0,1.0
1163019.0594567,304966.9375,317743.75,348574.84375,331784.46875,309204.125,299248.125,317471.78125,312122.28125,-0.154541015625,0.988037109375,0.277587890625,0.7324218153953552,-0.3662109076976776,-0.1220703050494194,100.0,108143.0,1.0
1163019.0619582,305371.78125,317669.0,348583.53125,331899.28125,309011.90625,298924.71875,317050.9375,311449.03125,-0.15380859375,0.990966796875,0.279541015625,0.3967284858226776,-0.4577636420726776,-0.1220703050494194,100.0,108144.0,1.0
1163019.0644545,304533.9375,317738.1875,348135.40625,331352.75,309056.4375,299094.59375,317291.78125,311776.71875,-0.15380859375,0.991943359375,0.279296875,0.1831054538488388,-0.5798339247703552,-0.2746581733226776,100.0,108145.0,1.0
1163019.0669339,303594.625,317863.625,347816.6875,330861.96875,309273.40625,299522.25,317847.09375,312627.78125,-0.153076171875,0.989990234375,0.2783203125,-0.0610351525247097,-0.6408690810203552,-0.3967284858226776,100.0,108146.0,1.0
1163019.0706592,303822.90625,317865.0625,348031.4375,331080.21875,309351.65625,299608.15625,317942.9375,312817.6875,-0.153564453125,0.98779296875,0.280517578125,-0.2441406100988388,-0.7629393935203552,-0.5187987685203552,100.0,108147.0,1.0
1163019.0775571,304951.75,317753.9375,348566.4375,331772.40625,309211.8125,299259.90625,317480.875,312131.03125,-0.15283203125,0.9873046875,0.28076171875,-0.5187987685203552,-0.9460448622703552,-0.4272460639476776,100.0,108148.0,1.0
1163019.0776137,305354.09375,317651.90625,348562.875,331881.5,308995.53125,298914.09375,317035.71875,311428.125,-0.15234375,0.98779296875,0.28076171875,-0.7019042372703552,-0.8850097060203552,-0.4272460639476776,100.0,108149.0,1.0
1163019.0888014,304532.15625,317716.90625,348119.3125,331344.78125,309037.5625,299078.0625,317270.875,311744.1875,-0.150390625,0.989013671875,0.28076171875,-0.9460448622703552,-0.8850097060203552,-0.4272460639476776,100.0,108150.0,1.0
1163019.0888525,303587.75,317843.4375,347795.5,330848.40625,309252.3125,299501.6875,317824.21875,312596.03125,-0.1484375,0.986328125,0.28173828125,-1.0070799589157104,-0.9765624403953552,-0.3662109076976776,100.0,108151.0,1.0
1163019.0907088,303814.65625,317862.46875,348020.625,331072.28125,309348.5,299606.09375,317943.75,312815.71875,-0.1474609375,0.98583984375,0.281494140625,-1.1596678495407104,-0.8850097060203552,-0.2136230319738388,100.0,108152.0,1.0
1163019.1019674,304932.53125,317745.09375,348550.53125,331760.6875,309205.65625,299254.5625,317481.15625,312132.8125,-0.147216796875,0.984130859375,0.28125,-1.3427733182907104,-0.8850097060203552,-0.0610351525247097,100.0,108153.0,1.0
1163019.1050545,305358.375,317649.875,348554.5625,331883.90625,308988.375,298906.3125,317029.1875,311424.53125,-0.14599609375,0.980712890625,0.28076171875,-1.3122557401657104,-0.8239745497703552,0.0610351525247097,100.0,108154.0,1.0
1163019.1051117,304554.59375,317721.5625,348115.125,331358.625,309034.4375,299073.15625,317260.0625,311734.0625,-0.14697265625,0.98046875,0.282470703125,-1.3427733182907104,-0.7629393935203552,0.2136230319738388,100.0,108155.0,1.0
1163019.1069458,303600.625,317849.34375,347791.90625,330862.53125,309258.5625,299508.375,317828.21875,312598.1875,-0.14697265625,0.9794921875,0.280029296875,-1.3427733182907104,-0.7324218153953552,0.3051757514476776,100.0,108156.0,1.0
1163019.1095072,303791.6875,317857.65625,347994.6875,331059.125,309347.0,299609.78125,317945.34375,312819.375,-0.146484375,0.978271484375,0.281494140625,-1.2207030057907104,-0.6713866591453552,0.4882812201976776,100.0,108157.0,1.0
1163019.118232,304920.1875,317750.625,348537.21875,331756.0625,309217.0,299270.5625,317495.71875,312153.65625,-0.150146484375,0.975341796875,0.2822265625,-1.2207030057907104,-0.6713866591453552,0.6408690810203552,100.0,108158.0,1.0
1163019.1213006,305373.65625,317657.5625,348566.4375,331898.65625,309007.4375,298924.03125,317048.59375,311444.21875,-0.150390625,0.974609375,0.28369140625,-1.1596678495407104,-0.6103515028953552,0.8850097060203552,100.0,108159.0,1.0
1163019.121356,304587.6875,317728.8125,348133.4375,331381.0,309048.09375,299080.5625,317271.40625,311737.1875,-0.150634765625,0.9736328125,0.28369140625,-1.0681151151657104,-0.6103515028953552,1.0375975370407104,100.0,108160.0,1.0
1163019.1231863,303602.15625,317836.0,347778.0625,330851.15625,309245.15625,299489.78125,317809.90625,312577.28125,-0.15283203125,0.973876953125,0.287109375,-0.9765624403953552,-0.5493163466453552,1.0681151151657104,100.0,108161.0,1.0
1163019.1319534,303788.75,317860.6875,347986.1875,331048.65625,309352.1875,299614.0625,317951.25,312826.1875,-0.154296875,0.97265625,0.283447265625,-0.7324218153953552,-0.6713866591453552,1.1901854276657104,100.0,108162.0,1.0
1163019.1363031,304903.28125,317747.125,348520.84375,331735.9375,309217.4375,299275.375,317505.5625,312160.0,-0.15234375,0.97412109375,0.283447265625,-0.7324218153953552,-0.7324218153953552,1.1596678495407104,100.0,108163.0,1.0
1163019.136354,305370.09375,317650.75,348556.15625,331888.1875,309002.34375,298920.96875,317047.71875,311436.15625,-0.15283203125,0.975830078125,0.28271484375,-0.6408690810203552,-0.8544921278953552,1.1596678495407104,100.0,108164.0,1.0
1163019.1419699,304591.53125,317718.625,348124.0625,331371.4375,309036.9375,299066.90625,317256.28125,311710.8125,-0.152587890625,0.97412109375,0.285400390625,-0.5798339247703552,-0.8239745497703552,1.2512205839157104,100.0,108165.0,1.0
1163019.148251,303618.34375,317852.8125,347793.53125,330864.9375,309264.28125,299507.75,317827.59375,312583.25,-0.150634765625,0.975341796875,0.283447265625,-0.6103515028953552,-0.8544921278953552,1.2512205839157104,100.0,108166.0,1.0
1163019.1575544,303777.125,317871.875,347984.3125,331042.75,309366.21875,299630.78125,317967.09375,312839.84375,-0.149658203125,0.975830078125,0.282958984375,-0.6103515028953552,-0.9460448622703552,1.2207030057907104,100.0,108167.0,1.0
1163019.1576065,304896.6875,317764.40625,348522.8125,331734.5,309237.65625,299294.4375,317521.84375,312183.78125,-0.148681640625,0.975830078125,0.28515625,-0.6408690810203552,-1.0375975370407104,1.0375975370407104,100.0,108168.0,1.0
1163019.1600043,305379.21875,317664.875,348572.6875,331901.34375,309021.90625,298937.53125,317058.53125,311452.625,-0.1494140625,0.97705078125,0.28564453125,-0.6713866591453552,-1.0681151151657104,1.0070799589157104,100.0,108169.0,1.0
1163019.1600554,304598.59375,317712.28125,348135.0625,331380.625,309039.53125,299063.9375,317242.875,311698.75,-0.148681640625,0.97705078125,0.287841796875,-0.6103515028953552,-1.0986326932907104,0.9765624403953552,100.0,108170.0,1.0
1163019.1681928,303615.75,317842.8125,347795.40625,330860.0,309257.6875,299491.5625,317805.96875,312564.84375,-0.150146484375,0.976318359375,0.2890625,-0.7019042372703552,-1.1901854276657104,0.8544921278953552,100.0,108171.0,1.0
1163019.1725741,303763.53125,317876.5,347987.53125,331033.28125,309371.75,299633.03125,317965.90625,312845.75,-0.1513671875,0.973388671875,0.2841796875,-0.7629393935203552,-1.2817381620407104,0.7629393935203552,100.0,108172.0,1.0
1163019.1726238,304874.78125,317762.53125,348521.46875,331720.75,309238.09375,299295.0625,317521.5625,312193.53125,-0.147216796875,0.972900390625,0.282958984375,-0.6408690810203552,-1.2817381620407104,0.6103515028953552,100.0,108173.0,1.0
1163019.1807066,305377.40625,317660.0625,348572.875,331895.4375,309016.28125,298928.3125,317047.53125,311450.5625,-0.14794921875,0.971435546875,0.28515625,-0.6103515028953552,-1.2512205839157104,0.5798339247703552,100.0,108174.0,1.0
1163019.1900647,304626.5,317719.6875,348143.09375,331390.28125,309039.96875,299058.21875,317235.28125,311693.3125,-0.1455078125,0.971435546875,0.2822265625,-0.4272460639476776,-1.1901854276657104,0.5187987685203552,100.0,108175.0,1.0
1163019.1901148,303635.3125,317849.40625,347792.625,330862.875,309255.09375,299489.4375,317801.78125,312560.90625,-0.14453125,0.97119140625,0.2822265625,-0.2441406100988388,-1.0681151151657104,0.4882812201976776,100.0,108176.0,1.0
1163019.1925518,303748.96875,317869.53125,347962.5,331013.71875,309357.90625,299621.75,317959.5625,312842.0,-0.143798828125,0.971435546875,0.279541015625,-0.1831054538488388,-1.0375975370407104,0.4272460639476776,100.0,108177.0,1.0
1163019.1926084,304861.71875,317763.59375,348508.40625,331708.75,309235.78125,299298.28125,317529.15625,312206.21875,-0.142822265625,0.973388671875,0.28076171875,0.0,-1.0681151151657104,0.3967284858226776,100.0,108178.0,1.0
1163019.1943931,305388.0625,317667.125,348581.5625,331905.375,309022.625,298938.5,317059.15625,311465.9375,-0.141357421875,0.975341796875,0.282958984375,0.0915527269244194,-0.9460448622703552,0.4272460639476776,100.0,108179.0,1.0
1163019.2069599,304638.75,317717.90625,348151.78125,331399.84375,309036.03125,299054.28125,317232.25,311686.0625,-0.142822265625,0.976318359375,0.283935546875,0.1220703050494194,-0.8850097060203552,0.4577636420726776,100.0,108180.0,1.0
1163019.2100176,303628.0625,317838.875,347792.96875,330862.875,309247.40625,299482.28125,317798.09375,312548.125,-0.144287109375,0.980712890625,0.2841796875,0.0915527269244194,-0.7934569716453552,0.5493163466453552,100.0,108181.0,1.0
1163019.2100718,303723.125,317862.75,347951.9375,331004.6875,309356.84375,299626.125,317966.8125,312845.5,-0.143310546875,0.97998046875,0.28271484375,0.1831054538488388,-0.6713866591453552,0.5187987685203552,100.0,108182.0,1.0
1163019.2119118,304832.125,317755.90625,348492.59375,331697.03125,309231.5625,299300.25,317534.875,312212.40625,-0.142578125,0.97998046875,0.28173828125,0.0610351525247097,-0.5798339247703552,0.4577636420726776,100.0,108183.0,1.0
1163019.218249,305377.3125,317659.0625,348577.15625,331908.3125,309017.71875,298935.5625,317061.21875,311463.875,-0.144775390625,0.98095703125,0.282958984375,0.1220703050494194,-0.4882812201976776,0.3662109076976776,100.0,108184.0,1.0
1163019.2269663,304653.65625,317718.625,348160.90625,331420.96875,309039.875,299056.53125,317234.9375,311680.59375,-0.1455078125,0.983154296875,0.28515625,-0.03051757626235485,-0.4272460639476776,0.2441406100988388,100.0,108185.0,1.0
1163019.231307,303644.25,317845.21875,347801.03125,330887.1875,309255.25,299487.09375,317801.0625,312547.125,-0.147216796875,0.982666015625,0.283203125,-0.03051757626235485,-0.4272460639476776,0.1831054538488388,100.0,108186.0,1.0
1163019.231366,303711.125,317864.71875,347944.96875,331008.4375,309356.125,299629.4375,317972.53125,312848.53125,-0.14794921875,0.979736328125,0.2841796875,-0.1525878757238388,-0.3356933295726776,0.1220703050494194,100.0,108187.0,1.0
1163019.2375691,304822.03125,317765.8125,348492.40625,331706.0625,309240.59375,299315.625,317556.4375,312232.96875,-0.144775390625,0.975830078125,0.279541015625,-0.2136230319738388,-0.3967284858226776,0.0915527269244194,100.0,108188.0,1.0
1163019.237628,305376.53125,317655.59375,348570.1875,331913.0625,309011.0,298928.125,317057.625,311460.9375,-0.142578125,0.97314453125,0.28076171875,-0.2441406100988388,-0.4272460639476776,0.1831054538488388,100.0,108189.0,1.0
1163019.2488037,304662.6875,317705.03125,348148.90625,331424.0,309020.3125,299028.28125,317209.4375,311651.8125,-0.142578125,0.975341796875,0.277587890625,-0.1525878757238388,-0.2136230319738388,0.2746581733226776,100.0,108190.0,1.0
1163019.2488555,303647.375,317834.9375,347791.71875,330888.53125,309239.875,299466.53125,317785.84375,312525.5,-0.14599609375,0.9765625,0.275634765625,-0.03051757626235485,-0.0915527269244194,0.3967284858226776,100.0,108191.0,1.0
1163019.2625551,303700.9375,317867.125,347941.21875,331006.90625,309359.34375,299632.125,317978.96875,312855.5,-0.14599609375,0.98046875,0.27490234375,0.0,-0.0610351525247097,0.4577636420726776,100.0,108192.0,1.0
1163019.2626053,304795.09375,317759.75,348478.28125,331687.84375,309237.125,299315.34375,317555.28125,312239.3125,-0.147705078125,0.98046875,0.27783203125,-0.03051757626235485,0.0610351525247097,0.6408690810203552,100.0,108193.0,1.0
1163019.265641,305376.34375,317659.34375,348580.65625,331916.4375,309014.84375,298936.09375,317062.28125,311472.5625,-0.15185546875,0.98291015625,0.27734375,-0.2746581733226776,0.0,0.4882812201976776,100.0,108194.0,1.0
1163019.2656905,304682.28125,317709.5,348166.34375,331437.3125,309020.3125,299034.4375,317206.21875,311650.03125,-0.151123046875,0.981689453125,0.2783203125,-0.3051757514476776,-0.03051757626235485,0.5493163466453552,100.0,108195.0,1.0
1163019.2657037,303660.96875,317842.1875,347801.46875,330894.0,309239.625,299471.46875,317780.03125,312520.84375,-0.14794921875,0.979248046875,0.279296875,-0.2746581733226776,-0.1220703050494194,0.5493163466453552,100.0,108196.0,1.0
1163019.2700537,303684.75,317867.40625,347929.78125,330988.75,309348.96875,299629.71875,317969.0625,312851.84375,-0.1474609375,0.97998046875,0.279296875,-0.3051757514476776,-0.2136230319738388,0.5187987685203552,100.0,108197.0,1.0
1163019.2701148,304772.9375,317762.59375,348466.75,331674.875,309229.5,299316.4375,317554.75,312248.875,-0.148681640625,0.9775390625,0.280029296875,-0.2136230319738388,-0.2136230319738388,0.6103515028953552,100.0,108198.0,1.0
1163019.2963063,305375.71875,317662.1875,348582.90625,331922.875,309013.6875,298937.78125,317063.4375,311477.03125,-0.152099609375,0.9775390625,0.281005859375,-0.2136230319738388,-0.3051757514476776,0.7629393935203552,100.0,108199.0,1.0
1163019.2963573,304697.9375,317710.03125,348174.75,331449.125,309016.28125,299024.875,317197.1875,311638.59375,-0.154296875,0.9794921875,0.283447265625,-0.1831054538488388,-0.3051757514476776,0.6713866591453552,100.0,108200.0,1.0
1163019.31878,303668.40625,317837.71875,347801.75,330895.6875,309229.15625,299454.5625,317763.5,312503.15625,-0.154052734375,0.979736328125,0.2822265625,-0.1831054538488388,-0.3967284858226776,0.6103515028953552,100.0,108201.0,1.0
1163019.3188324,303688.78125,317878.75,347935.59375,330992.34375,309357.90625,299632.75,317974.21875,312859.71875,-0.155517578125,0.9794921875,0.283447265625,-0.3662109076976776,-0.5493163466453552,0.4272460639476776,100.0,108202.0,1.0
1163019.3188483,304784.90625,317787.28125,348483.90625,331684.15625,309253.21875,299337.96875,317573.25,312272.65625,-0.156494140625,0.97802734375,0.2802734375,-0.4272460639476776,-0.7629393935203552,0.1831054538488388,100.0,108203.0,1.0
1163019.3188615,305393.78125,317676.15625,348596.40625,331929.6875,309024.15625,298945.3125,317063.4375,311483.5625,-0.156494140625,0.977294921875,0.28076171875,-0.5493163466453552,-0.9155272841453552,0.0,100.0,108204.0,1.0
1163019.3188731,304706.78125,317700.375,348169.65625,331444.03125,309000.71875,299003.15625,317165.625,311608.1875,-0.15576171875,0.974853515625,0.279052734375,-0.4882812201976776,-1.0375975370407104,-0.0610351525247097,100.0,108205.0,1.0
1163019.3188846,303664.90625,317822.0625,347788.59375,330882.8125,309209.40625,299425.875,317730.40625,312469.1875,-0.156005859375,0.97216796875,0.27880859375,-0.3967284858226776,-1.1291502714157104,-0.1831054538488388,100.0,108206.0,1.0
1163019.3188974,303660.09375,317865.78125,347910.8125,330967.3125,309338.9375,299613.34375,317956.0,312844.0625,-0.15478515625,0.97216796875,0.279052734375,-0.3356933295726776,-1.2207030057907104,-0.3051757514476776,100.0,108207.0,1.0
1163019.3212322,304745.21875,317772.71875,348459.78125,331658.40625,309236.125,299321.96875,317566.96875,312272.40625,-0.15283203125,0.975341796875,0.281005859375,-0.1831054538488388,-1.2817381620407104,-0.3356933295726776,100.0,108208.0,1.0
1163019.3212729,305379.375,317664.09375,348590.59375,331924.40625,309014.59375,298935.46875,317063.4375,311483.90625,-0.151611328125,0.97705078125,0.27978515625,-0.0610351525247097,-1.3427733182907104,-0.3967284858226776,100.0,108209.0,1.0
1163019.3232326,304729.46875,317703.59375,348185.03125,331459.03125,309005.625,299006.71875,317176.28125,311607.375,-0.15087890625,0.98095703125,0.28173828125,-0.03051757626235485,-1.4648436307907104,-0.4882812201976776,100.0,108210.0,1.0
1163019.3257326,303685.3125,317833.875,347805.9375,330894.71875,309221.28125,299439.0,317747.40625,312470.25,-0.151123046875,0.980224609375,0.278076171875,0.03051757626235485,-1.5258787870407104,-0.3662109076976776,100.0,108211.0,1.0
1163019.3282397,303659.71875,317878.84375,347919.3125,330967.9375,309359.875,299633.65625,317981.375,312861.59375,-0.150390625,0.97998046875,0.27734375,0.0915527269244194,-1.4343260526657104,-0.3662109076976776,100.0,108212.0,1.0
1163019.3369565,304737.34375,317780.84375,348462.09375,331650.71875,309256.59375,299344.6875,317592.03125,312295.46875,-0.15087890625,0.979736328125,0.27734375,0.0610351525247097,-1.4648436307907104,-0.3356933295726776,100.0,108213.0,1.0
1163019.3413027,305382.59375,317662.65625,348592.71875,331914.125,309021.71875,298943.15625,317068.71875,311486.15625,-0.150146484375,0.9814453125,0.279052734375,-0.03051757626235485,-1.4343260526657104,-0.2136230319738388,100.0,108214.0,1.0
1163019.3413584,304749.78125,317704.9375,348194.78125,331460.125,309011.625,299009.40625,317172.96875,311598.4375,-0.150390625,0.980224609375,0.28076171875,-0.0610351525247097,-1.4038084745407104,-0.1220703050494194,100.0,108215.0,1.0
1163019.3525559,303699.15625,317836.09375,347808.28125,330894.625,309225.40625,299442.65625,317747.75,312463.71875,-0.1513671875,0.97998046875,0.279541015625,-0.03051757626235485,-1.3427733182907104,-0.1525878757238388,100.0,108216.0,1.0
1163019.3526067,303646.5,317874.375,347904.5625,330945.9375,309355.5,299635.59375,317983.1875,312860.5,-0.151611328125,0.979248046875,0.2822265625,-0.0915527269244194,-1.4038084745407104,-0.2136230319738388,100.0,108217.0,1.0
1163019.3550521,304708.5625,317770.375,348437.4375,331622.5625,309250.53125,299340.9375,317594.34375,312301.28125,-0.14990234375,0.980224609375,0.2802734375,-0.0915527269244194,-1.4038084745407104,-0.0915527269244194,100.0,108218.0,1.0
1163019.3551124,305373.125,317657.8125,348581.46875,331907.15625,309024.40625,298941.71875,317073.8125,311494.8125,-0.150634765625,0.979248046875,0.2802734375,-0.1220703050494194,-1.3427733182907104,-0.1831054538488388,100.0,108219.0,1.0
1163019.3632309,304754.34375,317695.71875,348185.65625,331460.65625,309006.71875,298997.34375,317166.34375,311585.9375,-0.15087890625,0.97998046875,0.279541015625,-0.1525878757238388,-1.2512205839157104,0.03051757626235485,100.0,108220.0,1.0
1163019.366311,303695.9375,317823.75,347797.0,330889.34375,309216.0,299424.59375,317733.1875,312442.90625,-0.15283203125,0.97998046875,0.2802734375,-0.0915527269244194,-1.3122557401657104,0.1220703050494194,100.0,108221.0,1.0
1163019.3663702,303624.21875,317866.21875,347882.5625,330928.59375,309345.375,299619.15625,317970.9375,312849.0625,-0.15234375,0.977783203125,0.279541015625,-0.1220703050494194,-1.3427733182907104,0.0915527269244194,100.0,108222.0,1.0
1163019.3769593,304693.375,317778.625,348426.25,331609.875,309251.34375,299339.75,317596.03125,312305.375,-0.15234375,0.9765625,0.283203125,-0.1525878757238388,-1.3732908964157104,0.2136230319738388,100.0,108223.0,1.0
1163019.3862316,305379.75,317666.21875,348590.03125,331911.0,309029.15625,298944.125,317076.59375,311497.875,-0.1513671875,0.974365234375,0.2822265625,-0.2136230319738388,-1.3427733182907104,0.3051757514476776,100.0,108224.0,1.0
1163019.3862834,304775.25,317695.28125,348192.4375,331469.0625,309002.6875,298987.78125,317150.15625,311568.125,-0.1513671875,0.9736328125,0.281494140625,-0.1831054538488388,-1.4038084745407104,0.2746581733226776,100.0,108225.0,1.0
1163019.3882029,303717.5625,317825.09375,347797.28125,330894.96875,309211.625,299413.34375,317713.0625,312424.75,-0.149658203125,0.97314453125,0.28076171875,-0.0610351525247097,-1.2817381620407104,0.3051757514476776,100.0,108226.0,1.0
1163019.3907065,303627.71875,317870.96875,347879.09375,330929.03125,309351.65625,299620.84375,317967.53125,312852.28125,-0.152099609375,0.97314453125,0.28125,-0.0915527269244194,-1.4038084745407104,0.2136230319738388,100.0,108227.0,1.0
1163019.3932324,304676.46875,317769.65625,348412.21875,331600.46875,309251.25,299336.1875,317593.625,312311.90625,-0.152099609375,0.9716796875,0.283203125,0.0,-1.4038084745407104,0.1831054538488388,100.0,108228.0,1.0
1163019.3969621,305378.84375,317657.03125,348587.0,331913.3125,309027.28125,298938.5,317072.125,311497.78125,-0.15234375,0.973388671875,0.28369140625,0.1220703050494194,-1.4343260526657104,0.1831054538488388,100.0,108229.0,1.0
1163019.4162904,304786.96875,317684.71875,348195.9375,331475.9375,308995.90625,298976.5,317138.1875,311554.09375,-0.151611328125,0.97314453125,0.279541015625,0.1525878757238388,-1.4343260526657104,0.2136230319738388,100.0,108230.0,1.0
1163019.4163467,303723.375,317816.4375,347798.4375,330899.25,309205.71875,299406.46875,317707.34375,312413.5625,-0.150390625,0.976806640625,0.281005859375,0.3051757514476776,-1.4038084745407104,0.0915527269244194,100.0,108231.0,1.0
1163019.4182289,303605.0,317857.46875,347865.03125,330913.65625,309342.4375,299617.1875,317967.96875,312849.4375,-0.151611328125,0.9755859375,0.280029296875,0.3051757514476776,-1.4648436307907104,0.0,100.0,108232.0,1.0
1163019.4206865,304649.71875,317767.25,348406.3125,331587.0625,309255.71875,299351.46875,317612.75,312331.84375,-0.1494140625,0.976806640625,0.283447265625,0.2746581733226776,-1.4343260526657104,0.03051757626235485,100.0,108233.0,1.0
1163019.4232321,305369.71875,317657.71875,348595.0625,331910.8125,309035.15625,298951.8125,317092.9375,311518.0625,-0.15087890625,0.976318359375,0.28125,0.4577636420726776,-1.4343260526657104,0.0,100.0,108234.0,1.0
1163019.4257069,304799.9375,317684.90625,348209.09375,331484.15625,309000.625,298981.96875,317148.375,311557.84375,-0.151611328125,0.978271484375,0.28125,0.4882812201976776,-1.4648436307907104,0.03051757626235485,100.0,108235.0,1.0
1163019.4282308,303731.4375,317814.375,347808.90625,330904.0,309207.625,299408.78125,317713.15625,312410.25,-0.150634765625,0.978759765625,0.2802734375,0.5187987685203552,-1.4038084745407104,-0.03051757626235485,100.0,108236.0,1.0
1163019.4325507,303606.53125,317872.5,347876.84375,330917.40625,309358.96875,299638.375,317990.59375,312866.78125,-0.15087890625,0.978759765625,0.279296875,0.5187987685203552,-1.3732908964157104,-0.0915527269244194,100.0,108237.0,1.0
1163019.4326002,304648.65625,317784.875,348416.25,331588.40625,309276.90625,299378.65625,317641.1875,312359.125,-0.151123046875,0.97998046875,0.2783203125,0.4882812201976776,-1.3732908964157104,-0.0610351525247097,100.0,108238.0,1.0
1163019.4344793,305374.375,317661.5625,348600.0625,331912.5,309044.0,298964.6875,317100.8125,311526.90625,-0.149169921875,0.978271484375,0.280517578125,0.3967284858226776,-1.2512205839157104,-0.0610351525247097,100.0,108239.0,1.0
1163019.451303,304816.125,317683.40625,348214.1875,331490.5,308999.46875,298977.3125,317136.40625,311544.34375,-0.146728515625,0.977294921875,0.281982421875,0.4272460639476776,-1.3427733182907104,0.0,100.0,108240.0,1.0
1163019.4513552,303736.15625,317808.5625,347802.8125,330901.5,309197.875,299393.6875,317692.59375,312386.9375,-0.14453125,0.976318359375,0.28173828125,0.4577636420726776,-1.3427733182907104,-0.0915527269244194,100.0,108241.0,1.0
1163019.453188,303579.875,317856.40625,347855.65625,330891.9375,309339.03125,299617.8125,317970.375,312847.90625,-0.145751953125,0.974853515625,0.281005859375,0.4577636420726776,-1.2817381620407104,-0.1831054538488388,100.0,108242.0,1.0
1163019.4557298,304620.5,317777.53125,348400.0625,331565.0,309261.53125,299365.25,317629.9375,312356.625,-0.146728515625,0.9765625,0.27783203125,0.3967284858226776,-1.2207030057907104,-0.0610351525247097,100.0,108243.0,1.0
1163019.4582234,305372.9375,317665.59375,348603.09375,331911.4375,309039.15625,298958.4375,317095.09375,311526.8125,-0.147216796875,0.976318359375,0.278076171875,0.4882812201976776,-1.1596678495407104,-0.0915527269244194,100.0,108244.0,1.0
1163019.4619791,304832.125,317682.5,348221.6875,331496.21875,308994.03125,298964.53125,317121.125,311527.53125,-0.1474609375,0.977783203125,0.276611328125,0.5493163466453552,-1.0681151151657104,-0.0610351525247097,100.0,108245.0,1.0
1163019.4713041,303754.78125,317810.34375,347809.875,330907.21875,309195.09375,299382.0625,317676.96875,312370.28125,-0.1484375,0.9765625,0.276611328125,0.5798339247703552,-1.0986326932907104,-0.0915527269244194,100.0,108246.0,1.0
1163019.4713683,303575.3125,317855.0625,347850.1875,330886.03125,309337.6875,299612.09375,317961.90625,312842.90625,-0.1513671875,0.97509765625,0.278564453125,0.5493163466453552,-0.9155272841453552,-0.03051757626235485,100.0,108247.0,1.0
1163019.4732284,304595.5625,317769.3125,348383.4375,331550.6875,309259.65625,299364.53125,317628.40625,312360.5625,-0.14892578125,0.978515625,0.280517578125,0.6103515028953552,-1.0375975370407104,-0.0610351525247097,100.0,108248.0,1.0
1163019.476963,305361.21875,317656.03125,348596.46875,331909.65625,309035.3125,298957.71875,317094.1875,311532.5625,-0.150390625,0.976318359375,0.282470703125,0.6103515028953552,-0.9765624403953552,-0.1831054538488388,100.0,108249.0,1.0
1163019.4912575,304850.71875,317685.1875,348232.96875,331516.0,308995.0,298969.25,317126.5625,311531.03125,-0.150390625,0.977294921875,0.2783203125,0.6408690810203552,-0.9765624403953552,-0.1831054538488388,100.0,108250.0,1.0
1163019.4913073,303774.0,317814.8125,347820.96875,330927.34375,309195.90625,299387.9375,317685.71875,312369.65625,-0.15234375,0.97998046875,0.27880859375,0.7019042372703552,-0.9765624403953552,-0.2136230319738388,100.0,108251.0,1.0
1163019.4932108,303578.09375,317868.5625,347855.375,330895.40625,309346.28125,299624.875,317978.96875,312853.28125,-0.153564453125,0.980224609375,0.28125,0.6103515028953552,-1.0070799589157104,-0.3356933295726776,100.0,108252.0,1.0
1163019.4956864,304589.90625,317789.0625,348388.34375,331554.0,309273.25,299380.8125,317651.65625,312384.78125,-0.153076171875,0.978759765625,0.279296875,0.6713866591453552,-1.0375975370407104,-0.3051757514476776,100.0,108253.0,1.0
1163019.4981888,305365.15625,317668.8125,348604.71875,331917.625,309045.25,298965.25,317109.5,311549.1875,-0.15283203125,0.978271484375,0.279541015625,0.6408690810203552,-0.9460448622703552,-0.2746581733226776,100.0,108254.0,1.0
1163019.5275547,304863.9375,317690.375,348244.75,331529.84375,309000.90625,298968.8125,317128.34375,311526.46875,-0.15185546875,0.978515625,0.2802734375,0.5798339247703552,-0.9460448622703552,-0.2441406100988388,100.0,108255.0,1.0
1163019.527614,303776.03125,317815.1875,347822.5,330930.1875,309197.875,299384.03125,317678.5625,312356.53125,-0.15283203125,0.9765625,0.28173828125,0.5798339247703552,-0.9765624403953552,-0.2136230319738388,100.0,108256.0,1.0
1163019.5294825,303565.59375,317873.46875,347849.84375,330888.90625,309352.90625,299628.8125,317983.0,312857.46875,-0.15283203125,0.978271484375,0.28076171875,0.5493163466453552,-1.0375975370407104,-0.3051757514476776,100.0,108257.0,1.0
1163019.5319396,304574.4375,317797.125,348384.0625,331546.65625,309284.59375,299395.5625,317665.15625,312403.1875,-0.153076171875,0.977783203125,0.281005859375,0.3967284858226776,-1.0681151151657104,-0.3356933295726776,100.0,108258.0,1.0
1163019.5344292,305375.28125,317681.15625,348617.03125,331927.34375,309064.75,298984.46875,317123.71875,311565.71875,-0.15283203125,0.977783203125,0.27734375,0.3967284858226776,-1.0070799589157104,-0.2746581733226776,100.0,108259.0,1.0
1163019.536963,304892.46875,317696.34375,348255.3125,331543.09375,309009.21875,298971.21875,317123.71875,311520.9375,-0.15283203125,0.976806640625,0.279052734375,0.4272460639476776,-1.0375975370407104,-0.2746581733226776,100.0,108260.0,1.0
1163019.5394835,303815.28125,317829.46875,347844.03125,330956.125,309212.15625,299388.9375,317678.46875,312355.625,-0.15185546875,0.975830078125,0.281005859375,0.3051757514476776,-1.0986326932907104,-0.2136230319738388,100.0,108261.0,1.0
1163019.5419872,303565.3125,317870.78125,347843.5,330883.625,309348.25,299619.6875,317969.9375,312849.5,-0.154052734375,0.974609375,0.28271484375,0.3356933295726776,-1.0681151151657104,-0.2136230319738388,100.0,108262.0,1.0
1163019.5444788,304545.46875,317782.71875,348357.40625,331518.75,309268.84375,299375.53125,317643.59375,312392.71875,-0.1533203125,0.97607421875,0.281982421875,0.3051757514476776,-1.1291502714157104,-0.2441406100988388,100.0,108263.0,1.0
1163019.5469696,305353.8125,317661.5625,348595.0625,331907.6875,309045.0625,298961.65625,317098.65625,311552.125,-0.154052734375,0.97509765625,0.278564453125,0.3051757514476776,-1.1291502714157104,-0.1525878757238388,100.0,108264.0,1.0
1163019.5494851,304885.59375,317670.96875,348239.375,331534.6875,308987.84375,298943.0625,317090.90625,311495.8125,-0.1533203125,0.975341796875,0.281005859375,0.3051757514476776,-1.1596678495407104,-0.1831054538488388,100.0,108265.0,1.0
1163019.5525786,303798.5625,317799.34375,347819.4375,330937.34375,309185.96875,299354.25,317644.9375,312321.84375,-0.1552734375,0.975830078125,0.277587890625,0.3356933295726776,-1.2207030057907104,-0.1831054538488388,100.0,108266.0,1.0
1163019.5526287,303543.5,317864.8125,347828.5625,330871.375,309344.65625,299612.09375,317966.1875,312845.125,-0.154296875,0.97412109375,0.27783203125,0.2746581733226776,-1.1901854276657104,-0.2136230319738388,100.0,108267.0,1.0
1163019.5550748,304525.46875,317787.5625,348350.6875,331514.75,309275.65625,299387.40625,317662.84375,312411.96875,-0.15380859375,0.973876953125,0.2763671875,0.4272460639476776,-1.1596678495407104,-0.1220703050494194,100.0,108268.0,1.0
1163019.5551269,305358.5625,317672.21875,348601.9375,331916.53125,309051.40625,298972.3125,317118.96875,311569.375,-0.151611328125,0.975830078125,0.27783203125,0.4882812201976776,-1.2512205839157104,-0.0915527269244194,100.0,108269.0,1.0
1163019.563228,304915.53125,317685.625,348258.15625,331556.6875,308995.34375,298949.5,317104.03125,311498.3125,-0.153076171875,0.97705078125,0.27978515625,0.4577636420726776,-1.1901854276657104,0.0915527269244194,100.0,108270.0,1.0
1163019.56637,303812.53125,317795.875,347826.5,330946.125,309181.9375,299348.0,317642.09375,312310.9375,-0.1513671875,0.97802734375,0.27880859375,0.3051757514476776,-1.0681151151657104,0.03051757626235485,100.0,108271.0,1.0
1163019.5664295,303538.125,317859.34375,347830.875,330867.96875,309346.46875,299617.0,317977.09375,312853.0,-0.15283203125,0.977294921875,0.27880859375,0.3662109076976776,-1.0375975370407104,0.03051757626235485,100.0,108272.0,1.0
1163019.5719633,304516.96875,317792.90625,348362.9375,331515.1875,309292.09375,299410.03125,317690.625,312444.0625,-0.15283203125,0.97802734375,0.27880859375,0.2441406100988388,-1.1901854276657104,0.1220703050494194,100.0,108273.0,1.0
1163019.5862745,305343.53125,317661.65625,348608.46875,331914.84375,309056.15625,298981.59375,317127.375,311584.3125,-0.152099609375,0.98095703125,0.280517578125,0.1220703050494194,-1.1596678495407104,0.03051757626235485,100.0,108274.0,1.0
1163019.5863253,304915.0,317672.84375,348265.40625,331556.6875,308990.09375,298947.8125,317098.9375,311491.34375,-0.15087890625,0.982177734375,0.281982421875,0.0610351525247097,-1.1901854276657104,0.0610351525247097,100.0,108275.0,1.0
1163019.5882375,303835.15625,317808.375,347844.9375,330959.0,309191.15625,299360.59375,317652.53125,312311.03125,-0.152099609375,0.98095703125,0.283447265625,-0.0610351525247097,-1.2207030057907104,0.1220703050494194,100.0,108276.0,1.0
1163019.5907294,303551.46875,317881.78125,347834.09375,330868.40625,309354.78125,299631.5,317989.15625,312856.75,-0.152587890625,0.981689453125,0.28125,-0.2136230319738388,-1.0375975370407104,0.2136230319738388,100.0,108277.0,1.0
1163019.5932313,304513.375,317812.6875,348357.9375,331507.21875,309298.8125,299422.71875,317703.34375,312454.25,-0.15234375,0.98388671875,0.283935546875,-0.3051757514476776,-0.9155272841453552,0.2441406100988388,100.0,108278.0,1.0
1163019.6025221,305360.59375,317686.96875,348621.59375,331923.5,309071.09375,298995.53125,317144.09375,311599.78125,-0.151123046875,0.981689453125,0.28125,-0.3356933295726776,-0.9155272841453552,0.2746581733226776,100.0,108279.0,1.0
1163019.6025751,304938.53125,317681.25,348274.96875,331568.375,308994.28125,298945.75,317095.8125,311484.71875,-0.151611328125,0.98095703125,0.278076171875,-0.3356933295726776,-0.9460448622703552,0.3356933295726776,100.0,108280.0,1.0
1163019.6050488,303828.25,317785.84375,347824.71875,330942.90625,309165.21875,299327.96875,317617.5,312274.28125,-0.15283203125,0.98046875,0.27880859375,-0.4577636420726776,-0.9155272841453552,0.3051757514476776,100.0,108281.0,1.0
1163019.6050996,303517.03125,317852.625,347803.71875,330838.125,309329.90625,299601.8125,317958.59375,312832.875,-0.1513671875,0.978759765625,0.27734375,-0.4577636420726776,-0.7934569716453552,0.2441406100988388,100.0,108282.0,1.0
1163019.6130806,304474.40625,317788.90625,348325.65625,331473.0625,309281.46875,299405.125,317687.25,312447.71875,-0.15283203125,0.977294921875,0.28173828125,-0.5187987685203552,-0.8239745497703552,0.2746581733226776,100.0,108283.0,1.0
1163019.620733,305338.4375,317663.71875,348599.6875,331899.5625,309052.5,298975.6875,317128.09375,311589.0625,-0.150634765625,0.975341796875,0.2822265625,-0.5798339247703552,-0.7934569716453552,0.2441406100988388,100.0,108284.0,1.0
1163019.6232384,304950.3125,317670.6875,348269.15625,331562.03125,308978.28125,298926.53125,317075.5,311458.53125,-0.151611328125,0.9755859375,0.2802734375,-0.6103515028953552,-0.7324218153953552,0.2746581733226776,100.0,108285.0,1.0
1163019.6257288,303862.15625,317800.34375,347831.34375,330952.46875,309167.03125,299330.8125,317612.40625,312258.0,-0.15283203125,0.976318359375,0.283203125,-0.5798339247703552,-0.7934569716453552,0.3051757514476776,100.0,108286.0,1.0
1163019.6350537,303519.1875,317860.15625,347787.25,330827.5625,309325.90625,299603.25,317953.5,312818.125,-0.151123046875,0.97705078125,0.28173828125,-0.4882812201976776,-0.7934569716453552,0.4577636420726776,100.0,108287.0,1.0
1163019.6351103,304444.0,317782.1875,348289.46875,331441.34375,309269.375,299398.0625,317677.40625,312432.6875,-0.15087890625,0.9765625,0.2841796875,-0.4577636420726776,-0.7629393935203552,0.5187987685203552,100.0,108288.0,1.0
1163019.6413023,305323.59375,317660.875,348576.28125,331881.75,309048.71875,298976.15625,317124.875,311580.90625,-0.151123046875,0.9794921875,0.283447265625,-0.3662109076976776,-0.7019042372703552,0.5187987685203552,100.0,108289.0,1.0
1163019.6413532,304949.0625,317661.65625,348249.03125,331554.4375,308966.75,298913.8125,317057.625,311437.25,-0.15283203125,0.9794921875,0.282958984375,-0.2746581733226776,-0.7324218153953552,0.5798339247703552,100.0,108290.0,1.0
1163019.6469835,303850.96875,317784.25,347809.15625,330945.125,309151.5625,299309.53125,317589.4375,312231.625,-0.151611328125,0.981689453125,0.28369140625,-0.2746581733226776,-0.7324218153953552,0.4882812201976776,100.0,108291.0,1.0
1163019.6613016,303501.03125,317858.90625,347776.71875,330823.1875,309326.6875,299600.46875,317954.125,312817.0625,-0.15185546875,0.980712890625,0.282958984375,-0.3662109076976776,-0.6713866591453552,0.4577636420726776,100.0,108292.0,1.0
1163019.6613623,304440.25,317807.03125,348301.4375,331453.5,309295.3125,299426.125,317707.09375,312467.21875,-0.15380859375,0.981201171875,0.282470703125,-0.3356933295726776,-0.7324218153953552,0.3662109076976776,100.0,108293.0,1.0
1163019.6637571,305333.96875,317679.0,348595.15625,331903.84375,309068.21875,298999.21875,317147.40625,311609.09375,-0.151611328125,0.982666015625,0.28271484375,-0.3967284858226776,-0.6408690810203552,0.2441406100988388,100.0,108294.0,1.0
1163019.663815,304976.5,317669.71875,348268.28125,331576.78125,308977.84375,298923.84375,317066.03125,311442.4375,-0.149658203125,0.9853515625,0.283935546875,-0.3051757514476776,-0.7629393935203552,0.1831054538488388,100.0,108295.0,1.0
1163019.6663207,303879.125,317792.03125,347827.65625,330961.75,309160.5,299317.9375,317597.375,312229.125,-0.150390625,0.982666015625,0.285888671875,-0.3662109076976776,-0.8544921278953552,0.1220703050494194,100.0,108296.0,1.0
1163019.6663736,303505.15625,317862.75,347783.3125,330823.625,309333.5,299611.90625,317968.6875,312826.34375,-0.14990234375,0.979736328125,0.284912109375,-0.4577636420726776,-0.7324218153953552,0.1220703050494194,100.0,108297.0,1.0
1163019.6794846,304416.90625,317802.125,348287.03125,331436.875,309292.8125,299433.0,317718.875,312479.5625,-0.148193359375,0.976806640625,0.28271484375,-0.5187987685203552,-0.6408690810203552,0.2746581733226776,100.0,108298.0,1.0
1163019.6868928,305323.25,317680.09375,348590.5,331896.875,309070.0,299007.34375,317156.78125,311621.0625,-0.146240234375,0.97216796875,0.279541015625,-0.3662109076976776,-0.6408690810203552,0.2746581733226776,100.0,108299.0,1.0
1163019.6869425,304981.625,317667.75,348274.96875,331582.0625,308973.90625,298918.9375,317059.5,311437.6875,-0.145263671875,0.966552734375,0.2763671875,-0.3051757514476776,-0.5493163466453552,0.4577636420726776,100.0,108300.0,1.0
1163019.6869559,303888.4375,317789.4375,347837.25,330971.15625,309154.21875,299304.34375,317578.875,312215.0,-0.1455078125,0.96484375,0.278564453125,0.0610351525247097,-0.3356933295726776,0.5493163466453552,100.0,108301.0,1.0
1163019.6900502,303500.75,317867.9375,347789.75,330825.40625,309334.5625,299608.59375,317960.46875,312826.8125,-0.146728515625,0.96484375,0.2763671875,0.1831054538488388,-0.2746581733226776,0.7019042372703552,100.0,108302.0,1.0
1163019.6901057,304395.8125,317803.28125,348284.28125,331425.25,309294.4375,299431.40625,317715.21875,312489.65625,-0.146728515625,0.96630859375,0.274658203125,0.4882812201976776,-0.1220703050494194,0.7019042372703552,100.0,108303.0,1.0
1163019.7007269,305306.59375,317671.78125,348585.03125,331886.59375,309062.0625,298996.53125,317146.0625,311621.34375,-0.1474609375,0.968017578125,0.275634765625,0.7324218153953552,-0.0610351525247097,0.7934569716453552,100.0,108304.0,1.0
1163019.7050522,304989.75,317660.6875,348278.375,331585.09375,308965.125,298908.65625,317049.84375,311427.0625,-0.147216796875,0.969970703125,0.27197265625,0.9155272841453552,-0.03051757626235485,0.8544921278953552,100.0,108305.0,1.0
1163019.7051032,303904.25,317783.4375,347843.125,330978.03125,309146.8125,299299.15625,317574.75,312202.375,-0.14794921875,0.973388671875,0.27197265625,1.0375975370407104,-0.0915527269244194,0.7934569716453552,100.0,108306.0,1.0
1163019.7188004,303499.0625,317862.65625,347782.0625,330818.625,309326.6875,299607.71875,317959.21875,312821.8125,-0.1513671875,0.975830078125,0.275390625,1.1291502714157104,-0.0915527269244194,0.7934569716453552,100.0,108307.0,1.0
1163019.7188515,304384.1875,317807.40625,348277.375,331417.65625,309295.9375,299444.0,317731.5,312504.3125,-0.150146484375,0.97705078125,0.27734375,1.2207030057907104,-0.03051757626235485,0.6713866591453552,100.0,108308.0,1.0
1163019.7212255,305313.59375,317683.40625,348598.4375,331897.75,309074.21875,299012.1875,317168.5,311645.125,-0.15380859375,0.978759765625,0.276123046875,1.2207030057907104,-0.0610351525247097,0.4882812201976776,100.0,108309.0,1.0
1163019.7212824,305014.875,317670.78125,348296.34375,331604.15625,308972.1875,298907.9375,317049.75,311428.03125,-0.156494140625,0.9794921875,0.2763671875,1.2207030057907104,-0.1220703050494194,0.3662109076976776,100.0,108310.0,1.0
1163019.7287906,303924.90625,317791.5625,347851.1875,330991.71875,309148.4375,299289.4375,317563.59375,312190.9375,-0.159423828125,0.98193359375,0.27587890625,1.1596678495407104,-0.3051757514476776,0.2136230319738388,100.0,108311.0,1.0
1163019.7288475,303492.53125,317866.21875,347774.21875,330816.65625,309326.34375,299601.375,317954.75,312815.625,-0.161865234375,0.9853515625,0.276611328125,1.0070799589157104,-0.4272460639476776,0.03051757626235485,100.0,108312.0,1.0
1163019.7419451,304363.09375,317809.0,348270.25,331407.53125,309301.84375,299448.125,317738.90625,312514.78125,-0.16162109375,0.987548828125,0.2783203125,0.7934569716453552,-0.5187987685203552,-0.1831054538488388,100.0,108313.0,1.0
1163019.7450124,305300.71875,317677.03125,348590.75,331890.4375,309076.625,299016.375,317174.21875,311649.40625,-0.16015625,0.988525390625,0.27734375,0.5798339247703552,-0.6408690810203552,-0.4577636420726776,100.0,108314.0,1.0
1163019.7450618,305021.65625,317662.75,348292.78125,331607.8125,308971.21875,298912.21875,317055.75,311420.53125,-0.15966796875,0.986572265625,0.278564453125,0.2136230319738388,-0.8239745497703552,-0.7019042372703552,100.0,108315.0,1.0
1163019.7470007,303934.84375,317779.5,347843.40625,330991.53125,309141.71875,299286.375,317566.71875,312175.46875,-0.1591796875,0.98681640625,0.280517578125,0.0,-0.9155272841453552,-0.9155272841453552,100.0,108316.0,1.0
1163019.7494499,303485.65625,317856.125,347761.6875,330803.96875,309316.96875,299595.8125,317959.65625,312806.5,-0.158203125,0.986572265625,0.2802734375,-0.2441406100988388,-0.9765624403953552,-1.0681151151657104,100.0,108317.0,1.0
1163019.7587638,304337.875,317799.1875,348244.40625,331383.5,309286.75,299437.125,317738.8125,312508.34375,-0.156005859375,0.983642578125,0.281005859375,-0.2746581733226776,-1.0375975370407104,-1.0375975370407104,100.0,108318.0,1.0
1163019.7588147,305287.5625,317669.8125,348574.21875,331877.46875,309061.34375,299002.15625,317166.09375,311641.96875,-0.153076171875,0.985595703125,0.279541015625,-0.3967284858226776,-1.0986326932907104,-0.9460448622703552,100.0,108319.0,1.0
1163019.7613002,305025.875,317651.375,348280.0625,331602.375,308951.71875,298889.59375,317028.5625,311394.6875,-0.151123046875,0.983154296875,0.279296875,-0.4577636420726776,-1.0681151151657104,-0.8544921278953552,100.0,108320.0,1.0
1163019.7613511,303942.53125,317774.59375,347835.4375,330993.21875,309130.625,299272.71875,317546.59375,312150.0,-0.150634765625,0.98193359375,0.28076171875,-0.5187987685203552,-1.0375975370407104,-0.6713866591453552,100.0,108321.0,1.0
1163019.7694815,303474.84375,317852.71875,347743.09375,330796.28125,309311.59375,299591.4375,317954.5625,312799.28125,-0.14892578125,0.982666015625,0.281494140625,-0.5798339247703552,-0.9765624403953552,-0.4577636420726776,100.0,108322.0,1.0
1163019.773233,304312.5625,317792.03125,348212.375,331363.8125,309282.25,299438.75,317738.5625,312510.65625,-0.148193359375,0.9794921875,0.2822265625,-0.6103515028953552,-0.8850097060203552,-0.2136230319738388,100.0,108323.0,1.0
1163019.7769891,305280.0625,317666.84375,348559.65625,331873.1875,309064.375,299007.71875,317172.25,311645.5625,-0.146728515625,0.9794921875,0.28271484375,-0.5798339247703552,-0.7934569716453552,0.0610351525247097,100.0,108324.0,1.0
1163019.791893,305040.71875,317648.34375,348279.625,331611.65625,308952.71875,298885.5625,317026.96875,311382.4375,-0.14794921875,0.976806640625,0.27783203125,-0.6103515028953552,-0.6713866591453552,0.2441406100988388,100.0,108325.0,1.0
1163019.7919433,303964.53125,317773.25,347834.46875,331002.8125,309130.09375,299266.28125,317538.09375,312131.125,-0.14990234375,0.976318359375,0.27880859375,-0.5493163466453552,-0.6103515028953552,0.3967284858226776,100.0,108326.0,1.0
1163019.7919569,303482.53125,317856.3125,347736.03125,330796.53125,309318.46875,299596.1875,317952.5,312791.03125,-0.15087890625,0.974853515625,0.280517578125,-0.6103515028953552,-0.6103515028953552,0.5798339247703552,100.0,108327.0,1.0
1163019.7950821,304304.34375,317799.1875,348204.96875,331360.5,309296.65625,299456.71875,317756.53125,312524.59375,-0.157958984375,0.97607421875,0.280517578125,-0.3662109076976776,-0.4577636420726776,0.7934569716453552,100.0,108328.0,1.0
1163019.7951353,305283.625,317680.53125,348564.90625,331881.9375,309088.25,299040.25,317204.09375,311675.0625,-0.15576171875,0.974609375,0.28173828125,-0.2746581733226776,-0.4577636420726776,0.9155272841453552,100.0,108329.0,1.0
1163019.7969789,305050.53125,317651.28125,348280.53125,331620.34375,308965.0625,298904.625,317043.3125,311391.375,-0.15869140625,0.97509765625,0.281982421875,-0.2441406100988388,-0.4882812201976776,0.9155272841453552,100.0,108330.0,1.0
1163019.8057362,303960.40625,317760.46875,347818.71875,330996.28125,309122.3125,299259.125,317530.0625,312111.0,-0.15966796875,0.97412109375,0.283203125,-0.2441406100988388,-0.5798339247703552,0.9765624403953552,100.0,108331.0,1.0
1163019.8094002,303460.53125,317851.03125,347716.1875,330780.96875,309312.5,299592.5,317950.90625,312781.9375,-0.1591796875,0.976806640625,0.283203125,-0.1831054538488388,-0.7019042372703552,1.0070799589157104,100.0,108332.0,1.0
1163019.818673,304270.8125,317801.84375,348178.15625,331334.75,309295.0625,299460.09375,317757.96875,312529.15625,-0.1591796875,0.975830078125,0.283447265625,-0.1220703050494194,-0.7934569716453552,1.0986326932907104,100.0,108333.0,1.0
1163019.8187075,305252.34375,317675.0,348531.75,331855.125,309074.84375,299028.28125,317189.96875,311666.84375,-0.158203125,0.974853515625,0.283447265625,-0.2136230319738388,-0.8544921278953552,1.1901854276657104,100.0,108334.0,1.0
1163019.8206072,305056.96875,317655.3125,348269.53125,331619.96875,308962.375,298894.78125,317030.0,311380.1875,-0.15673828125,0.97802734375,0.284423828125,-0.2441406100988388,-0.9765624403953552,1.1596678495407104,100.0,108335.0,1.0
1163019.8232539,303974.53125,317762.6875,347812.375,331000.125,309118.84375,299250.71875,317516.1875,312099.46875,-0.15576171875,0.97705078125,0.283935546875,-0.1525878757238388,-1.0375975370407104,1.1291502714157104,100.0,108336.0,1.0
1163019.8369844,303450.6875,317842.8125,347697.75,330770.4375,309303.09375,299586.34375,317943.75,312780.3125,-0.154541015625,0.97705078125,0.2822265625,-0.1831054538488388,-0.9765624403953552,1.0070799589157104,100.0,108337.0,1.0
1163019.8400522,304248.65625,317792.28125,348164.5625,331321.90625,309293.875,299462.96875,317770.21875,312548.5625,-0.153076171875,0.974853515625,0.28271484375,-0.1525878757238388,-1.0681151151657104,1.0375975370407104,100.0,108338.0,1.0
1163019.8401088,305242.0625,317659.34375,348533.71875,331851.8125,309076.1875,299032.46875,317201.5625,311685.15625,-0.152587890625,0.977294921875,0.28271484375,-0.03051757626235485,-1.0375975370407104,0.9460448622703552,100.0,108339.0,1.0
1163019.8419341,305061.375,317631.09375,348274.4375,331618.1875,308946.1875,298880.46875,317015.0625,311369.125,-0.150634765625,0.975830078125,0.285400390625,-0.1525878757238388,-1.0681151151657104,0.7629393935203552,100.0,108340.0,1.0
1163019.8444793,303990.34375,317744.53125,347822.84375,331003.34375,309102.65625,299228.90625,317492.34375,312078.46875,-0.151123046875,0.97265625,0.287109375,-0.2441406100988388,-0.9765624403953552,0.5798339247703552,100.0,108341.0,1.0
1163019.8482271,303458.03125,317833.78125,347705.1875,330768.375,309292.8125,299565.15625,317923.71875,312769.59375,-0.150390625,0.97265625,0.28466796875,-0.2136230319738388,-1.0375975370407104,0.6408690810203552,100.0,108342.0,1.0
1163019.8569813,304237.46875,317785.84375,348161.96875,331309.1875,309284.21875,299445.96875,317754.75,312547.9375,-0.14697265625,0.9716796875,0.2841796875,-0.0915527269244194,-1.0070799589157104,0.4882812201976776,100.0,108343.0,1.0
1163019.8600737,305242.5,317660.59375,348544.96875,331856.0,309075.375,299023.53125,317196.40625,311694.65625,-0.147705078125,0.97119140625,0.28125,0.0610351525247097,-0.9460448622703552,0.4882812201976776,100.0,108344.0,1.0
1163019.8601234,305080.0625,317634.21875,348294.65625,331636.59375,308948.40625,298873.5,317010.6875,311369.03125,-0.146728515625,0.97119140625,0.280029296875,0.2441406100988388,-0.8544921278953552,0.4272460639476776,100.0,108345.0,1.0
1163019.8619363,304012.4375,317753.03125,347845.5625,331024.25,309108.0,299229.875,317493.84375,312073.90625,-0.144287109375,0.971435546875,0.27880859375,0.4272460639476776,-0.6713866591453552,0.5798339247703552,100.0,108346.0,1.0
1163019.8763252,303461.59375,317846.1875,347724.75,330779.28125,309306.9375,299582.15625,317938.03125,312778.34375,-0.145751953125,0.9716796875,0.279296875,0.4272460639476776,-0.4577636420726776,0.5493163466453552,100.0,108347.0,1.0
1163019.8763758,304228.53125,317805.15625,348181.28125,331316.15625,309308.375,299475.5625,317783.78125,312576.03125,-0.144287109375,0.972900390625,0.27734375,0.7019042372703552,-0.3051757514476776,0.6408690810203552,100.0,108348.0,1.0
1163019.8781923,305246.875,317682.0625,348572.0,331867.90625,309100.78125,299050.0,317223.65625,311723.4375,-0.146240234375,0.973876953125,0.280029296875,0.7934569716453552,-0.1831054538488388,0.5493163466453552,100.0,108349.0,1.0
1163019.8807558,305108.375,317650.75,348332.46875,331661.1875,308968.71875,298890.03125,317025.625,311384.9375,-0.144775390625,0.975830078125,0.280517578125,0.8544921278953552,-0.1525878757238388,0.6408690810203552,100.0,108350.0,1.0
1163019.8844341,304047.5,317765.375,347882.65625,331050.71875,309122.75,299238.09375,317500.375,312078.46875,-0.146240234375,0.97900390625,0.276611328125,0.9765624403953552,0.03051757626235485,0.6103515028953552,100.0,108351.0,1.0
1163019.8989902,303483.34375,317861.21875,347760.15625,330800.8125,309324.28125,299596.8125,317955.1875,312794.4375,-0.147705078125,0.97998046875,0.276123046875,0.9460448622703552,0.0915527269244194,0.7019042372703552,100.0,108352.0,1.0
1163019.8990311,304213.59375,317797.46875,348190.5,331312.78125,309308.1875,299477.625,317790.78125,312593.53125,-0.147216796875,0.982177734375,0.276611328125,0.9155272841453552,0.1220703050494194,0.7324218153953552,100.0,108353.0,1.0
1163019.9012563,305235.09375,317666.6875,348580.75,331866.28125,309096.84375,299046.40625,317224.71875,311741.03125,-0.150146484375,0.9833984375,0.278564453125,0.8850097060203552,0.3051757514476776,0.5798339247703552,100.0,108354.0,1.0
1163019.9013119,305113.75,317634.5,348348.1875,331666.28125,308961.125,298878.78125,317016.9375,311384.125,-0.152587890625,0.983154296875,0.2783203125,0.8850097060203552,0.3356933295726776,0.5493163466453552,100.0,108355.0,1.0
1163019.9057327,304058.9375,317750.96875,347898.21875,331055.71875,309114.0,299225.40625,317488.5,312069.15625,-0.153564453125,0.981689453125,0.278564453125,0.7629393935203552,0.3662109076976776,0.5493163466453552,100.0,108356.0,1.0
1163019.9206687,303481.375,317854.875,347772.25,330801.71875,309324.46875,299595.5625,317957.96875,312799.625,-0.155029296875,0.981689453125,0.2783203125,0.6103515028953552,0.3051757514476776,0.4577636420726776,100.0,108357.0,1.0
1163019.9207183,304205.46875,317809.53125,348205.0625,331311.0625,309324.03125,299495.78125,317813.9375,312619.46875,-0.154541015625,0.978759765625,0.277587890625,0.4577636420726776,0.2136230319738388,0.3967284858226776,100.0,108358.0,1.0
1163019.9207319,305225.875,317674.71875,348588.0625,331864.0625,309106.21875,299057.3125,317237.78125,311758.40625,-0.154296875,0.977294921875,0.277587890625,0.3662109076976776,0.2136230319738388,0.3051757514476776,100.0,108359.0,1.0
1163019.9238256,305114.65625,317633.3125,348350.0625,331671.75,308959.78125,298876.1875,317011.0625,311378.59375,-0.15283203125,0.977294921875,0.27392578125,0.2441406100988388,0.2441406100988388,0.2746581733226776,100.0,108360.0,1.0
1163019.9238763,304056.25,317739.90625,347895.09375,331061.34375,309103.90625,299210.125,317468.0,312048.4375,-0.14990234375,0.97412109375,0.275634765625,0.2441406100988388,0.1831054538488388,0.3662109076976776,100.0,108361.0,1.0
1163019.925658,303462.0625,317840.46875,347755.78125,330792.96875,309309.09375,299572.9375,317934.1875,312783.8125,-0.147216796875,0.973876953125,0.275390625,0.4272460639476776,0.2136230319738388,0.3967284858226776,100.0,108362.0,1.0
1163019.9294571,304171.40625,317795.59375,348179.03125,331292.3125,309309.09375,299479.5,317796.03125,312615.4375,-0.147216796875,0.974365234375,0.272216796875,0.5493163466453552,0.2441406100988388,0.4882812201976776,100.0,108363.0,1.0
1163019.9382333,305199.3125,317658.90625,348571.28125,331852.0,309093.0,299045.15625,317223.40625,311754.0,-0.148681640625,0.976318359375,0.27099609375,0.4882812201976776,0.3356933295726776,0.5798339247703552,100.0,108364.0,1.0
1163019.9406849,305114.75,317619.375,348347.5625,331671.5625,308950.125,298862.34375,316997.0,311367.3125,-0.151123046875,0.979736328125,0.271728515625,0.6103515028953552,0.3356933295726776,0.5798339247703552,100.0,108365.0,1.0
1163019.9444841,304073.15625,317736.15625,347899.65625,331066.8125,309101.21875,299200.1875,317459.25,312034.21875,-0.152099609375,0.98095703125,0.273193359375,0.7019042372703552,0.2746581733226776,0.6103515028953552,100.0,108366.0,1.0
1163019.9563273,303463.75,317842.4375,347757.3125,330791.15625,309311.40625,299575.0,317935.0625,312777.71875,-0.15087890625,0.981201171875,0.272216796875,0.6103515028953552,0.3051757514476776,0.5798339247703552,100.0,108367.0,1.0
1163019.956378,304161.5625,317801.78125,348180.375,331286.21875,309319.1875,299492.1875,317807.75,312626.96875,-0.15234375,0.97900390625,0.27294921875,0.5187987685203552,0.3356933295726776,0.6103515028953552,100.0,108368.0,1.0
1163019.9588354,305211.125,317675.78125,348591.03125,331863.78125,309112.5625,299069.84375,317245.9375,311779.75,-0.151611328125,0.978271484375,0.27490234375,0.4882812201976776,0.2746581733226776,0.5493163466453552,100.0,108369.0,1.0
1163019.958885,305148.4375,317635.28125,348375.90625,331696.5,308964.4375,298879.21875,317006.59375,311376.0,-0.150634765625,0.976806640625,0.273681640625,0.4882812201976776,0.3356933295726776,0.6408690810203552,100.0,108370.0,1.0
1163019.9607281,304108.8125,317746.96875,347924.5,331090.875,309107.28125,299206.71875,317456.46875,312030.625,-0.152099609375,0.976806640625,0.275390625,0.3967284858226776,0.3967284858226776,0.7019042372703552,100.0,108371.0,1.0
1163019.9694447,303479.75,317849.96875,347771.4375,330802.15625,309316.0625,299580.8125,317934.96875,312782.375,-0.1552734375,0.97900390625,0.275390625,0.4272460639476776,0.3051757514476776,0.6408690810203552,100.0,108372.0,1.0
1163019.9719812,304163.4375,317824.21875,348195.59375,331294.96875,309338.40625,299513.3125,317831.71875,312656.84375,-0.15673828125,0.9794921875,0.277587890625,0.3662109076976776,0.3051757514476776,0.4882812201976776,100.0,108373.0,1.0
1163019.9757349,305210.5,317692.25,348609.53125,331874.5,309129.75,299087.90625,317271.59375,311807.125,-0.158203125,0.98193359375,0.277587890625,0.2441406100988388,0.1525878757238388,0.3967284858226776,100.0,108374.0,1.0
1163019.9844437,305157.21875,317638.25,348391.84375,331708.3125,308967.5625,298881.1875,317011.3125,311377.4375,-0.16015625,0.984130859375,0.277099609375,0.1831054538488388,-0.03051757626235485,0.2746581733226776,100.0,108375.0,1.0
1163019.9886937,304126.34375,317751.875,347939.0625,331107.75,309110.15625,299205.21875,317453.78125,312020.09375,-0.16064453125,0.982177734375,0.276123046875,0.03051757626235485,-0.1525878757238388,0.2441406100988388,100.0,108376.0,1.0
1163019.9887282,303474.9375,317847.8125,347771.625,330804.125,309312.21875,299572.5,317927.75,312771.71875,-0.16015625,0.982666015625,0.2763671875,-0.1220703050494194,-0.3356933295726776,0.0,100.0,108377.0,1.0
1163019.9950858,304142.34375,317817.6875,348190.03125,331283.8125,309333.59375,299511.4375,317830.03125,312657.5625,-0.159423828125,0.981201171875,0.273193359375,-0.1220703050494194,-0.4272460639476776,-0.1831054538488388,100.0,108378.0,1.0
1163019.9951359,305206.03125,317690.53125,348610.25,331871.84375,309127.84375,299085.75,317271.84375,311816.3125,-0.15966796875,0.98046875,0.276611328125,-0.0610351525247097,-0.6103515028953552,-0.2441406100988388,100.0,108379.0,1.0
1163020.0031577,305183.75,317646.28125,348410.5,331727.53125,308974.4375,298882.28125,317017.21875,311386.71875,-0.159912109375,0.979736328125,0.275634765625,-0.0915527269244194,-0.6408690810203552,-0.2136230319738388,100.0,108380.0,1.0
1163020.0075296,304149.0625,317749.1875,347951.0625,331122.25,309108.28125,299198.5,317452.28125,312013.46875,-0.159423828125,0.98095703125,0.27685546875,-0.1220703050494194,-0.7019042372703552,-0.2746581733226776,100.0,108381.0,1.0
1163020.0075799,303470.71875,317843.53125,347767.59375,330800.125,309305.6875,299570.0,317931.0625,312768.59375,-0.1572265625,0.980712890625,0.276611328125,-0.1525878757238388,-0.8239745497703552,-0.3662109076976776,100.0,108382.0,1.0
1163020.0157325,304113.03125,317813.125,348166.0,331261.09375,309322.9375,299508.03125,317836.625,312662.375,-0.1552734375,0.98095703125,0.27783203125,-0.2746581733226776,-0.8850097060203552,-0.2441406100988388,100.0,108383.0,1.0
1163020.0200839,305174.90625,317676.6875,348586.5625,331848.59375,309113.375,299079.84375,317272.375,311815.25,-0.154541015625,0.980712890625,0.27783203125,-0.2136230319738388,-0.8239745497703552,-0.1831054538488388,100.0,108384.0,1.0
1163020.0201395,305175.4375,317633.3125,348399.0625,331717.875,308962.625,298874.03125,317008.46875,311373.125,-0.154052734375,0.98095703125,0.2783203125,-0.1831054538488388,-0.8850097060203552,-0.0915527269244194,100.0,108385.0,1.0
1163020.0232552,304150.84375,317739.71875,347944.625,331116.15625,309093.09375,299186.6875,317433.9375,311990.5,-0.155517578125,0.980224609375,0.27685546875,-0.2746581733226776,-0.9155272841453552,0.0610351525247097,100.0,108386.0,1.0
1163020.0324274,303468.21875,317842.1875,347763.375,330793.0625,309298.09375,299567.03125,317921.65625,312760.03125,-0.154296875,0.978515625,0.277099609375,-0.2441406100988388,-0.9460448622703552,0.1525878757238388,100.0,108387.0,1.0
1163020.0324777,304093.8125,317812.6875,348161.34375,331250.1875,309324.71875,299515.28125,317841.65625,312673.65625,-0.1533203125,0.981201171875,0.27490234375,-0.1525878757238388,-0.9765624403953552,0.3356933295726776,100.0,108388.0,1.0
1163020.0381908,305170.875,317687.40625,348594.59375,331851.53125,309127.59375,299097.46875,317291.34375,311839.75,-0.154541015625,0.979736328125,0.274658203125,-0.03051757626235485,-0.8850097060203552,0.4882812201976776,100.0,108389.0,1.0
1163020.0407286,305187.5,317634.9375,348404.34375,331725.03125,308962.28125,298874.21875,317010.34375,311374.03125,-0.15576171875,0.979736328125,0.2783203125,0.0610351525247097,-0.8239745497703552,0.6103515028953552,100.0,108390.0,1.0
1163020.0444125,304169.53125,317734.1875,347944.09375,331125.5625,309087.28125,299178.5625,317426.34375,311977.09375,-0.154541015625,0.978515625,0.279052734375,0.0915527269244194,-0.9155272841453552,0.6713866591453552,100.0,108391.0,1.0
1163020.0537858,303476.1875,317841.65625,347763.84375,330798.3125,309302.46875,299570.96875,317926.59375,312759.75,-0.153076171875,0.9794921875,0.276123046875,0.0610351525247097,-0.7629393935203552,0.7019042372703552,100.0,108392.0,1.0
1163020.0538381,304080.84375,317814.09375,348151.0625,331239.8125,309327.9375,299526.625,317852.375,312684.03125,-0.153564453125,0.97998046875,0.277587890625,0.1831054538488388,-0.8850097060203552,0.7629393935203552,100.0,108393.0,1.0
1163020.0563257,305152.65625,317686.15625,348587.90625,331843.40625,309128.5,299108.65625,317302.0625,311850.75,-0.1552734375,0.980712890625,0.279541015625,0.0915527269244194,-0.9155272841453552,0.8544921278953552,100.0,108394.0,1.0
1163020.0563807,305192.15625,317636.90625,348411.9375,331731.71875,308963.15625,298879.84375,317013.8125,311372.5,-0.15673828125,0.9794921875,0.278076171875,0.03051757626235485,-0.8850097060203552,0.9460448622703552,100.0,108395.0,1.0
1163020.0669341,304190.4375,317746.6875,347961.78125,331137.90625,309092.53125,299182.5,317428.75,311967.59375,-0.154296875,0.97900390625,0.277587890625,0.03051757626235485,-1.0070799589157104,0.9765624403953552,100.0,108396.0,1.0
1163020.0700775,303481.1875,317849.6875,347771.34375,330800.03125,309304.71875,299572.21875,317928.375,312753.21875,-0.15576171875,0.9755859375,0.280029296875,0.0915527269244194,-1.0986326932907104,0.9460448622703552,100.0,108397.0,1.0
1163020.0701276,304066.53125,317817.78125,348147.21875,331226.3125,309328.03125,299527.59375,317855.15625,312687.6875,-0.15625,0.974365234375,0.274658203125,0.0610351525247097,-1.0681151151657104,0.8239745497703552,100.0,108398.0,1.0
1163020.0719939,305147.8125,317687.59375,348584.9375,331834.71875,309128.03125,299109.8125,317302.96875,311859.34375,-0.154296875,0.97265625,0.277587890625,0.1831054538488388,-1.1291502714157104,0.8544921278953552,100.0,108399.0,1.0
1163020.0807491,305200.65625,317630.03125,348407.9375,331727.625,308955.9375,298875.1875,317003.09375,311365.09375,-0.154052734375,0.971923828125,0.27734375,0.1831054538488388,-1.1291502714157104,0.7324218153953552,100.0,108400.0,1.0
1163020.0844785,304204.5625,317734.09375,347955.96875,331138.6875,309081.625,299171.0625,317410.34375,311947.125,-0.15234375,0.97216796875,0.278076171875,0.3356933295726776,-1.1901854276657104,0.7629393935203552,100.0,108401.0,1.0
1163020.0882474,303479.46875,317839.40625,347752.65625,330789.375,309292.0,299554.6875,317908.0625,312734.96875,-0.1513671875,0.971435546875,0.27783203125,0.3967284858226776,-1.1596678495407104,0.6103515028953552,100.0,108402.0,1.0
1163020.0975773,304042.03125,317806.6875,348116.90625,331202.09375,309314.28125,299512.125,317841.46875,312683.3125,-0.15185546875,0.9716796875,0.274658203125,0.5187987685203552,-1.2817381620407104,0.5798339247703552,100.0,108403.0,1.0
1163020.097628,305130.46875,317681.4375,348570.65625,331821.84375,309123.65625,299102.375,317303.875,311867.5625,-0.15087890625,0.973388671875,0.276611328125,0.6408690810203552,-1.2512205839157104,0.4577636420726776,100.0,108404.0,1.0
1163020.0994761,305206.1875,317626.4375,348411.21875,331735.21875,308955.21875,298864.125,316999.6875,311364.1875,-0.152099609375,0.974365234375,0.275390625,0.7629393935203552,-1.1291502714157104,0.4577636420726776,100.0,108405.0,1.0
1163020.11073,304219.9375,317732.5625,347961.25,331148.96875,309079.125,299156.84375,317397.8125,311933.0,-0.150634765625,0.974853515625,0.27490234375,0.8239745497703552,-1.1596678495407104,0.3356933295726776,100.0,108406.0,1.0
1163020.1144147,303486.8125,317846.1875,347764.8125,330800.1875,309299.0625,299556.21875,317914.15625,312734.90625,-0.15185546875,0.97607421875,0.275634765625,0.8239745497703552,-1.0681151151657104,0.2746581733226776,100.0,108407.0,1.0
1163020.1144646,304035.3125,317821.15625,348126.375,331209.78125,309333.0625,299532.4375,317867.40625,312704.125,-0.147216796875,0.97802734375,0.27734375,0.8544921278953552,-1.0070799589157104,0.2746581733226776,100.0,108408.0,1.0
1163020.1144782,305126.1875,317690.53125,348575.375,331828.75,309138.6875,299119.8125,317324.15625,311890.4375,-0.150390625,0.97900390625,0.276123046875,0.8544921278953552,-1.0375975370407104,0.1831054538488388,100.0,108409.0,1.0
1163020.1169288,305226.59375,317634.65625,348426.0625,331755.25,308970.0625,298875.375,317013.8125,311380.90625,-0.150634765625,0.97998046875,0.27587890625,0.8850097060203552,-0.9155272841453552,0.0915527269244194,100.0,108410.0,1.0
1163020.1207552,304236.84375,317725.40625,347966.6875,331161.125,309076.28125,299149.3125,317393.96875,311928.96875,-0.150390625,0.98095703125,0.27294921875,0.9155272841453552,-0.8850097060203552,0.0915527269244194,100.0,108411.0,1.0
1163020.1319678,303481.28125,317830.8125,347755.15625,330795.375,309286.65625,299548.71875,317906.0,312729.625,-0.14990234375,0.982421875,0.274169921875,0.8239745497703552,-0.7934569716453552,0.0915527269244194,100.0,108412.0,1.0
1163020.1349306,304020.5625,317818.5625,348117.875,331201.09375,309334.5625,299541.46875,317875.96875,312717.375,-0.150634765625,0.982177734375,0.2763671875,0.8850097060203552,-0.7629393935203552,0.0610351525247097,100.0,108413.0,1.0
1163020.1349839,305125.75,317705.28125,348586.03125,331835.53125,309158.53125,299146.65625,317351.96875,311918.34375,-0.150634765625,0.982177734375,0.2744140625,0.8544921278953552,-0.7324218153953552,0.0610351525247097,100.0,108414.0,1.0
1163020.1407552,305233.90625,317633.875,348436.96875,331759.71875,308975.59375,298884.21875,317019.1875,311379.40625,-0.15380859375,0.98046875,0.272705078125,0.7324218153953552,-0.7934569716453552,0.03051757626235485,100.0,108415.0,1.0
1163020.1432999,304256.78125,317729.71875,347984.75,331172.9375,309083.15625,299154.25,317390.6875,311913.59375,-0.154296875,0.98193359375,0.273681640625,0.7324218153953552,-0.7019042372703552,0.03051757626235485,100.0,108416.0,1.0
1163020.1682147,303494.3125,317845.5625,347773.9375,330804.59375,309299.96875,299558.09375,317909.21875,312722.75,-0.154052734375,0.978271484375,0.27685546875,0.6103515028953552,-0.7324218153953552,-0.0610351525247097,100.0,108417.0,1.0
1163020.1707393,304003.0625,317816.6875,348112.6875,331185.1875,309331.4375,299537.875,317869.34375,312713.09375,-0.153564453125,0.978515625,0.2763671875,0.5187987685203552,-0.7019042372703552,-0.03051757626235485,100.0,108418.0,1.0
1163020.1732576,305099.34375,317684.375,348561.53125,331806.46875,309135.1875,299121.78125,317323.8125,311902.6875,-0.157958984375,0.978759765625,0.271484375,0.5187987685203552,-0.7629393935203552,0.0915527269244194,100.0,108419.0,1.0
1163020.1756919,305231.25,317617.15625,348417.75,331747.28125,308952.25,298856.25,316987.8125,311359.28125,-0.156982421875,0.9755859375,0.27197265625,0.4882812201976776,-0.8544921278953552,-0.0610351525247097,100.0,108420.0,1.0
1163020.1782552,304268.3125,317715.84375,347970.90625,331169.4375,309063.125,299126.34375,317363.03125,311892.59375,-0.15869140625,0.975341796875,0.274169921875,0.4882812201976776,-0.9765624403953552,-0.1525878757238388,100.0,108421.0,1.0
1163020.1807166,303489.0625,317824.375,347745.3125,330784.65625,309271.96875,299524.46875,317874.09375,312697.0,-0.1572265625,0.97412109375,0.275146484375,0.5798339247703552,-0.9765624403953552,-0.1831054538488388,100.0,108422.0,1.0
1163020.183184,303983.65625,317811.59375,348086.40625,331162.65625,309320.09375,299526.0,317853.34375,312707.0,-0.15478515625,0.973876953125,0.274658203125,0.5493163466453552,-1.1596678495407104,-0.1831054538488388,100.0,108423.0,1.0
1163020.1856938,305084.59375,317684.8125,348549.8125,331794.9375,309136.09375,299121.4375,317320.9375,311906.28125,-0.15478515625,0.975341796875,0.27587890625,0.6103515028953552,-1.1901854276657104,-0.1831054538488388,100.0,108424.0,1.0
1163020.1887818,305234.1875,317613.5625,348420.0,331745.3125,308952.625,298852.75,316980.5625,311347.65625,-0.155029296875,0.97607421875,0.273193359375,0.6408690810203552,-1.1596678495407104,0.0,100.0,108425.0,1.0
1163020.1888325,304271.375,317704.75,347965.53125,331163.09375,309051.6875,299112.3125,317342.84375,311858.34375,-0.154296875,0.9755859375,0.2734375,0.5798339247703552,-1.1291502714157104,0.0,100.0,108426.0,1.0
1163020.1907193,303477.53125,317816.875,347736.03125,330773.90625,309266.25,299517.5,317865.6875,312679.65625,-0.155029296875,0.976318359375,0.27490234375,0.5798339247703552,-1.2512205839157104,0.1220703050494194,100.0,108427.0,1.0
1163020.193785,303956.03125,317806.3125,348071.3125,331144.78125,309318.75,299527.0625,317860.5,312712.46875,-0.154296875,0.975830078125,0.274169921875,0.7019042372703552,-1.2512205839157104,0.0915527269244194,100.0,108428.0,1.0
1163020.1938364,305072.34375,317692.15625,348553.21875,331794.75,309144.84375,299136.625,317344.0,311930.15625,-0.154541015625,0.978271484375,0.274169921875,0.7019042372703552,-1.1901854276657104,0.0915527269244194,100.0,108429.0,1.0
1163020.2019804,305247.15625,317624.46875,348434.03125,331762.3125,308956.5625,298858.84375,316991.21875,311358.03125,-0.1552734375,0.977294921875,0.27197265625,0.6713866591453552,-1.1291502714157104,0.0915527269244194,100.0,108430.0,1.0
1163020.2050283,304308.5625,317724.59375,347991.90625,331194.03125,309062.875,299118.9375,317350.96875,311863.1875,-0.15380859375,0.979736328125,0.27392578125,0.6408690810203552,-1.2207030057907104,0.1220703050494194,100.0,108431.0,1.0
1163020.2050784,303495.65625,317829.9375,347749.4375,330790.625,309272.6875,299521.71875,317870.4375,312680.1875,-0.15380859375,0.97900390625,0.2734375,0.6103515028953552,-1.1901854276657104,0.1220703050494194,100.0,108432.0,1.0
1163020.2182311,303948.6875,317814.8125,348074.34375,331142.53125,309325.0,299534.75,317870.78125,312721.5625,-0.1533203125,0.9794921875,0.275390625,0.5493163466453552,-1.1291502714157104,0.2136230319738388,100.0,108433.0,1.0
1163020.2213245,305056.96875,317691.71875,348555.09375,331789.125,309147.71875,299140.125,317353.65625,311939.09375,-0.154541015625,0.980712890625,0.27685546875,0.5798339247703552,-1.2512205839157104,0.2441406100988388,100.0,108434.0,1.0
1163020.2213745,305253.59375,317625.71875,348450.21875,331771.78125,308966.5625,298868.21875,317004.34375,311366.625,-0.15185546875,0.97998046875,0.275146484375,0.5493163466453552,-1.1901854276657104,0.3356933295726776,100.0,108435.0,1.0
1163020.2231845,304317.59375,317719.59375,347997.28125,331196.8125,309063.03125,299120.625,317353.03125,311854.15625,-0.15087890625,0.980224609375,0.2744140625,0.5187987685203552,-1.1291502714157104,0.5187987685203552,100.0,108436.0,1.0
1163020.2294858,303500.59375,317835.65625,347750.0625,330788.5625,309279.84375,299533.15625,317883.03125,312681.34375,-0.151611328125,0.98046875,0.2734375,0.3662109076976776,-1.1291502714157104,0.4272460639476776,100.0,108437.0,1.0
1163020.2357318,303930.8125,317815.28125,348063.4375,331127.34375,309329.28125,299543.78125,317882.21875,312732.84375,-0.15185546875,0.980224609375,0.275634765625,0.2746581733226776,-1.0986326932907104,0.4272460639476776,100.0,108438.0,1.0
1163020.2400752,305037.84375,317683.65625,348537.75,331770.4375,309143.40625,299139.65625,317353.40625,311948.90625,-0.15185546875,0.978271484375,0.27294921875,0.1220703050494194,-1.0375975370407104,0.3662109076976776,100.0,108439.0,1.0
1163020.2401247,305257.6875,317616.53125,348441.09375,331762.65625,308953.0625,298855.625,316987.1875,311356.78125,-0.1533203125,0.979248046875,0.275634765625,-0.0610351525247097,-1.0681151151657104,0.3662109076976776,100.0,108440.0,1.0
1163020.2500268,304331.71875,317705.84375,347993.4375,331193.6875,309042.375,299097.28125,317322.0,311825.28125,-0.150146484375,0.98095703125,0.274658203125,-0.0915527269244194,-1.0375975370407104,0.4882812201976776,100.0,108441.0,1.0
1163020.250074,303504.34375,317825.46875,347749.4375,330786.0,309264.21875,299515.71875,317863.28125,312664.34375,-0.149169921875,0.976806640625,0.276123046875,-0.1525878757238388,-0.9155272841453552,0.4577636420726776,100.0,108442.0,1.0
1163020.2519709,303924.1875,317822.96875,348063.625,331127.53125,309331.71875,299554.59375,317893.9375,312744.5625,-0.150146484375,0.979248046875,0.276611328125,-0.2441406100988388,-0.9155272841453552,0.5187987685203552,100.0,108443.0,1.0
1163020.2545071,305040.25,317702.71875,348550.25,331781.53125,309160.84375,299164.875,317383.78125,311973.0625,-0.149658203125,0.97998046875,0.278564453125,-0.3051757514476776,-1.0070799589157104,0.5187987685203552,100.0,108444.0,1.0
1163020.2682557,305276.84375,317634.40625,348468.28125,331786.625,308974.0,298874.84375,317012.9375,311371.4375,-0.148193359375,0.981201171875,0.279052734375,-0.5187987685203552,-0.8544921278953552,0.4577636420726776,100.0,108445.0,1.0
1163020.2719162,304355.3125,317722.5625,348017.21875,331219.15625,309059.46875,299110.6875,317337.65625,311828.65625,-0.149169921875,0.981689453125,0.2763671875,-0.5187987685203552,-0.7324218153953552,0.5187987685203552,100.0,108446.0,1.0
1163020.2719738,303499.6875,317826.53125,347744.15625,330785.8125,309266.625,299518.125,317867.3125,312656.3125,-0.151611328125,0.98046875,0.2763671875,-0.5493163466453552,-0.6713866591453552,0.5187987685203552,100.0,108447.0,1.0
1163020.271992,303894.6875,317816.59375,348040.625,331105.09375,309326.15625,299550.03125,317894.46875,312742.75,-0.151611328125,0.978271484375,0.27783203125,-0.5493163466453552,-0.7629393935203552,0.5187987685203552,100.0,108448.0,1.0
1163020.2744641,305009.78125,317693.5,348531.75,331758.5625,309150.9375,299157.0,317380.5625,311977.53125,-0.15185546875,0.977783203125,0.28076171875,-0.5798339247703552,-0.7629393935203552,0.5187987685203552,100.0,108449.0,1.0
1163020.2769532,305263.15625,317617.9375,348455.3125,331773.84375,308955.46875,298859.375,316995.125,311359.71875,-0.152099609375,0.97802734375,0.278564453125,-0.6103515028953552,-0.6408690810203552,0.5493163466453552,100.0,108450.0,1.0
1163020.2857465,304354.34375,317704.40625,348005.78125,331210.65625,309035.84375,299087.625,317308.40625,311798.0,-0.15283203125,0.97998046875,0.280517578125,-0.6103515028953552,-0.5798339247703552,0.6408690810203552,100.0,108451.0,1.0
1163020.2900252,303500.84375,317823.75,347742.28125,330782.40625,309254.625,299504.53125,317847.90625,312638.6875,-0.152099609375,0.982666015625,0.277587890625,-0.7324218153953552,-0.5798339247703552,0.5493163466453552,100.0,108452.0,1.0
1163020.2900697,303878.96875,317820.53125,348033.75,331095.4375,309321.4375,299547.28125,317888.03125,312742.84375,-0.15380859375,0.979736328125,0.280029296875,-0.7629393935203552,-0.5187987685203552,0.6408690810203552,100.0,108453.0,1.0
1163020.3006824,305004.84375,317705.46875,348535.875,331765.09375,309158.96875,299169.09375,317389.25,311995.40625,-0.153564453125,0.97705078125,0.2802734375,-0.7934569716453552,-0.4882812201976776,0.5798339247703552,100.0,108454.0,1.0
1163020.3037441,305280.40625,317624.90625,348468.28125,331795.75,308964.96875,298868.21875,317002.90625,311370.53125,-0.152099609375,0.977294921875,0.27734375,-0.7629393935203552,-0.4882812201976776,0.5798339247703552,100.0,108455.0,1.0
1163020.3037792,304379.28125,317703.6875,348012.9375,331231.6875,309038.375,299082.90625,317304.75,311790.9375,-0.15234375,0.980224609375,0.2734375,-0.5493163466453552,-0.5493163466453552,0.7019042372703552,100.0,108456.0,1.0
1163020.3057324,303515.0625,317822.96875,347745.5,330796.90625,309258.65625,299502.03125,317851.21875,312636.625,-0.15283203125,0.979736328125,0.276123046875,-0.6408690810203552,-0.5187987685203552,0.6713866591453552,100.0,108457.0,1.0
1163020.3144803,303884.59375,317831.625,348040.90625,331104.1875,309340.28125,299563.09375,317911.03125,312766.375,-0.1513671875,0.981689453125,0.275634765625,-0.7019042372703552,-0.6103515028953552,0.5798339247703552,100.0,108458.0,1.0
1163020.3187661,305001.90625,317711.09375,348537.84375,331763.46875,309174.625,299181.96875,317411.78125,312017.03125,-0.151611328125,0.9814453125,0.279052734375,-0.6103515028953552,-0.5187987685203552,0.6103515028953552,100.0,108459.0,1.0
1163020.3188048,305288.09375,317622.40625,348470.0625,331794.5,308966.21875,298863.9375,317006.21875,311370.375,-0.15380859375,0.9814453125,0.281005859375,-0.5187987685203552,-0.4882812201976776,0.6408690810203552,100.0,108460.0,1.0
1163020.3319666,304390.1875,317699.125,348011.84375,331228.625,309031.125,299070.03125,317292.5,311770.5625,-0.154541015625,0.981689453125,0.281005859375,-0.5493163466453552,-0.3967284858226776,0.7324218153953552,100.0,108461.0,1.0
1163020.3349992,303517.40625,317826.53125,347747.65625,330796.96875,309257.3125,299498.71875,317847.09375,312626.09375,-0.154052734375,0.980224609375,0.283203125,-0.4882812201976776,-0.4882812201976776,0.6713866591453552,100.0,108462.0,1.0
1163020.3350347,303853.125,317825.8125,348022.3125,331085.15625,309327.875,299553.8125,317902.4375,312754.90625,-0.153564453125,0.980224609375,0.281982421875,-0.6408690810203552,-0.5187987685203552,0.5798339247703552,100.0,108463.0,1.0
1163020.3369649,304971.0625,317707.1875,348520.40625,331745.84375,309164.0625,299176.6875,317404.0,312012.75,-0.153076171875,0.980224609375,0.279296875,-0.6713866591453552,-0.4577636420726776,0.5798339247703552,100.0,108464.0,1.0
1163020.3407547,305290.25,317630.46875,348475.96875,331803.625,308966.84375,298867.5,317003.53125,311369.90625,-0.152099609375,0.97900390625,0.279052734375,-0.5493163466453552,-0.4272460639476776,0.5493163466453552,100.0,108465.0,1.0
