Time,FZ,C3,CZ,C4,PZ,PO7,OZ,PO8,AccX,AccY,AccZ,Gyro1,Gyro2,Gyro3,Battery,Counter,Validation
510638.9780671,264943.5625,289870.21875,301717.28125,279099.4375,286117.4375,276738.5625,253722.796875,263367.40625,0.015380859375,0.88623046875,-0.465087890625,1.2512205839157104,3.723144292831421,4.241942882537842,100.0,184664.0,1.0
510638.9806412,264779.5,289891.3125,301593.0,278942.28125,284434.375,276887.0625,253423.90625,263121.71875,0.014404296875,0.886962890625,-0.4677734375,0.8239745497703552,3.570556402206421,4.211425304412842,100.0,184665.0,1.0
510638.9832077,264356.15625,290445.46875,302151.53125,280086.78125,288373.09375,278860.65625,254458.4375,264230.8125,0.013916015625,0.8876953125,-0.46923828125,0.4577636420726776,3.326415777206421,4.180907726287842,100.0,184666.0,1.0
510638.9832211,264217.5625,290791.5625,302657.65625,281038.34375,292760.40625,280068.0,255470.703125,265246.8125,0.012939453125,0.884521484375,-0.471435546875,0.2136230319738388,2.990722417831421,4.241942882537842,100.0,184667.0,1.0
510638.9855237,264568.5,290410.40625,302358.40625,280393.53125,291334.71875,278716.15625,254982.8125,264685.71875,0.010986328125,0.882568359375,-0.468505859375,-0.0610351525247097,2.593993902206421,4.119872570037842,100.0,184668.0,1.0
510638.9881873,264946.25,289877.46875,301722.28125,279117.96875,286147.6875,276742.25,253712.78125,263373.65625,0.01123046875,0.881591796875,-0.466552734375,-0.2136230319738388,2.197265386581421,4.028319835662842,100.0,184669.0,1.0
510638.9905182,264788.0625,289890.78125,301593.1875,278949.59375,284445.625,276867.21875,253413.453125,263122.875,0.013916015625,0.879638671875,-0.466064453125,-0.3662109076976776,1.8615721464157104,3.967284917831421,100.0,184670.0,1.0
510638.9932019,264343.09375,290417.84375,302125.0625,280056.71875,288325.34375,278813.78125,254425.359375,264204.4375,0.017333984375,0.879150390625,-0.466796875,-0.4882812201976776,1.5869139432907104,3.784179449081421,100.0,184671.0,1.0
510638.9980405,264206.9375,290772.4375,302638.15625,281010.0,292707.90625,280045.90625,255444.59375,265228.125,0.021484375,0.875732421875,-0.468017578125,-0.5493163466453552,1.2512205839157104,3.692626714706421,100.0,184672.0,1.0
510639.0055447,264596.65625,290446.0,302391.5,280424.1875,291383.96875,278760.78125,255015.0,264723.34375,0.025390625,0.873291015625,-0.47021484375,-0.7629393935203552,1.0375975370407104,3.662109136581421,100.0,184673.0,1.0
510639.0055585,264981.1875,289928.875,301765.0,279155.6875,286240.125,276799.46875,253758.109375,263421.9375,0.029296875,0.869873046875,-0.470703125,-0.8544921278953552,0.9765624403953552,3.692626714706421,100.0,184674.0,1.0
510639.0095938,264808.375,289913.125,301612.3125,278960.4375,284469.15625,276883.15625,253422.65625,263132.875,0.03076171875,0.8681640625,-0.470703125,-0.9460448622703552,0.8239745497703552,3.723144292831421,100.0,184675.0,1.0
510639.0168956,264365.375,290431.6875,302142.65625,280059.25,288276.8125,278815.59375,254430.015625,264203.4375,0.03369140625,0.86572265625,-0.474365234375,-0.9155272841453552,0.7324218153953552,3.631591558456421,100.0,184676.0,1.0
510639.0194265,264201.5625,290761.25,302634.0625,280992.03125,292640.21875,280036.96875,255446.5625,265216.25,0.037841796875,0.869140625,-0.475341796875,-0.8239745497703552,0.6713866591453552,3.723144292831421,100.0,184677.0,1.0
510639.0243228,264580.90625,290425.53125,302381.21875,280407.84375,291372.96875,278753.28125,255017.234375,264710.8125,0.03955078125,0.870361328125,-0.472412109375,-0.9155272841453552,0.7629393935203552,3.784179449081421,100.0,184678.0,1.0
510639.024341,264982.28125,289925.28125,301770.03125,279160.25,286280.96875,276794.8125,253757.75,263416.125,0.040283203125,0.87109375,-0.4716796875,-0.9765624403953552,0.6713866591453552,3.662109136581421,100.0,184679.0,1.0
510639.0268862,264836.1875,289937.71875,301638.59375,278976.6875,284518.0625,276883.0625,253441.34375,263153.53125,0.042236328125,0.873779296875,-0.46875,-0.9460448622703552,0.7324218153953552,3.723144292831421,100.0,184680.0,1.0
510639.0294471,264356.15625,290403.53125,302116.5625,280021.0625,288209.21875,278758.0,254387.09375,264166.25,0.042724609375,0.87744140625,-0.467529296875,-1.0681151151657104,0.8850097060203552,3.662109136581421,100.0,184681.0,1.0
510639.038222,264188.875,290740.15625,302610.8125,280962.5,292561.71875,279998.78125,255410.0,265176.0,0.044677734375,0.882080078125,-0.46728515625,-1.1596678495407104,1.1291502714157104,3.601073980331421,100.0,184682.0,1.0
510639.0382466,264574.84375,290433.5,302380.59375,280412.03125,291377.1875,278759.4375,255007.125,264692.59375,0.04248046875,0.8837890625,-0.46875,-1.5258787870407104,1.0986326932907104,3.540038824081421,100.0,184683.0,1.0
510639.0406926,264973.5,289942.28125,301775.375,279171.15625,286359.21875,276812.40625,253768.578125,263414.0625,0.039794921875,0.88671875,-0.470458984375,-1.7089842557907104,1.2207030057907104,3.509521245956421,100.0,184684.0,1.0
510639.0407201,264826.53125,289938.96875,301633.5,278968.03125,284560.875,276876.15625,253443.671875,263136.71875,0.041748046875,0.8876953125,-0.468994140625,-1.9531248807907104,1.3427733182907104,3.356933355331421,100.0,184685.0,1.0
510639.0431973,264337.8125,290390.84375,302098.5,279989.0625,288204.03125,278740.125,254399.25,264151.0625,0.041748046875,0.889892578125,-0.470458984375,-2.136230230331421,1.3732908964157104,3.234863042831421,100.0,184686.0,1.0
510639.0469958,264183.0625,290727.0,302602.40625,280948.3125,292541.25,279995.3125,255424.578125,265172.15625,0.03857421875,0.89208984375,-0.4736328125,-2.319335699081421,1.4953612089157104,3.051757574081421,100.0,184687.0,1.0
510639.0470308,264554.8125,290419.0,302371.46875,280404.0625,291401.3125,278773.46875,255014.734375,264687.75,0.036865234375,0.894287109375,-0.4755859375,-2.441406011581421,1.5563963651657104,2.807616949081421,100.0,184688.0,1.0
510639.0694256,264980.65625,289958.46875,301793.1875,279193.78125,286441.03125,276846.3125,253792.171875,263423.46875,0.030029296875,0.89697265625,-0.47802734375,-2.502441167831421,1.4648436307907104,2.471923589706421,100.0,184689.0,1.0
510639.0694652,264845.46875,289966.96875,301657.625,278986.25,284637.5,276894.59375,253475.40625,263145.3125,0.028076171875,0.8984375,-0.478515625,-2.655029058456421,1.3122557401657104,1.9531248807907104,100.0,184690.0,1.0
510639.0721091,264382.78125,290437.25,302144.5625,280021.6875,288240.34375,278764.09375,254447.078125,264176.4375,0.02880859375,0.898681640625,-0.474365234375,-2.929687261581421,1.1596678495407104,1.5563963651657104,100.0,184691.0,1.0
510639.0745169,264186.0,290740.0625,302615.1875,280947.125,292541.15625,280004.25,255448.171875,265177.875,0.031494140625,0.895751953125,-0.473876953125,-2.960204839706421,1.0681151151657104,1.1901854276657104,100.0,184692.0,1.0
510639.0768823,264558.65625,290447.34375,302394.34375,280415.875,291467.375,278813.4375,255058.265625,264708.59375,0.032958984375,0.896728515625,-0.47314453125,-3.143310308456421,1.0986326932907104,0.8544921278953552,100.0,184693.0,1.0
510639.0793642,264997.28125,290003.0,301831.09375,279218.1875,286552.3125,276893.4375,253840.1875,263452.0625,0.03466796875,0.89990234375,-0.47509765625,-3.387450933456421,1.1596678495407104,0.5493163466453552,100.0,184694.0,1.0
510639.0844671,264847.625,289978.84375,301669.4375,278982.0625,284675.75,276899.59375,253475.671875,263137.09375,0.034912109375,0.9013671875,-0.4765625,-3.417968511581421,1.0986326932907104,0.3356933295726776,100.0,184695.0,1.0
510639.0869739,264345.96875,290397.90625,302111.65625,279972.40625,288182.3125,278717.59375,254400.953125,264128.875,0.03466796875,0.900146484375,-0.47900390625,-3.540038824081421,1.0681151151657104,0.0610351525247097,100.0,184696.0,1.0
510639.0893845,264146.03125,290699.125,302579.6875,280902.6875,292472.84375,279961.5,255408.390625,265136.40625,0.03564453125,0.896240234375,-0.474365234375,-3.692626714706421,1.0986326932907104,-0.1220703050494194,100.0,184697.0,1.0
510639.0944984,264552.65625,290447.34375,302396.125,280423.3125,291476.6875,278819.96875,255047.09375,264709.3125,0.037353515625,0.889404296875,-0.47021484375,-3.662109136581421,1.1901854276657104,-0.3051757514476776,100.0,184698.0,1.0
510639.09454,265017.125,290032.6875,301857.90625,279249.21875,286614.8125,276920.0625,253849.046875,263469.9375,0.03466796875,0.884033203125,-0.468017578125,-3.662109136581421,1.2512205839157104,-0.5493163466453552,100.0,184699.0,1.0
510639.0969789,264864.0625,289999.40625,301685.875,278997.71875,284720.65625,276908.8125,253489.0,263154.625,0.03271484375,0.883056640625,-0.47021484375,-3.631591558456421,1.3122557401657104,-0.7629393935203552,100.0,184700.0,1.0
510639.1169361,264364.5625,290411.125,302122.90625,279979.84375,288187.9375,278723.5,254420.0,264146.125,0.026611328125,0.884033203125,-0.469970703125,-3.509521245956421,1.2512205839157104,-1.0375975370407104,100.0,184701.0,1.0
510639.1169795,264153.65625,290701.15625,302583.96875,280901.90625,292471.96875,279967.59375,255428.6875,265155.53125,0.021240234375,0.885498046875,-0.47021484375,-3.295898199081421,1.0070799589157104,-1.1901854276657104,100.0,184702.0,1.0
510639.1184079,264555.53125,290447.78125,302405.625,280436.8125,291536.15625,278839.28125,255078.921875,264737.46875,0.01904296875,0.88720703125,-0.47216796875,-3.173827886581421,0.8239745497703552,-1.4343260526657104,100.0,184703.0,1.0
510639.1282251,265042.625,290053.59375,301887.40625,279283.8125,286734.09375,276955.125,253901.53125,263517.78125,0.016357421875,0.890869140625,-0.468017578125,-3.021239995956421,0.6103515028953552,-1.6479490995407104,100.0,184704.0,1.0
510639.130706,264897.5,290027.21875,301718.4375,279028.5625,284821.9375,276926.25,253537.546875,263189.375,0.01611328125,0.889892578125,-0.466552734375,-2.960204839706421,0.4272460639476776,-1.8005369901657104,100.0,184705.0,1.0
510639.1381881,264347.75,290387.09375,302101.1875,279953.03125,288188.03125,278672.09375,254411.046875,264128.0625,0.0224609375,0.89013671875,-0.466552734375,-2.899169683456421,0.3051757514476776,-1.8005369901657104,100.0,184706.0,1.0
510639.1407703,264117.0,290661.375,302549.46875,280873.28125,292461.875,279922.34375,255404.984375,265128.625,0.021484375,0.890625,-0.466064453125,-3.021239995956421,0.3967284858226776,-1.6479490995407104,100.0,184707.0,1.0
510639.1431994,264551.0625,290452.96875,302414.125,280455.21875,291625.71875,278858.21875,255100.65625,264759.65625,0.0166015625,0.887451171875,-0.458251953125,-2.868652105331421,0.4882812201976776,-1.4953612089157104,100.0,184708.0,1.0
510639.1456438,265023.21875,290050.65625,301885.90625,279286.75,286855.40625,276968.0,253917.890625,263536.28125,0.01123046875,0.88427734375,-0.455810546875,-2.960204839706421,-0.2441406100988388,-1.5258787870407104,100.0,184709.0,1.0
510639.1456784,264878.46875,290017.125,301709.75,279021.84375,284914.03125,276917.75,253545.953125,263201.90625,0.01171875,0.883056640625,-0.45703125,-3.143310308456421,-0.7934569716453552,-1.6479490995407104,100.0,184710.0,1.0
510639.1482276,264353.90625,290387.09375,302106.28125,279961.15625,288241.0625,278672.8125,254420.359375,264143.625,0.01220703125,0.8828125,-0.456298828125,-2.746581792831421,-0.9765624403953552,-1.4953612089157104,100.0,184711.0,1.0
510639.1507467,264135.59375,290680.53125,302571.8125,280901.8125,292530.4375,279949.96875,255434.234375,265161.71875,0.0087890625,0.880859375,-0.454833984375,-2.685546636581421,-1.1291502714157104,-1.2512205839157104,100.0,184712.0,1.0
510639.1532476,264543.5625,290461.90625,302423.78125,280475.34375,291735.25,278892.46875,255129.34375,264788.53125,0.011962890625,0.879638671875,-0.46435546875,-2.716064214706421,-1.4648436307907104,-1.2817381620407104,100.0,184713.0,1.0
510639.1582568,265058.25,290095.78125,301932.5625,279348.71875,287010.53125,277028.78125,253973.40625,263592.15625,0.01416015625,0.88134765625,-0.465087890625,-2.532958745956421,-1.7089842557907104,-1.2512205839157104,100.0,184714.0,1.0
510639.1582981,264905.1875,290031.875,301730.78125,279053.125,284983.0625,276928.46875,253557.3125,263217.65625,0.011962890625,0.885009765625,-0.462890625,-2.288818120956421,-2.044677495956421,-1.0375975370407104,100.0,184715.0,1.0
510639.1607007,264375.71875,290391.09375,302116.75,279979.21875,288258.40625,278669.40625,254430.453125,264156.875,0.012451171875,0.885009765625,-0.4599609375,-2.288818120956421,-2.319335699081421,-0.8239745497703552,100.0,184716.0,1.0
510639.209422,264123.5,290649.40625,302549.65625,280887.59375,292507.5625,279924.40625,255413.75,265153.75,0.012451171875,0.88720703125,-0.455810546875,-2.136230230331421,-2.471923589706421,-0.6103515028953552,100.0,184717.0,1.0
510639.2094645,264535.21875,290449.40625,302417.40625,280480.34375,291770.375,278891.65625,255128.28125,264804.0,0.01318359375,0.887939453125,-0.45361328125,-2.349853277206421,-2.685546636581421,-0.3051757514476776,100.0,184718.0,1.0
510639.2144873,265035.09375,290070.9375,301909.40625,279335.84375,287052.28125,277015.90625,253958.5625,263581.875,0.01220703125,0.889892578125,-0.4560546875,-2.349853277206421,-2.960204839706421,-0.0915527269244194,100.0,184719.0,1.0
510639.2170132,264897.59375,290020.25,301716.75,279044.90625,285021.6875,276926.3125,253560.4375,263216.03125,0.01416015625,0.889404296875,-0.457763671875,-2.349853277206421,-3.204345464706421,0.1525878757238388,100.0,184720.0,1.0
510639.2193389,264349.96875,290352.3125,302077.9375,279941.3125,288227.0,278631.6875,254402.296875,264124.59375,0.015625,0.890380859375,-0.45849609375,-2.288818120956421,-3.356933355331421,0.3051757514476776,100.0,184721.0,1.0
510639.2218691,264102.78125,290617.5,302520.5,280868.71875,292476.6875,279907.59375,255389.34375,265125.3125,0.017578125,0.889892578125,-0.459228515625,-2.349853277206421,-3.479003667831421,0.6103515028953552,100.0,184722.0,1.0
510639.2234455,264536.84375,290446.71875,302415.375,280495.8125,291794.875,278915.1875,255126.484375,264803.0,0.02197265625,0.887939453125,-0.4619140625,-2.319335699081421,-3.509521245956421,0.8239745497703552,100.0,184723.0,1.0
510639.2332481,265058.875,290092.65625,301924.4375,279364.28125,287099.15625,277042.1875,253965.0,263602.71875,0.024658203125,0.884521484375,-0.461181640625,-2.380370855331421,-3.631591558456421,1.0070799589157104,100.0,184724.0,1.0
510639.2382701,264938.71875,290060.75,301747.21875,279073.34375,285053.5,276944.46875,253580.46875,263252.25,0.02685546875,0.885498046875,-0.460693359375,-2.197265386581421,-3.570556402206421,1.2512205839157104,100.0,184725.0,1.0
510639.2406115,264376.1875,290367.875,302091.25,279952.40625,288204.65625,278631.0625,254404.34375,264140.15625,0.02783203125,0.884765625,-0.459228515625,-2.166747808456421,-3.448486089706421,1.4953612089157104,100.0,184726.0,1.0
510639.2432598,264127.09375,290632.0625,302537.40625,280889.5625,292460.96875,279920.84375,255397.84375,265149.625,0.027587890625,0.88525390625,-0.459716796875,-2.014159917831421,-3.326415777206421,1.8615721464157104,100.0,184727.0,1.0
510639.2480985,264542.125,290463.875,302428.5,280513.4375,291838.78125,278938.34375,255152.15625,264834.75,0.02685546875,0.886962890625,-0.463134765625,-1.8615721464157104,-3.295898199081421,2.166747808456421,100.0,184728.0,1.0
510639.2506019,265065.6875,290120.125,301942.03125,279382.5,287175.84375,277066.5,253993.703125,263631.5,0.029052734375,0.885986328125,-0.46337890625,-1.7700194120407104,-3.204345464706421,2.502441167831421,100.0,184729.0,1.0
510639.2532681,264940.34375,290068.96875,301747.21875,279072.625,285077.8125,276938.5,253579.296875,263252.25,0.030029296875,0.885986328125,-0.460693359375,-1.6174315214157104,-3.143310308456421,2.655029058456421,100.0,184730.0,1.0
510639.2555841,264358.375,290354.625,302074.1875,279929.78125,288180.96875,278604.84375,254396.390625,264132.625,0.031005859375,0.88720703125,-0.4619140625,-1.4343260526657104,-2.929687261581421,2.838134527206421,100.0,184731.0,1.0
510639.2582507,264106.71875,290622.84375,302528.28125,280882.125,292471.0625,279922.875,255413.84375,265162.875,0.031982421875,0.88818359375,-0.46240234375,-1.3427733182907104,-2.838134527206421,3.082275152206421,100.0,184732.0,1.0
510639.260656,264536.9375,290468.875,302436.09375,280535.78125,291900.375,278977.78125,255177.453125,264859.15625,0.03271484375,0.886474609375,-0.462646484375,-1.2207030057907104,-2.716064214706421,3.295898199081421,100.0,184733.0,1.0
510639.2606963,265063.1875,290132.1875,301951.34375,279400.3125,287254.4375,277100.9375,254029.640625,263659.40625,0.031982421875,0.888427734375,-0.462890625,-1.2207030057907104,-2.593993902206421,3.417968511581421,100.0,184734.0,1.0
510639.2706069,264944.09375,290077.28125,301754.65625,279086.40625,285118.6875,276953.78125,253611.046875,263271.71875,0.02880859375,0.88720703125,-0.466796875,-1.1596678495407104,-2.502441167831421,3.387450933456421,100.0,184735.0,1.0
510639.2782657,264382.625,290366.6875,302088.21875,279952.65625,288174.4375,278616.28125,254413.921875,264143.625,0.03125,0.885986328125,-0.465087890625,-1.0375975370407104,-2.502441167831421,3.540038824081421,100.0,184736.0,1.0
510639.2805925,264092.65625,290597.28125,302505.3125,280871.3125,292423.59375,279904.5625,255386.03125,265137.9375,0.0341796875,0.884033203125,-0.466796875,-0.9460448622703552,-2.441406011581421,3.601073980331421,100.0,184737.0,1.0
510639.2857414,264504.84375,290436.625,302408.65625,280529.0625,291901.28125,278965.34375,255150.625,264843.5,0.039306640625,0.8818359375,-0.466796875,-0.7324218153953552,-2.319335699081421,3.814697027206421,100.0,184738.0,1.0
510639.2857833,265067.21875,290136.5625,301957.34375,279425.875,287305.21875,277115.6875,254025.4375,263674.6875,0.042236328125,0.880859375,-0.469482421875,-0.4882812201976776,-1.9531248807907104,3.906249761581421,100.0,184739.0,1.0
510639.2882948,264974.84375,290093.125,301774.40625,279117.5,285136.375,276956.53125,253601.03125,263290.15625,0.044677734375,0.880615234375,-0.471435546875,-0.2746581733226776,-1.7395018339157104,3.997802495956421,100.0,184740.0,1.0
510639.2883348,264417.3125,290381.71875,302109.59375,279985.125,288163.625,278620.6875,254401.75,264165.71875,0.045166015625,0.880126953125,-0.471923828125,0.0915527269244194,-1.4038084745407104,3.936767339706421,100.0,184741.0,1.0
510639.2906013,264109.65625,290603.34375,302518.28125,280903.78125,292422.875,279917.0,255379.328125,265160.09375,0.04541015625,0.880126953125,-0.47216796875,0.3662109076976776,-1.1291502714157104,3.906249761581421,100.0,184742.0,1.0
510639.2932084,264520.46875,290447.25,302427.53125,280563.40625,291944.03125,278990.1875,255161.265625,264876.0625,0.04833984375,0.88037109375,-0.474853515625,0.5798339247703552,-0.8239745497703552,3.875732183456421,100.0,184743.0,1.0
510639.2956903,265076.875,290131.125,301964.75,279439.65625,287334.09375,277114.78125,254020.875,263687.84375,0.0498046875,0.88037109375,-0.47900390625,0.7324218153953552,-0.5187987685203552,3.906249761581421,100.0,184744.0,1.0
510639.3007247,264955.71875,290058.5,301748.375,279088.46875,285105.28125,276912.46875,253566.6875,263266.8125,0.04833984375,0.88037109375,-0.47900390625,1.0681151151657104,-0.0915527269244194,3.723144292831421,100.0,184745.0,1.0
510639.3107104,264390.9375,290332.71875,302068.0,279939.4375,288078.0625,278554.53125,254355.890625,264132.53125,0.049560546875,0.881103515625,-0.480224609375,1.2512205839157104,0.3356933295726776,3.753661870956421,100.0,184746.0,1.0
510639.3156616,264085.34375,290558.46875,302484.84375,280867.375,292342.6875,279871.21875,255335.609375,265139.71875,0.049072265625,0.882568359375,-0.482177734375,1.4648436307907104,0.6713866591453552,3.692626714706421,100.0,184747.0,1.0
510639.3207909,264512.15625,290439.125,302423.3125,280561.25,291935.96875,278995.90625,255147.140625,264888.03125,0.048828125,0.8857421875,-0.480224609375,1.6479490995407104,1.0070799589157104,3.753661870956421,100.0,184748.0,1.0
510639.3208337,265077.3125,290145.59375,301971.90625,279450.5625,287351.625,277130.4375,254033.3125,263711.15625,0.046630859375,0.88427734375,-0.479736328125,1.7395018339157104,1.2207030057907104,3.723144292831421,100.0,184749.0,1.0
510639.3231396,264985.03125,290087.5625,301768.78125,279111.53125,285079.4375,276918.8125,253581.265625,263288.625,0.045166015625,0.886474609375,-0.4794921875,1.9836424589157104,1.2512205839157104,3.540038824081421,100.0,184750.0,1.0
510639.3256148,264415.875,290357.65625,302084.09375,279952.40625,288020.9375,278556.46875,254362.328125,264143.53125,0.04638671875,0.887451171875,-0.478271484375,1.9531248807907104,1.4343260526657104,3.417968511581421,100.0,184751.0,1.0
510639.3282142,264085.875,290567.40625,302485.1875,280865.40625,292292.15625,279872.5625,255337.125,265135.875,0.04296875,0.887939453125,-0.474853515625,1.9836424589157104,1.7700194120407104,3.387450933456421,100.0,184752.0,1.0
510639.3307497,264488.125,290426.25,302401.78125,280546.3125,291902.96875,278991.71875,255133.90625,264868.09375,0.04345703125,0.88671875,-0.477783203125,2.105712652206421,1.9836424589157104,3.265380620956421,100.0,184753.0,1.0
510639.3307913,265067.125,290142.375,301961.0,279440.0,287339.28125,277140.28125,254022.140625,263697.9375,0.044921875,0.886474609375,-0.479736328125,2.044677495956421,2.258300542831421,3.143310308456421,100.0,184754.0,1.0
510639.3323184,264972.875,290070.5,301745.0625,279076.90625,285016.84375,276897.09375,253540.40625,263245.625,0.0439453125,0.886962890625,-0.476806640625,2.105712652206421,2.624511480331421,3.082275152206421,100.0,184755.0,1.0
510639.3393816,264421.0625,290353.28125,302073.90625,279929.59375,287930.96875,278534.9375,254321.015625,264105.8125,0.042236328125,0.886962890625,-0.47998046875,2.136230230331421,2.777099370956421,2.960204839706421,100.0,184756.0,1.0
510639.3470024,264092.5,290570.90625,302481.78125,280853.0,292216.875,279871.21875,255298.859375,265114.15625,0.04150390625,0.8896484375,-0.479736328125,2.227782964706421,2.807616949081421,2.929687261581421,100.0,184757.0,1.0
510639.3493131,264489.625,290436.0625,302410.0,280549.53125,291886.875,279017.71875,255110.65625,264867.125,0.0400390625,0.889892578125,-0.47998046875,2.044677495956421,2.899169683456421,2.868652105331421,100.0,184758.0,1.0
510639.35202,265086.875,290166.59375,301987.1875,279460.5625,287349.9375,277165.84375,254009.34375,263710.90625,0.036865234375,0.890380859375,-0.4794921875,2.105712652206421,2.807616949081421,2.777099370956421,100.0,184759.0,1.0
510639.3568378,265010.6875,290114.84375,301786.03125,279110.28125,285034.65625,276931.34375,253550.59375,263278.53125,0.03515625,0.88916015625,-0.48046875,1.9836424589157104,2.685546636581421,2.716064214706421,100.0,184760.0,1.0
510639.3595077,264413.0,290349.4375,302060.6875,279907.34375,287867.40625,278520.625,254283.921875,264081.9375,0.033203125,0.888671875,-0.482666015625,1.9226073026657104,2.563476324081421,2.655029058456421,100.0,184761.0,1.0
510639.3595498,264082.21875,290571.15625,302475.96875,280840.03125,292186.75,279868.8125,255288.046875,265108.6875,0.030517578125,0.8876953125,-0.484375,2.014159917831421,2.593993902206421,2.563476324081421,100.0,184762.0,1.0
510639.3619806,264468.625,290427.5,302398.1875,280535.875,291899.3125,279024.875,255103.15625,264864.6875,0.029052734375,0.887939453125,-0.486572265625,1.8920897245407104,2.380370855331421,2.471923589706421,100.0,184763.0,1.0
510639.3643394,265046.8125,290137.5625,301952.78125,279423.8125,287354.40625,277147.96875,253980.015625,263683.375,0.02978515625,0.883544921875,-0.490234375,1.9531248807907104,2.197265386581421,2.410888433456421,100.0,184764.0,1.0
510639.3668375,264979.59375,290084.625,301753.5625,279065.84375,285001.375,276896.46875,253508.046875,263239.53125,0.031494140625,0.8818359375,-0.4892578125,2.258300542831421,2.166747808456421,2.532958745956421,100.0,184765.0,1.0
510639.3694977,264402.5625,290337.8125,302050.21875,279883.90625,287836.84375,278507.5,254263.265625,264069.34375,0.03125,0.878173828125,-0.48974609375,2.227782964706421,1.9226073026657104,2.471923589706421,100.0,184766.0,1.0
510639.3695378,264073.0,290573.59375,302473.9375,280831.1875,292183.90625,279891.6875,255282.0625,265106.46875,0.031494140625,0.87451171875,-0.493408203125,2.410888433456421,1.8310545682907104,2.349853277206421,100.0,184767.0,1.0
510639.3711662,264469.53125,290452.8125,302416.6875,280554.90625,291975.5625,279083.28125,255139.625,264888.75,0.032958984375,0.873779296875,-0.494873046875,2.655029058456421,1.6174315214157104,2.380370855331421,100.0,184768.0,1.0
510639.4019193,265042.25,290141.3125,301955.53125,279426.40625,287420.28125,277177.46875,253996.5625,263688.71875,0.035400390625,0.870849609375,-0.49755859375,2.777099370956421,1.6479490995407104,2.410888433456421,100.0,184769.0,1.0
510639.4019594,264980.9375,290076.84375,301746.15625,279051.71875,285007.90625,276889.9375,253498.75,263223.1875,0.036376953125,0.86962890625,-0.49658203125,3.051757574081421,1.8005369901657104,2.563476324081421,100.0,184770.0,1.0
510639.4068556,264428.84375,290348.1875,302061.125,279879.15625,287814.5625,278497.75,254256.296875,264060.125,0.035888671875,0.8681640625,-0.49609375,3.204345464706421,1.6174315214157104,2.655029058456421,100.0,184771.0,1.0
510639.4120016,264083.09375,290567.6875,302473.84375,280820.0,292153.0625,279872.8125,255248.53125,265082.125,0.03662109375,0.867919921875,-0.497802734375,3.173827886581421,1.4648436307907104,2.593993902206421,100.0,184772.0,1.0
510639.4168775,264501.0,290476.5,302447.375,280583.53125,292011.34375,279095.875,255126.9375,264904.65625,0.03515625,0.8662109375,-0.499755859375,3.387450933456421,1.3122557401657104,2.532958745956421,100.0,184773.0,1.0
510639.41936,265076.0625,290170.625,301989.875,279462.8125,287465.8125,277183.0,253986.015625,263708.84375,0.032958984375,0.863525390625,-0.50146484375,3.479003667831421,1.3427733182907104,2.471923589706421,100.0,184774.0,1.0
510639.4218566,265014.375,290101.0625,301774.65625,279077.8125,285014.34375,276875.0,253478.0,263233.90625,0.032958984375,0.86474609375,-0.510009765625,3.997802495956421,1.2207030057907104,2.410888433456421,100.0,184775.0,1.0
510639.4245123,264438.75,290354.90625,302069.1875,279883.46875,287775.3125,278472.71875,254223.921875,264052.78125,0.033935546875,0.86474609375,-0.51123046875,4.638671398162842,1.0986326932907104,2.136230230331421,100.0,184776.0,1.0
510639.4245539,264076.5625,290569.03125,302475.4375,280821.25,292118.09375,279866.90625,255227.25,265082.59375,0.034912109375,0.864501953125,-0.505859375,4.852294445037842,0.9460448622703552,1.8615721464157104,100.0,184777.0,1.0
510639.4294588,264452.8125,290440.90625,302414.65625,280552.5,291981.21875,279074.0625,255082.234375,264879.625,0.040771484375,0.86279296875,-0.504150390625,4.882812023162842,0.9765624403953552,2.014159917831421,100.0,184778.0,1.0
510639.4318654,265046.5625,290145.875,301966.90625,279435.09375,287457.65625,277167.90625,253964.375,263700.71875,0.042236328125,0.863525390625,-0.49853515625,5.004882335662842,1.1291502714157104,2.258300542831421,100.0,184779.0,1.0
510639.4344873,264986.8125,290059.9375,301731.84375,279023.625,284938.4375,276831.03125,253443.671875,263205.21875,0.04541015625,0.861572265625,-0.49658203125,5.157470226287842,1.4038084745407104,2.410888433456421,100.0,184780.0,1.0
510639.4368314,264437.96875,290327.0,302037.15625,279837.40625,287656.6875,278443.5625,254193.265625,264018.625,0.04345703125,0.862548828125,-0.49365234375,5.157470226287842,1.6784666776657104,2.441406011581421,100.0,184781.0,1.0
510639.4393415,264079.78125,290556.96875,302453.4375,280791.125,292022.25,279863.875,255216.609375,265056.21875,0.041748046875,0.865234375,-0.497314453125,5.096435070037842,1.6174315214157104,2.471923589706421,100.0,184782.0,1.0
510639.44161,264452.4375,290440.8125,302405.15625,280539.0,291951.625,279103.375,255109.234375,264878.09375,0.04248046875,0.870849609375,-0.50146484375,4.852294445037842,1.4648436307907104,2.258300542831421,100.0,184783.0,1.0
510639.4416487,265039.03125,290141.84375,301954.46875,279412.09375,287433.4375,277195.71875,253990.125,263688.09375,0.045654296875,0.87353515625,-0.499267578125,4.791259288787842,1.4648436307907104,2.075195074081421,100.0,184784.0,1.0
510639.4482223,264974.03125,290047.96875,301713.96875,278988.75,284880.875,276831.71875,253454.125,263176.78125,0.04736328125,0.878662109375,-0.49853515625,4.608153820037842,1.5869139432907104,2.044677495956421,100.0,184785.0,1.0
510639.4507155,264402.65625,290296.59375,302000.0625,279778.125,287558.5,278418.53125,254190.84375,263974.84375,0.048828125,0.880859375,-0.497802734375,4.516601085662842,1.7089842557907104,2.014159917831421,100.0,184786.0,1.0
510639.4581644,264093.75,290576.8125,302466.5,280780.125,291979.34375,279894.0,255256.75,265052.90625,0.0498046875,0.8837890625,-0.4970703125,4.272460460662842,1.8310545682907104,2.075195074081421,100.0,184787.0,1.0
510639.458204,264437.15625,290438.21875,302398.03125,280513.34375,291921.03125,279118.59375,255120.953125,264848.4375,0.049072265625,0.888427734375,-0.49609375,4.211425304412842,1.9836424589157104,1.8005369901657104,100.0,184788.0,1.0
510639.4607827,264995.5,290110.625,301921.375,279367.21875,287393.28125,277165.125,253976.359375,263642.0625,0.0498046875,0.89453125,-0.49853515625,3.723144292831421,2.105712652206421,1.4343260526657104,100.0,184789.0,1.0
510639.4608231,264957.9375,290032.125,301695.71875,278952.1875,284814.625,276789.09375,253438.21875,263136.90625,0.046630859375,0.89501953125,-0.49951171875,3.265380620956421,2.075195074081421,1.4038084745407104,100.0,184790.0,1.0
510639.465615,264391.65625,290279.4375,301980.5,279732.625,287465.96875,278368.375,254162.5,263927.96875,0.04150390625,0.892333984375,-0.50244140625,2.868652105331421,2.197265386581421,1.4953612089157104,100.0,184791.0,1.0
510639.4756683,264036.78125,290517.78125,302408.3125,280702.25,291863.625,279819.34375,255199.625,264978.78125,0.033935546875,0.89111328125,-0.503173828125,2.655029058456421,2.136230230331421,1.2817381620407104,100.0,184792.0,1.0
510639.4782196,264414.09375,290416.21875,302380.9375,280490.34375,291886.53125,279093.09375,255115.9375,264819.8125,0.032958984375,0.893310546875,-0.50048828125,2.441406011581421,1.9531248807907104,0.9155272841453552,100.0,184793.0,1.0
510639.480807,265013.28125,290117.4375,301938.03125,279386.90625,287383.90625,277156.375,253988.515625,263633.84375,0.027587890625,0.891845703125,-0.501953125,2.166747808456421,1.9226073026657104,0.7934569716453552,100.0,184794.0,1.0
510639.4808494,264969.75,290029.46875,301698.75,278954.4375,284766.15625,276757.34375,253436.78125,263111.53125,0.029052734375,0.890869140625,-0.50732421875,2.105712652206421,1.6784666776657104,0.5493163466453552,100.0,184795.0,1.0
510639.4831127,264420.4375,290294.90625,301996.21875,279743.0,287399.71875,278350.84375,254170.640625,263914.75,0.03369140625,0.88720703125,-0.506591796875,1.8310545682907104,1.4038084745407104,0.7019042372703552,100.0,184796.0,1.0
510639.4855879,264052.0,290532.375,302421.71875,280710.75,291814.375,279824.71875,255213.484375,264973.0625,0.026123046875,0.88037109375,-0.506103515625,1.6784666776657104,1.1291502714157104,0.7324218153953552,100.0,184797.0,1.0
510639.4905968,264418.90625,290430.90625,302400.25,280512.53125,291904.6875,279121.625,255151.796875,264839.125,0.027099609375,0.877197265625,-0.503662109375,1.4953612089157104,0.8239745497703552,0.4272460639476776,100.0,184798.0,1.0
510639.4932489,265019.46875,290137.09375,301962.0625,279411.21875,287445.78125,277180.25,254039.03125,263670.9375,0.0322265625,0.873291015625,-0.501708984375,1.2817381620407104,0.5798339247703552,0.6103515028953552,100.0,184799.0,1.0
510639.4994881,264982.90625,290050.65625,301722.0,278971.5,284797.625,276762.625,253482.203125,263140.21875,0.028564453125,0.86962890625,-0.5,1.0681151151657104,0.5187987685203552,0.9765624403953552,100.0,184800.0,1.0
510639.5030971,264415.4375,290297.9375,301995.40625,279730.03125,287372.28125,278337.625,254205.15625,263918.875,0.0283203125,0.86669921875,-0.4990234375,0.9460448622703552,0.2746581733226776,1.0986326932907104,100.0,184801.0,1.0
510639.5182618,264062.53125,290560.8125,302442.4375,280717.4375,291814.375,279852.4375,255283.84375,265005.4375,0.023681640625,0.866943359375,-0.500732421875,0.7629393935203552,0.03051757626235485,1.1291502714157104,100.0,184802.0,1.0
510639.5183037,264416.59375,290455.3125,302412.9375,280519.40625,291927.3125,279153.90625,255205.609375,264861.46875,0.021240234375,0.8671875,-0.498779296875,0.6713866591453552,-0.1831054538488388,1.0070799589157104,100.0,184803.0,1.0
510639.522122,265035.09375,290184.3125,301992.5625,279437.9375,287506.9375,277224.5,254118.0625,263714.125,0.022216796875,0.868408203125,-0.494384765625,0.6103515028953552,-0.6103515028953552,0.8544921278953552,100.0,184804.0,1.0
510639.5221615,265002.5625,290083.625,301745.34375,278984.5625,284813.0,276783.4375,253538.703125,263163.71875,0.029296875,0.869140625,-0.494140625,0.3967284858226776,-1.0070799589157104,0.8544921278953552,100.0,184805.0,1.0
510639.5221715,264429.5625,290305.1875,302003.03125,279725.75,287317.75,278333.40625,254212.578125,263910.53125,0.037841796875,0.868408203125,-0.489990234375,0.03051757626235485,-1.2512205839157104,1.1901854276657104,100.0,184806.0,1.0
510639.5244801,264063.875,290553.8125,302436.8125,280707.625,291741.78125,279845.46875,255261.046875,264983.6875,0.04248046875,0.86962890625,-0.486328125,-0.3051757514476776,-1.4343260526657104,1.6784666776657104,100.0,184807.0,1.0
510639.5269968,264411.40625,290453.25,302410.34375,280516.8125,291906.90625,279170.875,255193.8125,264853.0625,0.047119140625,0.869384765625,-0.48681640625,-0.7934569716453552,-1.3427733182907104,2.075195074081421,100.0,184808.0,1.0
510639.5832465,265020.09375,290168.65625,301979.40625,279423.0,287498.78125,277219.59375,254085.4375,263687.84375,0.051025390625,0.87109375,-0.48681640625,-1.0070799589157104,-1.4038084745407104,2.380370855331421,100.0,184809.0,1.0
510639.5858041,265006.125,290075.5,301736.75,278970.25,284781.09375,276757.875,253498.75,263137.0,0.0537109375,0.8759765625,-0.48876953125,-1.2512205839157104,-1.2207030057907104,2.563476324081421,100.0,184810.0,1.0
510639.5858433,264452.96875,290317.96875,302008.46875,279720.21875,287259.09375,278315.0,254187.359375,263894.1875,0.057861328125,0.87939453125,-0.4892578125,-1.4343260526657104,-1.1596678495407104,2.777099370956421,100.0,184811.0,1.0
510639.5906033,264074.0625,290557.3125,302436.90625,280701.90625,291680.8125,279835.09375,255241.109375,264966.71875,0.053955078125,0.883056640625,-0.493408203125,-1.6784666776657104,-0.8850097060203552,3.112792730331421,100.0,184812.0,1.0
510639.5944684,264399.59375,290436.4375,302395.5,280512.15625,291878.5625,279157.03125,255163.765625,264832.34375,0.049072265625,0.887939453125,-0.492431640625,-1.8920897245407104,-0.8850097060203552,3.234863042831421,100.0,184813.0,1.0
510639.5945078,265049.6875,290194.3125,301997.65625,279456.8125,287522.40625,277233.4375,254086.421875,263705.53125,0.05224609375,0.8916015625,-0.487060546875,-2.258300542831421,-0.8544921278953552,3.265380620956421,100.0,184814.0,1.0
510639.594518,265029.03125,290100.25,301746.15625,278984.28125,284787.4375,276756.375,253503.390625,263145.40625,0.049072265625,0.890869140625,-0.487548828125,-2.593993902206421,-0.7629393935203552,3.662109136581421,100.0,184815.0,1.0
510639.6020488,264477.3125,290335.21875,302018.03125,279733.78125,287240.125,278305.6875,254207.46875,263913.59375,0.041015625,0.8916015625,-0.48291015625,-2.868652105331421,-0.6713866591453552,3.814697027206421,100.0,184816.0,1.0
510639.6020898,264066.21875,290542.125,302418.03125,280691.96875,291625.71875,279807.5625,255236.546875,264963.03125,0.03564453125,0.893310546875,-0.485595703125,-3.265380620956421,-0.9460448622703552,3.601073980331421,100.0,184817.0,1.0
510639.6020999,264416.84375,290463.625,302419.5625,280548.65625,291927.5625,279195.375,255213.21875,264881.59375,0.0341796875,0.8935546875,-0.48876953125,-3.509521245956421,-1.1291502714157104,3.631591558456421,100.0,184818.0,1.0
510639.6045078,265060.6875,290221.0625,302024.65625,279490.78125,287625.75,277276.0,254141.5,263751.75,0.029296875,0.8916015625,-0.484375,-3.784179449081421,-1.3427733182907104,3.753661870956421,100.0,184819.0,1.0
510639.6094763,265056.125,290123.96875,301773.25,279018.34375,284850.03125,276771.5625,253542.828125,263175.53125,0.025390625,0.8896484375,-0.4853515625,-4.150390148162842,-1.8005369901657104,3.662109136581421,100.0,184820.0,1.0
510639.6118459,264487.9375,290338.8125,302023.65625,279745.0625,287237.71875,278306.15625,254215.25,263910.0,0.021484375,0.888916015625,-0.485107421875,-4.455565929412842,-2.197265386581421,3.295898199081421,100.0,184821.0,1.0
510639.6170085,264081.5,290558.46875,302438.34375,280726.65625,291646.90625,279838.3125,255268.46875,264985.9375,0.020751953125,0.892333984375,-0.4833984375,-4.516601085662842,-2.563476324081421,2.929687261581421,100.0,184822.0,1.0
510639.6218304,264444.03125,290498.75,302460.6875,280613.75,292014.75,279256.53125,255268.109375,264936.5,0.023681640625,0.89208984375,-0.4833984375,-4.699706554412842,-2.899169683456421,2.685546636581421,100.0,184823.0,1.0
510639.6269717,265059.4375,290235.0,302039.40625,279526.375,287717.21875,277304.59375,254175.5625,263778.5,0.025634765625,0.89013671875,-0.478759765625,-4.974364757537842,-3.326415777206421,2.655029058456421,100.0,184824.0,1.0
510639.6294813,265064.625,290149.09375,301794.78125,279052.6875,284947.375,276799.625,253580.640625,263204.59375,0.02783203125,0.88720703125,-0.4775390625,-5.340575695037842,-3.662109136581421,2.593993902206421,100.0,184825.0,1.0
510639.6319693,264496.78125,290349.34375,302036.375,279771.4375,287286.0,278301.21875,254233.765625,263925.65625,0.028076171875,0.884765625,-0.479736328125,-5.584716320037842,-4.028319835662842,2.838134527206421,100.0,184826.0,1.0
510639.6394862,264075.6875,290553.90625,302439.21875,280744.09375,291681.25,279829.46875,255284.109375,264999.875,0.0302734375,0.881103515625,-0.479736328125,-5.767821788787842,-4.394530773162842,2.899169683456421,100.0,184827.0,1.0
510639.6419788,264418.375,290487.3125,302450.59375,280623.125,292086.34375,279252.53125,255294.3125,264951.4375,0.03271484375,0.877197265625,-0.479248046875,-6.042479991912842,-4.699706554412842,2.960204839706421,100.0,184828.0,1.0
510639.6469874,265091.96875,290272.09375,302079.90625,279586.8125,287865.1875,277355.03125,254247.703125,263838.03125,0.0361328125,0.875732421875,-0.47509765625,-6.134032726287842,-5.004882335662842,2.777099370956421,100.0,184829.0,1.0
510639.6582259,265113.96875,290190.84375,301839.59375,279107.0625,285070.9375,276836.03125,253638.9375,263261.625,0.041259765625,0.869873046875,-0.47607421875,-6.164550304412842,-5.126952648162842,2.593993902206421,100.0,184830.0,1.0
510639.6608006,264531.9375,290379.9375,302064.8125,279798.53125,287361.46875,278316.5,254272.46875,263973.5625,0.042724609375,0.86962890625,-0.474609375,-6.072997570037842,-5.187987804412842,2.288818120956421,100.0,184831.0,1.0
510639.6608393,264097.40625,290560.875,302452.5625,280764.375,291724.625,279831.0625,255301.546875,265033.9375,0.046630859375,0.86865234375,-0.470703125,-5.920409679412842,-5.249022960662842,2.044677495956421,100.0,184832.0,1.0
510639.6682352,264428.84375,290488.5625,302459.875,280643.6875,292150.1875,279265.3125,255296.1875,264974.40625,0.05322265625,0.870849609375,-0.472412109375,-5.950927257537842,-5.187987804412842,1.9836424589157104,100.0,184833.0,1.0
510639.6707238,265098.9375,290288.90625,302094.46875,279600.5,287961.84375,277374.34375,254246.90625,263862.90625,0.0595703125,0.8759765625,-0.47607421875,-5.859374523162842,-4.943847179412842,2.227782964706421,100.0,184834.0,1.0
510639.6757103,265137.5625,290229.46875,301865.5,279122.59375,285166.53125,276855.4375,253663.25,263295.5,0.070068359375,0.884033203125,-0.474365234375,-6.011962413787842,-4.730224132537842,2.716064214706421,100.0,184835.0,1.0
510639.6783075,264530.125,290371.625,302049.59375,279785.125,287362.625,278291.65625,254268.890625,263962.03125,0.06689453125,0.8837890625,-0.48388671875,-6.469726085662842,-4.364013195037842,3.326415777206421,100.0,184836.0,1.0
510639.6783471,264062.71875,290521.375,302407.59375,280731.5625,291693.125,279798.53125,255266.234375,264995.0625,0.064453125,0.88037109375,-0.478515625,-6.469726085662842,-3.723144292831421,3.051757574081421,100.0,184837.0,1.0
510639.6806159,264397.375,290464.875,302430.28125,280630.0,292175.3125,279271.125,255282.765625,264961.96875,0.064453125,0.881591796875,-0.478515625,-6.591796398162842,-3.631591558456421,3.021239995956421,100.0,184838.0,1.0
510639.6857087,265074.90625,290266.90625,302065.59375,279586.0,287999.65625,277370.59375,254226.25,263848.5,0.064453125,0.8818359375,-0.475830078125,-6.195067882537842,-3.540038824081421,3.112792730331421,100.0,184839.0,1.0
510639.6932357,265119.40625,290209.6875,301838.6875,279101.78125,285178.21875,276840.9375,253641.34375,263278.15625,0.065673828125,0.88330078125,-0.475830078125,-5.950927257537842,-3.417968511581421,3.173827886581421,100.0,184840.0,1.0
510639.6957555,264534.96875,290374.84375,302045.75,279784.84375,287361.28125,278296.9375,254273.546875,263970.28125,0.068115234375,0.88720703125,-0.478271484375,-5.767821788787842,-3.265380620956421,3.204345464706421,100.0,184841.0,1.0
510639.7005971,264101.6875,290554.28125,302441.03125,280773.15625,291710.03125,279839.03125,255321.390625,265042.71875,0.069091796875,0.888427734375,-0.478759765625,-5.798339366912842,-2.777099370956421,3.021239995956421,100.0,184842.0,1.0
510639.7030772,264411.40625,290481.9375,302448.8125,280668.71875,292219.84375,279308.9375,255343.75,265000.3125,0.06640625,0.884765625,-0.478515625,-5.615233898162842,-2.288818120956421,2.746581792831421,100.0,184843.0,1.0
510639.7057191,265097.4375,290310.0,302099.5,279639.90625,288096.75,277435.59375,254318.703125,263897.21875,0.064453125,0.8857421875,-0.475341796875,-5.401610851287842,-2.075195074081421,2.685546636581421,100.0,184844.0,1.0
510639.7081268,265124.6875,290223.75,301841.375,279108.3125,285199.96875,276853.90625,253693.734375,263280.6875,0.06396484375,0.884765625,-0.4755859375,-5.187987804412842,-1.8615721464157104,2.441406011581421,100.0,184845.0,1.0
510639.7107449,264528.0,290361.5,302025.5625,279753.1875,287311.84375,278270.75,254293.484375,263942.8125,0.06298828125,0.884521484375,-0.472900390625,-5.004882335662842,-1.7089842557907104,2.349853277206421,100.0,184846.0,1.0
510639.710784,264076.125,290528.96875,302407.75,280729.78125,291655.0625,279814.0,255332.65625,265011.875,0.062255859375,0.8828125,-0.474609375,-4.913329601287842,-1.3732908964157104,2.105712652206421,100.0,184847.0,1.0
510639.7130918,264409.4375,290489.8125,302449.59375,280663.1875,292238.0,279331.65625,255386.03125,265009.53125,0.062744140625,0.882080078125,-0.472900390625,-4.882812023162842,-1.0681151151657104,1.9836424589157104,100.0,184848.0,1.0
510639.7156862,265110.75,290329.3125,302115.03125,279645.1875,288147.78125,277463.75,254367.78125,263923.25,0.060302734375,0.882080078125,-0.46923828125,-4.730224132537842,-0.7934569716453552,1.8005369901657104,100.0,184849.0,1.0
510639.7182211,265177.09375,290277.90625,301888.5,279145.40625,285265.59375,276899.9375,253759.8125,263329.75,0.059326171875,0.88330078125,-0.4697265625,-4.547118663787842,-0.6713866591453552,1.4648436307907104,100.0,184850.0,1.0
510639.7206929,264561.53125,290383.96875,302042.96875,279769.03125,287303.625,278280.46875,254315.828125,263958.5625,0.05859375,0.883544921875,-0.4677734375,-4.608153820037842,-0.6408690810203552,1.3427733182907104,100.0,184851.0,1.0
510639.7256062,264123.15625,290567.875,302442.1875,280767.78125,291662.90625,279844.375,255375.3125,265052.1875,0.05908203125,0.882568359375,-0.470703125,-4.577636241912842,-0.4882812201976776,1.1901854276657104,100.0,184852.0,1.0
510639.7307408,264431.96875,290511.28125,302472.59375,280700.1875,292279.84375,279360.15625,255429.84375,265048.0625,0.05615234375,0.8798828125,-0.4736328125,-4.333495616912842,-0.2441406100988388,0.9765624403953552,100.0,184853.0,1.0
510639.7307846,265107.96875,290330.03125,302113.0,279650.46875,288187.5,277471.09375,254389.234375,263932.90625,0.048583984375,0.870361328125,-0.476318359375,-3.997802495956421,-0.2136230319738388,0.5493163466453552,100.0,184854.0,1.0
510639.7332472,265165.8125,290259.9375,301869.71875,279123.9375,285261.28125,276875.90625,253753.640625,263310.53125,0.0517578125,0.867919921875,-0.4755859375,-3.479003667831421,-0.1831054538488388,-0.2136230319738388,100.0,184855.0,1.0
510639.7357438,264565.1875,290379.46875,302038.96875,279752.21875,287281.71875,278248.65625,254316.46875,263948.0,0.056884765625,0.874267578125,-0.469482421875,-3.173827886581421,-0.1525878757238388,-0.6103515028953552,100.0,184856.0,1.0
510639.7357825,264090.53125,290523.15625,302407.21875,280722.1875,291600.96875,279794.6875,255343.75,265005.96875,0.06396484375,0.88232421875,-0.46728515625,-3.051757574081421,0.1525878757238388,-0.4882812201976776,100.0,184857.0,1.0
510639.7432258,264420.0,290498.75,302465.59375,280686.875,292285.90625,279359.8125,255426.265625,265026.6875,0.060791015625,0.884521484375,-0.466552734375,-3.356933355331421,0.3967284858226776,-0.3967284858226776,100.0,184858.0,1.0
510639.7457053,265117.0,290349.53125,302128.28125,279658.875,288258.21875,277503.625,254419.90625,263935.65625,0.0517578125,0.880126953125,-0.4697265625,-3.295898199081421,0.6713866591453552,-0.6103515028953552,100.0,184859.0,1.0
510639.7505988,265164.03125,290259.78125,301861.3125,279103.84375,285276.9375,276867.40625,253768.84375,263289.96875,0.047119140625,0.876953125,-0.471923828125,-2.899169683456421,0.7934569716453552,-1.1901854276657104,100.0,184860.0,1.0
510639.7528647,264561.34375,290368.3125,302019.1875,279719.40625,287238.875,278225.3125,254318.515625,263902.0625,0.04931640625,0.87744140625,-0.472900390625,-2.532958745956421,0.8850097060203552,-1.6479490995407104,100.0,184861.0,1.0
510639.752905,264112.0625,290536.75,302415.1875,280724.34375,291579.0625,279796.65625,255372.53125,264993.53125,0.04541015625,0.875244140625,-0.475341796875,-2.044677495956421,1.0070799589157104,-2.105712652206421,100.0,184862.0,1.0
510639.7594369,264426.15625,290513.0625,302477.5,280694.90625,292328.71875,279386.34375,255482.5,265049.5,0.05419921875,0.878173828125,-0.47119140625,-1.6479490995407104,1.0375975370407104,-2.685546636581421,100.0,184863.0,1.0
510639.7644735,265094.90625,290331.03125,302113.53125,279641.25,288303.1875,277505.40625,254431.796875,263933.25,0.060302734375,0.8857421875,-0.46875,-1.5563963651657104,1.1291502714157104,-2.593993902206421,100.0,184864.0,1.0
510639.7668693,265131.84375,290230.0,301828.125,279062.625,285298.65625,276841.375,253740.859375,263254.5625,0.058837890625,0.891357421875,-0.463134765625,-1.5869139432907104,1.5869139432907104,-2.258300542831421,100.0,184865.0,1.0
510639.7719926,264539.4375,290342.375,301989.59375,279677.1875,287237.8125,278190.71875,254291.25,263876.40625,0.05419921875,0.88916015625,-0.466796875,-1.6479490995407104,1.8005369901657104,-2.197265386581421,100.0,184866.0,1.0
510639.7744138,264056.71875,290491.875,302360.09375,280655.3125,291566.1875,279740.6875,255327.828125,264958.3125,0.05224609375,0.88818359375,-0.46923828125,-1.4953612089157104,1.8615721464157104,-2.471923589706421,100.0,184867.0,1.0
510639.7744528,264342.375,290449.84375,302403.75,280614.8125,292331.40625,279329.40625,255407.234375,264992.71875,0.048583984375,0.88525390625,-0.47119140625,-1.2512205839157104,2.075195074081421,-2.624511480331421,100.0,184868.0,1.0
510639.7769776,265047.4375,290316.375,302085.1875,279605.21875,288386.34375,277505.3125,254408.546875,263922.625,0.043701171875,0.88330078125,-0.47314453125,-0.8544921278953552,2.105712652206421,-2.746581792831421,100.0,184869.0,1.0
510639.7794661,265129.0,290235.53125,301831.625,279048.125,285369.75,276854.625,253733.265625,263264.5,0.03466796875,0.883544921875,-0.47900390625,-0.4272460639476776,2.136230230331421,-3.051757574081421,100.0,184870.0,1.0
510639.7795049,264553.375,290357.84375,302005.0625,279664.5,287264.90625,278192.59375,254276.671875,263885.78125,0.03662109375,0.886962890625,-0.479736328125,0.3356933295726776,1.9226073026657104,-3.814697027206421,100.0,184871.0,1.0
510639.7832299,264056.0,290489.28125,302366.09375,280638.40625,291556.4375,279730.9375,255288.046875,264951.34375,0.044189453125,0.8955078125,-0.474853515625,0.7324218153953552,1.8005369901657104,-4.058837413787842,100.0,184872.0,1.0
510639.8169127,264360.875,290475.3125,302438.4375,280639.84375,292378.53125,279368.9375,255406.15625,265018.65625,0.046875,0.905029296875,-0.46728515625,0.7324218153953552,1.9836424589157104,-3.723144292831421,100.0,184873.0,1.0
510639.8169535,265074.4375,290353.09375,302127.5625,279642.0625,288463.75,277551.625,254418.828125,263952.125,0.0400390625,0.908447265625,-0.466064453125,0.4272460639476776,2.014159917831421,-3.417968511581421,100.0,184874.0,1.0
510639.8282648,265147.21875,290270.75,301862.8125,279063.25,285434.375,276882.78125,253749.359375,263277.46875,0.031982421875,0.905517578125,-0.47314453125,0.4577636420726776,2.014159917831421,-3.723144292831421,100.0,184875.0,1.0
510639.82828,264553.75,290372.15625,302011.5,279649.65625,287282.34375,278195.53125,254282.84375,263879.6875,0.030029296875,0.906005859375,-0.473876953125,0.3051757514476776,2.044677495956421,-3.936767339706421,100.0,184876.0,1.0
510639.8282824,264071.3125,290516.1875,302387.09375,280648.0625,291581.65625,279748.71875,255313.625,264957.15625,0.022705078125,0.903564453125,-0.4775390625,0.1831054538488388,2.014159917831421,-3.814697027206421,100.0,184877.0,1.0
510639.8320958,264367.15625,290501.0625,302462.9375,280661.5625,292452.375,279403.71875,255441.109375,265031.875,0.0263671875,0.898681640625,-0.475830078125,-0.03051757626235485,1.8920897245407104,-3.814697027206421,100.0,184878.0,1.0
510639.8321089,265100.28125,290393.96875,302170.9375,279684.09375,288593.75,277612.0625,254483.921875,263991.625,0.03173828125,0.890625,-0.47265625,-0.2746581733226776,1.5563963651657104,-3.997802495956421,100.0,184879.0,1.0
510639.8321108,265203.625,290320.21875,301918.875,279122.0625,285543.90625,276932.5,253800.578125,263317.25,0.03125,0.87646484375,-0.474365234375,-0.4577636420726776,1.4648436307907104,-3.997802495956421,100.0,184880.0,1.0
510639.832113,264627.0625,290428.65625,302079.1875,279722.53125,287361.71875,278235.59375,254330.046875,263917.25,0.031494140625,0.86767578125,-0.475830078125,-0.2136230319738388,1.4953612089157104,-4.272460460662842,100.0,184881.0,1.0
510639.8369483,264127.34375,290561.59375,302445.59375,280714.15625,291653.0,279786.90625,255353.21875,264989.25,0.037353515625,0.86572265625,-0.47900390625,0.0915527269244194,1.5563963651657104,-4.425048351287842,100.0,184882.0,1.0
510639.8392613,264375.90625,290498.125,302481.15625,280692.40625,292514.53125,279415.9375,255428.5,265033.125,0.05078125,0.871826171875,-0.4775390625,0.3051757514476776,1.6784666776657104,-4.150390148162842,100.0,184883.0,1.0
510639.8444222,265104.5,290390.5625,302186.75,279710.46875,288694.53125,277634.53125,254462.828125,263999.96875,0.048095703125,0.87255859375,-0.483154296875,0.3356933295726776,2.014159917831421,-3.540038824081421,100.0,184884.0,1.0
510639.8469499,265213.21875,290332.0,301938.1875,279139.25,285663.625,276958.5,253801.75,263338.34375,0.04150390625,0.875,-0.486083984375,0.6713866591453552,2.166747808456421,-3.448486089706421,100.0,184885.0,1.0
510639.8519243,264628.9375,290423.5625,302080.71875,279714.65625,287428.59375,278232.125,254311.28125,263920.5625,0.03564453125,0.87109375,-0.483154296875,0.8850097060203552,2.075195074081421,-3.387450933456421,100.0,184886.0,1.0
510639.8560163,264110.28125,290540.59375,302430.375,280691.6875,291702.78125,279773.59375,255320.234375,264987.53125,0.032470703125,0.867919921875,-0.48388671875,1.2512205839157104,2.105712652206421,-3.295898199081421,100.0,184887.0,1.0
510639.8632278,264358.65625,290486.59375,302476.59375,280695.8125,292633.34375,279432.9375,255423.40625,265058.96875,0.032470703125,0.870361328125,-0.477294921875,1.4038084745407104,2.258300542831421,-3.112792730331421,100.0,184888.0,1.0
510639.8655805,265091.15625,290377.78125,302182.90625,279723.875,288836.78125,277647.40625,254461.5625,264022.40625,0.02734375,0.872802734375,-0.4765625,1.4038084745407104,2.227782964706421,-2.899169683456421,100.0,184889.0,1.0
510639.8682061,265207.40625,290320.90625,301931.75,279142.09375,285776.375,276963.0625,253797.0,263353.28125,0.023681640625,0.875244140625,-0.475341796875,1.5869139432907104,2.319335699081421,-2.960204839706421,100.0,184890.0,1.0
510639.8682377,264618.75,290405.9375,302062.21875,279706.625,287488.96875,278212.53125,254292.953125,263921.625,0.01806640625,0.878662109375,-0.47705078125,1.6174315214157104,2.258300542831421,-3.143310308456421,100.0,184891.0,1.0
510639.8706853,264101.875,290526.46875,302414.28125,280692.59375,291752.3125,279753.90625,255300.828125,264991.03125,0.012939453125,0.87841796875,-0.48046875,1.6174315214157104,2.044677495956421,-3.112792730331421,100.0,184892.0,1.0
510639.8732601,264371.34375,290512.625,302495.46875,280731.40625,292762.28125,279464.40625,255453.265625,265100.09375,0.010986328125,0.8779296875,-0.47998046875,1.5869139432907104,1.8615721464157104,-3.204345464706421,100.0,184893.0,1.0
510639.8732994,265078.90625,290387.96875,302185.59375,279730.40625,288975.71875,277674.75,254481.859375,264052.4375,0.0078125,0.877685546875,-0.480224609375,1.6784666776657104,1.6479490995407104,-3.234863042831421,100.0,184894.0,1.0
510639.8894821,265190.6875,290313.3125,301919.15625,279123.59375,285858.625,276959.84375,253786.09375,263351.46875,0.00732421875,0.87548828125,-0.4833984375,1.8920897245407104,1.3427733182907104,-3.295898199081421,100.0,184895.0,1.0
510639.8895242,264613.28125,290400.3125,302054.4375,279679.15625,287518.46875,278202.15625,254268.359375,263906.0,0.007080078125,0.87744140625,-0.482421875,2.014159917831421,1.0070799589157104,-3.417968511581421,100.0,184896.0,1.0
510639.8944736,264106.53125,290536.5625,302423.40625,280683.46875,291787.1875,279762.40625,255290.8125,264989.78125,0.009033203125,0.88037109375,-0.47900390625,2.197265386581421,0.7629393935203552,-3.509521245956421,100.0,184897.0,1.0
510639.8968969,264375.65625,290526.03125,302510.5,280744.375,292826.71875,279490.96875,255454.4375,265112.96875,0.0126953125,0.88720703125,-0.479248046875,2.105712652206421,0.4882812201976776,-3.356933355331421,100.0,184898.0,1.0
510639.8969317,265091.6875,290409.0,302203.28125,279755.15625,289052.59375,277702.90625,254488.390625,264064.59375,0.01123046875,0.891845703125,-0.478515625,1.8615721464157104,0.3051757514476776,-3.204345464706421,100.0,184899.0,1.0
510639.8995157,265200.34375,290323.15625,301921.21875,279129.9375,285887.84375,276950.28125,253774.828125,263343.625,0.0087890625,0.89111328125,-0.47509765625,1.6784666776657104,-0.03051757626235485,-3.173827886581421,100.0,184900.0,1.0
510639.8995574,264627.15625,290412.65625,302052.90625,279688.1875,287508.28125,278174.53125,254261.390625,263894.375,0.00634765625,0.88720703125,-0.47216796875,1.5563963651657104,-0.3356933295726776,-3.265380620956421,100.0,184901.0,1.0
510639.9020169,264112.875,290542.21875,302419.90625,280699.5625,291773.0625,279733.25,255294.9375,264978.875,0.00537109375,0.8857421875,-0.475830078125,1.5563963651657104,-0.5187987685203552,-3.173827886581421,100.0,184902.0,1.0
510639.9310809,264357.125,290507.6875,302495.90625,280753.03125,292841.9375,279468.78125,255457.296875,265101.1875,0.0048828125,0.8857421875,-0.473388671875,1.6784666776657104,-0.7934569716453552,-3.173827886581421,100.0,184903.0,1.0
510639.9469104,265097.5,290417.84375,302219.5625,279784.5,289127.25,277728.5625,254523.96875,264083.71875,0.0107421875,0.88916015625,-0.47705078125,1.5258787870407104,-1.0070799589157104,-3.082275152206421,100.0,184904.0,1.0
510639.9469508,265211.96875,290343.71875,301944.53125,279155.15625,285965.28125,276982.84375,253823.921875,263374.71875,0.011474609375,0.88916015625,-0.4775390625,1.4343260526657104,-1.1901854276657104,-2.990722417831421,100.0,184905.0,1.0
510639.9494442,264622.21875,290404.0625,302049.6875,279684.8125,287530.0,278169.15625,254280.703125,263901.53125,0.010986328125,0.887939453125,-0.47802734375,1.4953612089157104,-1.4038084745407104,-2.899169683456421,100.0,184906.0,1.0
510639.9520013,264082.375,290507.6875,302394.875,280674.4375,291765.1875,279704.75,255284.5625,264966.71875,0.011962890625,0.887451171875,-0.478515625,1.4953612089157104,-1.5563963651657104,-2.746581792831421,100.0,184907.0,1.0
510639.9568394,264338.625,290496.15625,302492.53125,280752.3125,292884.5625,279472.1875,255470.96875,265106.46875,0.01220703125,0.885498046875,-0.475830078125,1.4648436307907104,-1.6479490995407104,-2.532958745956421,100.0,184908.0,1.0
510639.9584119,265062.1875,290388.78125,302194.53125,279756.9375,289156.9375,277721.6875,254530.40625,264066.90625,0.0126953125,0.88427734375,-0.47705078125,1.4343260526657104,-1.7089842557907104,-2.258300542831421,100.0,184909.0,1.0
510639.9656247,265170.90625,290283.375,301889.03125,279084.25,285885.09375,276926.15625,253784.125,263300.96875,0.010498046875,0.879638671875,-0.475830078125,1.3122557401657104,-1.7395018339157104,-1.8615721464157104,100.0,184910.0,1.0
510639.9681905,264606.40625,290362.59375,302012.21875,279626.875,287411.15625,278117.9375,254236.4375,263828.1875,0.0107421875,0.875,-0.47607421875,1.4038084745407104,-1.8615721464157104,-1.8005369901657104,100.0,184911.0,1.0
510639.9706871,264093.75,290507.78125,302393.09375,280659.59375,291698.6875,279699.5625,255280.265625,264938.0,0.010986328125,0.872314453125,-0.47705078125,1.4343260526657104,-1.9531248807907104,-1.6479490995407104,100.0,184912.0,1.0
510639.9732457,264335.5,290500.53125,302494.75,280747.03125,292886.90625,279491.21875,255490.203125,265103.6875,0.008544921875,0.87060546875,-0.476318359375,1.5869139432907104,-2.044677495956421,-1.4953612089157104,100.0,184913.0,1.0
510639.9755976,265061.21875,290400.75,302201.0625,279750.0625,289199.65625,277748.96875,254550.4375,264064.78125,0.00830078125,0.871337890625,-0.476806640625,1.7089842557907104,-2.136230230331421,-1.3732908964157104,100.0,184914.0,1.0
510639.97824,265214.28125,290346.59375,301938.375,279111.15625,285979.9375,276994.28125,253844.390625,263340.3125,0.008056640625,0.87109375,-0.477294921875,1.9531248807907104,-2.258300542831421,-1.2207030057907104,100.0,184915.0,1.0
510639.9806825,264634.84375,290413.46875,302045.5,279644.03125,287478.125,278159.34375,254287.21875,263858.4375,0.00634765625,0.873779296875,-0.47705078125,2.166747808456421,-2.380370855331421,-1.0375975370407104,100.0,184916.0,1.0
510639.9832184,264094.09375,290520.125,302396.59375,280671.125,291728.53125,279704.46875,255294.3125,264942.21875,0.005126953125,0.875732421875,-0.477294921875,2.349853277206421,-2.655029058456421,-0.9460448622703552,100.0,184917.0,1.0
510639.9832581,264330.03125,290511.34375,302497.09375,280767.34375,292943.5,279506.4375,255504.0625,265115.9375,0.0009765625,0.8798828125,-0.480712890625,2.532958745956421,-2.868652105331421,-0.9460448622703552,100.0,184918.0,1.0
510639.9856013,265067.90625,290423.28125,302218.65625,279775.09375,289295.96875,277792.0625,254592.28125,264097.75,-0.004150390625,0.884521484375,-0.482421875,2.593993902206421,-3.021239995956421,-0.9460448622703552,100.0,184919.0,1.0
510639.9882685,265220.09375,290352.03125,301940.25,279116.625,286020.625,276996.875,253861.015625,263344.78125,-0.00634765625,0.888427734375,-0.48681640625,2.716064214706421,-3.326415777206421,-1.0070799589157104,100.0,184920.0,1.0
510639.9932393,264639.9375,290411.75,302042.625,279653.6875,287471.96875,278134.46875,254291.15625,263857.96875,-0.007568359375,0.890380859375,-0.486328125,2.563476324081421,-3.692626714706421,-1.0681151151657104,100.0,184921.0,1.0
510639.9957337,264103.40625,290534.78125,302416.53125,280711.375,291760.90625,279700.4375,255319.609375,264967.4375,-0.009765625,0.89111328125,-0.484619140625,2.532958745956421,-3.967284917831421,-1.1291502714157104,100.0,184922.0,1.0
510640.0007497,264323.0625,290517.875,302513.96875,280810.875,293024.59375,279517.59375,255520.234375,265131.75,-0.0107421875,0.888916015625,-0.482666015625,2.288818120956421,-4.364013195037842,-1.2207030057907104,100.0,184923.0,1.0
510640.000791,265049.78125,290427.5,302221.25,279793.4375,289389.9375,277802.96875,254603.28125,264101.78125,-0.0107421875,0.8857421875,-0.481689453125,2.166747808456421,-4.730224132537842,-1.3732908964157104,100.0,184924.0,1.0
510640.0032593,265220.71875,290378.78125,301958.21875,279134.6875,286117.28125,277027.0,253892.9375,263363.8125,-0.01220703125,0.88623046875,-0.482177734375,2.044677495956421,-4.882812023162842,-1.4343260526657104,100.0,184925.0,1.0
510640.0057322,264650.9375,290435.8125,302061.40625,279667.09375,287521.59375,278147.28125,254311.359375,263867.90625,-0.01123046875,0.88623046875,-0.48193359375,1.8615721464157104,-5.157470226287842,-1.4953612089157104,100.0,184926.0,1.0
510640.005771,264119.65625,290562.6875,302438.15625,280730.25,291790.40625,279708.3125,255340.078125,264981.09375,-0.0107421875,0.8857421875,-0.47900390625,1.6174315214157104,-5.432128429412842,-1.6784666776657104,100.0,184927.0,1.0
510640.0106921,264324.5,290540.40625,302533.1875,280826.71875,293078.21875,279545.59375,255555.828125,265164.3125,-0.011474609375,0.885986328125,-0.477294921875,1.5869139432907104,-5.798339366912842,-1.8920897245407104,100.0,184928.0,1.0
510640.0124032,265037.34375,290432.40625,302226.09375,279800.65625,289444.90625,277830.59375,254623.390625,264119.75,-0.011474609375,0.885498046875,-0.478271484375,1.5258787870407104,-5.920409679412842,-1.9836424589157104,100.0,184929.0,1.0
510640.038282,265199.34375,290359.1875,301937.5625,279112.5,286102.34375,277010.8125,253881.234375,263353.28125,-0.009033203125,0.885986328125,-0.479248046875,1.2817381620407104,-6.317138195037842,-2.166747808456421,100.0,184930.0,1.0
510640.0383217,264630.1875,290403.09375,302028.40625,279622.40625,287431.1875,278099.78125,254276.859375,263833.375,-0.005859375,0.88671875,-0.478271484375,1.0986326932907104,-6.591796398162842,-2.380370855331421,100.0,184931.0,1.0
510640.0406407,264093.84375,290517.71875,302399.71875,280670.0625,291672.5625,279658.4375,255283.125,264927.0,-0.003662109375,0.887451171875,-0.478759765625,0.9460448622703552,-6.805419445037842,-2.441406011581421,100.0,184932.0,1.0
510640.0430802,264323.0625,290528.34375,302527.84375,280806.6875,293043.375,279542.46875,255531.953125,265145.34375,-0.00048828125,0.888916015625,-0.480224609375,0.6103515028953552,-6.896972179412842,-2.563476324081421,100.0,184933.0,1.0
510640.0457058,265038.0625,290435.71875,302229.9375,279799.96875,289482.03125,277842.21875,254636.984375,264133.625,0.000244140625,0.888671875,-0.478759765625,0.3051757514476776,-6.927489757537842,-2.593993902206421,100.0,184934.0,1.0
510640.0481141,265198.0,290349.34375,301929.4375,279107.5,286121.21875,277002.6875,253893.484375,263360.15625,0.000244140625,0.887939453125,-0.47802734375,-0.1220703050494194,-6.958007335662842,-2.685546636581421,100.0,184935.0,1.0
510640.0507081,264625.4375,290373.65625,302007.40625,279596.8125,287384.78125,278063.59375,254265.765625,263814.78125,-0.0009765625,0.886962890625,-0.479248046875,-0.4882812201976776,-7.049560070037842,-2.777099370956421,100.0,184936.0,1.0
510640.053244,264093.5625,290488.28125,302386.3125,280641.90625,291611.34375,279620.15625,255271.953125,264902.34375,0.0,0.88671875,-0.476806640625,-0.7934569716453552,-6.988524913787842,-2.838134527206421,100.0,184937.0,1.0
510640.0556566,264320.03125,290509.40625,302526.6875,280799.96875,293038.90625,279527.625,255532.84375,265130.5,0.002197265625,0.884521484375,-0.4775390625,-1.0070799589157104,-6.835937023162842,-2.929687261581421,100.0,184938.0,1.0
510640.0556915,265036.28125,290422.5625,302234.3125,279822.40625,289523.78125,277846.3125,254649.953125,264141.65625,0.001708984375,0.88427734375,-0.4775390625,-1.3427733182907104,-6.774901866912842,-3.112792730331421,100.0,184939.0,1.0
510640.0632273,265210.875,290341.84375,301934.96875,279130.46875,286132.125,277000.90625,253901.34375,263368.21875,0.002685546875,0.88427734375,-0.477294921875,-1.6784666776657104,-6.683349132537842,-3.295898199081421,100.0,184940.0,1.0
510640.0672597,264661.28125,290388.4375,302027.875,279613.375,287355.90625,278073.40625,254283.828125,263820.25,0.001953125,0.88525390625,-0.4775390625,-1.8310545682907104,-6.652831554412842,-3.448486089706421,100.0,184941.0,1.0
510640.0743625,264102.5,290484.1875,302386.65625,280615.0,291547.3125,279612.90625,255263.109375,264876.0625,-0.000732421875,0.883056640625,-0.476806640625,-2.044677495956421,-6.408690929412842,-3.448486089706421,100.0,184942.0,1.0
510640.0770231,264316.625,290505.1875,302531.3125,280782.71875,293029.875,279535.40625,255544.28125,265130.0625,-0.00146484375,0.88232421875,-0.471923828125,-2.410888433456421,-6.347655773162842,-3.540038824081421,100.0,184943.0,1.0
510640.0770655,265026.4375,290410.78125,302231.90625,279822.5625,289539.78125,277856.15625,254662.109375,264147.03125,-0.001220703125,0.87744140625,-0.47216796875,-2.807616949081421,-6.195067882537842,-3.540038824081421,100.0,184944.0,1.0
510640.0818248,265213.125,290336.65625,301933.375,279141.75,286136.21875,277001.34375,253910.734375,263369.28125,-0.001708984375,0.875,-0.47314453125,-3.021239995956421,-5.981444835662842,-3.448486089706421,100.0,184945.0,1.0
510640.0870075,264684.28125,290394.78125,302041.1875,279619.09375,287338.65625,278061.34375,254294.828125,263826.40625,-0.004150390625,0.875244140625,-0.47216796875,-3.051757574081421,-5.828856945037842,-3.601073980331421,100.0,184946.0,1.0
510640.0918491,264143.0,290502.15625,302419.28125,280629.125,291523.0,279614.0,255279.46875,264890.53125,-0.00537109375,0.87451171875,-0.474609375,-2.960204839706421,-5.676269054412842,-3.814697027206421,100.0,184947.0,1.0
510640.0995006,264331.75,290509.46875,302545.90625,280788.09375,292995.53125,279544.6875,255538.203125,265125.21875,-0.0048828125,0.87353515625,-0.47900390625,-3.143310308456421,-5.615233898162842,-3.967284917831421,100.0,184948.0,1.0
510640.1019972,265044.40625,290428.21875,302251.3125,279844.75,289522.6875,277882.1875,254671.9375,264167.78125,-0.005126953125,0.869873046875,-0.4794921875,-3.326415777206421,-5.554198741912842,-3.936767339706421,100.0,184949.0,1.0
510640.1044606,265239.9375,290348.375,301949.1875,279162.3125,286059.4375,277013.75,253895.171875,263388.59375,-0.00439453125,0.869140625,-0.47705078125,-3.387450933456421,-5.279540538787842,-3.875732183456421,100.0,184950.0,1.0
510640.1069639,264693.21875,290370.90625,302025.09375,279593.34375,287139.8125,278020.75,254215.4375,263806.21875,-0.006103515625,0.867919921875,-0.4765625,-3.479003667831421,-5.096435070037842,-3.967284917831421,100.0,184951.0,1.0
510640.1119915,264118.59375,290458.25,302378.53125,280558.9375,291279.71875,279555.15625,255190.953125,264850.65625,-0.003173828125,0.868408203125,-0.478759765625,-3.448486089706421,-4.882812023162842,-4.028319835662842,100.0,184952.0,1.0
510640.1145727,264306.8125,290468.8125,302512.09375,280737.3125,292770.5,279509.46875,255463.734375,265088.75,-0.0029296875,0.8701171875,-0.479248046875,-3.265380620956421,-4.730224132537842,-3.967284917831421,100.0,184953.0,1.0
510640.1146111,265010.6875,290380.375,302203.1875,279806.84375,289278.78125,277836.5,254587.1875,264122.875,-0.001220703125,0.873046875,-0.477783203125,-3.204345464706421,-4.394530773162842,-3.997802495956421,100.0,184954.0,1.0
510640.1168124,265215.25,290307.34375,301897.6875,279127.34375,285770.03125,276950.09375,253835.546875,263349.96875,-0.00048828125,0.874755859375,-0.478759765625,-3.143310308456421,-4.180907726287842,-3.753661870956421,100.0,184955.0,1.0
510640.1194442,264689.09375,290336.5625,301980.5,279555.34375,286788.71875,277959.78125,254173.859375,263759.34375,0.00048828125,0.873779296875,-0.4765625,-3.204345464706421,-4.028319835662842,-3.417968511581421,100.0,184956.0,1.0
510640.1395297,264098.125,290395.125,302311.75,280489.71875,290856.125,279472.46875,255109.40625,264768.9375,-0.0009765625,0.873291015625,-0.475830078125,-3.295898199081421,-3.814697027206421,-3.265380620956421,100.0,184957.0,1.0
510640.1395709,264263.96875,290388.78125,302434.5,280659.6875,292374.15625,279429.0,255383.0,265018.75,-0.001953125,0.87109375,-0.47509765625,-3.173827886581421,-3.509521245956421,-2.990722417831421,100.0,184958.0,1.0
510640.1418605,264998.4375,290326.28125,302157.0625,279776.1875,288949.15625,277792.78125,254533.546875,264088.03125,-0.001953125,0.869384765625,-0.47802734375,-3.082275152206421,-3.082275152206421,-2.960204839706421,100.0,184959.0,1.0
510640.1470118,265196.65625,290243.3125,301838.0625,279079.6875,285420.0625,276879.375,253754.359375,263297.125,-0.0029296875,0.869873046875,-0.480224609375,-2.807616949081421,-2.807616949081421,-2.807616949081421,100.0,184960.0,1.0
510640.1493743,264675.4375,290280.15625,301920.84375,279488.90625,286411.5,277873.25,254081.765625,263698.375,-0.000732421875,0.87060546875,-0.48291015625,-2.593993902206421,-2.532958745956421,-2.777099370956421,100.0,184961.0,1.0
510640.1545338,264116.1875,290374.75,302287.78125,280447.96875,290510.03125,279431.6875,255038.875,264727.8125,-0.001220703125,0.869873046875,-0.481689453125,-2.349853277206421,-2.410888433456421,-2.532958745956421,100.0,184962.0,1.0
510640.1545747,264268.53125,290366.96875,302412.40625,280627.3125,292081.4375,279402.53125,255311.734375,264974.40625,-0.002197265625,0.869873046875,-0.481201171875,-2.136230230331421,-2.075195074081421,-2.349853277206421,100.0,184963.0,1.0
510640.164508,264994.25,290303.5,302135.96875,279764.625,288718.75,277773.09375,254472.03125,264055.5625,-0.00244140625,0.868408203125,-0.48486328125,-1.8615721464157104,-1.8005369901657104,-2.227782964706421,100.0,184964.0,1.0
510640.1668457,265202.03125,290222.5,301820.8125,279082.1875,285185.28125,276856.40625,253698.84375,263270.84375,-0.002685546875,0.8681640625,-0.484375,-1.5563963651657104,-1.6174315214157104,-2.105712652206421,100.0,184965.0,1.0
510640.1693517,264671.21875,290243.125,301888.125,279470.125,286124.59375,277823.6875,253998.171875,263649.75,-0.003662109375,0.86767578125,-0.4833984375,-1.1596678495407104,-1.3732908964157104,-1.9226073026657104,100.0,184966.0,1.0
510640.1719828,264088.65625,290322.1875,302238.875,280404.71875,290216.75,279359.1875,254945.890625,264665.59375,-0.005615234375,0.86669921875,-0.484375,-0.9155272841453552,-1.1901854276657104,-1.8005369901657104,100.0,184967.0,1.0
510640.1744326,264244.21875,290328.53125,302378.34375,280612.21875,291849.34375,279365.25,255230.828125,264934.25,-0.005615234375,0.86572265625,-0.48486328125,-0.6408690810203552,-0.9765624403953552,-1.5563963651657104,100.0,184968.0,1.0
510640.1744716,265002.5625,290311.4375,302144.375,279806.3125,288579.1875,277780.25,254428.046875,264062.8125,-0.00341796875,0.86572265625,-0.4853515625,-0.3051757514476776,-0.6713866591453552,-1.3427733182907104,100.0,184969.0,1.0
510640.175889,265233.0625,290257.4375,301850.125,279142.71875,285073.53125,276867.125,253658.25,263290.96875,-0.001708984375,0.864013671875,-0.4873046875,-0.03051757626235485,-0.4882812201976776,-1.1291502714157104,100.0,184970.0,1.0
510640.1831649,264654.3125,290231.0625,301867.3125,279464.84375,285949.53125,277774.71875,253910.015625,263612.09375,-0.00341796875,0.865234375,-0.4853515625,0.3356933295726776,-0.3662109076976776,-1.0070799589157104,100.0,184971.0,1.0
510640.1869676,264081.03125,290318.59375,302226.28125,280400.15625,290058.15625,279333.59375,254868.109375,264633.125,-0.002685546875,0.8642578125,-0.490478515625,0.7019042372703552,-0.1525878757238388,-0.9765624403953552,100.0,184972.0,1.0
510640.1956744,264252.875,290359.53125,302398.90625,280643.5,291794.78125,279397.625,255207.578125,264952.84375,-0.002197265625,0.865478515625,-0.493408203125,1.0986326932907104,0.1220703050494194,-0.7934569716453552,100.0,184973.0,1.0
510640.1957144,264981.28125,290310.28125,302141.78125,279825.4375,288559.34375,277786.34375,254401.75,264076.125,-0.00390625,0.863525390625,-0.490478515625,1.4648436307907104,0.3662109076976776,-0.6713866591453552,100.0,184974.0,1.0
510640.1981746,265219.90625,290242.78125,301838.25,279157.03125,285040.09375,276844.875,253623.296875,263296.21875,-0.0029296875,0.864013671875,-0.4892578125,1.8920897245407104,0.4577636420726776,-0.3967284858226776,100.0,184975.0,1.0
510640.1982079,264684.8125,290243.75,301883.84375,279496.34375,285904.9375,277775.96875,253892.5,263637.40625,-0.00341796875,0.866943359375,-0.4873046875,2.044677495956421,0.6408690810203552,-0.1525878757238388,100.0,184976.0,1.0
510640.2143738,264112.34375,290341.03125,302251.125,280423.03125,290022.75,279353.90625,254871.859375,264671.21875,-0.00341796875,0.867919921875,-0.490234375,2.288818120956421,0.7629393935203552,0.0915527269244194,100.0,184977.0,1.0
510640.2170014,264264.59375,290360.96875,302408.21875,280656.21875,291780.5,279414.875,255205.4375,264972.15625,-0.00439453125,0.87060546875,-0.490478515625,2.471923589706421,1.0070799589157104,0.2746581733226776,100.0,184978.0,1.0
510640.2170427,264999.0625,290326.09375,302163.0625,279855.75,288605.1875,277825.125,254412.84375,264107.6875,-0.00390625,0.869873046875,-0.4912109375,2.655029058456421,1.0070799589157104,0.4882812201976776,100.0,184979.0,1.0
510640.2220745,265246.09375,290270.84375,301868.46875,279190.5625,285094.46875,276880.375,253640.90625,263335.5625,-0.004150390625,0.87158203125,-0.487060546875,2.746581792831421,1.1291502714157104,0.7019042372703552,100.0,184980.0,1.0
510640.2221163,264681.9375,290244.03125,301879.0,279480.15625,285905.125,277771.40625,253878.28125,263634.375,-0.005126953125,0.87353515625,-0.483642578125,2.746581792831421,1.1596678495407104,0.7629393935203552,100.0,184981.0,1.0
510640.2221261,264099.375,290332.53125,302236.5625,280389.15625,290017.125,279353.8125,254848.515625,264650.03125,-0.007080078125,0.87548828125,-0.48486328125,2.746581792831421,1.1901854276657104,0.8850097060203552,100.0,184982.0,1.0
510640.2255945,264225.875,290342.75,302387.65625,280624.65625,291836.46875,279426.59375,255190.6875,264962.40625,-0.008544921875,0.876220703125,-0.48583984375,2.563476324081421,1.2512205839157104,1.0070799589157104,100.0,184983.0,1.0
510640.2394892,264956.78125,290294.375,302134.0,279844.125,288682.4375,277818.0625,254389.859375,264106.25,-0.005859375,0.880126953125,-0.486572265625,2.532958745956421,1.3427733182907104,1.1596678495407104,100.0,184984.0,1.0
510640.2483067,265206.0625,290229.1875,301832.4375,279180.0,285139.53125,276844.78125,253607.203125,263325.09375,-0.00830078125,0.880615234375,-0.484375,2.502441167831421,1.4953612089157104,1.2817381620407104,100.0,184985.0,1.0
510640.2483476,264671.03125,290230.09375,301866.03125,279481.40625,285932.8125,277742.0,253859.765625,263627.5625,-0.008544921875,0.879150390625,-0.48583984375,2.380370855331421,1.4648436307907104,1.4038084745407104,100.0,184986.0,1.0
510640.2483577,264078.1875,290319.65625,302217.6875,280377.15625,290040.53125,279323.3125,254820.265625,264635.5625,-0.007568359375,0.8818359375,-0.486083984375,2.258300542831421,1.4343260526657104,1.5563963651657104,100.0,184987.0,1.0
510640.2507888,264227.40625,290356.59375,302396.21875,280649.0625,291915.21875,279432.9375,255193.09375,264981.03125,-0.007568359375,0.88330078125,-0.48291015625,1.9531248807907104,1.4038084745407104,1.6174315214157104,100.0,184988.0,1.0
510640.2508295,264979.40625,290329.78125,302165.28125,279897.59375,288805.125,277848.65625,254420.359375,264141.65625,-0.005859375,0.887451171875,-0.483154296875,1.6784666776657104,1.3427733182907104,1.9226073026657104,100.0,184989.0,1.0
510640.2532226,265212.84375,290233.5625,301835.1875,279204.25,285191.90625,276826.8125,253597.8125,263314.5625,-0.006591796875,0.888671875,-0.482421875,1.4648436307907104,1.4343260526657104,2.044677495956421,100.0,184990.0,1.0
510640.2669378,264692.6875,290241.78125,301882.3125,279507.0625,285950.25,277726.96875,253867.109375,263635.875,-0.008544921875,0.890869140625,-0.47998046875,1.1596678495407104,1.3732908964157104,2.197265386581421,100.0,184991.0,1.0
510640.3147919,264117.96875,290356.40625,302255.9375,280415.875,290072.71875,279345.0625,254862.5625,264667.375,-0.008544921875,0.89453125,-0.479736328125,0.8239745497703552,1.1901854276657104,2.258300542831421,100.0,184992.0,1.0
510640.3148335,264253.4375,290390.65625,302431.90625,280690.09375,291992.28125,279480.25,255244.328125,265010.25,-0.00830078125,0.896728515625,-0.479736328125,0.6103515028953552,1.2207030057907104,2.441406011581421,100.0,184993.0,1.0
510640.314844,264992.625,290347.21875,302189.15625,279935.84375,288890.6875,277881.46875,254466.84375,264166.4375,-0.006591796875,0.8994140625,-0.479248046875,0.1525878757238388,1.2512205839157104,2.441406011581421,100.0,184994.0,1.0
510640.3243217,265200.96875,290227.65625,301827.15625,279201.8125,285235.375,276808.125,253626.0625,263322.59375,-0.005859375,0.903076171875,-0.480224609375,-0.2136230319738388,1.1291502714157104,2.380370855331421,100.0,184995.0,1.0
510640.3269744,264675.78125,290225.875,301856.65625,279477.5625,285940.0625,277690.5625,253872.015625,263621.3125,-0.004150390625,0.905029296875,-0.47705078125,-0.6713866591453552,1.0986326932907104,2.410888433456421,100.0,184996.0,1.0
510640.3294864,264087.5625,290324.0625,302220.46875,280375.90625,290044.125,279301.34375,254852.71875,264641.90625,-0.0048828125,0.903564453125,-0.47412109375,-1.2207030057907104,0.9460448622703552,2.441406011581421,100.0,184997.0,1.0
510640.3320237,264211.75,290359.0,302399.09375,280659.0625,292011.59375,279447.6875,255243.96875,265004.96875,-0.003173828125,0.903564453125,-0.472412109375,-1.5563963651657104,0.9155272841453552,2.349853277206421,100.0,184998.0,1.0
510640.3344045,264960.0,290336.75,302175.84375,279928.4375,288972.21875,277880.3125,254499.75,264188.78125,-0.00146484375,0.903076171875,-0.47119140625,-2.136230230331421,1.0986326932907104,2.471923589706421,100.0,184999.0,1.0
510640.3368001,265216.96875,290252.0,301851.75,279230.875,285305.71875,276830.75,253680.328125,263363.1875,0.001953125,0.9033203125,-0.47021484375,-2.380370855331421,1.1596678495407104,2.441406011581421,100.0,185000.0,1.0
510640.3394854,264695.09375,290252.25,301875.15625,279499.09375,285959.65625,277687.625,253911.71875,263647.875,0.00439453125,0.903564453125,-0.468017578125,-2.899169683456421,1.2207030057907104,2.349853277206421,100.0,185001.0,1.0
510640.3418553,264104.28125,290355.0625,302239.5,280400.78125,290068.78125,279317.15625,254897.078125,264670.25,0.00341796875,0.904296875,-0.4697265625,-3.387450933456421,1.2817381620407104,2.227782964706421,100.0,185002.0,1.0
510640.3444994,264213.53125,290385.03125,302418.03125,280694.84375,292082.78125,279483.625,255295.828125,265038.59375,0.00732421875,0.903564453125,-0.4697265625,-3.723144292831421,1.4038084745407104,2.136230230331421,100.0,185003.0,1.0
510640.3469448,264938.625,290335.21875,302176.46875,279949.4375,289047.3125,277889.875,254530.0625,264210.59375,0.008056640625,0.902587890625,-0.4697265625,-3.967284917831421,1.5563963651657104,2.105712652206421,100.0,185004.0,1.0
510640.3493563,265236.4375,290276.03125,301878.46875,279272.1875,285379.21875,276860.25,253721.09375,263404.9375,0.009521484375,0.90283203125,-0.469482421875,-4.364013195037842,1.7089842557907104,2.044677495956421,100.0,185005.0,1.0
510640.3518501,264744.625,290295.1875,301920.84375,279549.25,286015.09375,277732.78125,253972.875,263704.8125,0.01025390625,0.900390625,-0.46923828125,-4.669188976287842,1.8005369901657104,1.9226073026657104,100.0,185006.0,1.0
510640.3693145,264104.28125,290341.75,302232.15625,280395.125,290053.9375,279304.8125,254906.8125,264672.125,0.01220703125,0.901123046875,-0.4677734375,-5.004882335662842,1.9836424589157104,1.7395018339157104,100.0,185007.0,1.0
510640.3719894,264209.53125,290377.34375,302417.6875,280692.25,292113.4375,279496.96875,255328.28125,265058.53125,0.010009765625,0.898681640625,-0.467529296875,-5.187987804412842,2.166747808456421,1.7700194120407104,100.0,185008.0,1.0
510640.374512,264976.09375,290365.625,302213.46875,279990.46875,289142.90625,277938.84375,254605.0625,264272.1875,0.009765625,0.8974609375,-0.467041015625,-5.493163585662842,2.471923589706421,1.5258787870407104,100.0,185009.0,1.0
510640.3769097,265262.28125,290291.3125,301893.9375,279291.6875,285427.0625,276868.375,253770.1875,263434.46875,0.012939453125,0.898681640625,-0.46728515625,-5.706786632537842,2.685546636581421,1.3732908964157104,100.0,185010.0,1.0
510640.3769451,264727.90625,290264.5,301889.75,279513.3125,285979.6875,277683.5,253964.375,263679.6875,0.012939453125,0.89794921875,-0.4716796875,-6.011962413787842,2.746581792831421,1.2817381620407104,100.0,185011.0,1.0
510640.3834112,264110.46875,290343.625,302233.78125,280393.625,290066.46875,279299.71875,254927.734375,264681.59375,0.015625,0.898193359375,-0.471923828125,-6.103515148162842,2.960204839706421,1.1596678495407104,100.0,185012.0,1.0
510640.3834514,264225.78125,290394.25,302436.375,280723.4375,292189.15625,279522.53125,255361.0,265091.15625,0.01708984375,0.895263671875,-0.468994140625,-6.225585460662842,3.173827886581421,1.0375975370407104,100.0,185013.0,1.0
510640.3834623,264984.40625,290382.96875,302230.1875,280014.875,289261.625,277972.84375,254635.828125,264295.0,0.017578125,0.892822265625,-0.4658203125,-6.256103038787842,3.448486089706421,0.9765624403953552,100.0,185014.0,1.0
510640.3907325,265270.4375,290304.75,301904.65625,279294.09375,285539.53125,276887.0625,253802.109375,263449.28125,0.0166015625,0.892578125,-0.466064453125,-6.439208507537842,3.753661870956421,0.9765624403953552,100.0,185015.0,1.0
510640.3945367,264759.8125,290298.03125,301914.3125,279525.125,286075.6875,277713.09375,254007.734375,263700.875,0.01513671875,0.89208984375,-0.466064453125,-6.622313976287842,3.967284917831421,0.8544921278953552,100.0,185016.0,1.0
510640.3945772,264140.21875,290389.21875,302262.75,280405.25,290175.0,279339.96875,254984.953125,264712.09375,0.013916015625,0.893310546875,-0.462646484375,-6.652831554412842,4.180907726287842,0.7324218153953552,100.0,185017.0,1.0
510640.394588,264223.5625,290424.375,302452.46875,280727.09375,292351.0,279559.4375,255417.515625,265116.75,0.010009765625,0.8916015625,-0.46044921875,-6.835937023162842,4.333495616912842,0.5798339247703552,100.0,185018.0,1.0
510640.396961,264961.25,290389.0625,302224.9375,280003.8125,289431.15625,277992.5,254671.765625,264306.96875,0.00732421875,0.890380859375,-0.458740234375,-6.927489757537842,4.486083507537842,0.4577636420726776,100.0,185019.0,1.0
510640.3995362,265272.125,290329.9375,301913.96875,279291.0625,285701.53125,276908.4375,253846.359375,263470.03125,0.00244140625,0.893798828125,-0.45556640625,-6.835937023162842,4.516601085662842,0.0915527269244194,100.0,185020.0,1.0
510640.4018146,264781.1875,290337.46875,301935.4375,279529.78125,286219.09375,277736.4375,254060.671875,263727.1875,-0.000732421875,0.895263671875,-0.456787109375,-6.866454601287842,4.608153820037842,-0.3051757514476776,100.0,185021.0,1.0
510640.4042943,264156.5,290422.9375,302277.21875,280412.9375,290315.46875,279368.5625,255030.015625,264729.5,0.000244140625,0.89453125,-0.456787109375,-6.927489757537842,4.577636241912842,-0.4272460639476776,100.0,185022.0,1.0
510640.4093304,264234.28125,290460.03125,302473.375,280750.71875,292547.96875,279618.375,255476.515625,265145.34375,0.0,0.89404296875,-0.4560546875,-6.927489757537842,4.486083507537842,-0.7019042372703552,100.0,185023.0,1.0
510640.4120207,264967.6875,290418.90625,302248.25,280029.71875,289678.1875,278056.4375,254742.21875,264341.03125,0.000244140625,0.8955078125,-0.4560546875,-6.896972179412842,4.455565929412842,-0.7934569716453552,100.0,185024.0,1.0
510640.4143147,265295.0,290358.5625,301939.8125,279316.4375,285930.3125,276961.71875,253918.59375,263498.8125,0.0,0.8974609375,-0.452392578125,-6.835937023162842,4.455565929412842,-0.9765624403953552,100.0,185025.0,1.0
510640.4168273,264792.90625,290356.5,301948.03125,279535.3125,286409.46875,277756.8125,254117.4375,263738.78125,0.000244140625,0.897705078125,-0.45068359375,-6.835937023162842,4.333495616912842,-1.0681151151657104,100.0,185026.0,1.0
510640.4194282,264165.34375,290452.53125,302298.6875,280427.0625,290537.46875,279397.34375,255096.359375,264751.34375,0.000244140625,0.8984375,-0.45263671875,-6.958007335662842,4.394530773162842,-1.0986326932907104,100.0,185027.0,1.0
510640.4244599,264255.84375,290516.0,302524.53125,280799.4375,292870.90625,279694.46875,255583.453125,265207.84375,-0.001220703125,0.90087890625,-0.452392578125,-6.958007335662842,4.302978038787842,-1.1291502714157104,100.0,185028.0,1.0
510640.4269877,265000.6875,290488.5625,302312.8125,280095.09375,290046.34375,278147.0,254860.0625,264419.1875,-0.002197265625,0.898193359375,-0.451416015625,-6.896972179412842,4.241942882537842,-1.0681151151657104,100.0,185029.0,1.0
510640.4293221,265310.75,290413.09375,301984.875,279355.59375,286259.34375,277015.5625,254010.515625,263553.8125,-0.0009765625,0.89892578125,-0.44775390625,-6.988524913787842,4.028319835662842,-0.9460448622703552,100.0,185030.0,1.0
510640.4318392,264814.28125,290408.71875,301988.96875,279569.09375,286697.15625,277804.3125,254190.84375,263781.71875,-0.001953125,0.900634765625,-0.44873046875,-6.896972179412842,3.997802495956421,-0.8544921278953552,100.0,185031.0,1.0
510640.4345251,264182.53125,290511.625,302339.625,280461.46875,290843.40625,279457.4375,255174.5,264800.875,-0.004638671875,0.8974609375,-0.447265625,-6.805419445037842,3.845214605331421,-0.8239745497703552,100.0,185032.0,1.0
510640.4345666,264249.3125,290565.375,302556.28125,280833.6875,293217.625,279761.6875,255652.46875,265250.75,-0.0048828125,0.897216796875,-0.447509765625,-6.652831554412842,3.753661870956421,-0.7324218153953552,100.0,185033.0,1.0
510640.4393326,264996.125,290537.03125,302352.34375,280139.6875,290426.4375,278221.75,254944.09375,264473.28125,-0.005859375,0.897705078125,-0.44775390625,-6.469726085662842,3.509521245956421,-0.5187987685203552,100.0,185034.0,1.0
510640.4418133,265366.09375,290496.34375,302063.1875,279430.15625,286627.875,277113.0,254120.75,263635.1875,-0.006591796875,0.8974609375,-0.445068359375,-6.256103038787842,3.417968511581421,-0.3967284858226776,100.0,185035.0,1.0
510640.4444887,264856.03125,290477.84375,302046.375,279606.84375,287018.125,277876.375,254286.0625,263838.84375,-0.01171875,0.895751953125,-0.444091796875,-6.011962413787842,3.173827886581421,-0.2746581733226776,100.0,185036.0,1.0
510640.4469459,264202.90625,290567.59375,302382.375,280479.09375,291170.75,279516.0,255253.0,264837.34375,-0.01123046875,0.8935546875,-0.444091796875,-5.798339366912842,2.807616949081421,-0.1831054538488388,100.0,185037.0,1.0
510640.446986,264273.09375,290638.0625,302616.25,280870.34375,293632.46875,279857.25,255766.203125,265317.71875,-0.01318359375,0.891357421875,-0.444091796875,-5.615233898162842,2.532958745956421,-0.0610351525247097,100.0,185038.0,1.0
510640.4494791,265001.3125,290578.25,302388.71875,280156.59375,290839.03125,278293.34375,255035.921875,264522.09375,-0.0146484375,0.890380859375,-0.449951171875,-5.432128429412842,2.349853277206421,0.0610351525247097,100.0,185039.0,1.0
510640.4669355,265371.46875,290524.0625,302090.90625,279433.21875,287001.6875,277158.0625,254195.3125,263669.3125,-0.014892578125,0.8876953125,-0.44873046875,-5.065917491912842,1.8920897245407104,0.1525878757238388,100.0,185040.0,1.0
510640.4719951,264877.9375,290518.40625,302084.28125,279620.6875,287367.1875,277926.15625,254349.71875,263868.34375,-0.01708984375,0.885009765625,-0.448974609375,-4.760741710662842,1.6784666776657104,0.2746581733226776,100.0,185041.0,1.0
510640.4720376,264252.15625,290645.46875,302452.46875,280535.5,291576.28125,279613.90625,255344.90625,264899.125,-0.010498046875,0.8876953125,-0.453857421875,-4.455565929412842,1.4343260526657104,0.4272460639476776,100.0,185042.0,1.0
510640.4745379,264308.9375,290711.71875,302682.875,280932.46875,294084.40625,279955.625,255857.5625,265378.875,-0.011962890625,0.8896484375,-0.45556640625,-3.814697027206421,1.0986326932907104,1.3122557401657104,100.0,185043.0,1.0
510640.481933,265018.375,290631.625,302437.34375,280195.84375,291263.4375,278374.375,255119.421875,264565.375,-0.028564453125,0.882080078125,-0.443359375,-3.845214605331421,0.9460448622703552,1.2512205839157104,100.0,185044.0,1.0
510640.4843179,265377.1875,290547.21875,302111.1875,279432.03125,287298.96875,277184.625,254246.90625,263678.09375,-0.023681640625,0.87841796875,-0.451416015625,-3.448486089706421,0.1220703050494194,0.6713866591453552,100.0,185045.0,1.0
510640.4869621,264893.21875,290543.375,302102.96875,279613.90625,287580.25,277930.53125,254391.5625,263873.8125,-0.015380859375,0.87939453125,-0.451171875,-2.777099370956421,0.1220703050494194,0.7629393935203552,100.0,185046.0,1.0
510640.4884231,264271.21875,290689.46875,302482.25,280546.6875,291793.1875,279644.21875,255401.328125,264920.9375,-0.01611328125,0.8837890625,-0.453369140625,-2.349853277206421,-0.03051757626235485,1.1596678495407104,100.0,185047.0,1.0
510640.4957387,264307.6875,290744.0,302707.09375,280948.3125,294319.8125,280000.0625,255914.171875,265409.375,-0.01611328125,0.886474609375,-0.458251953125,-2.380370855331421,-0.6103515028953552,1.2207030057907104,100.0,185048.0,1.0
510640.4980687,265017.125,290655.03125,302462.84375,280217.5625,291483.125,278417.625,255191.578125,264617.5,-0.012939453125,0.88818359375,-0.460693359375,-2.105712652206421,-0.9155272841453552,1.2512205839157104,100.0,185049.0,1.0
510640.5005829,265352.15625,290518.40625,302090.0,279409.6875,287370.03125,277168.875,254254.59375,263670.9375,-0.0126953125,0.88818359375,-0.457275390625,-1.6784666776657104,-0.9155272841453552,1.3122557401657104,100.0,185050.0,1.0
510640.5032705,264892.6875,290532.71875,302093.125,279601.125,287589.28125,277922.40625,254401.125,263868.53125,-0.010986328125,0.888427734375,-0.45751953125,-1.4648436307907104,-1.3122557401657104,1.3122557401657104,100.0,185051.0,1.0
510640.5069737,264259.3125,290672.75,302464.0,280527.90625,291781.46875,279628.46875,255393.375,264903.9375,-0.010009765625,0.8876953125,-0.458740234375,-1.2207030057907104,-1.3427733182907104,1.4343260526657104,100.0,185052.0,1.0
510640.5070146,264295.4375,290731.3125,302695.03125,280940.6875,294344.59375,280011.125,255922.65625,265405.4375,-0.00732421875,0.888671875,-0.457275390625,-0.8239745497703552,-1.3732908964157104,1.4648436307907104,100.0,185053.0,1.0
510640.5169351,264996.3125,290617.3125,302434.5,280195.03125,291460.25,278406.71875,255181.65625,264595.40625,-0.0068359375,0.88720703125,-0.461669921875,-0.6103515028953552,-1.5258787870407104,1.4648436307907104,100.0,185054.0,1.0
510640.5194896,265339.625,290479.09375,302053.4375,279368.84375,287254.96875,277129.1875,254233.40625,263640.34375,-0.002197265625,0.88916015625,-0.462646484375,-0.4577636420726776,-1.5258787870407104,1.5258787870407104,100.0,185055.0,1.0
510640.5195308,264900.28125,290511.53125,302065.59375,279562.59375,287405.09375,277877.4375,254367.328125,263825.15625,-0.0009765625,0.891357421875,-0.46435546875,-0.2136230319738388,-1.5563963651657104,1.5563963651657104,100.0,185056.0,1.0
510640.5220176,264289.8125,290686.96875,302468.28125,280524.40625,291642.53125,279620.875,255386.484375,264888.125,0.00146484375,0.892333984375,-0.464599609375,-0.03051757626235485,-1.5563963651657104,1.6174315214157104,100.0,185057.0,1.0
510640.5393252,264305.0,290735.5,302695.46875,280943.28125,294259.46875,280008.09375,255923.375,265396.9375,0.005126953125,0.89306640625,-0.462890625,0.1220703050494194,-1.4648436307907104,1.5869139432907104,100.0,185058.0,1.0
510640.5418886,264988.78125,290601.84375,302417.59375,280179.9375,291370.375,278387.5,255171.8125,264581.71875,0.003662109375,0.893310546875,-0.46484375,0.1831054538488388,-1.2817381620407104,1.7089842557907104,100.0,185059.0,1.0
510640.5419227,265316.1875,290435.53125,302007.5625,279318.5,287094.40625,277073.5,254189.234375,263588.3125,0.0068359375,0.894287109375,-0.464599609375,0.3051757514476776,-1.1596678495407104,1.6784666776657104,100.0,185060.0,1.0
510640.5657074,264864.25,290452.96875,302000.96875,279491.6875,287210.8125,277803.59375,254296.53125,263753.375,0.0078125,0.8916015625,-0.466552734375,0.4272460639476776,-0.9765624403953552,1.7395018339157104,100.0,185061.0,1.0
510640.5657466,264282.375,290670.25,302443.25,280489.625,291525.40625,279594.21875,255350.625,264854.25,0.008544921875,0.892822265625,-0.46630859375,0.5493163466453552,-0.8544921278953552,1.7395018339157104,100.0,185062.0,1.0
510640.565757,264293.21875,290733.34375,302686.0,280928.28125,294229.875,280006.65625,255905.9375,265384.40625,0.00927734375,0.89208984375,-0.46923828125,0.6713866591453552,-0.5493163466453552,1.7395018339157104,100.0,185063.0,1.0
510640.5733078,264978.6875,290600.0625,302414.5625,280170.28125,291370.125,278396.34375,255168.78125,264579.84375,0.010986328125,0.890625,-0.466064453125,0.7934569716453552,-0.2441406100988388,1.6174315214157104,100.0,185064.0,1.0
510640.5733489,265301.28125,290410.59375,301984.6875,279279.15625,287006.15625,277048.0,254168.578125,263569.8125,0.010009765625,0.89111328125,-0.467529296875,0.8239745497703552,0.0610351525247097,1.6174315214157104,100.0,185065.0,1.0
510640.5733587,264860.6875,290431.53125,301978.53125,279454.40625,287053.71875,277766.84375,254267.109375,263723.59375,0.011474609375,0.890869140625,-0.467529296875,0.8850097060203552,0.3051757514476776,1.6479490995407104,100.0,185066.0,1.0
510640.5769266,264303.03125,290690.96875,302453.1875,280493.75,291411.34375,279604.34375,255354.75,264854.15625,0.01123046875,0.8896484375,-0.469970703125,0.9765624403953552,0.5493163466453552,1.5563963651657104,100.0,185067.0,1.0
510640.576966,264283.28125,290732.375,302675.96875,280918.625,294141.90625,280012.03125,255907.28125,265378.15625,0.0078125,0.886962890625,-0.471435546875,1.2207030057907104,0.7324218153953552,1.4648436307907104,100.0,185068.0,1.0
510640.5769758,264926.375,290543.625,302355.5625,280112.78125,291208.46875,278356.84375,255129.890625,264535.40625,0.005859375,0.88720703125,-0.47216796875,1.2817381620407104,0.8544921278953552,1.2817381620407104,100.0,185069.0,1.0
510640.5793203,265259.59375,290348.71875,301920.75,279210.125,286760.90625,276987.65625,254120.65625,263520.46875,0.00341796875,0.888427734375,-0.47509765625,1.4953612089157104,1.0681151151657104,1.0986326932907104,100.0,185070.0,1.0
510640.5819708,264844.75,290387.25,301930.59375,279394.21875,286769.78125,277711.40625,254227.140625,263684.78125,0.001953125,0.88720703125,-0.4736328125,1.6479490995407104,1.3122557401657104,1.0375975370407104,100.0,185071.0,1.0
510640.584364,264277.90625,290632.9375,302395.96875,280428.03125,291111.625,279543.1875,255289.484375,264793.34375,0.003173828125,0.885498046875,-0.47265625,1.7395018339157104,1.4648436307907104,0.8850097060203552,100.0,185072.0,1.0
510640.5868107,264300.1875,290726.5625,302676.4375,280919.96875,293936.0,280017.125,255890.46875,265373.25,0.003173828125,0.8818359375,-0.470947265625,1.8920897245407104,1.5869139432907104,0.7934569716453552,100.0,185073.0,1.0
510640.5894493,264915.125,290507.15625,302332.9375,280097.21875,290984.84375,278332.96875,255092.25,264512.6875,0.005126953125,0.8798828125,-0.473876953125,2.044677495956421,1.6784666776657104,0.7629393935203552,100.0,185074.0,1.0
510640.6145166,265241.1875,290284.4375,301875.0625,279171.4375,286448.09375,276919.09375,254043.140625,263462.78125,0.00341796875,0.876953125,-0.4755859375,2.197265386581421,1.8615721464157104,0.6103515028953552,100.0,185075.0,1.0
510640.6145574,264817.125,290312.59375,301871.40625,279339.875,286392.1875,277619.125,254115.125,263606.84375,0.005126953125,0.876953125,-0.47900390625,2.502441167831421,1.9226073026657104,0.6103515028953552,100.0,185076.0,1.0
510640.6183479,264252.625,290579.75,302349.8125,280387.1875,290776.625,279470.9375,255190.0625,264736.125,0.004638671875,0.8798828125,-0.480224609375,2.655029058456421,2.105712652206421,0.6408690810203552,100.0,185077.0,1.0
510640.6183881,264262.28125,290669.34375,302625.46875,280885.90625,293647.21875,279959.90625,255792.125,265316.84375,0.003662109375,0.88037109375,-0.48046875,2.746581792831421,2.258300542831421,0.6103515028953552,100.0,185078.0,1.0
510640.6183981,264897.78125,290458.0625,302300.375,280083.28125,290725.5,278289.25,255003.109375,264470.21875,0.005859375,0.878662109375,-0.478271484375,2.929687261581421,2.410888433456421,0.6103515028953552,100.0,185079.0,1.0
510640.6207278,265228.59375,290230.8125,301837.78125,279141.75,286142.84375,276854.0,253942.296875,263410.21875,0.00732421875,0.875244140625,-0.477294921875,2.990722417831421,2.441406011581421,0.6103515028953552,100.0,185080.0,1.0
510640.6230669,264826.34375,290286.84375,301852.8125,279320.03125,286083.84375,277570.3125,254030.890625,263562.65625,0.007080078125,0.872802734375,-0.475830078125,3.173827886581421,2.532958745956421,0.5187987685203552,100.0,185081.0,1.0
510640.6256015,264279.25,290581.375,302353.5,280397.90625,290520.125,279452.4375,255116.65625,264707.875,0.003662109375,0.873779296875,-0.47802734375,3.326415777206421,2.838134527206421,0.5798339247703552,100.0,185082.0,1.0
510640.6307298,264306.96875,290715.21875,302670.96875,280939.8125,293551.09375,279994.15625,255771.375,265343.28125,0.001220703125,0.8740234375,-0.482421875,3.509521245956421,2.960204839706421,0.6408690810203552,100.0,185083.0,1.0
510640.6331662,264901.1875,290478.53125,302322.65625,280108.9375,290702.875,278314.375,254984.15625,264483.65625,-0.000732421875,0.876708984375,-0.483642578125,3.631591558456421,3.021239995956421,0.6713866591453552,100.0,185084.0,1.0
510640.6369825,265240.65625,290256.46875,301863.8125,279167.75,286146.0625,276869.65625,253931.828125,263425.0625,-0.0009765625,0.87939453125,-0.48388671875,3.723144292831421,3.021239995956421,0.5798339247703552,100.0,185085.0,1.0
510640.637023,264845.03125,290317.6875,301873.8125,279341.03125,286101.8125,277574.09375,254015.25,263570.625,-0.004638671875,0.881103515625,-0.481689453125,3.631591558456421,2.960204839706421,0.5493163466453552,100.0,185086.0,1.0
510640.6860908,264296.6875,290630.4375,302380.3125,280425.53125,290629.71875,279478.8125,255121.65625,264724.15625,-0.0068359375,0.879150390625,-0.480224609375,3.601073980331421,2.899169683456421,0.6713866591453552,100.0,185087.0,1.0
510640.7106142,264300.375,290738.0,302683.9375,280963.6875,293713.8125,280028.46875,255764.59375,265346.15625,-0.0068359375,0.8798828125,-0.47900390625,3.601073980331421,2.899169683456421,0.6103515028953552,100.0,185088.0,1.0
510640.7106531,264924.15625,290524.59375,302365.84375,280160.1875,290909.03125,278385.96875,255032.25,264537.28125,-0.00634765625,0.882568359375,-0.47900390625,3.448486089706421,2.868652105331421,0.5187987685203552,100.0,185089.0,1.0
510640.7130458,265266.40625,290284.53125,301890.09375,279189.03125,286262.1875,276908.1875,253983.953125,263472.0,-0.007568359375,0.88427734375,-0.483642578125,3.448486089706421,2.746581792831421,0.4272460639476776,100.0,185090.0,1.0
510640.7155594,264847.4375,290310.8125,301864.53125,279325.28125,286094.125,277557.375,254024.28125,263569.90625,-0.00537109375,0.884765625,-0.4833984375,3.295898199081421,2.655029058456421,0.4577636420726776,100.0,185091.0,1.0
510640.7205286,264295.1875,290617.84375,302369.9375,280418.5625,290583.25,279454.5625,255112.0,264716.28125,-0.00537109375,0.886474609375,-0.48388671875,3.204345464706421,2.563476324081421,0.3967284858226776,100.0,185092.0,1.0
510640.723114,264284.34375,290732.1875,302676.25,280966.4375,293708.28125,280024.09375,255776.03125,265357.6875,-0.004638671875,0.88623046875,-0.483642578125,3.112792730331421,2.441406011581421,0.4272460639476776,100.0,185093.0,1.0
510640.7255688,264886.34375,290473.28125,302326.03125,280131.84375,290829.125,278328.75,255016.875,264520.21875,-0.005615234375,0.886962890625,-0.4833984375,2.929687261581421,2.349853277206421,0.4272460639476776,100.0,185094.0,1.0
510640.7280342,265201.84375,290169.46875,301796.40625,279106.875,285996.5625,276781.125,253894.015625,263382.59375,-0.0029296875,0.8876953125,-0.484130859375,2.716064214706421,2.258300542831421,0.4577636420726776,100.0,185095.0,1.0
510640.7305232,264828.03125,290233.75,301804.25,279271.90625,285768.6875,277456.25,253942.03125,263496.0625,-0.001708984375,0.89013671875,-0.4833984375,2.471923589706421,2.197265386581421,0.4882812201976776,100.0,185096.0,1.0
510640.7330687,264306.96875,290595.75,302352.875,280408.625,290309.21875,279408.4375,255072.9375,264685.53125,-0.000244140625,0.89208984375,-0.483642578125,2.258300542831421,2.288818120956421,0.4882812201976776,100.0,185097.0,1.0
510640.7355708,264284.0,290708.21875,302655.6875,280956.15625,293464.1875,279986.375,255732.9375,265326.65625,0.000732421875,0.8916015625,-0.485107421875,1.9531248807907104,2.197265386581421,0.5798339247703552,100.0,185098.0,1.0
510640.7381481,264855.5,290423.46875,302281.25,280088.75,290575.65625,278276.90625,254956.53125,264471.21875,0.003173828125,0.891845703125,-0.481689453125,1.6479490995407104,2.288818120956421,0.7934569716453552,100.0,185099.0,1.0
510640.7407003,265161.71875,290102.0625,301734.96875,279031.40625,285670.6875,276693.5,253808.890625,263309.8125,0.00439453125,0.893310546875,-0.4814453125,1.3122557401657104,2.471923589706421,0.9460448622703552,100.0,185100.0,1.0
510640.7431245,264806.40625,290184.125,301755.28125,279210.5,285408.625,277375.15625,253864.0625,263430.78125,0.00634765625,0.89306640625,-0.480224609375,1.0681151151657104,2.441406011581421,0.9765624403953552,100.0,185101.0,1.0
510640.745607,264278.28125,290544.625,302302.34375,280363.75,289964.1875,279331.8125,254979.140625,264618.65625,0.006103515625,0.891357421875,-0.478271484375,0.7324218153953552,2.563476324081421,0.9460448622703552,100.0,185102.0,1.0
510640.7482122,264257.1875,290673.0,302624.03125,280940.0625,293210.1875,279943.90625,255662.75,265288.75,0.003662109375,0.893310546875,-0.48193359375,0.4272460639476776,2.593993902206421,1.0986326932907104,100.0,185103.0,1.0
510640.7507122,264833.5,290391.5625,302256.03125,280074.34375,290354.71875,278250.09375,254898.234375,264447.625,0.002685546875,0.892822265625,-0.47998046875,0.2746581733226776,2.593993902206421,1.1901854276657104,100.0,185104.0,1.0
510640.7531938,265149.1875,290075.40625,301710.75,279002.8125,285433.03125,276663.03125,253761.0625,263291.59375,0.00439453125,0.89453125,-0.477294921875,-0.1525878757238388,2.685546636581421,1.1901854276657104,100.0,185105.0,1.0
510640.7556006,264803.625,290160.96875,301730.5,279180.90625,285162.21875,277343.125,253817.921875,263410.9375,0.00390625,0.8955078125,-0.474853515625,-0.5187987685203552,2.838134527206421,1.1596678495407104,100.0,185106.0,1.0
510640.7581454,264307.25,290556.875,302308.6875,280377.34375,289772.9375,279327.78125,254956.171875,264628.21875,0.0029296875,0.8955078125,-0.478515625,-0.9155272841453552,2.868652105331421,1.1901854276657104,100.0,185107.0,1.0
510640.7606002,264267.28125,290678.375,302628.78125,280956.875,293087.4375,279954.0,255648.984375,265303.78125,0.000244140625,0.89501953125,-0.478515625,-1.1596678495407104,2.899169683456421,1.2207030057907104,100.0,185108.0,1.0
510640.7631514,264834.84375,290388.5,302254.875,280074.15625,290272.8125,278251.59375,254898.328125,264453.875,0.0009765625,0.894775390625,-0.474853515625,-1.5563963651657104,3.021239995956421,1.2207030057907104,100.0,185109.0,1.0
510640.7671273,265153.03125,290055.90625,301693.9375,278970.25,285311.1875,276628.34375,253735.9375,263265.125,0.0009765625,0.89208984375,-0.47705078125,-1.7089842557907104,2.899169683456421,1.1901854276657104,100.0,185110.0,1.0
510640.7671682,264811.0625,290133.0,301703.5,279134.59375,284985.28125,277279.75,253757.9375,263355.0625,-0.000244140625,0.890380859375,-0.474365234375,-1.9226073026657104,2.838134527206421,1.1901854276657104,100.0,185111.0,1.0
510640.7671777,264300.8125,290537.65625,302283.84375,280341.6875,289637.9375,279276.375,254911.828125,264588.25,-0.000732421875,0.889404296875,-0.473876953125,-2.197265386581421,2.777099370956421,1.0375975370407104,100.0,185112.0,1.0
510640.7671868,264283.09375,290692.125,302637.90625,280970.28125,293044.25,279948.28125,255643.625,265307.25,-0.001708984375,0.8896484375,-0.4736328125,-2.410888433456421,2.685546636581421,0.9460448622703552,100.0,185113.0,1.0
510640.769501,264844.3125,290400.84375,302268.09375,280083.28125,290272.71875,278264.21875,254899.578125,264465.21875,-0.002685546875,0.8896484375,-0.4716796875,-2.746581792831421,2.563476324081421,0.7934569716453552,100.0,185114.0,1.0
510640.7695424,265170.125,290071.84375,301711.09375,278970.71875,285290.53125,276638.0625,253742.296875,263271.46875,-0.001708984375,0.8896484375,-0.474365234375,-3.021239995956421,2.532958745956421,0.7629393935203552,100.0,185115.0,1.0
510640.7744322,264842.0625,290160.34375,301731.3125,279150.25,284940.84375,277284.125,253765.984375,263362.75,-0.001708984375,0.8896484375,-0.470703125,-3.204345464706421,2.441406011581421,0.5798339247703552,100.0,185116.0,1.0
510640.7770219,264319.9375,290560.09375,302304.59375,280368.3125,289588.6875,279281.3125,254913.25,264589.25,-0.0029296875,0.888671875,-0.46923828125,-3.417968511581421,2.349853277206421,0.4882812201976776,100.0,185117.0,1.0
510640.7770631,264286.59375,290716.28125,302661.59375,281009.625,293067.3125,279975.1875,255663.46875,265327.1875,-0.00439453125,0.887451171875,-0.468505859375,-3.540038824081421,2.319335699081421,0.5187987685203552,100.0,185118.0,1.0
510640.7794971,264857.625,290432.0625,302304.3125,280122.625,290346.125,278313.21875,254931.578125,264494.09375,-0.003662109375,0.886962890625,-0.465087890625,-3.753661870956421,2.197265386581421,0.4882812201976776,100.0,185119.0,1.0
510640.7818288,265172.78125,290088.1875,301730.40625,278970.0,285338.28125,276671.34375,253762.40625,263280.6875,-0.0029296875,0.88671875,-0.467041015625,-3.936767339706421,2.105712652206421,0.3967284858226776,100.0,185120.0,1.0
510640.7844597,264851.1875,290178.9375,301743.90625,279146.125,284953.90625,277310.875,253786.28125,263370.4375,-0.00146484375,0.886474609375,-0.4658203125,-4.028319835662842,1.9531248807907104,0.3051757514476776,100.0,185121.0,1.0
510640.7870267,264341.84375,290588.4375,302327.75,280392.90625,289618.1875,279324.5,254941.6875,264610.25,-0.002197265625,0.88671875,-0.463134765625,-4.180907726287842,1.9531248807907104,0.3051757514476776,100.0,185122.0,1.0
510640.7893915,264318.0625,290760.09375,302702.53125,281067.375,293170.59375,280054.75,255722.203125,265372.4375,-0.002197265625,0.888671875,-0.46240234375,-4.302978038787842,1.8615721464157104,0.3356933295726776,100.0,185123.0,1.0
510640.7894313,264846.8125,290433.75,302304.9375,280132.5625,290451.375,278362.8125,254962.34375,264500.375,-0.00341796875,0.888916015625,-0.460693359375,-4.455565929412842,1.8005369901657104,0.2136230319738388,100.0,185124.0,1.0
510640.814394,265203.375,290116.625,301758.84375,278988.9375,285441.28125,276728.5625,253815.515625,263303.125,-0.00439453125,0.888427734375,-0.458984375,-4.547118663787842,1.6784666776657104,0.1220703050494194,100.0,185125.0,1.0
510640.8170011,264869.4375,290184.9375,301753.3125,279141.28125,284987.25,277315.34375,253813.015625,263368.75,-0.00390625,0.889404296875,-0.46044921875,-4.669188976287842,1.5563963651657104,0.2136230319738388,100.0,185126.0,1.0
510640.8170425,264348.8125,290587.625,302329.1875,280404.0,289635.09375,279318.40625,254961.71875,264616.78125,-0.00390625,0.891357421875,-0.4580078125,-4.699706554412842,1.4648436307907104,0.1525878757238388,100.0,185127.0,1.0
510640.8194832,264301.25,290750.96875,302696.90625,281078.9375,293217.71875,280049.59375,255739.1875,265388.8125,-0.003662109375,0.891845703125,-0.45849609375,-4.882812023162842,1.3732908964157104,0.1220703050494194,100.0,185128.0,1.0
510640.8218312,264848.78125,290449.84375,302326.03125,280153.46875,290550.875,278385.625,255018.3125,264552.03125,-0.003662109375,0.892822265625,-0.454833984375,-4.913329601287842,1.2817381620407104,0.03051757626235485,100.0,185129.0,1.0
510640.8244557,265185.125,290096.40625,301745.25,278961.3125,285456.28125,276700.9375,253817.296875,263298.03125,-0.004638671875,0.892333984375,-0.4560546875,-5.065917491912842,1.2512205839157104,0.0610351525247097,100.0,185130.0,1.0
510640.8294872,264879.375,290185.90625,301756.78125,279138.25,284978.125,277298.0,253814.4375,263366.6875,-0.004638671875,0.892578125,-0.453857421875,-5.157470226287842,1.1291502714157104,0.0610351525247097,100.0,185131.0,1.0
510640.829529,264381.71875,290616.84375,302359.5625,280442.25,289664.6875,279322.4375,254991.65625,264647.625,-0.007080078125,0.89453125,-0.457275390625,-5.157470226287842,0.8850097060203552,0.0915527269244194,100.0,185132.0,1.0
510640.8344623,264314.03125,290765.53125,302718.90625,281125.875,293300.84375,280059.6875,255768.34375,265427.34375,-0.0087890625,0.893310546875,-0.456298828125,-5.187987804412842,0.8239745497703552,0.03051757626235485,100.0,185133.0,1.0
510640.836969,264860.0625,290461.1875,302353.03125,280199.875,290676.3125,278409.84375,255045.578125,264590.03125,-0.009765625,0.89306640625,-0.4560546875,-5.249022960662842,0.7019042372703552,-0.0915527269244194,100.0,185134.0,1.0
510640.8393304,265195.3125,290106.25,301764.46875,278975.09375,285561.0625,276706.125,253840.453125,263319.125,-0.010498046875,0.896484375,-0.4580078125,-5.249022960662842,0.4272460639476776,-0.1525878757238388,100.0,185135.0,1.0
510640.8657686,264879.28125,290181.1875,301755.8125,279126.0,285014.875,277277.53125,253819.1875,263367.03125,-0.01123046875,0.896240234375,-0.45556640625,-5.249022960662842,0.2441406100988388,-0.1220703050494194,100.0,185136.0,1.0
510640.8657815,264362.5,290593.34375,302335.96875,280428.75,289673.09375,279285.78125,254967.796875,264627.6875,-0.011962890625,0.898193359375,-0.453369140625,-5.279540538787842,0.0915527269244194,-0.2136230319738388,100.0,185137.0,1.0
510640.8657837,264315.125,290780.46875,302729.4375,281155.09375,293390.8125,280075.59375,255784.96875,265450.5,-0.010498046875,0.89501953125,-0.455810546875,-5.310058116912842,-0.03051757626235485,-0.2441406100988388,100.0,185138.0,1.0
510640.8743143,264864.4375,290485.875,302371.65625,280221.5,290814.1875,278448.46875,255087.953125,264626.15625,-0.010498046875,0.8935546875,-0.454345703125,-5.249022960662842,-0.2441406100988388,-0.2441406100988388,100.0,185139.0,1.0
510640.874329,265227.5,290144.875,301799.625,278994.75,285681.3125,276761.1875,253892.9375,263350.15625,-0.009033203125,0.8935546875,-0.453125,-5.218505382537842,-0.3051757514476776,-0.3051757514476776,100.0,185140.0,1.0
510640.8743313,264932.1875,290232.78125,301800.6875,279151.21875,285099.71875,277325.4375,253868.359375,263390.1875,-0.008056640625,0.893798828125,-0.45361328125,-5.157470226287842,-0.5798339247703552,-0.2441406100988388,100.0,185141.0,1.0
510640.8743334,264393.25,290627.125,302363.3125,280447.09375,289728.25,279312.40625,255004.984375,264642.78125,-0.0087890625,0.89306640625,-0.454833984375,-5.096435070037842,-0.5798339247703552,-0.2746581733226776,100.0,185142.0,1.0
510640.8743358,264325.84375,290800.59375,302744.8125,281177.4375,293466.15625,280098.3125,255812.234375,265460.875,-0.008056640625,0.89306640625,-0.45166015625,-4.882812023162842,-0.5798339247703552,-0.1831054538488388,100.0,185143.0,1.0
510640.8794139,264858.625,290495.0,302378.34375,280228.03125,290915.03125,278465.8125,255101.28125,264625.34375,-0.007568359375,0.892578125,-0.448486328125,-4.760741710662842,-0.6713866591453552,-0.2746581733226776,100.0,185144.0,1.0
510640.881732,265221.6875,290143.1875,301795.78125,278972.84375,285743.90625,276757.4375,253885.96875,263332.71875,-0.006103515625,0.891845703125,-0.452392578125,-4.638671398162842,-0.7019042372703552,-0.2441406100988388,100.0,185145.0,1.0
510640.8842341,264934.25,290233.46875,301795.6875,279125.375,285112.96875,277312.125,253861.109375,263377.15625,-0.004150390625,0.8916015625,-0.451171875,-4.547118663787842,-0.7324218153953552,-0.3051757514476776,100.0,185146.0,1.0
510640.886926,264418.90625,290648.5,302381.21875,280459.96875,289746.46875,279316.1875,255010.890625,264651.09375,-0.0048828125,0.891357421875,-0.45361328125,-4.333495616912842,-0.6713866591453552,-0.1831054538488388,100.0,185147.0,1.0
510640.8893882,264344.4375,290826.25,302773.0,281213.9375,293536.34375,280121.09375,255832.265625,265489.125,-0.00439453125,0.890869140625,-0.45166015625,-4.150390148162842,-0.6713866591453552,-0.1220703050494194,100.0,185148.0,1.0
510640.8919092,264856.75,290500.90625,302392.125,280251.375,291010.59375,278481.03125,255115.765625,264642.96875,-0.003662109375,0.890380859375,-0.451904296875,-3.936767339706421,-0.6408690810203552,-0.1831054538488388,100.0,185149.0,1.0
510640.8955303,265203.0,290125.03125,301785.125,278962.75,285804.71875,276732.75,253880.875,263323.78125,-0.00439453125,0.891357421875,-0.45166015625,-3.784179449081421,-0.5798339247703552,-0.1220703050494194,100.0,185150.0,1.0
510640.9167334,264912.25,290200.125,301772.71875,279099.4375,285120.28125,277254.71875,253828.03125,263346.75,-0.005126953125,0.891357421875,-0.448974609375,-3.601073980331421,-0.5187987685203552,-0.1220703050494194,100.0,185151.0,1.0
510640.9167748,264401.46875,290625.53125,302365.03125,280439.46875,289753.8125,279275.9375,254993.8125,264638.125,-0.00439453125,0.89013671875,-0.451171875,-3.448486089706421,-0.5798339247703552,-0.03051757626235485,100.0,185152.0,1.0
510640.9320668,264329.34375,290811.6875,302766.1875,281211.78125,293591.59375,280109.65625,255835.046875,265494.40625,-0.005126953125,0.89013671875,-0.449462890625,-3.234863042831421,-0.4577636420726776,-0.0610351525247097,100.0,185153.0,1.0
510640.9321126,264870.34375,290522.96875,302419.21875,280286.0625,291134.71875,278518.03125,255147.5,264678.28125,-0.005859375,0.8916015625,-0.449462890625,-3.112792730331421,-0.4272460639476776,-0.03051757626235485,100.0,185154.0,1.0
510640.9321226,265235.03125,290164.0,301826.34375,279003.875,285922.09375,276783.90625,253918.875,263357.90625,-0.004638671875,0.889892578125,-0.4501953125,-2.838134527206421,-0.3051757514476776,0.03051757626235485,100.0,185155.0,1.0
510640.9343777,264932.75,290220.78125,301792.71875,279110.09375,285176.53125,277285.375,253851.1875,263350.0625,-0.00537109375,0.889892578125,-0.45068359375,-2.624511480331421,-0.3356933295726776,0.0610351525247097,100.0,185156.0,1.0
510640.9344178,264416.0625,290637.4375,302375.03125,280438.6875,289783.9375,279296.78125,254997.296875,264625.96875,-0.007080078125,0.889892578125,-0.45068359375,-2.563476324081421,-0.3662109076976776,0.1220703050494194,100.0,185157.0,1.0
510640.9368753,264349.1875,290837.78125,302790.78125,281221.71875,293658.21875,280154.71875,255852.03125,265499.125,-0.0068359375,0.890625,-0.45068359375,-2.410888433456421,-0.3051757514476776,0.2136230319738388,100.0,185158.0,1.0
510640.93691,264908.15625,290575.03125,302473.5625,280334.875,291274.53125,278609.15625,255208.390625,264723.15625,-0.008056640625,0.890380859375,-0.451904296875,-2.258300542831421,-0.1525878757238388,0.1525878757238388,100.0,185159.0,1.0
510640.9395003,265242.0,290182.78125,301844.0625,279013.09375,286021.34375,276831.1875,253948.109375,263371.875,-0.007568359375,0.89013671875,-0.449462890625,-2.105712652206421,-0.2136230319738388,0.0610351525247097,100.0,185160.0,1.0
510640.9418236,264942.46875,290234.5625,301798.90625,279095.0625,285216.125,277294.25,253860.046875,263346.75,-0.009033203125,0.890625,-0.44921875,-1.8920897245407104,-0.3051757514476776,0.03051757626235485,100.0,185161.0,1.0
510640.9444672,264413.71875,290639.125,302366.375,280395.75,289783.9375,279287.03125,254999.796875,264610.5,-0.009033203125,0.891845703125,-0.44873046875,-1.7700194120407104,-0.2746581733226776,-0.0610351525247097,100.0,185162.0,1.0
510640.9469704,264315.28125,290811.3125,302757.0,281168.96875,293666.875,280133.875,255830.65625,265460.6875,-0.00830078125,0.892333984375,-0.44873046875,-1.4648436307907104,-0.2136230319738388,-0.1831054538488388,100.0,185163.0,1.0
510640.9507321,264847.4375,290526.125,302421.25,280282.84375,291310.21875,278573.125,255168.515625,264680.59375,-0.010986328125,0.894287109375,-0.447998046875,-1.4648436307907104,-0.2136230319738388,-0.1220703050494194,100.0,185164.0,1.0
510640.9642935,265249.59375,290187.25,301850.5625,279034.375,286098.84375,276831.65625,253955.890625,263389.75,-0.0087890625,0.893310546875,-0.449462890625,-1.4038084745407104,-0.1831054538488388,-0.03051757626235485,100.0,185165.0,1.0
510640.9643057,264958.40625,290237.3125,301801.40625,279100.34375,285230.90625,277276.0,253853.609375,263354.25,-0.00830078125,0.891357421875,-0.45068359375,-1.1901854276657104,-0.0610351525247097,-0.1525878757238388,100.0,185166.0,1.0
510640.9668888,264424.375,290632.9375,302360.90625,280377.25,289746.46875,279257.6875,254976.109375,264592.46875,-0.00830078125,0.89306640625,-0.4501953125,-1.0986326932907104,0.0,-0.0915527269244194,100.0,185167.0,1.0
510640.9692425,264333.4375,290821.59375,302773.15625,281171.8125,293675.65625,280138.8125,255838.34375,265472.03125,-0.0068359375,0.892333984375,-0.449462890625,-0.9460448622703552,0.03051757626235485,-0.03051757626235485,100.0,185168.0,1.0
510640.9719226,264851.03125,290531.375,302433.875,280308.5,291373.25,278584.28125,255185.671875,264708.0625,-0.00732421875,0.893798828125,-0.452392578125,-0.9155272841453552,0.1220703050494194,0.03051757626235485,100.0,185169.0,1.0
510640.975668,265231.1875,290165.09375,301834.5,279049.75,286131.5,276807.9375,253942.390625,263389.46875,-0.0068359375,0.892578125,-0.453369140625,-0.8850097060203552,0.1525878757238388,0.0915527269244194,100.0,185170.0,1.0
510640.989383,264959.90625,290220.53125,301793.53125,279114.75,285215.96875,277251.84375,253841.171875,263354.875,-0.00732421875,0.888916015625,-0.4453125,-0.6713866591453552,0.1525878757238388,0.2746581733226776,100.0,185171.0,1.0
510640.989396,264436.625,290632.9375,302363.78125,280379.03125,289709.90625,279243.125,254981.65625,264601.3125,-0.004638671875,0.8798828125,-0.43701171875,-0.6713866591453552,0.2441406100988388,0.2746581733226776,100.0,185172.0,1.0
510640.9944314,264345.96875,290834.84375,302787.28125,281189.96875,293676.8125,280155.09375,255861.421875,265494.21875,-0.0009765625,0.865478515625,-0.423583984375,-0.7934569716453552,0.1831054538488388,0.3967284858226776,100.0,185173.0,1.0
510640.9944464,264863.71875,290541.75,302455.6875,280356.96875,291412.3125,278611.65625,255208.46875,264736.40625,0.0009765625,0.845458984375,-0.40771484375,-0.9155272841453552,0.0610351525247097,0.4882812201976776,100.0,185174.0,1.0
510640.9969278,265268.28125,290196.5625,301880.96875,279117.96875,286186.03125,276854.96875,253992.09375,263451.1875,0.003173828125,0.82275390625,-0.399658203125,-1.1901854276657104,0.3967284858226776,0.7324218153953552,100.0,185175.0,1.0
510641.0044098,264965.90625,290223.8125,301802.9375,279126.375,285203.34375,277259.71875,253844.125,263368.5625,0.005859375,0.815185546875,-0.407958984375,-1.1596678495407104,0.9460448622703552,1.0070799589157104,100.0,185176.0,1.0
510641.0060027,264426.4375,290621.78125,302356.09375,280367.25,289680.6875,279235.15625,254947.5,264588.59375,0.007568359375,0.83251953125,-0.43408203125,-0.6408690810203552,1.7395018339157104,1.3122557401657104,100.0,185177.0,1.0
510641.0502628,264317.625,290822.75,302775.125,281177.71875,293703.8125,280159.8125,255817.15625,265484.03125,0.00341796875,0.8779296875,-0.473388671875,0.1525878757238388,2.502441167831421,1.2817381620407104,100.0,185178.0,1.0
510641.0503027,264830.90625,290533.25,302440.03125,280343.1875,291476.6875,278632.75,255165.375,264731.65625,-0.003662109375,0.93603515625,-0.50244140625,1.1901854276657104,2.990722417831421,1.2512205839157104,100.0,185179.0,1.0
510641.0544967,265204.0,290144.78125,301814.09375,279043.9375,286158.21875,276815.90625,253893.75,263388.3125,-0.010986328125,0.99462890625,-0.51416015625,1.6479490995407104,2.685546636581421,0.9460448622703552,100.0,185180.0,1.0
