Time,FZ,C3,CZ,C4,PZ,PO7,OZ,PO8,AccX,AccY,AccZ,Gyro1,Gyro2,Gyro3,Battery,Counter,Validation
469033.9131933,258287.65625,264789.3125,280744.625,264021.84375,258592.96875,255182.09375,229271.875,245442.546875,-0.113525390625,0.828857421875,-0.5556640625,-0.7019042372703552,1.7089842557907104,0.7324218153953552,100.0,66617.0,1.0
469033.9132203,259057.625,264991.46875,279824.28125,263310.53125,257506.234375,255150.1875,228774.9375,245187.65625,-0.114990234375,0.82861328125,-0.55859375,-0.6713866591453552,1.7089842557907104,0.8239745497703552,100.0,66618.0,1.0
469033.9132222,259117.703125,264636.09375,276138.75,262477.34375,255673.484375,255143.203125,228390.046875,245012.59375,-0.114990234375,0.8271484375,-0.55859375,-0.5798339247703552,1.8615721464157104,0.8239745497703552,100.0,66619.0,1.0
469033.9132244,258451.265625,264274.34375,274926.75,262635.34375,255619.65625,255160.015625,228623.9375,245139.734375,-0.1142578125,0.827880859375,-0.5615234375,-0.4577636420726776,1.8005369901657104,0.8544921278953552,100.0,66620.0,1.0
469033.9156687,257968.921875,264438.0625,278104.53125,263602.71875,257495.0625,255195.515625,229186.578125,245414.484375,-0.11328125,0.825439453125,-0.561279296875,-0.3356933295726776,1.8005369901657104,0.7934569716453552,100.0,66621.0,1.0
469033.9156833,258336.46875,264912.53125,281460.59375,264045.46875,258748.640625,255212.3125,229319.15625,245464.453125,-0.11328125,0.827392578125,-0.558837890625,-0.1525878757238388,1.9531248807907104,0.7934569716453552,100.0,66622.0,1.0
469033.9169556,259090.796875,265096.53125,280519.6875,263315.1875,257643.296875,255163.140625,228813.828125,245192.21875,-0.1142578125,0.8291015625,-0.556884765625,0.1220703050494194,1.9531248807907104,0.8544921278953552,100.0,66623.0,1.0
469033.9194482,259127.625,264714.3125,276812.15625,262460.71875,255780.6875,255126.3125,228406.9375,244996.40625,-0.115234375,0.82958984375,-0.557373046875,0.1831054538488388,1.9531248807907104,0.9765624403953552,100.0,66624.0,1.0
469033.9194641,258474.15625,264358.65625,275611.6875,262634.25,255730.96875,255152.421875,228644.859375,245135.265625,-0.1142578125,0.83056640625,-0.5576171875,0.1525878757238388,2.014159917831421,0.9765624403953552,100.0,66625.0,1.0
469033.9206855,257992.15625,264516.28125,278789.46875,263611.75,257606.015625,255194.890625,229206.15625,245418.046875,-0.115478515625,0.831298828125,-0.55615234375,0.3051757514476776,2.044677495956421,0.9765624403953552,100.0,66626.0,1.0
469033.9219731,258327.34375,264954.65625,282101.90625,264027.65625,258830.171875,255187.546875,229293.0625,245451.3125,-0.1162109375,0.833740234375,-0.558349609375,0.2746581733226776,2.105712652206421,1.0070799589157104,100.0,66627.0,1.0
469033.9382095,259105.546875,265158.40625,281152.15625,263311.34375,257735.5625,255156.984375,228793.71875,245197.125,-0.118896484375,0.834716796875,-0.556396484375,0.2746581733226776,2.105712652206421,1.0070799589157104,100.0,66628.0,1.0
469033.9382284,259158.921875,264782.71875,277438.28125,262470.125,255876.4375,255135.609375,228410.96875,245007.859375,-0.119873046875,0.83447265625,-0.556396484375,0.2441406100988388,2.105712652206421,1.0070799589157104,100.0,66629.0,1.0
469033.9382321,258492.9375,264409.15625,276227.625,262639.09375,255811.34375,255154.03125,228659.78125,245137.40625,-0.11865234375,0.830810546875,-0.5556640625,0.2136230319738388,2.075195074081421,1.0070799589157104,100.0,66630.0,1.0
469033.939261,257993.0625,264544.34375,279382.15625,263611.3125,257669.3125,255188.53125,229227.515625,245410.359375,-0.11572265625,0.82666015625,-0.554931640625,0.2136230319738388,2.075195074081421,0.9155272841453552,100.0,66631.0,1.0
469033.9405206,258332.359375,264978.0625,282653.375,264034.09375,258881.84375,255191.9375,229340.0,245445.859375,-0.11181640625,0.822998046875,-0.553466796875,0.2746581733226776,2.014159917831421,0.9155272841453552,100.0,66632.0,1.0
469033.9657408,259095.09375,265150.8125,281623.40625,263294.34375,257744.59375,255144.453125,228825.8125,245170.9375,-0.1083984375,0.819580078125,-0.55615234375,0.3051757514476776,2.105712652206421,0.9460448622703552,100.0,66633.0,1.0
469033.9657838,259154.359375,264768.0625,277874.125,262453.5625,255872.765625,255120.046875,228427.5,244983.71875,-0.106689453125,0.821044921875,-0.561279296875,0.5187987685203552,2.166747808456421,1.0681151151657104,100.0,66634.0,1.0
469033.9682533,258486.578125,264386.1875,276631.71875,262628.1875,255799.28125,255138.828125,228653.96875,245114.421875,-0.10986328125,0.82373046875,-0.56298828125,0.6103515028953552,2.380370855331421,0.9460448622703552,100.0,66635.0,1.0
469033.9682956,257981.4375,264516.0,279752.84375,263603.4375,257657.328125,255177.625,229215.625,245402.765625,-0.111083984375,0.8232421875,-0.561279296875,0.8544921278953552,2.441406011581421,1.0070799589157104,100.0,66636.0,1.0
469033.9693262,258321.625,264948.75,282988.5625,264030.09375,258875.234375,255195.0625,229336.515625,245458.015625,-0.111083984375,0.82177734375,-0.559814453125,0.9155272841453552,2.471923589706421,1.0070799589157104,100.0,66637.0,1.0
469033.9706709,259102.78125,265132.75,281933.90625,263302.75,257747.0,255160.28125,228835.734375,245198.921875,-0.111572265625,0.818115234375,-0.560791015625,1.0070799589157104,2.441406011581421,1.0375975370407104,100.0,66638.0,1.0
469033.9718904,259172.609375,264756.59375,278159.6875,262460.28125,255870.890625,255132.390625,228429.390625,245006.953125,-0.107666015625,0.816650390625,-0.5595703125,1.0986326932907104,2.624511480331421,0.9765624403953552,100.0,66639.0,1.0
469033.9868958,258514.296875,264385.65625,276928.90625,262641.6875,255811.34375,255153.484375,228665.328125,245136.953125,-0.109130859375,0.8173828125,-0.56103515625,1.3122557401657104,2.716064214706421,0.9765624403953552,100.0,66640.0,1.0
469033.9894337,257998.234375,264514.84375,280045.75,263614.96875,257670.03125,255191.3125,229229.484375,245412.6875,-0.114501953125,0.818603515625,-0.560302734375,1.5869139432907104,2.746581792831421,0.9460448622703552,100.0,66641.0,1.0
469033.9894767,258317.15625,264928.0,283240.6875,264026.34375,258868.4375,255196.765625,229342.40625,245450.859375,-0.119140625,0.820556640625,-0.56005859375,1.6174315214157104,2.716064214706421,0.8239745497703552,100.0,66642.0,1.0
469033.9894876,259067.1875,265075.25,282110.6875,263269.21875,257696.046875,255139.90625,228811.0625,245168.15625,-0.124755859375,0.821044921875,-0.560546875,1.7089842557907104,2.532958745956421,0.6408690810203552,100.0,66643.0,1.0
469033.9906328,259138.8125,264690.34375,278307.46875,262434.875,255812.6875,255114.859375,228394.703125,244979.0625,-0.1279296875,0.82275390625,-0.558349609375,1.8615721464157104,2.410888433456421,0.4577636420726776,100.0,66644.0,1.0
469034.0120077,258494.890625,264343.625,277081.53125,262635.96875,255770.84375,255150.71875,228626.4375,245125.421875,-0.128662109375,0.823486328125,-0.557373046875,1.8615721464157104,2.227782964706421,0.2746581733226776,100.0,66645.0,1.0
469034.0145681,257966.328125,264466.5625,280182.25,263605.9375,257628.0,255183.53125,229168.609375,245402.3125,-0.12646484375,0.82275390625,-0.558837890625,1.8005369901657104,2.075195074081421,0.0610351525247097,100.0,66646.0,1.0
469034.0146076,258267.265625,264869.15625,283347.53125,264005.75,258811.75,255177.1875,229257.296875,245431.90625,-0.123291015625,0.823486328125,-0.5625,1.8005369901657104,1.8615721464157104,0.0610351525247097,100.0,66647.0,1.0
469034.0146179,259057.453125,265056.5625,282239.25,263279.15625,257671.015625,255152.0625,228753.390625,245182.28125,-0.120361328125,0.824951171875,-0.564697265625,1.8005369901657104,1.6479490995407104,-0.03051757626235485,100.0,66648.0,1.0
469034.01567,259131.921875,264678.28125,278434.1875,262432.46875,255781.65625,255113.4375,228333.8125,244982.8125,-0.119384765625,0.8251953125,-0.56103515625,1.8005369901657104,1.5869139432907104,-0.0915527269244194,100.0,66649.0,1.0
469034.0168672,258469.5,264309.84375,277201.25,262616.375,255725.0625,255126.40625,228555.453125,245110.578125,-0.11962890625,0.8251953125,-0.56298828125,1.7700194120407104,1.5869139432907104,-0.1220703050494194,100.0,66650.0,1.0
469034.0180672,257949.0625,264444.9375,280311.1875,263600.65625,257597.609375,255170.296875,229106.015625,245400.0,-0.119140625,0.828857421875,-0.564208984375,1.7395018339157104,1.4648436307907104,-0.0610351525247097,100.0,66651.0,1.0
469034.0382335,258258.765625,264858.0,283462.25,264007.5625,258790.390625,255174.5,229199.625,245442.46875,-0.115478515625,0.829345703125,-0.567138671875,1.7395018339157104,1.5258787870407104,-0.2136230319738388,100.0,66652.0,1.0
469034.0382761,259039.75,265026.0,282314.25,263268.6875,257635.96875,255137.9375,228693.5,245171.734375,-0.114990234375,0.827880859375,-0.56494140625,1.6174315214157104,1.5563963651657104,-0.2441406100988388,100.0,66653.0,1.0
469034.0409139,259132.90625,264656.375,278500.875,262442.21875,255758.859375,255114.15625,228295.28125,244984.34375,-0.11572265625,0.82763671875,-0.5673828125,1.6479490995407104,1.6174315214157104,-0.1831054538488388,100.0,66654.0,1.0
469034.040957,258474.78125,264289.8125,277250.96875,262636.40625,255702.453125,255129.265625,228516.734375,245119.4375,-0.11083984375,0.826416015625,-0.568359375,1.6479490995407104,1.5258787870407104,-0.03051757626235485,100.0,66655.0,1.0
469034.0419918,257937.265625,264411.40625,280329.6875,263606.65625,257561.21875,255160.734375,229068.5625,245395.609375,-0.11083984375,0.8251953125,-0.568603515625,1.7395018339157104,1.6479490995407104,0.0610351525247097,100.0,66656.0,1.0
469034.0431626,258227.65625,264801.21875,283433.8125,263996.09375,258734.328125,255154.921875,229187.828125,245426.015625,-0.1123046875,0.825439453125,-0.566650390625,1.7700194120407104,1.7700194120407104,0.2441406100988388,100.0,66657.0,1.0
469034.0619931,259028.921875,264977.625,282261.96875,263265.46875,257583.921875,255134.53125,228719.6875,245172.984375,-0.112060546875,0.825927734375,-0.564208984375,1.7395018339157104,1.8310545682907104,0.3662109076976776,100.0,66658.0,1.0
469034.0644356,259127.90625,264602.5625,278430.40625,262433.90625,255696.90625,255108.34375,228341.59375,244984.78125,-0.1142578125,0.824951171875,-0.563720703125,1.7700194120407104,1.9531248807907104,0.4577636420726776,100.0,66659.0,1.0
469034.0644777,258474.515625,264239.90625,277190.625,262637.5625,255651.046875,255133.828125,228605.515625,245127.75,-0.11572265625,0.826171875,-0.5634765625,1.8005369901657104,1.9531248807907104,0.4577636420726776,100.0,66660.0,1.0
469034.0644884,257936.546875,264367.15625,280272.65625,263616.84375,257522.78125,255178.34375,229184.34375,245415.734375,-0.11669921875,0.826171875,-0.563720703125,1.7395018339157104,1.9226073026657104,0.5798339247703552,100.0,66661.0,1.0
469034.0655909,258223.09375,264759.8125,283364.53125,264005.9375,258699.8125,255175.3125,229289.296875,245449.171875,-0.1162109375,0.825439453125,-0.56689453125,1.6784666776657104,1.8615721464157104,0.6713866591453552,100.0,66662.0,1.0
469034.0669772,259013.71875,264925.59375,282161.625,263262.25,257530.640625,255138.203125,228783.890625,245188.1875,-0.117919921875,0.824462890625,-0.56494140625,1.8005369901657104,1.8920897245407104,0.6408690810203552,100.0,66663.0,1.0
469034.0679011,259136.125,264572.6875,278343.6875,262451.6875,255660.421875,255119.875,228398.453125,245011.078125,-0.1181640625,0.82421875,-0.566162109375,1.7089842557907104,1.9836424589157104,0.7629393935203552,100.0,66664.0,1.0
469034.0882353,258478.0,264215.4375,277110.40625,262654.75,255620.015625,255139.09375,228631.359375,245143.9375,-0.118408203125,0.822998046875,-0.569580078125,1.7089842557907104,1.9531248807907104,0.8239745497703552,100.0,66665.0,1.0
469034.0882791,257909.015625,264319.03125,280173.21875,263614.15625,257475.84375,255167.796875,229142.765625,245414.296875,-0.119140625,0.823974609375,-0.568359375,1.7395018339157104,1.8615721464157104,0.7934569716453552,100.0,66666.0,1.0
469034.0907724,258184.828125,264704.40625,283246.3125,263998.15625,258647.421875,255164.046875,229196.5,245443.4375,-0.120361328125,0.822021484375,-0.56689453125,1.6174315214157104,1.8920897245407104,0.8239745497703552,100.0,66667.0,1.0
469034.0908145,258994.765625,264889.28125,282049.0,263268.25,257492.828125,255144.015625,228674.265625,245191.3125,-0.119140625,0.821533203125,-0.56787109375,1.6479490995407104,1.8310545682907104,0.7934569716453552,100.0,66668.0,1.0
469034.0919758,259126.734375,264547.5625,278240.15625,262458.9375,255627.796875,255128.09375,228273.109375,245016.171875,-0.118896484375,0.8203125,-0.571533203125,1.5563963651657104,1.8310545682907104,0.7324218153953552,100.0,66669.0,1.0
469034.0930185,258453.328125,264186.375,277014.84375,262644.0,255581.390625,255128.546875,228489.90625,245137.140625,-0.11865234375,0.819580078125,-0.5703125,1.5258787870407104,1.7700194120407104,0.7324218153953552,100.0,66670.0,1.0
469034.1382108,257903.015625,264330.21875,280128.53125,263623.46875,257474.234375,255173.703125,229056.484375,245426.640625,-0.118896484375,0.81982421875,-0.5712890625,1.5258787870407104,1.7395018339157104,0.7019042372703552,100.0,66671.0,1.0
469034.1382541,258175.171875,264715.375,283214.40625,263999.25,258650.90625,255169.578125,229141.515625,245449.25,-0.1181640625,0.818359375,-0.5693359375,1.5258787870407104,1.7700194120407104,0.5187987685203552,100.0,66672.0,1.0
469034.1409355,258982.796875,264887.75,282008.5,263260.125,257487.015625,255141.421875,228624.296875,245189.703125,-0.117431640625,0.81982421875,-0.572021484375,1.5258787870407104,1.7089842557907104,0.5798339247703552,100.0,66673.0,1.0
469034.1409768,259110.640625,264535.0625,278201.28125,262441.9375,255613.484375,255110.21875,228196.296875,244998.640625,-0.117431640625,0.818603515625,-0.5712890625,1.4953612089157104,1.6479490995407104,0.4577636420726776,100.0,66674.0,1.0
469034.1409854,258461.1875,264200.125,277016.625,262652.59375,255591.671875,255131.234375,228416.875,245134.453125,-0.116455078125,0.818603515625,-0.57177734375,1.4953612089157104,1.6479490995407104,0.3967284858226776,100.0,66675.0,1.0
469034.1409932,257889.34375,264321.8125,280113.6875,263615.40625,257465.640625,255165.5625,228973.609375,245412.875,-0.1171875,0.816162109375,-0.568603515625,1.4343260526657104,1.6784666776657104,0.4272460639476776,100.0,66676.0,1.0
469034.1410022,258160.78125,264705.8125,283186.6875,263987.15625,258634.546875,255159.296875,229073.03125,245435.84375,-0.118408203125,0.817626953125,-0.572265625,1.4038084745407104,1.7089842557907104,0.4577636420726776,100.0,66677.0,1.0
469034.1432806,258994.765625,264905.5625,282012.34375,263258.6875,257490.59375,255145.71875,228597.921875,245187.734375,-0.11767578125,0.818603515625,-0.572509765625,1.4343260526657104,1.5869139432907104,0.4272460639476776,100.0,66678.0,1.0
469034.1433217,259132.1875,264566.78125,278247.3125,262444.625,255630.828125,255116.828125,228214.8125,244997.65625,-0.119384765625,0.81689453125,-0.571533203125,1.4343260526657104,1.6174315214157104,0.3051757514476776,100.0,66679.0,1.0
469034.1433311,258486.9375,264239.03125,277101.65625,262665.09375,255624.390625,255143.5625,228476.953125,245142.59375,-0.11962890625,0.81787109375,-0.57275390625,1.4038084745407104,1.7089842557907104,0.3356933295726776,100.0,66680.0,1.0
469034.143339,257905.078125,264356.15625,280202.71875,263630.25,257502.65625,255177.453125,229048.53125,245420.640625,-0.118408203125,0.816162109375,-0.57373046875,1.3122557401657104,1.6174315214157104,0.2746581733226776,100.0,66681.0,1.0
469034.1433484,258159.703125,264718.59375,283241.6875,263995.9375,258655.828125,255169.671875,229146.078125,245442.375,-0.118896484375,0.815185546875,-0.572021484375,1.2817381620407104,1.6479490995407104,0.3051757514476776,100.0,66682.0,1.0
469034.1443774,258980.5625,264888.9375,282014.375,263255.625,257478.703125,255141.59375,228653.96875,245184.515625,-0.120849609375,0.817138671875,-0.5732421875,1.3122557401657104,1.5869139432907104,0.3662109076976776,100.0,66683.0,1.0
469034.1620242,259107.953125,264525.5625,278206.28125,262430.3125,255592.203125,255100.5625,228259.25,244986.21875,-0.120849609375,0.820068359375,-0.57275390625,1.3122557401657104,1.5869139432907104,0.3356933295726776,100.0,66684.0,1.0
469034.1644024,258469.5,264204.0625,277043.90625,262667.0625,255592.390625,255144.015625,228551.96875,245148.84375,-0.121337890625,0.8193359375,-0.572265625,1.1596678495407104,1.6479490995407104,0.4272460639476776,100.0,66685.0,1.0
469034.1644421,257888.890625,264324.0625,280123.78125,263635.4375,257475.65625,255192.828125,229141.875,245438.796875,-0.119384765625,0.81982421875,-0.5732421875,1.1596678495407104,1.5869139432907104,0.4882812201976776,100.0,66686.0,1.0
469034.165575,258110.984375,264661.5625,283109.0,263963.65625,258598.78125,255158.59375,229210.53125,245432.625,-0.119873046875,0.81884765625,-0.5732421875,1.0986326932907104,1.5563963651657104,0.5187987685203552,100.0,66687.0,1.0
469034.1669136,258926.203125,264838.78125,281864.53125,263212.09375,257420.578125,255119.0625,228693.3125,245167.890625,-0.120361328125,0.819091796875,-0.572509765625,1.0375975370407104,1.4953612089157104,0.4882812201976776,100.0,66688.0,1.0
469034.168023,259088.734375,264518.5,278093.90625,262416.1875,255573.609375,255100.5625,228300.8125,244986.484375,-0.1201171875,0.81884765625,-0.574462890625,0.7629393935203552,1.4648436307907104,0.5798339247703552,100.0,66689.0,1.0
469034.1775464,258443.3125,264187.15625,276932.6875,262646.15625,255570.578125,255132.75,228551.875,245135.96875,-0.11962890625,0.820068359375,-0.573486328125,0.7019042372703552,1.4648436307907104,0.6103515028953552,100.0,66690.0,1.0
469034.1775887,257846.25,264301.34375,279995.84375,263608.53125,257444.28125,255174.140625,229110.21875,245417.515625,-0.119384765625,0.82080078125,-0.574462890625,0.6713866591453552,1.4648436307907104,0.7934569716453552,100.0,66691.0,1.0
469034.2057475,258098.640625,264676.125,283008.78125,263972.25,258603.96875,255172.53125,229203.65625,245443.796875,-0.118896484375,0.82080078125,-0.575927734375,0.5798339247703552,1.4343260526657104,0.8544921278953552,100.0,66692.0,1.0
469034.205762,258924.5,264850.125,281767.90625,263219.78125,257420.40625,255126.21875,228690.0,245172.265625,-0.11865234375,0.82080078125,-0.5771484375,0.4577636420726776,1.4343260526657104,0.9155272841453552,100.0,66693.0,1.0
469034.2342555,259097.234375,264525.5625,278012.71875,262418.53125,255569.765625,255103.0625,228305.109375,244991.3125,-0.11962890625,0.8203125,-0.580322265625,0.3967284858226776,1.4038084745407104,0.8544921278953552,100.0,66694.0,1.0
469034.2456421,258462.171875,264214.53125,276877.40625,262657.875,255584.96875,255148.125,228573.515625,245152.515625,-0.119384765625,0.819580078125,-0.58056640625,0.2746581733226776,1.3427733182907104,1.0375975370407104,100.0,66695.0,1.0
469034.2469801,257852.421875,264333.34375,279934.34375,263613.53125,257455.453125,255182.546875,229130.515625,245426.09375,-0.1220703125,0.821044921875,-0.57666015625,0.3356933295726776,1.3732908964157104,1.0375975370407104,100.0,66696.0,1.0
469034.248207,258114.203125,264721.03125,282956.03125,263982.53125,258622.5625,255183.4375,229242.8125,245456.5,-0.123291015625,0.8203125,-0.575927734375,0.2441406100988388,1.4343260526657104,1.1596678495407104,100.0,66697.0,1.0
469034.2493642,258951.5,264897.40625,281743.40625,263237.03125,257450.796875,255142.3125,228739.1875,245189.96875,-0.121826171875,0.82080078125,-0.576171875,0.1220703050494194,1.3122557401657104,1.1596678495407104,100.0,66698.0,1.0
469034.2505573,259126.109375,264566.71875,278020.03125,262432.75,255602.765625,255110.21875,228338.015625,245000.25,-0.1220703125,0.8203125,-0.575439453125,0.1220703050494194,1.2817381620407104,1.0375975370407104,100.0,66699.0,1.0
469034.2518655,258470.125,264237.6875,276887.0,262648.46875,255598.375,255130.6875,228574.671875,245140.171875,-0.12109375,0.820556640625,-0.574951171875,0.0915527269244194,1.2512205839157104,1.0986326932907104,100.0,66700.0,1.0
469034.2532252,257855.375,264353.5625,279940.3125,263601.28125,257468.953125,255175.390625,229133.203125,245424.3125,-0.1201171875,0.818603515625,-0.576904296875,0.0915527269244194,1.1596678495407104,1.1596678495407104,100.0,66701.0,1.0
469034.2543969,258102.765625,264725.9375,282937.6875,263957.5,258625.515625,255173.78125,229237.265625,245451.9375,-0.119873046875,0.8193359375,-0.577880859375,-0.03051757626235485,1.1901854276657104,1.2207030057907104,100.0,66702.0,1.0
469034.2555795,258957.125,264924.875,281739.90625,263214.25,257465.015625,255140.171875,228740.703125,245186.21875,-0.11865234375,0.81787109375,-0.575927734375,-0.0915527269244194,1.2512205839157104,1.2512205839157104,100.0,66703.0,1.0
469034.256993,259152.578125,264627.78125,278040.59375,262425.75,255631.1875,255121.75,228371.453125,245007.9375,-0.11865234375,0.820068359375,-0.57373046875,-0.1525878757238388,1.1596678495407104,1.2207030057907104,100.0,66704.0,1.0
469034.2581924,258491.5,264299.28125,276917.84375,262641.3125,255632.171875,255142.84375,228622.59375,245148.84375,-0.11572265625,0.820556640625,-0.573486328125,-0.2136230319738388,1.2512205839157104,1.3122557401657104,100.0,66705.0,1.0
469034.259451,257856.4375,264399.0625,279967.9375,263580.8125,257497.921875,255174.328125,229170.84375,245419.125,-0.116455078125,0.82080078125,-0.575439453125,-0.3051757514476776,1.3122557401657104,1.2512205839157104,100.0,66706.0,1.0
469034.2605836,258112.59375,264784.5,282992.40625,263945.15625,258667.984375,255176.640625,229261.859375,245449.34375,-0.117431640625,0.819580078125,-0.575439453125,-0.2136230319738388,1.3732908964157104,1.2512205839157104,100.0,66707.0,1.0
469034.2870193,258995.75,265012.65625,281872.5,263219.15625,257536.0,255152.59375,228766.8125,245195.421875,-0.11669921875,0.819091796875,-0.5751953125,-0.3356933295726776,1.3732908964157104,1.2512205839157104,100.0,66708.0,1.0
469034.2881373,259217.3125,264736.125,278276.09375,262442.9375,255731.328125,255136.5,228396.3125,245020.28125,-0.115966796875,0.822021484375,-0.5771484375,-0.3356933295726776,1.4343260526657104,1.2817381620407104,100.0,66709.0,1.0
469034.2910536,258558.203125,264419.28125,277223.96875,262663.40625,255744.5625,255156.796875,228648.796875,245160.03125,-0.115966796875,0.82080078125,-0.574951171875,-0.3051757514476776,1.5563963651657104,1.2512205839157104,100.0,66710.0,1.0
469034.2911154,257909.015625,264511.8125,280305.0,263598.78125,257610.03125,255183.171875,229198.640625,245426.640625,-0.115478515625,0.8212890625,-0.57373046875,-0.3967284858226776,1.5869139432907104,1.1901854276657104,100.0,66711.0,1.0
469034.2911245,258164.359375,264893.21875,283372.46875,263966.4375,258789.21875,255187.46875,229289.84375,245457.75,-0.11669921875,0.822265625,-0.571533203125,-0.5798339247703552,1.5563963651657104,1.1901854276657104,100.0,66712.0,1.0
469034.291133,259074.34375,265141.9375,282327.125,263267.0,257685.40625,255183.078125,228812.9375,245230.65625,-0.1171875,0.822021484375,-0.57373046875,-0.7324218153953552,1.4953612089157104,1.1291502714157104,100.0,66713.0,1.0
469034.2911411,259296.15625,264863.4375,278770.25,262488.875,255879.5625,255161.890625,228431.171875,245046.390625,-0.115966796875,0.822998046875,-0.576416015625,-0.6713866591453552,1.6479490995407104,1.1596678495407104,100.0,66714.0,1.0
469034.2911489,258595.03125,264492.59375,277686.28125,262674.9375,255850.234375,255149.28125,228641.09375,245148.671875,-0.11572265625,0.822998046875,-0.5732421875,-0.7934569716453552,1.7089842557907104,1.0986326932907104,100.0,66715.0,1.0
469034.2911579,257931.0,264560.71875,280726.5625,263611.21875,257695.59375,255179.859375,229190.5,245418.953125,-0.1162109375,0.82373046875,-0.5712890625,-0.8544921278953552,1.7395018339157104,1.0375975370407104,100.0,66716.0,1.0
469034.2918621,258172.40625,264922.28125,283744.6875,263974.90625,258848.765625,255180.40625,229295.46875,245448.90625,-0.11572265625,0.82275390625,-0.5732421875,-0.8544921278953552,1.7700194120407104,1.0681151151657104,100.0,66717.0,1.0
469034.2944031,259088.921875,265151.6875,282679.40625,263276.90625,257724.828125,255166.8125,228813.5625,245211.515625,-0.1162109375,0.82275390625,-0.569091796875,-0.8850097060203552,1.8310545682907104,1.0070799589157104,100.0,66718.0,1.0
469034.2944438,259317.078125,264875.6875,279124.03125,262502.9375,255912.375,255143.921875,228407.65625,245036.46875,-0.114013671875,0.822265625,-0.572265625,-1.1291502714157104,1.9226073026657104,1.0070799589157104,100.0,66719.0,1.0
469034.2955282,258625.4375,264525.65625,278049.09375,262700.4375,255897.71875,255151.609375,228616.15625,245157.15625,-0.11572265625,0.821533203125,-0.574951171875,-1.0375975370407104,2.075195074081421,0.9765624403953552,100.0,66720.0,1.0
469034.2968631,257949.25,264584.9375,281064.96875,263624.34375,257734.40625,255178.796875,229160.28125,245423.15625,-0.11572265625,0.820068359375,-0.57470703125,-1.1596678495407104,2.105712652206421,0.8850097060203552,100.0,66721.0,1.0
469034.3133129,258194.21875,264943.8125,284081.9375,263988.96875,258892.046875,255181.921875,229262.84375,245459.984375,-0.11572265625,0.8193359375,-0.57666015625,-1.1596678495407104,2.014159917831421,0.8850097060203552,100.0,66722.0,1.0
469034.3133562,259120.125,265199.4375,283050.25,263292.03125,257784.640625,255173.421875,228776.640625,245221.71875,-0.11767578125,0.81787109375,-0.575439453125,-1.0986326932907104,1.9836424589157104,0.8544921278953552,100.0,66723.0,1.0
469034.313367,259359.46875,264942.03125,279536.65625,262522.0625,255986.21875,255154.734375,228388.171875,245041.46875,-0.117431640625,0.820068359375,-0.575927734375,-1.1291502714157104,2.014159917831421,0.8850097060203552,100.0,66724.0,1.0
469034.3143187,258657.4375,264571.1875,278453.84375,262712.84375,255962.625,255160.203125,228606.40625,245161.453125,-0.115478515625,0.819091796875,-0.572998046875,-1.1901854276657104,2.044677495956421,1.0070799589157104,100.0,66725.0,1.0
469034.3155732,257945.671875,264604.53125,281416.0,263616.125,257771.59375,255177.0,229146.703125,245416.4375,-0.11376953125,0.820068359375,-0.570556640625,-1.1901854276657104,2.014159917831421,0.9460448622703552,100.0,66726.0,1.0
469034.3383182,258194.40625,264981.375,284419.78125,263988.34375,258936.921875,255198.46875,229278.296875,245465.4375,-0.114990234375,0.817626953125,-0.572265625,-1.2207030057907104,2.014159917831421,0.8850097060203552,100.0,66727.0,1.0
469034.3383587,259104.65625,265205.34375,283357.90625,263275.9375,257808.34375,255173.609375,228804.453125,245215.28125,-0.115478515625,0.81787109375,-0.57373046875,-1.2512205839157104,2.044677495956421,0.8239745497703552,100.0,66728.0,1.0
469034.338369,259351.5,264931.9375,279831.6875,262505.78125,256002.59375,255149.109375,228431.625,245038.515625,-0.11572265625,0.819091796875,-0.574462890625,-1.2207030057907104,2.105712652206421,0.9460448622703552,100.0,66729.0,1.0
469034.3393371,258655.203125,264587.4375,278745.5,262707.03125,255987.484375,255165.5625,228676.15625,245170.65625,-0.117431640625,0.818359375,-0.57177734375,-1.1901854276657104,2.197265386581421,0.8850097060203552,100.0,66730.0,1.0
469034.3405623,257957.5625,264635.375,281707.4375,263628.375,257814.15625,255203.46875,229231.71875,245444.25,-0.119140625,0.818359375,-0.568603515625,-1.1901854276657104,2.288818120956421,0.9765624403953552,100.0,66731.0,1.0
469034.3418988,258194.3125,264982.4375,284685.40625,263987.875,258960.796875,255201.328125,229328.734375,245470.09375,-0.11865234375,0.818115234375,-0.569091796875,-1.0986326932907104,2.258300542831421,0.9765624403953552,100.0,66732.0,1.0
469034.3619843,259129.515625,265227.96875,283651.34375,263284.4375,257842.671875,255176.734375,228838.78125,245217.609375,-0.117919921875,0.81787109375,-0.5712890625,-1.0375975370407104,2.227782964706421,0.8850097060203552,100.0,66733.0,1.0
469034.36453,259381.71875,264967.6875,280146.9375,262513.90625,256037.8125,255148.75,228446.734375,245035.484375,-0.117431640625,0.81884765625,-0.573974609375,-1.0070799589157104,2.197265386581421,0.9460448622703552,100.0,66734.0,1.0
469034.3645726,258679.4375,264600.9375,279047.9375,262709.4375,256008.578125,255160.90625,228682.859375,245164.5,-0.117919921875,0.81982421875,-0.571533203125,-1.0375975370407104,2.288818120956421,1.0375975370407104,100.0,66735.0,1.0
469034.3645835,257974.28125,264639.9375,281986.03125,263632.125,257827.296875,255199.625,229235.84375,245438.703125,-0.115478515625,0.82275390625,-0.568359375,-1.0986326932907104,2.105712652206421,1.0986326932907104,100.0,66736.0,1.0
469034.3655704,258196.453125,264983.15625,284945.3125,263986.09375,258968.578125,255197.390625,229333.734375,245465.625,-0.11669921875,0.822265625,-0.56884765625,-1.1901854276657104,2.227782964706421,1.1291502714157104,100.0,66737.0,1.0
469034.3670189,259132.8125,265230.1875,283920.46875,263283.8125,257854.03125,255174.5,228848.890625,245214.921875,-0.116943359375,0.82275390625,-0.56787109375,-1.0986326932907104,2.258300542831421,1.2512205839157104,100.0,66738.0,1.0
469034.3870048,259415.609375,264997.65625,280456.5625,262539.59375,256074.5625,255170.75,228485.4375,245055.59375,-0.116455078125,0.822021484375,-0.56787109375,-1.1596678495407104,2.227782964706421,1.3732908964157104,100.0,66739.0,1.0
469034.3894403,258710.8125,264643.875,279357.5625,262738.40625,256043.0,255182.09375,228714.328125,245185.328125,-0.117431640625,0.82177734375,-0.56787109375,-1.2207030057907104,2.288818120956421,1.2817381620407104,100.0,66740.0,1.0
469034.389485,257970.4375,264647.71875,282236.90625,263643.5,257831.046875,255207.140625,229251.296875,245445.6875,-0.117919921875,0.82275390625,-0.566162109375,-1.1901854276657104,2.197265386581421,1.3732908964157104,100.0,66741.0,1.0
469034.3894955,258199.578125,264973.59375,285156.5,264011.03125,258966.609375,255218.3125,229358.765625,245483.234375,-0.11767578125,0.8251953125,-0.565673828125,-1.2817381620407104,2.288818120956421,1.3122557401657104,100.0,66742.0,1.0
469034.3905989,259133.703125,265206.5,284095.875,263311.25,257837.484375,255186.484375,228868.015625,245232.09375,-0.117431640625,0.826416015625,-0.5693359375,-1.2512205839157104,2.319335699081421,1.3122557401657104,100.0,66743.0,1.0
469034.4132599,259382.984375,264943.5625,280577.96875,262534.21875,256024.765625,255156.703125,228476.953125,245048.4375,-0.116943359375,0.82666015625,-0.5712890625,-1.3122557401657104,2.166747808456421,1.3427733182907104,100.0,66744.0,1.0
469034.413303,258674.78125,264567.6875,279421.75,262734.9375,255981.84375,255177.8125,228714.765625,245183.8125,-0.11767578125,0.8251953125,-0.569580078125,-1.3732908964157104,2.105712652206421,1.4648436307907104,100.0,66745.0,1.0
469034.4144406,257946.109375,264574.9375,282232.71875,263651.96875,257761.40625,255219.46875,229268.921875,245455.96875,-0.1162109375,0.82568359375,-0.568115234375,-1.4953612089157104,2.227782964706421,1.5258787870407104,100.0,66746.0,1.0
469034.4170559,258157.203125,264893.5625,285090.875,264011.84375,258883.546875,255225.375,229372.1875,245486.53125,-0.116455078125,0.82568359375,-0.568603515625,-1.4343260526657104,2.105712652206421,1.5563963651657104,100.0,66747.0,1.0
469034.4171005,259085.25,265104.9375,283989.5625,263306.78125,257745.671875,255190.421875,228875.4375,245230.390625,-0.115234375,0.826171875,-0.568603515625,-1.4953612089157104,1.9836424589157104,1.5869139432907104,100.0,66748.0,1.0
469034.4180635,259351.5,264838.3125,280431.15625,262544.75,255925.078125,255170.484375,228496.984375,245055.5,-0.1142578125,0.82568359375,-0.5673828125,-1.6784666776657104,2.044677495956421,1.5869139432907104,100.0,66749.0,1.0
469034.4194526,258650.203125,264479.34375,279214.6875,262748.6875,255867.9375,255192.46875,228742.578125,245192.125,-0.11328125,0.82275390625,-0.5703125,-1.6784666776657104,2.014159917831421,1.5869139432907104,100.0,66750.0,1.0
469034.4205876,257887.203125,264441.8125,281962.25,263645.28125,257630.78125,255215.265625,229281.34375,245457.125,-0.11328125,0.822265625,-0.571044921875,-1.6784666776657104,2.044677495956421,1.5869139432907104,100.0,66751.0,1.0
469034.4382631,258089.890625,264726.375,284757.5625,263992.1875,258730.484375,255202.21875,229352.15625,245471.609375,-0.113525390625,0.821533203125,-0.564697265625,-1.6479490995407104,2.075195074081421,1.5258787870407104,100.0,66752.0,1.0
469034.438306,259057.453125,264980.125,283642.65625,263311.6875,257605.921875,255183.078125,228856.390625,245224.671875,-0.114013671875,0.819580078125,-0.56591796875,-1.6174315214157104,2.014159917831421,1.5563963651657104,100.0,66753.0,1.0
469034.4406659,259330.40625,264720.75,280081.6875,262550.40625,255795.703125,255164.21875,228463.71875,245047.28125,-0.11376953125,0.818359375,-0.568359375,-1.6479490995407104,2.014159917831421,1.5869139432907104,100.0,66754.0,1.0
469034.4407069,258624.890625,264344.15625,278863.59375,262745.9375,255748.21875,255184.515625,228700.640625,245178.984375,-0.1142578125,0.81787109375,-0.5693359375,-1.5563963651657104,1.9226073026657104,1.4953612089157104,100.0,66755.0,1.0
469034.4431221,257854.46875,264328.78125,281598.5625,263629.28125,257509.28125,255195.0625,229229.046875,245431.640625,-0.114013671875,0.81982421875,-0.568603515625,-1.4648436307907104,1.8920897245407104,1.4953612089157104,100.0,66756.0,1.0
469034.4431628,258069.5,264654.3125,284414.15625,263982.4375,258629.1875,255185.859375,229329.984375,245461.421875,-0.1142578125,0.817626953125,-0.56689453125,-1.4648436307907104,1.8920897245407104,1.4648436307907104,100.0,66757.0,1.0
469034.4442894,259043.59375,264925.5,283337.0625,263304.0,257526.4375,255171.453125,228855.5,245221.453125,-0.115234375,0.819580078125,-0.565673828125,-1.3122557401657104,1.9531248807907104,1.3427733182907104,100.0,66758.0,1.0
469034.4620153,259321.90625,264673.53125,279811.75,262544.3125,255729.71875,255150.1875,228477.75,245042.640625,-0.116455078125,0.814453125,-0.564208984375,-1.3122557401657104,2.105712652206421,1.2512205839157104,100.0,66759.0,1.0
469034.4645299,258595.21875,264281.84375,278594.65625,262729.9375,255674.46875,255157.0625,228707.890625,245167.171875,-0.116455078125,0.811279296875,-0.567138671875,-1.2512205839157104,1.9531248807907104,0.9155272841453552,100.0,66760.0,1.0
469034.4645705,257836.859375,264285.4375,281334.625,263633.46875,257451.15625,255186.84375,229252.734375,245438.078125,-0.11572265625,0.818603515625,-0.567626953125,-0.7934569716453552,1.9531248807907104,0.8850097060203552,100.0,66761.0,1.0
469034.4655687,258063.953125,264630.375,284170.78125,264009.25,258597.53125,255201.59375,229363.859375,245489.125,-0.114990234375,0.822998046875,-0.564208984375,-0.7019042372703552,1.8920897245407104,0.9155272841453552,100.0,66762.0,1.0
469034.4682312,259028.65625,264890.09375,283103.09375,263318.59375,257494.078125,255180.578125,228871.6875,245239.859375,-0.11474609375,0.82080078125,-0.56201171875,-0.9765624403953552,1.8005369901657104,0.9460448622703552,100.0,66763.0,1.0
469034.4682736,259300.0,264638.21875,279574.1875,262540.21875,255682.421875,255141.328125,228457.453125,245041.46875,-0.1162109375,0.8193359375,-0.562255859375,-0.9765624403953552,1.8615721464157104,0.8850097060203552,100.0,66764.0,1.0
469034.4870303,258607.375,264288.1875,278379.8125,262742.625,255645.859375,255166.546875,228690.453125,245181.03125,-0.1162109375,0.818603515625,-0.563232421875,-0.9460448622703552,1.7700194120407104,0.7934569716453552,100.0,66765.0,1.0
469034.4870735,257831.5,264273.09375,281113.25,263627.5625,257414.5,255187.90625,229215.984375,245435.9375,-0.1162109375,0.817626953125,-0.56640625,-0.9155272841453552,1.7395018339157104,0.7324218153953552,100.0,66766.0,1.0
469034.49462,258046.515625,264606.59375,283951.5625,263992.875,258557.65625,255194.265625,229316.75,245472.6875,-0.11279296875,0.81787109375,-0.564453125,-0.8544921278953552,1.7700194120407104,0.6408690810203552,100.0,66767.0,1.0
469034.4946623,259004.25,264856.90625,282877.15625,263294.1875,257442.125,255157.515625,228812.140625,245210.453125,-0.11328125,0.818603515625,-0.56787109375,-0.8239745497703552,1.8310545682907104,0.6408690810203552,100.0,66768.0,1.0
469034.4946711,259290.890625,264617.65625,279367.21875,262527.59375,255645.3125,255132.75,228423.578125,245020.109375,-0.113525390625,0.82080078125,-0.56689453125,-0.6713866591453552,1.7700194120407104,0.5798339247703552,100.0,66769.0,1.0
469034.4946807,258584.296875,264271.65625,278171.59375,262723.65625,255605.359375,255154.65625,228673.640625,245155.546875,-0.114501953125,0.822265625,-0.568115234375,-0.5798339247703552,1.8310545682907104,0.6408690810203552,100.0,66770.0,1.0
469034.5182312,257814.953125,264253.0625,280908.875,263618.53125,257383.296875,255188.625,229230.46875,245425.109375,-0.114013671875,0.825927734375,-0.566650390625,-0.6103515028953552,1.8615721464157104,0.7019042372703552,100.0,66771.0,1.0
469034.5182726,258040.0,264578.9375,283749.0625,263990.9375,258529.59375,255198.8125,229343.75,245464.984375,-0.115478515625,0.82568359375,-0.56494140625,-0.6713866591453552,1.9531248807907104,0.6408690810203552,100.0,66772.0,1.0
469034.5208708,259037.859375,264879.0,282724.625,263323.84375,257449.90625,255192.828125,228874.09375,245234.5,-0.116455078125,0.824462890625,-0.5673828125,-0.6408690810203552,1.8920897245407104,0.7629393935203552,100.0,66773.0,1.0
469034.5209129,259356.6875,264663.1875,279250.46875,262580.96875,255675.453125,255186.390625,228493.046875,245068.734375,-0.1162109375,0.824951171875,-0.565673828125,-0.8544921278953552,1.9226073026657104,0.7934569716453552,100.0,66774.0,1.0
469034.5209217,258616.578125,264268.09375,278019.15625,262745.21875,255600.171875,255171.734375,228691.609375,245168.515625,-0.11572265625,0.824462890625,-0.56591796875,-0.9460448622703552,1.8310545682907104,0.8544921278953552,100.0,66775.0,1.0
469034.5209311,257838.65625,264269.6875,280761.78125,263634.53125,257377.3125,255197.296875,229225.546875,245432.09375,-0.114501953125,0.822998046875,-0.56640625,-0.9155272841453552,1.8615721464157104,0.7629393935203552,100.0,66776.0,1.0
469034.5244685,258046.078125,264604.34375,283621.21875,263997.4375,258528.6875,255203.375,229325.25,245466.421875,-0.1171875,0.824951171875,-0.565673828125,-0.8850097060203552,1.7700194120407104,0.8544921278953552,100.0,66777.0,1.0
469034.5255985,259030.171875,264869.0,282605.09375,263318.21875,257440.78125,255179.421875,228839.3125,245223.59375,-0.1171875,0.827392578125,-0.565673828125,-0.9460448622703552,1.7089842557907104,0.8850097060203552,100.0,66778.0,1.0
469034.565808,259327.015625,264639.65625,279134.3125,262557.09375,255652.015625,255147.953125,228442.96875,245042.09375,-0.115966796875,0.824951171875,-0.566650390625,-0.8850097060203552,1.7089842557907104,0.8239745497703552,100.0,66779.0,1.0
469034.5658494,258614.078125,264278.09375,277948.6875,262749.5,255609.734375,255165.015625,228674.546875,245173.078125,-0.115234375,0.825439453125,-0.564697265625,-0.7934569716453552,1.7700194120407104,0.9460448622703552,100.0,66780.0,1.0
469034.6007283,257856.359375,264278.0,280710.03125,263655.28125,257402.875,255207.578125,229225.828125,245450.59375,-0.116943359375,0.825439453125,-0.56689453125,-0.9155272841453552,1.6784666776657104,0.9765624403953552,100.0,66781.0,1.0
469034.6007692,258104.90625,264653.4375,283600.75,264048.59375,258586.359375,255240.484375,229354.03125,245514.609375,-0.11669921875,0.824951171875,-0.564208984375,-0.9460448622703552,1.6784666776657104,0.9460448622703552,100.0,66782.0,1.0
469034.6007794,259072.5625,264926.5625,282588.75,263351.9375,257490.953125,255203.828125,228851.75,245252.5625,-0.115966796875,0.82275390625,-0.56640625,-0.9460448622703552,1.6479490995407104,0.9155272841453552,100.0,66783.0,1.0
469034.6031233,259342.296875,264653.4375,279106.34375,262557.0,255676.96875,255155.453125,228429.109375,245042.984375,-0.115966796875,0.8212890625,-0.56689453125,-0.8850097060203552,1.6479490995407104,1.0070799589157104,100.0,66784.0,1.0
469034.6031611,258639.734375,264295.34375,277928.21875,262754.34375,255638.515625,255178.53125,228658.453125,245182.640625,-0.115478515625,0.821044921875,-0.566162109375,-0.8239745497703552,1.6479490995407104,1.0070799589157104,100.0,66785.0,1.0
469034.6044337,257852.421875,264293.46875,280670.78125,263645.375,257414.859375,255203.640625,229196.859375,245451.140625,-0.115478515625,0.821533203125,-0.567626953125,-0.7934569716453552,1.6479490995407104,1.0986326932907104,100.0,66786.0,1.0
469034.6056517,258050.09375,264605.15625,283510.78125,263999.875,258550.421875,255196.046875,229293.234375,245472.953125,-0.115234375,0.82275390625,-0.568115234375,-0.7324218153953552,1.5869139432907104,1.1596678495407104,100.0,66787.0,1.0
469034.6069775,259023.03125,264866.65625,282496.03125,263309.03125,257458.21875,255168.59375,228806.859375,245218.59375,-0.114501953125,0.822021484375,-0.567626953125,-0.6713866591453552,1.5869139432907104,1.1596678495407104,100.0,66788.0,1.0
469034.6080363,259339.4375,264656.03125,279024.78125,262553.875,255668.109375,255153.84375,228438.0625,245043.171875,-0.114501953125,0.821533203125,-0.565673828125,-0.6408690810203552,1.5563963651657104,1.2207030057907104,100.0,66789.0,1.0
469034.6094848,258613.890625,264273.4375,277821.28125,262741.1875,255616.265625,255173.34375,228689.46875,245177.375,-0.114990234375,0.822509765625,-0.567626953125,-0.7019042372703552,1.5869139432907104,1.1291502714157104,100.0,66790.0,1.0
469034.6106975,257834.890625,264248.15625,280534.15625,263637.9375,257385.453125,255205.796875,229246.203125,245448.546875,-0.11376953125,0.82275390625,-0.56591796875,-0.6103515028953552,1.5258787870407104,1.1596678495407104,100.0,66791.0,1.0
469034.6119877,258049.828125,264577.15625,283366.84375,264014.53125,258530.75,255215.0,229358.6875,245482.15625,-0.115966796875,0.82373046875,-0.566162109375,-0.5493163466453552,1.4953612089157104,1.1596678495407104,100.0,66792.0,1.0
469034.613074,259029.375,264844.84375,282354.59375,263337.1875,257446.6875,255203.375,228883.484375,245242.546875,-0.115234375,0.8251953125,-0.56494140625,-0.4577636420726776,1.5869139432907104,1.1901854276657104,100.0,66793.0,1.0
469034.6143003,259332.546875,264602.1875,278850.53125,262567.90625,255634.5,255173.15625,228492.328125,245059.0,-0.115478515625,0.82568359375,-0.56396484375,-0.4272460639476776,1.5869139432907104,1.1291502714157104,100.0,66794.0,1.0
469034.6157111,258614.96875,264223.46875,277592.21875,262746.75,255554.75,255175.21875,228713.96875,245180.671875,-0.11669921875,0.825439453125,-0.56591796875,-0.3967284858226776,1.4953612089157104,1.1596678495407104,100.0,66795.0,1.0
469034.6370045,257798.953125,264167.0625,280258.96875,263621.125,257300.328125,255182.09375,229239.953125,245428.0625,-0.1171875,0.826416015625,-0.566650390625,-0.5187987685203552,1.4648436307907104,1.0986326932907104,100.0,66796.0,1.0
469034.6381926,257974.640625,264468.1875,283063.21875,263970.8125,258431.0625,255169.84375,229333.921875,245449.796875,-0.11474609375,0.826904296875,-0.5654296875,-0.4577636420726776,1.5258787870407104,1.0070799589157104,100.0,66797.0,1.0
469034.6394626,258984.125,264762.3125,282042.625,263309.03125,257355.40625,255168.0625,228868.546875,245216.078125,-0.11474609375,0.825439453125,-0.564208984375,-0.3967284858226776,1.4953612089157104,1.0070799589157104,100.0,66798.0,1.0
469034.6419137,259299.109375,264534.59375,278545.3125,262552.90625,255560.734375,255152.421875,228485.4375,245040.390625,-0.1142578125,0.82373046875,-0.56298828125,-0.3051757514476776,1.4648436307907104,0.9460448622703552,100.0,66799.0,1.0
469034.6419483,258581.265625,264156.5,277285.90625,262736.1875,255492.15625,255169.84375,228705.03125,245168.78125,-0.113525390625,0.8232421875,-0.562744140625,-0.3356933295726776,1.3732908964157104,0.9460448622703552,100.0,66800.0,1.0
469034.6446624,257790.546875,264118.40625,279942.5625,263634.0,257247.9375,255194.34375,229239.59375,245435.21875,-0.110595703125,0.8251953125,-0.56689453125,-0.3356933295726776,1.4648436307907104,0.9460448622703552,100.0,66801.0,1.0
469034.6447035,257992.703125,264438.84375,282748.59375,264018.0,258396.28125,255201.40625,229347.0625,245476.078125,-0.11083984375,0.82568359375,-0.566162109375,-0.4272460639476776,1.4343260526657104,0.8544921278953552,100.0,66802.0,1.0
469034.6447119,258955.96875,264676.5,281699.125,263312.3125,257294.703125,255171.640625,228851.5625,245217.25,-0.108642578125,0.822998046875,-0.5673828125,-0.2746581733226776,1.4038084745407104,0.7934569716453552,100.0,66803.0,1.0
469034.6447196,259266.484375,264460.03125,278170.0625,262546.90625,255484.296875,255150.546875,228467.109375,245035.03125,-0.109375,0.822021484375,-0.565185546875,-0.3051757514476776,1.4953612089157104,0.9155272841453552,100.0,66804.0,1.0
469034.644729,258568.203125,264076.75,276898.15625,262739.21875,255412.859375,255174.328125,228704.046875,245167.0,-0.10986328125,0.82177734375,-0.563232421875,-0.3356933295726776,1.5869139432907104,0.7934569716453552,100.0,66805.0,1.0
469034.6469181,257788.671875,264060.9375,279576.875,263636.78125,257185.984375,255206.78125,229249.421875,245438.4375,-0.111083984375,0.819580078125,-0.56396484375,-0.1831054538488388,1.6479490995407104,0.7324218153953552,100.0,66806.0,1.0
469034.6469536,257987.875,264400.5,282420.84375,264008.90625,258354.265625,255214.109375,229364.671875,245480.28125,-0.111572265625,0.817626953125,-0.562744140625,-0.2136230319738388,1.5869139432907104,0.6713866591453552,100.0,66807.0,1.0
469034.6480422,258952.65625,264667.5625,281385.5,263304.1875,257257.5,255170.921875,228862.203125,245210.546875,-0.11083984375,0.822265625,-0.56298828125,-0.1220703050494194,1.7395018339157104,0.6408690810203552,100.0,66808.0,1.0
469034.6505966,259287.21875,264472.65625,277891.5625,262551.03125,255468.375,255160.90625,228481.15625,245035.03125,-0.11083984375,0.822265625,-0.5654296875,-0.0915527269244194,1.8005369901657104,0.5798339247703552,100.0,66809.0,1.0
469034.6506398,258574.921875,264105.90625,276662.84375,262737.625,255414.109375,255182.375,228714.765625,245169.234375,-0.111328125,0.8212890625,-0.564697265625,-0.0610351525247097,1.8005369901657104,0.4882812201976776,100.0,66810.0,1.0
469034.663242,257797.171875,264101.875,279389.9375,263636.875,257196.265625,255204.1875,229250.765625,245429.234375,-0.112060546875,0.8193359375,-0.563720703125,-0.0610351525247097,1.7700194120407104,0.3967284858226776,100.0,66811.0,1.0
469034.6632838,257990.28125,264428.84375,282274.03125,264002.90625,258365.4375,255197.484375,229355.375,245454.703125,-0.1123046875,0.822265625,-0.5615234375,0.0,1.7089842557907104,0.3967284858226776,100.0,66812.0,1.0
469034.6669474,258972.0625,264713.34375,281303.5,263312.9375,257293.625,255169.21875,228868.28125,245205.171875,-0.114013671875,0.821044921875,-0.563232421875,0.1220703050494194,1.6784666776657104,0.3662109076976776,100.0,66813.0,1.0
469034.6669889,259288.921875,264504.65625,277850.0,262543.875,255506.921875,255149.90625,228468.8125,245027.96875,-0.114990234375,0.8203125,-0.561767578125,0.1831054538488388,1.7395018339157104,0.3967284858226776,100.0,66814.0,1.0
469034.6694425,258570.359375,264140.9375,276649.875,262721.875,255449.0625,255162.875,228681.515625,245148.9375,-0.113525390625,0.820556640625,-0.5615234375,0.1220703050494194,1.6784666776657104,0.3051757514476776,100.0,66815.0,1.0
469034.6882143,257798.421875,264157.65625,279417.28125,263633.375,257246.0625,255195.78125,229228.140625,245423.953125,-0.11474609375,0.8203125,-0.561767578125,0.1831054538488388,1.6479490995407104,0.3356933295726776,100.0,66816.0,1.0
469034.6882561,258004.40625,264512.6875,282339.03125,264015.0625,258428.734375,255199.984375,229335.53125,245463.828125,-0.114990234375,0.820068359375,-0.563720703125,0.0915527269244194,1.6784666776657104,0.2746581733226776,100.0,66817.0,1.0
469034.6907336,258998.171875,264801.9375,281400.96875,263336.375,257369.078125,255189.703125,228863.1875,245218.59375,-0.116455078125,0.82177734375,-0.560791015625,0.1831054538488388,1.6479490995407104,0.2746581733226776,100.0,66818.0,1.0
469034.6907769,259328.171875,264607.125,277968.0,262591.875,255594.171875,255192.203125,228487.859375,245056.765625,-0.117431640625,0.823486328125,-0.560302734375,0.1831054538488388,1.5258787870407104,0.3356933295726776,100.0,66819.0,1.0
469034.6916463,258583.40625,264212.28125,276732.5,262738.34375,255496.640625,255169.671875,228659.34375,245152.25,-0.11767578125,0.82275390625,-0.564453125,0.1831054538488388,1.4953612089157104,0.2136230319738388,100.0,66820.0,1.0
469034.6969023,257795.015625,264176.71875,279490.875,263628.46875,257275.03125,255185.765625,229182.1875,245412.515625,-0.117919921875,0.82373046875,-0.565185546875,0.1525878757238388,1.4953612089157104,0.0915527269244194,100.0,66821.0,1.0
469034.7118962,257995.015625,264511.71875,282412.59375,264007.46875,258455.640625,255188.359375,229283.671875,245452.390625,-0.1162109375,0.823974609375,-0.564453125,0.1831054538488388,1.4648436307907104,0.1220703050494194,100.0,66822.0,1.0
469034.7144394,258986.71875,264810.78125,281463.8125,263334.21875,257394.46875,255176.640625,228798.1875,245212.328125,-0.115234375,0.822021484375,-0.56494140625,0.1525878757238388,1.3122557401657104,-0.03051757626235485,100.0,66823.0,1.0
469034.7144792,259312.53125,264611.0625,278009.5,262569.1875,255602.40625,255165.109375,228410.515625,245041.203125,-0.116943359375,0.82177734375,-0.565673828125,0.0610351525247097,1.3427733182907104,-0.03051757626235485,100.0,66824.0,1.0
469034.7144892,258577.515625,264230.4375,276800.0,262734.5625,255526.140625,255165.203125,228626.703125,245156.8125,-0.11767578125,0.822265625,-0.56591796875,0.0915527269244194,1.2817381620407104,0.03051757626235485,100.0,66825.0,1.0
469034.7155666,257797.34375,264211.75,279581.8125,263633.90625,257315.890625,255185.40625,229165.65625,245415.734375,-0.1181640625,0.822265625,-0.56640625,0.2746581733226776,1.2817381620407104,0.0915527269244194,100.0,66826.0,1.0
469034.7369597,257995.375,264551.5,282530.34375,264003.53125,258500.53125,255181.75,229266.765625,245446.21875,-0.1171875,0.822021484375,-0.5654296875,0.3356933295726776,1.2512205839157104,0.1525878757238388,100.0,66827.0,1.0
469034.7394924,258989.578125,264843.875,281601.6875,263329.84375,257441.59375,255169.765625,228783.4375,245205.625,-0.1162109375,0.822021484375,-0.56494140625,0.1220703050494194,1.2512205839157104,0.1220703050494194,100.0,66828.0,1.0
469034.7395053,259304.65625,264615.34375,278148.6875,262557.5625,255639.5,255150.8125,228382.359375,245023.5,-0.1181640625,0.822265625,-0.56787109375,0.2441406100988388,1.2207030057907104,0.0610351525247097,100.0,66829.0,1.0
469034.7395073,258594.40625,264255.125,276951.625,262732.0625,255569.953125,255160.90625,228597.828125,245146.171875,-0.1171875,0.818603515625,-0.564208984375,0.2746581733226776,1.1901854276657104,0.1831054538488388,100.0,66830.0,1.0
469034.7404965,257817.453125,264252.53125,279752.125,263635.1875,257364.875,255183.53125,229143.03125,245406.25,-0.115966796875,0.82080078125,-0.563720703125,0.2746581733226776,1.2512205839157104,0.3356933295726776,100.0,66831.0,1.0
469034.7417703,258018.53125,264606.3125,282731.0625,264016.03125,258564.640625,255189.34375,229262.21875,245446.84375,-0.116455078125,0.821044921875,-0.5634765625,0.3662109076976776,1.0375975370407104,0.3356933295726776,100.0,66832.0,1.0
469034.7456541,259014.4375,264904.125,281824.125,263344.15625,257515.0,255182.640625,228789.34375,245211.4375,-0.11865234375,0.822509765625,-0.562744140625,0.4272460639476776,1.0681151151657104,0.3662109076976776,100.0,66833.0,1.0
469034.7632206,259321.828125,264680.34375,278366.21875,262560.9375,255706.109375,255159.21875,228383.15625,245026.8125,-0.1171875,0.820068359375,-0.566650390625,0.4577636420726776,1.0986326932907104,0.3967284858226776,100.0,66834.0,1.0
469034.7632365,258636.34375,264335.84375,277180.25,262753.1875,255646.5625,255181.203125,228609.984375,245163.515625,-0.11767578125,0.820556640625,-0.56494140625,0.4272460639476776,1.1596678495407104,0.3356933295726776,100.0,66835.0,1.0
469034.7632392,257864.125,264326.46875,279996.65625,263664.78125,257451.34375,255215.53125,229158.234375,245434.234375,-0.116943359375,0.822509765625,-0.568603515625,0.5493163466453552,1.1596678495407104,0.3051757514476776,100.0,66836.0,1.0
469034.764394,258034.71875,264643.5,282946.28125,264020.4375,258621.671875,255196.578125,229242.0,245450.59375,-0.1171875,0.821533203125,-0.5673828125,0.5798339247703552,1.1901854276657104,0.4272460639476776,100.0,66837.0,1.0
469034.7655992,258996.375,264910.75,282004.1875,263319.375,257541.46875,255165.828125,228742.75,245195.421875,-0.115966796875,0.822509765625,-0.5712890625,0.7019042372703552,1.1291502714157104,0.4577636420726776,100.0,66838.0,1.0
469034.7869679,259307.25,264679.53125,278527.96875,262531.25,255719.703125,255136.765625,228343.28125,245004.71875,-0.114990234375,0.82421875,-0.56787109375,0.7019042372703552,1.1901854276657104,0.4577636420726776,100.0,66839.0,1.0
469034.8133829,258599.953125,264303.03125,277309.875,262704.53125,255633.6875,255143.03125,228550.4375,245124.34375,-0.116943359375,0.823486328125,-0.5673828125,0.7934569716453552,1.1596678495407104,0.4882812201976776,100.0,66840.0,1.0
469034.8134247,257835.34375,264305.46875,280109.9375,263622.84375,257432.03125,255182.28125,229088.21875,245401.15625,-0.118408203125,0.823486328125,-0.5673828125,0.8239745497703552,1.1901854276657104,0.5798339247703552,100.0,66841.0,1.0
469034.8134333,258019.96875,264636.71875,283076.71875,264003.71875,258626.0625,255184.78125,229187.921875,245442.1875,-0.119384765625,0.824462890625,-0.568603515625,0.7934569716453552,1.2817381620407104,0.5493163466453552,100.0,66842.0,1.0
469034.8134411,258997.28125,264920.9375,282141.15625,263317.78125,257560.6875,255165.015625,228694.390625,245200.796875,-0.121337890625,0.825927734375,-0.56787109375,0.8239745497703552,1.2512205839157104,0.5493163466453552,100.0,66843.0,1.0
469034.8134501,259320.75,264693.5625,278667.78125,262546.71875,255752.0625,255155.28125,228292.40625,245026.890625,-0.12109375,0.825927734375,-0.571044921875,0.7324218153953552,1.3122557401657104,0.6103515028953552,100.0,66844.0,1.0
469034.815748,258614.96875,264312.6875,277431.375,262717.59375,255659.4375,255160.828125,228491.4375,245143.3125,-0.12060546875,0.826904296875,-0.571044921875,0.6713866591453552,1.2512205839157104,0.7324218153953552,100.0,66845.0,1.0
469034.8157899,257835.34375,264300.28125,280192.90625,263619.4375,257430.59375,255176.28125,229013.21875,245396.328125,-0.119140625,0.826904296875,-0.567138671875,0.6103515028953552,1.1901854276657104,0.6713866591453552,100.0,66846.0,1.0
469034.8157991,258021.671875,264633.3125,283157.375,263999.40625,258627.21875,255181.203125,229120.59375,245437.90625,-0.1181640625,0.82470703125,-0.566650390625,0.4882812201976776,1.2207030057907104,0.6713866591453552,100.0,66847.0,1.0
469034.8158082,259003.53125,264920.65625,282233.15625,263319.5625,257572.390625,255170.296875,228635.015625,245203.921875,-0.115234375,0.817626953125,-0.566650390625,0.3662109076976776,1.1901854276657104,0.6713866591453552,100.0,66848.0,1.0
469034.8174652,259324.59375,264709.3125,278765.96875,262537.0,255762.34375,255145.71875,228217.765625,245009.828125,-0.110595703125,0.8154296875,-0.56494140625,0.2746581733226776,1.3122557401657104,0.6713866591453552,100.0,66849.0,1.0
469034.8175032,258635.71875,264359.28125,277562.71875,262719.1875,255687.25,255159.390625,228431.984375,245138.203125,-0.108154296875,0.81201171875,-0.56689453125,0.3662109076976776,1.4953612089157104,0.6713866591453552,100.0,66850.0,1.0
469034.8175137,257856.078125,264344.34375,280352.84375,263616.65625,257468.0625,255177.359375,228976.90625,245399.640625,-0.108154296875,0.814697265625,-0.57275390625,0.4577636420726776,1.7700194120407104,0.6713866591453552,100.0,66851.0,1.0
469034.8431184,258041.421875,264686.40625,283351.28125,264002.09375,258675.671875,255181.828125,229135.703125,245441.921875,-0.1103515625,0.818115234375,-0.576416015625,0.6103515028953552,1.8005369901657104,0.7629393935203552,100.0,66852.0,1.0
469034.8431585,259009.796875,264983.78125,282472.40625,263311.4375,257634.53125,255162.15625,228689.734375,245191.578125,-0.11376953125,0.81689453125,-0.574462890625,0.7324218153953552,1.9531248807907104,0.7629393935203552,100.0,66853.0,1.0
469034.8444554,259332.46875,264777.09375,279055.28125,262526.78125,255842.90625,255142.84375,228280.4375,245005.625,-0.11279296875,0.81494140625,-0.57080078125,0.9155272841453552,1.9836424589157104,0.7629393935203552,100.0,66854.0,1.0
469034.845536,258654.40625,264434.65625,277895.5,262712.5,255780.046875,255162.609375,228474.265625,245137.21875,-0.111083984375,0.814453125,-0.568115234375,0.8850097060203552,1.9836424589157104,0.8544921278953552,100.0,66855.0,1.0
469034.8469017,257909.28125,264470.875,280767.78125,263642.6875,257602.4375,255206.953125,229027.96875,245421.265625,-0.109130859375,0.814453125,-0.56982421875,0.9155272841453552,2.014159917831421,0.8239745497703552,100.0,66856.0,1.0
469034.8481645,258111.875,264843.96875,283851.875,264041.25,258845.1875,255227.703125,229188.359375,245480.640625,-0.110595703125,0.816650390625,-0.568603515625,0.9765624403953552,2.288818120956421,0.7629393935203552,100.0,66857.0,1.0
469034.8493258,259072.28125,265126.46875,283011.71875,263339.59375,257795.28125,255192.109375,228731.765625,245217.953125,-0.1171875,0.818115234375,-0.568359375,1.0681151151657104,2.441406011581421,0.6713866591453552,100.0,66858.0,1.0
469034.8619363,259388.25,264912.96875,279615.875,262546.5625,255990.25,255158.40625,228348.375,245021.71875,-0.12353515625,0.818603515625,-0.570068359375,1.0681151151657104,2.410888433456421,0.5187987685203552,100.0,66859.0,1.0
469034.8645832,258690.4375,264549.34375,278462.4375,262711.40625,255910.140625,255163.328125,228572.96875,245132.3125,-0.129150390625,0.818603515625,-0.5693359375,1.0681151151657104,2.227782964706421,0.4272460639476776,100.0,66860.0,1.0
469034.8646256,257926.359375,264557.125,281315.40625,263634.46875,257712.59375,255203.828125,229145.265625,245410.28125,-0.131591796875,0.821044921875,-0.56884765625,0.8239745497703552,2.105712652206421,0.1525878757238388,100.0,66861.0,1.0
469034.8646346,258097.75,264869.53125,284321.34375,264018.5625,258904.65625,255202.75,229280.0,245449.078125,-0.13232421875,0.82177734375,-0.5703125,0.7629393935203552,1.8615721464157104,0.0915527269244194,100.0,66862.0,1.0
469034.864644,259065.578125,265132.65625,283423.25,263341.125,257840.609375,255185.234375,228814.640625,245206.96875,-0.129150390625,0.82177734375,-0.572021484375,0.7019042372703552,1.7395018339157104,-0.2136230319738388,100.0,66863.0,1.0
469034.8883926,259371.984375,264884.46875,279932.1875,262545.65625,255997.21875,255154.921875,228411.5,245012.0625,-0.125,0.82177734375,-0.5732421875,0.7629393935203552,1.5258787870407104,-0.3356933295726776,100.0,66864.0,1.0
469034.888434,258669.859375,264494.09375,278675.65625,262710.53125,255879.921875,255160.640625,228633.328125,245135.4375,-0.119140625,0.822509765625,-0.5732421875,0.7629393935203552,1.4648436307907104,-0.3051757514476776,100.0,66865.0,1.0
469034.8884427,257890.5,264467.0,281438.78125,263616.3125,257643.46875,255182.546875,229185.859375,245401.515625,-0.1181640625,0.8193359375,-0.572509765625,0.6103515028953552,1.3732908964157104,-0.4272460639476776,100.0,66866.0,1.0
469034.8884519,258064.84375,264789.78125,284414.875,264004.6875,258835.359375,255183.0,229312.1875,245437.8125,-0.116943359375,0.82275390625,-0.572509765625,0.5187987685203552,1.4038084745407104,-0.3051757514476776,100.0,66867.0,1.0
469034.8892588,259025.265625,265062.46875,283500.875,263316.875,257773.46875,255160.28125,228834.125,245188.71875,-0.11572265625,0.8232421875,-0.57275390625,0.5187987685203552,1.3427733182907104,-0.2746581733226776,100.0,66868.0,1.0
469034.8906248,259358.125,264850.125,280041.09375,262542.09375,255968.796875,255151.515625,228450.484375,245014.375,-0.1142578125,0.8232421875,-0.576171875,0.4272460639476776,1.3427733182907104,-0.2746581733226776,100.0,66869.0,1.0
469034.8918104,258679.078125,264488.75,278810.75,262724.375,255880.640625,255177.71875,228681.0625,245150.90625,-0.113525390625,0.8232421875,-0.578125,0.3967284858226776,1.5258787870407104,-0.1831054538488388,100.0,66870.0,1.0
469034.9156351,257897.21875,264470.40625,281571.03125,263615.3125,257645.265625,255194.4375,229218.046875,245407.5,-0.113525390625,0.82177734375,-0.57666015625,0.3662109076976776,1.5563963651657104,0.0,100.0,66871.0,1.0
469034.9156768,258085.40625,264808.71875,284573.125,264009.78125,258860.84375,255206.421875,229352.875,245460.96875,-0.1142578125,0.82177734375,-0.580078125,0.3356933295726776,1.7700194120407104,0.1220703050494194,100.0,66872.0,1.0
469034.9181354,259024.453125,265052.8125,283645.34375,263301.5,257786.703125,255161.265625,228854.515625,245197.390625,-0.11572265625,0.82080078125,-0.577880859375,0.4577636420726776,1.8310545682907104,0.1831054538488388,100.0,66873.0,1.0
469034.9181782,259352.046875,264833.125,280165.53125,262514.8125,255968.53125,255143.125,228459.515625,245019.03125,-0.115478515625,0.8212890625,-0.574951171875,0.5493163466453552,1.9226073026657104,0.3662109076976776,100.0,66874.0,1.0
469034.9194306,258680.421875,264484.625,278931.53125,262696.5,255879.46875,255168.59375,228686.15625,245153.5,-0.1142578125,0.81982421875,-0.5732421875,0.4882812201976776,2.014159917831421,0.4882812201976776,100.0,66875.0,1.0
469034.9206002,257915.453125,264485.4375,281715.5,263605.59375,257660.375,255195.78125,229228.6875,245415.8125,-0.114501953125,0.820556640625,-0.5732421875,0.4577636420726776,2.044677495956421,0.5798339247703552,100.0,66876.0,1.0
469034.9481418,258102.21875,264825.1875,284736.90625,264001.46875,258879.53125,255203.109375,229354.03125,245458.734375,-0.1162109375,0.81982421875,-0.57568359375,0.4882812201976776,2.075195074081421,0.6408690810203552,100.0,66877.0,1.0
469034.9493094,259065.765625,265114.84375,283865.65625,263312.59375,257836.0625,255177.625,228870.078125,245205.890625,-0.11572265625,0.8203125,-0.573486328125,0.4577636420726776,2.197265386581421,0.7629393935203552,100.0,66878.0,1.0
469034.9507976,259393.890625,264913.25,280420.4375,262526.625,256027.71875,255156.890625,228466.9375,245021.71875,-0.117431640625,0.82177734375,-0.57373046875,0.4882812201976776,2.197265386581421,0.8544921278953552,100.0,66879.0,1.0
469034.9508403,258701.703125,264533.34375,279183.9375,262694.6875,255921.3125,255166.09375,228671.140625,245140.796875,-0.12060546875,0.821533203125,-0.57373046875,0.4882812201976776,2.227782964706421,0.9460448622703552,100.0,66880.0,1.0
469034.9657106,257920.453125,264503.6875,281937.59375,263597.71875,257677.09375,255183.890625,229204.1875,245403.296875,-0.121826171875,0.82177734375,-0.575439453125,0.4272460639476776,2.197265386581421,0.9460448622703552,100.0,66881.0,1.0
469034.967,258100.34375,264830.71875,284925.125,263989.59375,258882.390625,255191.046875,229325.515625,245448.90625,-0.12060546875,0.818359375,-0.574951171875,0.2441406100988388,2.075195074081421,0.9155272841453552,100.0,66882.0,1.0
469034.9681895,259048.234375,265090.8125,284007.90625,263296.3125,257818.71875,255160.203125,228830.828125,245194.09375,-0.11962890625,0.8193359375,-0.570556640625,0.2441406100988388,2.044677495956421,0.9155272841453552,100.0,66883.0,1.0
469034.9694323,259369.125,264864.15625,280510.75,262508.09375,255988.28125,255140.25,228427.328125,245008.21875,-0.118896484375,0.817138671875,-0.57080078125,0.2746581733226776,1.9531248807907104,0.7324218153953552,100.0,66884.0,1.0
469034.9705625,258691.59375,264500.8125,279245.53125,262688.53125,255881.265625,255164.484375,228649.859375,245140.4375,-0.119384765625,0.81787109375,-0.5703125,0.1831054538488388,1.8005369901657104,0.7019042372703552,100.0,66885.0,1.0
469034.9732619,257915.625,264484.0,281996.875,263598.875,257647.046875,255188.890625,229189.34375,245408.9375,-0.12060546875,0.816162109375,-0.571044921875,0.03051757626235485,1.8310545682907104,0.6103515028953552,100.0,66886.0,1.0
469034.9733025,258082.640625,264801.9375,284973.59375,263988.78125,258846.53125,255186.21875,229302.4375,245449.53125,-0.12109375,0.81689453125,-0.57275390625,0.03051757626235485,1.7395018339157104,0.6408690810203552,100.0,66887.0,1.0
469034.9743644,259033.578125,265065.15625,284062.625,263297.5625,257789.65625,255153.3125,228806.953125,245193.015625,-0.1220703125,0.817626953125,-0.5693359375,0.0915527269244194,1.7395018339157104,0.4577636420726776,100.0,66888.0,1.0
469034.975664,259355.171875,264848.15625,280583.6875,262506.3125,255973.4375,255129.53125,228395.671875,245004.546875,-0.1201171875,0.817626953125,-0.5751953125,-0.03051757626235485,1.6784666776657104,0.4577636420726776,100.0,66889.0,1.0
469034.9881876,258681.75,264496.78125,279339.5,262685.40625,255880.90625,255154.203125,228615.078125,245134.28125,-0.116943359375,0.817626953125,-0.571533203125,-0.03051757626235485,1.6479490995407104,0.3967284858226776,100.0,66890.0,1.0
469034.9882293,257934.9375,264513.96875,282133.65625,263621.6875,257679.859375,255203.640625,229180.046875,245423.0625,-0.1201171875,0.81640625,-0.57080078125,-0.0915527269244194,1.4648436307907104,0.2441406100988388,100.0,66891.0,1.0
469034.9882407,258108.84375,264849.3125,285148.28125,264021.59375,258900.8125,255210.984375,229304.046875,245472.328125,-0.12109375,0.813720703125,-0.57177734375,-0.0915527269244194,1.4648436307907104,0.1831054538488388,100.0,66892.0,1.0
469034.99062,259053.25,265116.28125,284256.625,263328.0625,257848.65625,255178.96875,228809.1875,245216.796875,-0.11962890625,0.814453125,-0.57080078125,-0.03051757626235485,1.4038084745407104,0.0610351525247097,100.0,66893.0,1.0
469034.9906559,259359.1875,264876.6875,280755.09375,262516.0625,256005.09375,255138.375,228377.4375,245003.5625,-0.1181640625,0.81396484375,-0.5703125,-0.03051757626235485,1.4038084745407104,0.0915527269244194,100.0,66894.0,1.0
469034.9930289,258662.171875,264490.8125,279467.1875,262668.5,255876.796875,255139.453125,228568.765625,245111.921875,-0.119873046875,0.8134765625,-0.570556640625,0.03051757626235485,1.3122557401657104,0.1220703050494194,100.0,66895.0,1.0
469035.0119863,257893.640625,264479.625,282219.03125,263583.125,257645.703125,255170.921875,229114.328125,245385.421875,-0.118896484375,0.8154296875,-0.57421875,0.1220703050494194,1.2817381620407104,0.1525878757238388,100.0,66896.0,1.0
469035.0145374,258064.046875,264804.625,285214.4375,263980.28125,258856.90625,255171.1875,229242.90625,245430.5625,-0.11865234375,0.814697265625,-0.572998046875,0.0610351525247097,1.3732908964157104,0.1831054538488388,100.0,66897.0,1.0
469035.0145783,259032.953125,265090.71875,284332.34375,263310.28125,257825.59375,255162.078125,228774.765625,245198.203125,-0.116943359375,0.8125,-0.572265625,0.0915527269244194,1.2817381620407104,0.2441406100988388,100.0,66898.0,1.0
469035.0145895,259371.171875,264875.25,280843.25,262524.03125,256012.421875,255155.546875,228381.109375,245022.609375,-0.119140625,0.815185546875,-0.57470703125,0.0915527269244194,1.3427733182907104,0.2136230319738388,100.0,66899.0,1.0
469035.01567,258676.65625,264487.5,279529.84375,262676.8125,255884.390625,255163.6875,228586.203125,245140.09375,-0.1181640625,0.816650390625,-0.5751953125,0.1220703050494194,1.3732908964157104,0.2136230319738388,100.0,66900.0,1.0
469035.0168745,257892.46875,264460.3125,282235.59375,263583.3125,257634.796875,255185.3125,229122.015625,245401.875,-0.11865234375,0.8173828125,-0.571533203125,0.0915527269244194,1.3122557401657104,0.3356933295726776,100.0,66901.0,1.0
469035.0370202,258042.234375,264768.84375,285190.21875,263969.1875,258827.046875,255177.453125,229229.578125,245434.953125,-0.11962890625,0.818359375,-0.572998046875,0.0915527269244194,1.2512205839157104,0.3356933295726776,100.0,66902.0,1.0
469035.0394386,259004.34375,265043.875,284284.59375,263296.78125,257787.234375,255163.328125,228753.03125,245200.171875,-0.12158203125,0.8193359375,-0.57568359375,0.0915527269244194,1.2207030057907104,0.3662109076976776,100.0,66903.0,1.0
469035.0394806,259336.03125,264820.0,280764.65625,262509.90625,255958.15625,255146.15625,228344.625,245017.234375,-0.120849609375,0.820556640625,-0.572509765625,-0.03051757626235485,1.2817381620407104,0.4577636420726776,100.0,66904.0,1.0
469035.039491,258636.421875,264426.59375,279421.84375,262659.90625,255813.3125,255143.46875,228536.765625,245122.921875,-0.12109375,0.821044921875,-0.571533203125,-0.0610351525247097,1.2817381620407104,0.5493163466453552,100.0,66905.0,1.0
469035.0405922,257865.296875,264407.75,282120.875,263575.8125,257573.921875,255175.578125,229090.28125,245400.265625,-0.120849609375,0.82177734375,-0.573974609375,-0.1220703050494194,1.2817381620407104,0.7019042372703552,100.0,66906.0,1.0
469035.0418902,258037.765625,264732.09375,285080.6875,263984.03125,258789.84375,255187.28125,229226.265625,245453.90625,-0.1201171875,0.82080078125,-0.5732421875,-0.1525878757238388,1.0986326932907104,0.6713866591453552,100.0,66907.0,1.0
469035.0632379,258994.765625,265003.46875,284163.5625,263306.59375,257745.84375,255164.75,228745.34375,245209.015625,-0.119873046875,0.822021484375,-0.574462890625,-0.2441406100988388,1.0375975370407104,0.6713866591453552,100.0,66908.0,1.0
469035.0632795,259322.8125,264779.03125,280636.71875,262510.6875,255910.140625,255139.71875,228331.03125,245014.5625,-0.11865234375,0.82080078125,-0.573974609375,-0.2746581733226776,1.0070799589157104,0.7324218153953552,100.0,66909.0,1.0
469035.0656255,258635.984375,264391.03125,279285.34375,262663.9375,255767.09375,255145.984375,228527.203125,245122.921875,-0.118896484375,0.8203125,-0.574462890625,-0.3662109076976776,1.0375975370407104,0.7324218153953552,100.0,66910.0,1.0
469035.0656638,257851.609375,264353.375,281954.5625,263567.75,257509.90625,255166.453125,229061.765625,245386.140625,-0.11962890625,0.822998046875,-0.573974609375,-0.3967284858226776,1.0681151151657104,0.7629393935203552,100.0,66911.0,1.0
469035.0668921,258012.8125,264671.75,284908.75,263968.65625,258721.453125,255170.921875,229192.390625,245432.265625,-0.12109375,0.823974609375,-0.575927734375,-0.5187987685203552,1.0986326932907104,0.8239745497703552,100.0,66912.0,1.0
469035.0681559,258983.5,264967.15625,284023.4375,263305.625,257706.59375,255164.84375,228735.0625,245201.953125,-0.11962890625,0.822509765625,-0.57373046875,-0.6408690810203552,0.9765624403953552,0.8544921278953552,100.0,66913.0,1.0
469035.0692765,259325.046875,264755.875,280516.375,262526.0,255890.828125,255153.765625,228343.640625,245026.8125,-0.12109375,0.821533203125,-0.572265625,-0.6408690810203552,0.9460448622703552,0.8544921278953552,100.0,66914.0,1.0
469035.0870168,258623.640625,264361.0625,279155.0625,262665.71875,255739.375,255148.21875,228537.296875,245135.4375,-0.119873046875,0.82177734375,-0.572509765625,-0.7324218153953552,0.9155272841453552,0.8850097060203552,100.0,66915.0,1.0
469035.0894973,257844.015625,264332.71875,281820.03125,263574.28125,257486.65625,255175.65625,229084.921875,245404.1875,-0.119873046875,0.82080078125,-0.573974609375,-0.7019042372703552,0.8850097060203552,0.9155272841453552,100.0,66916.0,1.0
469035.0895366,257991.796875,264632.875,284754.8125,263963.9375,258684.796875,255168.0625,229206.15625,245432.71875,-0.1181640625,0.821533203125,-0.57373046875,-0.8544921278953552,1.0070799589157104,0.9155272841453552,100.0,66917.0,1.0
469035.0895466,258950.6875,264911.71875,283852.25,263286.40625,257651.15625,255146.421875,228730.59375,245187.828125,-0.119384765625,0.822265625,-0.570556640625,-0.9460448622703552,0.9155272841453552,0.7934569716453552,100.0,66918.0,1.0
469035.0906766,259309.03125,264724.25,280360.28125,262511.0625,255844.78125,255147.671875,228344.359375,245017.328125,-0.116943359375,0.82080078125,-0.572509765625,-1.1291502714157104,0.9765624403953552,0.8544921278953552,100.0,66919.0,1.0
469035.0917926,258640.90625,264365.09375,279025.4375,262679.40625,255719.4375,255172.09375,228564.484375,245147.421875,-0.115478515625,0.82080078125,-0.5712890625,-1.2207030057907104,1.0070799589157104,0.9155272841453552,100.0,66920.0,1.0
469035.1171411,257851.34375,264322.8125,281675.625,263575.09375,257454.203125,255186.578125,229098.234375,245403.03125,-0.11572265625,0.82177734375,-0.572021484375,-1.2207030057907104,1.0070799589157104,0.9460448622703552,100.0,66921.0,1.0
469035.1171824,257995.921875,264624.1875,284616.5,263960.78125,258657.796875,255173.703125,229215.90625,245433.15625,-0.115234375,0.821044921875,-0.572998046875,-1.2817381620407104,0.9765624403953552,0.8544921278953552,100.0,66922.0,1.0
469035.1171926,258955.875,264906.8125,283728.3125,263283.28125,257635.609375,255151.96875,228746.0625,245187.921875,-0.116943359375,0.8203125,-0.56982421875,-1.4648436307907104,0.9765624403953552,0.8239745497703552,100.0,66923.0,1.0
469035.1181089,259309.578125,264710.75,280231.78125,262501.3125,255825.109375,255141.15625,228356.421875,245008.03125,-0.116943359375,0.821044921875,-0.570556640625,-1.6174315214157104,1.0681151151657104,0.8239745497703552,100.0,66924.0,1.0
469035.1193217,258638.75,264342.1875,278890.59375,262666.625,255695.65625,255159.296875,228572.796875,245134.640625,-0.117919921875,0.822265625,-0.569580078125,-1.6174315214157104,1.1596678495407104,0.8239745497703552,100.0,66925.0,1.0
469035.1205307,257853.671875,264315.75,281558.6875,263573.46875,257445.078125,255186.21875,229117.8125,245403.390625,-0.118408203125,0.822021484375,-0.569580078125,-1.6174315214157104,1.2207030057907104,0.7629393935203552,100.0,66926.0,1.0
469035.1219456,257990.90625,264616.875,284502.3125,263959.1875,258646.4375,255170.828125,229227.875,245432.984375,-0.1181640625,0.821533203125,-0.5732421875,-1.7395018339157104,1.1901854276657104,0.7019042372703552,100.0,66927.0,1.0
469035.1368981,258957.40625,264901.34375,283621.65625,263284.875,257624.609375,255146.609375,228750.71875,245186.484375,-0.117431640625,0.822509765625,-0.57177734375,-1.7395018339157104,1.1901854276657104,0.6713866591453552,100.0,66928.0,1.0
469035.1394386,259311.625,264704.03125,280136.3125,262500.34375,255816.53125,255136.859375,228356.34375,245007.046875,-0.117919921875,0.820556640625,-0.570556640625,-1.7700194120407104,1.2207030057907104,0.7934569716453552,100.0,66929.0,1.0
469035.139482,258648.859375,264338.0,278802.25,262672.34375,255691.1875,255167.171875,228581.375,245141.421875,-0.117431640625,0.821044921875,-0.568115234375,-1.8310545682907104,1.3427733182907104,0.7019042372703552,100.0,66930.0,1.0
469035.139492,257863.0625,264302.0625,281451.46875,263575.1875,257431.21875,255193.984375,229122.015625,245410.453125,-0.1171875,0.822509765625,-0.5693359375,-1.7089842557907104,1.4343260526657104,0.7629393935203552,100.0,66931.0,1.0
469035.1405698,257989.921875,264591.375,284378.21875,263949.53125,258621.234375,255165.734375,229224.578125,245433.609375,-0.116455078125,0.82177734375,-0.57177734375,-1.8310545682907104,1.4343260526657104,0.7629393935203552,100.0,66932.0,1.0
469035.1633048,258963.484375,264895.71875,283521.53125,263288.28125,257618.0,255151.171875,228760.015625,245195.875,-0.1162109375,0.822509765625,-0.568603515625,-1.8920897245407104,1.4953612089157104,0.7629393935203552,100.0,66933.0,1.0
469035.1633596,259327.984375,264718.78125,280056.90625,262515.875,255822.4375,255151.515625,228371.453125,245021.171875,-0.11669921875,0.81982421875,-0.566162109375,-1.9531248807907104,1.5563963651657104,0.7934569716453552,100.0,66934.0,1.0
469035.1633704,258653.765625,264348.71875,278711.34375,262674.75,255686.53125,255167.96875,228579.765625,245145.984375,-0.119140625,0.822998046875,-0.566650390625,-1.8920897245407104,1.5869139432907104,0.7019042372703552,100.0,66935.0,1.0
469035.164309,257845.625,264293.75,281341.25,263563.75,257411.640625,255175.84375,229107.890625,245400.34375,-0.119384765625,0.8193359375,-0.56884765625,-1.8310545682907104,1.6784666776657104,0.7019042372703552,100.0,66936.0,1.0
469035.1656035,257980.0,264595.59375,284291.03125,263957.9375,258622.484375,255169.046875,229233.515625,245439.328125,-0.120849609375,0.81787109375,-0.5703125,-1.8310545682907104,1.6479490995407104,0.6408690810203552,100.0,66937.0,1.0
469035.1669274,258950.875,264896.625,283439.4375,263290.25,257615.40625,255151.96875,228765.90625,245194.171875,-0.119873046875,0.820068359375,-0.56982421875,-1.8005369901657104,1.6784666776657104,0.6408690810203552,100.0,66938.0,1.0
469035.1870112,259306.53125,264701.53125,279958.65625,262500.5,255802.578125,255131.578125,228361.703125,245003.109375,-0.11962890625,0.819091796875,-0.568359375,-1.6784666776657104,1.7089842557907104,0.6103515028953552,100.0,66939.0,1.0
469035.1894639,258635.0,264332.28125,278604.5,262658.84375,255665.25,255148.390625,228568.765625,245129.984375,-0.119384765625,0.81884765625,-0.568115234375,-1.5563963651657104,1.7700194120407104,0.7324218153953552,100.0,66940.0,1.0
469035.1895031,257852.328125,264304.84375,281254.6875,263568.75,257413.15625,255185.59375,229114.15625,245404.734375,-0.11962890625,0.82080078125,-0.56787109375,-1.5258787870407104,1.8005369901657104,0.7629393935203552,100.0,66941.0,1.0
469035.189513,257991.359375,264609.625,284213.09375,263966.875,258631.25,255181.5625,229230.5625,245439.875,-0.117919921875,0.8203125,-0.566650390625,-1.5258787870407104,1.8920897245407104,0.8239745497703552,100.0,66942.0,1.0
469035.1905849,258967.59375,264915.65625,283384.71875,263310.1875,257637.75,255168.515625,228766.546875,245205.265625,-0.1181640625,0.819091796875,-0.5654296875,-1.4648436307907104,1.9226073026657104,0.9155272841453552,100.0,66943.0,1.0
469035.1917735,259308.5,264708.5,279903.40625,262507.21875,255811.34375,255134.890625,228345.4375,245002.9375,-0.118896484375,0.816650390625,-0.564453125,-1.3732908964157104,1.9226073026657104,0.9155272841453552,100.0,66944.0,1.0
469035.2132441,258632.765625,264332.46875,278545.84375,262659.21875,255664.71875,255148.125,228549.90625,245121.484375,-0.11865234375,0.8173828125,-0.56689453125,-1.3122557401657104,1.8615721464157104,0.9155272841453552,100.0,66945.0,1.0
469035.2132881,257838.65625,264292.40625,281180.3125,263558.28125,257399.578125,255176.28125,229091.796875,245389.796875,-0.1181640625,0.818359375,-0.568603515625,-1.0986326932907104,1.9531248807907104,1.0375975370407104,100.0,66946.0,1.0
469035.2232084,257979.640625,264597.375,284142.53125,263958.46875,258617.109375,255169.3125,229216.171875,245432.984375,-0.119384765625,0.820068359375,-0.570556640625,-1.0375975370407104,2.044677495956421,1.0070799589157104,100.0,66947.0,1.0
469035.2232484,258961.421875,264901.71875,283323.84375,263305.25,257625.59375,255157.515625,228756.609375,245201.59375,-0.117919921875,0.82080078125,-0.56787109375,-1.0375975370407104,2.075195074081421,0.9460448622703552,100.0,66948.0,1.0
469035.2232578,259321.375,264708.6875,279860.75,262514.8125,255814.390625,255139.625,228351.78125,245014.828125,-0.11767578125,0.82177734375,-0.5693359375,-1.1291502714157104,1.9836424589157104,1.0070799589157104,100.0,66949.0,1.0
469035.2232674,258659.671875,264349.90625,278510.4375,262672.875,255675.265625,255163.140625,228559.828125,245140.625,-0.117431640625,0.822021484375,-0.565673828125,-0.9460448622703552,1.9531248807907104,1.1901854276657104,100.0,66950.0,1.0
469035.2258072,257861.625,264305.90625,281138.75,263568.375,257405.109375,255185.9375,229091.53125,245399.359375,-0.118408203125,0.82177734375,-0.566162109375,-0.8239745497703552,2.075195074081421,1.2207030057907104,100.0,66951.0,1.0
469035.225849,257993.40625,264606.84375,284100.625,263967.78125,258622.75,255178.796875,229209.546875,245437.8125,-0.117431640625,0.822998046875,-0.56787109375,-0.9155272841453552,2.105712652206421,1.2817381620407104,100.0,66952.0,1.0
469035.22586,258963.03125,264905.125,283281.375,263307.40625,257626.046875,255158.671875,228737.84375,245198.734375,-0.116943359375,0.82421875,-0.568359375,-0.7934569716453552,2.105712652206421,1.3427733182907104,100.0,66953.0,1.0
469035.2280738,259324.953125,264715.3125,279822.21875,262515.34375,255811.53125,255136.328125,228322.453125,245006.25,-0.1162109375,0.82275390625,-0.5693359375,-0.7324218153953552,2.166747808456421,1.4038084745407104,100.0,66954.0,1.0
469035.2632381,258652.078125,264344.09375,278456.625,262664.40625,255662.484375,255150.625,228519.0625,245121.9375,-0.1162109375,0.8232421875,-0.56689453125,-0.8544921278953552,2.197265386581421,1.3427733182907104,100.0,66955.0,1.0
469035.2632514,257860.28125,264301.53125,281082.0625,263570.1875,257400.28125,255183.703125,229063.546875,245395.96875,-0.1171875,0.82568359375,-0.566650390625,-0.7324218153953552,2.197265386581421,1.5258787870407104,100.0,66956.0,1.0
469035.2632536,258012.453125,264620.96875,284061.8125,263988.40625,258640.453125,255195.328125,229203.296875,245453.71875,-0.1162109375,0.82373046875,-0.56640625,-0.7019042372703552,2.197265386581421,1.4648436307907104,100.0,66957.0,1.0
469035.2681982,258982.171875,264918.6875,283251.4375,263327.0625,257648.390625,255174.59375,228734.265625,245214.65625,-0.116943359375,0.82373046875,-0.567626953125,-0.6103515028953552,2.258300542831421,1.4038084745407104,100.0,66958.0,1.0
469035.2682125,259333.53125,264714.9375,279791.375,262527.15625,255830.296875,255146.0625,228320.390625,245016.4375,-0.1171875,0.822509765625,-0.566650390625,-0.5493163466453552,2.319335699081421,1.3122557401657104,100.0,66959.0,1.0
469035.2682144,258653.421875,264331.375,278415.21875,262668.5,255671.421875,255157.25,228516.109375,245132.3125,-0.1171875,0.82080078125,-0.565185546875,-0.5798339247703552,2.319335699081421,1.3732908964157104,100.0,66960.0,1.0
469035.2682165,257855.640625,264291.59375,281033.0625,263572.78125,257405.828125,255192.65625,229061.40625,245407.0625,-0.11865234375,0.8212890625,-0.564453125,-0.5493163466453552,2.288818120956421,1.3122557401657104,100.0,66961.0,1.0
469035.2692011,257993.0625,264596.375,283995.8125,263983.78125,258633.203125,255195.328125,229191.21875,245458.203125,-0.11669921875,0.8212890625,-0.56689453125,-0.5798339247703552,2.258300542831421,1.2512205839157104,100.0,66962.0,1.0
469035.2704521,258969.203125,264896.625,283187.59375,263323.9375,257641.78125,255176.734375,228721.828125,245216.703125,-0.115966796875,0.822021484375,-0.567138671875,-0.5493163466453552,2.288818120956421,1.2207030057907104,100.0,66963.0,1.0
469035.2717645,259340.15625,264714.03125,279744.6875,262531.875,255835.75,255160.734375,228312.796875,245023.59375,-0.11474609375,0.8203125,-0.566162109375,-0.6103515028953552,2.227782964706421,1.2512205839157104,100.0,66964.0,1.0
469035.2729915,258661.8125,264335.40625,278367.3125,262673.34375,255674.640625,255172.0,228506.90625,245141.0625,-0.114013671875,0.822265625,-0.5654296875,-0.4272460639476776,2.319335699081421,1.1901854276657104,100.0,66965.0,1.0
469035.2871672,257849.109375,264272.09375,280952.78125,263561.59375,257386.34375,255189.796875,229035.03125,245404.546875,-0.11669921875,0.821044921875,-0.568359375,-0.3051757514476776,2.410888433456421,0.9460448622703552,100.0,66966.0,1.0
469035.2871845,257988.3125,264577.96875,283917.15625,263976.15625,258619.171875,255192.375,229162.4375,245446.484375,-0.116455078125,0.82080078125,-0.5673828125,-0.3662109076976776,2.319335699081421,1.0070799589157104,100.0,66967.0,1.0
469035.2871881,258979.125,264895.90625,283133.84375,263333.59375,257649.203125,255186.578125,228705.5625,245218.859375,-0.115234375,0.819580078125,-0.5693359375,-0.2441406100988388,2.410888433456421,1.0070799589157104,100.0,66968.0,1.0
469035.3332167,259349.984375,264713.59375,279684.34375,262542.1875,255836.375,255170.484375,228296.078125,245030.921875,-0.115478515625,0.820068359375,-0.567138671875,-0.2746581733226776,2.288818120956421,1.0375975370407104,100.0,66969.0,1.0
469035.3332604,258657.171875,264324.21875,278282.71875,262666.4375,255653.8125,255163.421875,228472.921875,245129.265625,-0.115966796875,0.8173828125,-0.564453125,-0.2136230319738388,2.349853277206421,0.9765624403953552,100.0,66970.0,1.0
469035.3343488,257856.265625,264282.65625,280892.59375,263566.78125,257384.28125,255196.9375,229019.109375,245402.40625,-0.1162109375,0.816650390625,-0.564453125,-0.1220703050494194,2.288818120956421,0.8544921278953552,100.0,66971.0,1.0
469035.3357267,257983.9375,264579.59375,283856.15625,263973.3125,258609.96875,255192.921875,229147.234375,245442.734375,-0.117431640625,0.8154296875,-0.56689453125,-0.0610351525247097,2.319335699081421,0.7324218153953552,100.0,66972.0,1.0
469035.3369142,258958.5625,264883.21875,283065.90625,263319.65625,257627.03125,255174.765625,228681.875,245204.1875,-0.116943359375,0.818115234375,-0.56689453125,0.03051757626235485,2.349853277206421,0.6713866591453552,100.0,66973.0,1.0
469035.3380276,259349.453125,264720.65625,279636.0625,262543.875,255831.734375,255172.171875,228288.921875,245029.765625,-0.11669921875,0.8173828125,-0.56884765625,0.0,2.288818120956421,0.5798339247703552,100.0,66974.0,1.0
469035.3393066,258667.359375,264337.46875,278232.65625,262675.5625,255654.703125,255180.046875,228482.046875,245139.109375,-0.117919921875,0.818603515625,-0.56689453125,0.03051757626235485,2.227782964706421,0.4882812201976776,100.0,66975.0,1.0
469035.3407446,257845.171875,264275.0625,280813.375,263557.3125,257364.4375,255197.75,229013.84375,245394.8125,-0.1171875,0.819580078125,-0.56640625,0.1831054538488388,2.105712652206421,0.3662109076976776,100.0,66976.0,1.0
469035.3419101,257975.4375,264575.03125,283785.0,263967.78125,258598.78125,255197.125,229143.921875,245438.890625,-0.1162109375,0.8203125,-0.569091796875,0.2441406100988388,2.044677495956421,0.3662109076976776,100.0,66977.0,1.0
469035.3430064,258952.21875,264878.5625,282996.15625,263312.78125,257616.734375,255177.890625,228677.046875,245198.734375,-0.116943359375,0.8203125,-0.568359375,0.3662109076976776,2.044677495956421,0.2441406100988388,100.0,66978.0,1.0
469035.34446,259330.140625,264698.59375,279558.75,262524.1875,255807.40625,255164.21875,228270.15625,245013.75,-0.1162109375,0.821533203125,-0.570556640625,0.3051757514476776,2.075195074081421,0.1831054538488388,100.0,66979.0,1.0
469035.3457181,258656.1875,264321.375,278163.09375,262665.5625,255639.0625,255176.640625,228466.046875,245137.5,-0.1142578125,0.821044921875,-0.569580078125,0.3662109076976776,2.014159917831421,0.1831054538488388,100.0,66980.0,1.0
469035.3469124,257838.921875,264262.90625,280743.46875,263554.96875,257352.546875,255196.859375,228997.390625,245403.65625,-0.1142578125,0.821533203125,-0.567138671875,0.4272460639476776,1.9836424589157104,0.1220703050494194,100.0,66981.0,1.0
469035.3620017,257967.484375,264563.84375,283714.1875,263968.46875,258585.640625,255195.328125,229122.015625,245448.1875,-0.112060546875,0.82177734375,-0.56689453125,0.3967284858226776,2.014159917831421,0.1220703050494194,100.0,66982.0,1.0
469035.38841,258935.671875,264860.0625,282919.28125,263311.96875,257598.234375,255169.671875,228647.0,245203.203125,-0.111572265625,0.822021484375,-0.570068359375,0.4272460639476776,2.136230230331421,0.1525878757238388,100.0,66983.0,1.0
469035.3884515,259316.375,264686.6875,279485.25,262534.125,255801.515625,255164.484375,228260.140625,245028.421875,-0.1123046875,0.822265625,-0.56884765625,0.4577636420726776,2.044677495956421,0.2441406100988388,100.0,66984.0,1.0
469035.3884605,258649.125,264319.5,278095.40625,262684.25,255643.078125,255191.484375,228476.953125,245154.484375,-0.115966796875,0.825439453125,-0.571044921875,0.4272460639476776,2.075195074081421,0.2746581733226776,100.0,66985.0,1.0
469035.3884684,257826.140625,264256.71875,280663.1875,263565.34375,257346.203125,255207.671875,229005.609375,245409.734375,-0.11767578125,0.825439453125,-0.5712890625,0.4882812201976776,2.136230230331421,0.3356933295726776,100.0,66986.0,1.0
469035.3884766,257942.09375,264554.46875,283624.78125,263970.90625,258574.296875,255198.734375,229121.3125,245452.65625,-0.119384765625,0.82275390625,-0.569091796875,0.4272460639476776,2.105712652206421,0.3356933295726776,100.0,66987.0,1.0
469035.3884857,258907.234375,264852.8125,282838.0,263315.53125,257592.609375,255171.015625,228638.78125,245208.65625,-0.11865234375,0.823486328125,-0.570068359375,0.3967284858226776,2.014159917831421,0.3662109076976776,100.0,66988.0,1.0
469035.3893335,259294.109375,264685.25,279402.0,262535.75,255792.75,255161.09375,228240.296875,245030.203125,-0.12158203125,0.823974609375,-0.56787109375,0.3051757514476776,2.014159917831421,0.3967284858226776,100.0,66989.0,1.0
469035.3920279,258632.765625,264324.3125,278000.8125,262685.21875,255627.96875,255185.9375,228447.625,245158.5,-0.121337890625,0.823974609375,-0.56494140625,0.2136230319738388,1.8615721464157104,0.4577636420726776,100.0,66990.0,1.0
469035.3920793,257805.84375,264257.90625,280558.125,263561.78125,257329.484375,255199.359375,228972.53125,245414.390625,-0.120361328125,0.82373046875,-0.5673828125,0.3051757514476776,1.8310545682907104,0.4882812201976776,100.0,66991.0,1.0
469035.3932168,257924.03125,264549.4375,283528.21875,263971.6875,258564.09375,255195.15625,229103.421875,245450.6875,-0.118408203125,0.82421875,-0.565185546875,0.2441406100988388,1.7395018339157104,0.4882812201976776,100.0,66992.0,1.0
469035.3944026,258908.84375,264861.5625,282758.875,263331.1875,257596.984375,255183.4375,228651.921875,245212.78125,-0.11865234375,0.82275390625,-0.56787109375,0.2136230319738388,1.6784666776657104,0.5493163466453552,100.0,66993.0,1.0
469035.3970675,259279.171875,264669.875,279293.8125,262530.1875,255773.171875,255158.5,228242.4375,245018.84375,-0.11767578125,0.8203125,-0.571044921875,0.1220703050494194,1.7395018339157104,0.4882812201976776,100.0,66994.0,1.0
469035.3971092,258600.125,264285.15625,277859.71875,262656.53125,255585.421875,255168.421875,228435.640625,245129.453125,-0.116943359375,0.817626953125,-0.57080078125,0.1831054538488388,1.6174315214157104,0.5187987685203552,100.0,66995.0,1.0
469035.3981972,257790.90625,264232.15625,280419.28125,263548.28125,257294.875,255194.34375,228977.453125,245397.9375,-0.11669921875,0.81640625,-0.571533203125,0.2746581733226776,1.6784666776657104,0.7019042372703552,100.0,66996.0,1.0
469035.3993996,257920.28125,264532.5625,283387.0625,263968.5625,258532.984375,255197.390625,229119.34375,245446.03125,-0.115478515625,0.817626953125,-0.57080078125,0.3356933295726776,1.6479490995407104,0.7629393935203552,100.0,66997.0,1.0
469035.4132985,258907.15625,264835.28125,282611.53125,263336.09375,257564.703125,255187.640625,228669.359375,245221.890625,-0.1142578125,0.817626953125,-0.57177734375,0.2441406100988388,1.6784666776657104,0.7019042372703552,100.0,66998.0,1.0
469035.413343,259294.734375,264646.71875,279136.03125,262553.09375,255744.734375,255174.765625,228267.734375,245039.6875,-0.114501953125,0.818115234375,-0.57177734375,0.3662109076976776,1.6784666776657104,0.7934569716453552,100.0,66999.0,1.0
469035.413354,258600.84375,264231.25,277642.46875,262662.59375,255523.546875,255167.609375,228447.71875,245134.453125,-0.115478515625,0.81787109375,-0.570068359375,0.3967284858226776,1.5869139432907104,0.7934569716453552,100.0,67000.0,1.0
469035.4157144,257791.171875,264165.28125,280155.875,263551.03125,257221.5625,255194.703125,228993.28125,245405.53125,-0.117431640625,0.817138671875,-0.57275390625,0.5187987685203552,1.5563963651657104,0.9460448622703552,100.0,67001.0,1.0
469035.438247,257923.140625,264464.34375,283096.75,263977.96875,258463.78125,255204.265625,229143.125,245465.078125,-0.11669921875,0.819580078125,-0.572265625,0.4577636420726776,1.5869139432907104,0.7629393935203552,100.0,67002.0,1.0
469035.4382903,258875.328125,264736.21875,282255.53125,263315.09375,257460.71875,255170.03125,228661.9375,245209.640625,-0.119140625,0.82177734375,-0.571044921875,0.5493163466453552,1.4953612089157104,0.8544921278953552,100.0,67003.0,1.0
469035.4406954,259253.6875,264532.8125,278726.28125,262524.125,255624.03125,255152.78125,228258.171875,245022.78125,-0.118896484375,0.82177734375,-0.5693359375,0.5798339247703552,1.4648436307907104,0.7934569716453552,100.0,67004.0,1.0
469035.4407354,258580.015625,264135.5,277203.9375,262651.34375,255412.765625,255163.328125,228447.265625,245134.359375,-0.120849609375,0.822021484375,-0.564697265625,0.6408690810203552,1.4038084745407104,0.7629393935203552,100.0,67005.0,1.0
469035.4419758,257757.640625,264056.46875,279672.0,263532.09375,257095.671875,255183.796875,228972.71875,245396.140625,-0.12255859375,0.823974609375,-0.56689453125,0.4882812201976776,1.2817381620407104,0.7019042372703552,100.0,67006.0,1.0
469035.4430651,257883.078125,264349.71875,282577.46875,263960.625,258329.765625,255190.234375,229110.125,245452.828125,-0.12451171875,0.824462890625,-0.570068359375,0.4272460639476776,1.1901854276657104,0.6713866591453552,100.0,67007.0,1.0
469035.4444525,258860.03125,264647.625,281741.53125,263320.90625,257352.453125,255174.59375,228655.765625,245219.21875,-0.122802734375,0.8271484375,-0.568359375,0.4272460639476776,1.0070799589157104,0.6103515028953552,100.0,67008.0,1.0
469035.4819333,259228.65625,264440.0,278194.03125,262514.46875,255506.375,255144.90625,228234.03125,245018.3125,-0.121826171875,0.82763671875,-0.56494140625,0.2136230319738388,0.9460448622703552,0.5187987685203552,100.0,67009.0,1.0
469035.4845392,258559.1875,264048.21875,276673.125,262643.8125,255299.578125,255154.390625,228428.484375,245127.21875,-0.120361328125,0.82763671875,-0.568115234375,0.03051757626235485,0.7934569716453552,0.3967284858226776,100.0,67010.0,1.0
469035.4845811,257775.96875,264016.75,279185.0,263557.46875,257024.59375,255202.65625,228994.34375,245411.53125,-0.119140625,0.828369140625,-0.568115234375,0.03051757626235485,0.7934569716453552,0.4272460639476776,100.0,67011.0,1.0
469035.4845914,257901.6875,264318.875,282120.34375,263986.53125,258274.0625,255209.453125,229137.84375,245470.453125,-0.118896484375,0.828857421875,-0.566650390625,-0.0915527269244194,0.7629393935203552,0.3356933295726776,100.0,67012.0,1.0
469035.4856379,258845.546875,264583.34375,281264.71875,263320.375,257271.90625,255165.5625,228654.515625,245207.671875,-0.11767578125,0.82958984375,-0.5673828125,-0.2746581733226776,0.6103515028953552,0.3356933295726776,100.0,67013.0,1.0
469035.4881555,259217.03125,264372.0625,277699.96875,262514.1875,255420.546875,255139.453125,228236.359375,245010.171875,-0.114990234375,0.82666015625,-0.565673828125,-0.4577636420726776,0.7629393935203552,0.3051757514476776,100.0,67014.0,1.0
469035.4881956,258550.328125,263977.78125,276154.75,262640.0625,255208.46875,255151.703125,228424.828125,245129.0,-0.115234375,0.826416015625,-0.56591796875,-0.3051757514476776,0.7324218153953552,0.3051757514476776,100.0,67015.0,1.0
469035.4882056,257747.90625,263931.46875,278638.125,263537.09375,256914.890625,255185.046875,228972.53125,245397.046875,-0.1123046875,0.823974609375,-0.5673828125,-0.3356933295726776,0.8850097060203552,0.3356933295726776,100.0,67016.0,1.0
469035.491962,257866.09375,264237.6875,281574.9375,263964.5625,258165.796875,255183.53125,229135.703125,245447.015625,-0.114501953125,0.8232421875,-0.569091796875,-0.4577636420726776,0.9765624403953552,0.3356933295726776,100.0,67017.0,1.0
469035.4920026,258829.453125,264539.6875,280775.65625,263318.03125,257201.796875,255155.09375,228687.5,245202.9375,-0.11474609375,0.82080078125,-0.566650390625,-0.4272460639476776,1.0070799589157104,0.3967284858226776,100.0,67018.0,1.0
469035.4920126,259226.6875,264374.21875,277297.375,262530.90625,255399.09375,255148.296875,228296.609375,245022.703125,-0.114990234375,0.82080078125,-0.56591796875,-0.3967284858226776,1.0681151151657104,0.4272460639476776,100.0,67019.0,1.0
469035.5131468,258580.109375,264026.78125,275851.28125,262665.09375,255229.9375,255173.609375,228498.234375,245139.8125,-0.11474609375,0.8193359375,-0.56591796875,-0.3967284858226776,1.1291502714157104,0.4882812201976776,100.0,67020.0,1.0
469035.5131836,257772.21875,263997.28125,278424.53125,263551.3125,256960.5,255199.625,229038.421875,245407.0625,-0.1142578125,0.819091796875,-0.566162109375,-0.2746581733226776,1.1596678495407104,0.4882812201976776,100.0,67021.0,1.0
469035.513194,257891.21875,264322.71875,281462.21875,263971.53125,258239.640625,255193.90625,229175.484375,245454.984375,-0.115234375,0.81787109375,-0.56689453125,-0.2746581733226776,1.1901854276657104,0.5187987685203552,100.0,67022.0,1.0
469035.5156375,258879.703125,264671.65625,280797.90625,263341.375,257331.09375,255183.53125,228716.109375,245228.234375,-0.115234375,0.817138671875,-0.565185546875,-0.2746581733226776,1.2512205839157104,0.5187987685203552,100.0,67023.0,1.0
469035.5156686,259262.546875,264511.28125,277393.75,262533.9375,255528.015625,255151.4375,228284.09375,245024.390625,-0.11669921875,0.818603515625,-0.565673828125,-0.2136230319738388,1.1901854276657104,0.5187987685203552,100.0,67024.0,1.0
469035.5156784,258616.3125,264171.09375,276012.84375,262664.21875,255363.859375,255169.21875,228474.09375,245141.96875,-0.118896484375,0.818603515625,-0.56884765625,-0.2136230319738388,1.2207030057907104,0.5493163466453552,100.0,67025.0,1.0
469035.5193161,257823.0,264159.8125,278649.65625,263558.71875,257107.125,255202.125,229012.40625,245411.265625,-0.1181640625,0.81787109375,-0.568359375,-0.1831054538488388,1.2207030057907104,0.5798339247703552,100.0,67026.0,1.0
469035.5193464,257949.96875,264491.34375,281746.0,263987.34375,258396.8125,255201.953125,229157.96875,245463.375,-0.11962890625,0.816162109375,-0.565673828125,-0.1525878757238388,1.2817381620407104,0.4882812201976776,100.0,67027.0,1.0
469035.5382142,258940.859375,264836.96875,281129.875,263367.75,257491.390625,255199.171875,228718.703125,245241.75,-0.11865234375,0.81494140625,-0.564697265625,-0.0610351525247097,1.2512205839157104,0.4272460639476776,100.0,67028.0,1.0
469035.538255,259338.453125,264691.4375,277798.5,262574.34375,255711.921875,255182.546875,228306.265625,245046.921875,-0.1181640625,0.81591796875,-0.566162109375,0.0610351525247097,1.1596678495407104,0.4577636420726776,100.0,67029.0,1.0
469035.5395121,258676.03125,264345.25,276482.15625,262682.375,255545.09375,255181.46875,228472.75,245140.625,-0.1201171875,0.818359375,-0.56591796875,0.0610351525247097,1.1901854276657104,0.4272460639476776,100.0,67030.0,1.0
469035.5395559,257861.71875,264299.90625,279144.25,263568.46875,257271.09375,255207.21875,228995.6875,245403.75,-0.118408203125,0.81884765625,-0.567138671875,0.1220703050494194,1.1901854276657104,0.3051757514476776,100.0,67031.0,1.0
469035.5456661,257964.0,264583.96875,282202.5,263996.75,258525.46875,255201.953125,229115.40625,245453.90625,-0.12060546875,0.8173828125,-0.566162109375,0.1220703050494194,1.2512205839157104,0.3051757514476776,100.0,67032.0,1.0
469035.5468111,258928.34375,264862.46875,281486.34375,263368.46875,257561.9375,255187.546875,228650.3125,245228.953125,-0.12060546875,0.817138671875,-0.56982421875,0.2441406100988388,1.1596678495407104,0.3662109076976776,100.0,67033.0,1.0
469035.548161,259290.53125,264634.90625,277991.25,262554.15625,255699.765625,255155.71875,228217.21875,245023.140625,-0.12158203125,0.815673828125,-0.568603515625,0.3356933295726776,1.0375975370407104,0.3662109076976776,100.0,67034.0,1.0
469035.5619529,258621.859375,264230.34375,276495.90625,262671.28125,255470.4375,255167.4375,228404.171875,245131.0625,-0.120849609375,0.816162109375,-0.569091796875,0.3051757514476776,1.1901854276657104,0.3356933295726776,100.0,67035.0,1.0
469035.5644507,257801.28125,264162.6875,279027.5625,263551.125,257159.0625,255187.28125,228934.0,245394.53125,-0.119873046875,0.8173828125,-0.564697265625,0.3662109076976776,1.1291502714157104,0.3662109076976776,100.0,67036.0,1.0
469035.5644908,257915.546875,264465.9375,282053.28125,263984.03125,258423.375,255192.921875,229073.46875,245450.59375,-0.119873046875,0.81787109375,-0.56494140625,0.4882812201976776,1.1596678495407104,0.4272460639476776,100.0,67037.0,1.0
469035.5645009,258875.328125,264762.6875,281335.34375,263346.21875,257471.453125,255172.4375,228595.6875,245209.375,-0.119873046875,0.818115234375,-0.5654296875,0.5187987685203552,1.1901854276657104,0.4272460639476776,100.0,67038.0,1.0
469035.5655828,259272.828125,264588.875,277887.53125,262552.46875,255652.921875,255159.65625,228178.59375,245025.203125,-0.118408203125,0.820068359375,-0.570068359375,0.6408690810203552,1.1901854276657104,0.3662109076976776,100.0,67039.0,1.0
469035.5867915,258629.0,264235.71875,276439.40625,262679.21875,255455.5,255179.6875,228390.21875,245145.359375,-0.11962890625,0.820068359375,-0.56982421875,0.5798339247703552,1.2207030057907104,0.4577636420726776,100.0,67040.0,1.0
469035.589466,257815.40625,264184.125,279016.03125,263558.71875,257165.234375,255198.375,228948.296875,245405.53125,-0.12060546875,0.8212890625,-0.56982421875,0.6103515028953552,1.1901854276657104,0.4272460639476776,100.0,67041.0,1.0
469035.5895097,257926.265625,264490.25,282080.1875,263984.5625,258440.8125,255193.984375,229104.765625,245449.703125,-0.1201171875,0.81982421875,-0.56787109375,0.6713866591453552,1.1596678495407104,0.4272460639476776,100.0,67042.0,1.0
469035.5905506,258891.328125,264799.6875,281406.5,263346.75,257505.34375,255172.71875,228666.21875,245210.265625,-0.118408203125,0.820556640625,-0.570556640625,0.6103515028953552,1.2207030057907104,0.4882812201976776,100.0,67043.0,1.0
469035.5919023,259282.21875,264625.8125,277990.4375,262546.8125,255690.015625,255154.65625,228272.921875,245016.609375,-0.1181640625,0.818603515625,-0.57080078125,0.6713866591453552,1.2817381620407104,0.3967284858226776,100.0,67044.0,1.0
469035.5930398,258660.65625,264293.21875,276592.375,262689.875,255517.46875,255190.859375,228498.40625,245151.078125,-0.117919921875,0.8203125,-0.569091796875,0.7629393935203552,1.3122557401657104,0.3356933295726776,100.0,67045.0,1.0
469035.6132874,257848.65625,264256.28125,279198.4375,263563.125,257230.953125,255203.203125,229032.875,245404.640625,-0.1181640625,0.82080078125,-0.5693359375,0.8239745497703552,1.2817381620407104,0.4882812201976776,100.0,67046.0,1.0
469035.6133293,257950.765625,264564.46875,282292.53125,263981.96875,258507.953125,255187.46875,229169.859375,245443.796875,-0.117431640625,0.820068359375,-0.57177734375,0.8850097060203552,1.4343260526657104,0.4882812201976776,100.0,67047.0,1.0
469035.6133403,258915.375,264881.5,281666.5,263347.71875,257588.3125,255172.09375,228727.109375,245208.9375,-0.1181640625,0.819091796875,-0.57177734375,0.7629393935203552,1.4953612089157104,0.5493163466453552,100.0,67048.0,1.0
469035.6157652,259314.046875,264722.8125,278293.625,262546.90625,255785.59375,255154.734375,228325.859375,245015.71875,-0.116943359375,0.8203125,-0.57080078125,0.8850097060203552,1.4953612089157104,0.5493163466453552,100.0,67049.0,1.0
469035.6158067,258682.921875,264381.71875,276920.96875,262671.28125,255605.703125,255172.71875,228526.578125,245131.234375,-0.119384765625,0.820068359375,-0.56982421875,0.9460448622703552,1.5869139432907104,0.6103515028953552,100.0,67050.0,1.0
469035.6167529,257891.046875,264363.5625,279581.4375,263562.5,257340.828125,255198.28125,229075.078125,245396.953125,-0.1201171875,0.819580078125,-0.5703125,0.8544921278953552,1.7089842557907104,0.6103515028953552,100.0,67051.0,1.0
469035.6180208,258012.640625,264690.96875,282733.5625,264005.21875,258646.078125,255201.859375,229229.84375,245452.65625,-0.119140625,0.8193359375,-0.56884765625,0.8239745497703552,1.6479490995407104,0.6408690810203552,100.0,67052.0,1.0
469035.6367987,258969.109375,264994.96875,282121.40625,263368.5625,257719.828125,255174.953125,228770.46875,245214.734375,-0.120361328125,0.8203125,-0.570556640625,0.8850097060203552,1.6174315214157104,0.6103515028953552,100.0,67053.0,1.0
469035.639474,259367.421875,264823.3125,278742.1875,262574.28125,255906.296875,255159.296875,228364.921875,245029.046875,-0.119873046875,0.82080078125,-0.570556640625,0.8239745497703552,1.7395018339157104,0.5798339247703552,100.0,67054.0,1.0
469035.6395162,258725.828125,264462.71875,277336.78125,262694.875,255702.453125,255177.1875,228553.84375,245140.265625,-0.1220703125,0.822021484375,-0.57275390625,0.8850097060203552,1.6479490995407104,0.5187987685203552,100.0,67055.0,1.0
469035.6405398,257933.6875,264437.15625,279987.1875,263585.0,257431.3125,255206.328125,229089.390625,245407.234375,-0.121337890625,0.82373046875,-0.570556640625,0.7934569716453552,1.6479490995407104,0.6713866591453552,100.0,67056.0,1.0
469035.6419144,258041.421875,264755.625,283141.53125,264015.59375,258726.109375,255197.921875,229224.75,245455.0625,-0.12158203125,0.824462890625,-0.5703125,0.8239745497703552,1.6784666776657104,0.5798339247703552,100.0,67057.0,1.0
469035.6620345,258994.140625,265063.71875,282545.5625,263378.75,257801.8125,255172.265625,228755.8125,245215.28125,-0.12158203125,0.823486328125,-0.572998046875,0.7934569716453552,1.6479490995407104,0.5493163466453552,100.0,67058.0,1.0
469035.662078,259383.15625,264887.3125,279171.0625,262575.0,255983.640625,255155.015625,228339.703125,245022.0625,-0.12255859375,0.82275390625,-0.571533203125,0.6713866591453552,1.5869139432907104,0.5187987685203552,100.0,67059.0,1.0
469035.6870562,258738.890625,264520.125,277756.65625,262694.15625,255774.421875,255175.484375,228520.3125,245133.65625,-0.12158203125,0.820556640625,-0.56787109375,0.5187987685203552,1.5869139432907104,0.5493163466453552,100.0,67060.0,1.0
469035.6870975,257923.234375,264463.625,280380.21875,263573.21875,257482.1875,255193.453125,229032.703125,245392.296875,-0.118408203125,0.81494140625,-0.5703125,0.3967284858226776,1.5869139432907104,0.5187987685203552,100.0,67061.0,1.0
469035.7005147,258033.28125,264782.71875,283535.125,264012.46875,258782.15625,255195.59375,229169.234375,245446.65625,-0.115478515625,0.8125,-0.5703125,0.4272460639476776,1.5869139432907104,0.4272460639476776,100.0,67062.0,1.0
469035.7017981,259003.625,265103.59375,282950.125,263389.21875,257872.359375,255187.109375,228716.109375,245219.75,-0.110595703125,0.813232421875,-0.57275390625,0.5798339247703552,1.7395018339157104,0.5493163466453552,100.0,67063.0,1.0
469035.7031722,259403.1875,264926.84375,279567.21875,262595.8125,256057.9375,255183.984375,228324.515625,245035.5625,-0.11083984375,0.812744140625,-0.577392578125,0.7324218153953552,1.8615721464157104,0.5493163466453552,100.0,67064.0,1.0
469035.7044685,258732.90625,264523.15625,278093.09375,262689.25,255810.71875,255180.578125,228477.3125,245128.28125,-0.110595703125,0.81640625,-0.579833984375,0.8850097060203552,1.9531248807907104,0.5493163466453552,100.0,67065.0,1.0
469035.7056932,257928.5,264468.96875,280669.0,263572.78125,257506.953125,255208.390625,228987.28125,245398.109375,-0.11474609375,0.814697265625,-0.577392578125,0.9765624403953552,2.136230230331421,0.6103515028953552,100.0,67066.0,1.0
469035.7069058,258031.140625,264765.71875,283760.59375,264017.03125,258788.0625,255215.1875,229123.71875,245463.03125,-0.1123046875,0.814208984375,-0.5751953125,0.9155272841453552,2.197265386581421,0.6713866591453552,100.0,67067.0,1.0
469035.708036,258981.71875,265053.4375,283102.1875,263389.40625,257850.265625,255198.1875,228652.90625,245231.28125,-0.1103515625,0.812255859375,-0.57470703125,0.9460448622703552,2.319335699081421,0.7324218153953552,100.0,67068.0,1.0
469035.709487,259366.4375,264854.25,279650.75,262573.03125,256001.609375,255168.15625,228217.671875,245024.484375,-0.111083984375,0.80908203125,-0.57763671875,1.0681151151657104,2.441406011581421,0.7324218153953552,100.0,67069.0,1.0
469035.7106608,258715.90625,264468.1875,278165.3125,262670.90625,255761.09375,255173.703125,228383.78125,245121.671875,-0.113037109375,0.810546875,-0.57666015625,1.1901854276657104,2.655029058456421,0.7629393935203552,100.0,67070.0,1.0
469035.711795,257915.546875,264427.21875,280744.625,263559.09375,257466.453125,255200.609375,228920.859375,245387.390625,-0.116455078125,0.81103515625,-0.576416015625,1.2512205839157104,2.716064214706421,0.7629393935203552,100.0,67071.0,1.0
469035.7129723,258010.484375,264726.125,283842.21875,263999.59375,258751.234375,255196.046875,229073.921875,245443.4375,-0.122314453125,0.81201171875,-0.57373046875,1.2512205839157104,2.716064214706421,0.7324218153953552,100.0,67072.0,1.0
469035.7181632,258968.3125,265026.4375,283201.4375,263380.71875,257828.8125,255181.75,228626.96875,245219.296875,-0.128173828125,0.813232421875,-0.574951171875,1.2207030057907104,2.593993902206421,0.6408690810203552,100.0,67073.0,1.0
469035.7192882,259368.671875,264843.0625,279761.15625,262584.5625,255997.21875,255170.390625,228214.453125,245033.0625,-0.128662109375,0.81201171875,-0.575927734375,1.2207030057907104,2.471923589706421,0.4882812201976776,100.0,67074.0,1.0
469035.7383839,258728.703125,264465.6875,278260.0,262693.28125,255758.78125,255187.015625,228391.203125,245143.9375,-0.130126953125,0.81396484375,-0.5751953125,1.0986326932907104,2.197265386581421,0.3051757514476776,100.0,67075.0,1.0
469035.7384242,257909.453125,264405.59375,280796.21875,263561.5,257439.0,255192.46875,228899.9375,245393.203125,-0.13037109375,0.8134765625,-0.578125,1.1596678495407104,2.044677495956421,0.0610351525247097,100.0,67076.0,1.0
469035.7384329,258013.0,264706.96875,283887.90625,264008.71875,258732.71875,255191.671875,229053.359375,245453.375,-0.12939453125,0.815185546875,-0.576904296875,1.1901854276657104,1.8615721464157104,-0.1831054538488388,100.0,67077.0,1.0
469035.7384408,258960.53125,264987.8125,283212.8125,263382.96875,257794.578125,255172.984375,228597.65625,245222.078125,-0.128662109375,0.816650390625,-0.575927734375,1.0681151151657104,1.8005369901657104,-0.2136230319738388,100.0,67078.0,1.0
469035.7384485,259318.25,264759.8125,279700.71875,262548.4375,255914.34375,255125.0625,228160.53125,245003.5625,-0.126220703125,0.817626953125,-0.574951171875,1.0375975370407104,1.6174315214157104,-0.2746581733226776,100.0,67079.0,1.0
469035.7384573,258673.890625,264384.59375,278175.34375,262655.71875,255671.6875,255137.75,228350.890625,245113.53125,-0.12548828125,0.81884765625,-0.575927734375,0.8850097060203552,1.4953612089157104,-0.3662109076976776,100.0,67080.0,1.0
469035.7406136,257880.140625,264353.46875,280722.1875,263549.53125,257378.46875,255168.953125,228912.265625,245384.171875,-0.122802734375,0.81787109375,-0.577392578125,0.7324218153953552,1.3122557401657104,-0.4272460639476776,100.0,67081.0,1.0
469035.7406498,257978.84375,264657.09375,283806.625,263997.4375,258673.71875,255167.078125,229083.390625,245441.03125,-0.12109375,0.81884765625,-0.5771484375,0.5187987685203552,1.2817381620407104,-0.4272460639476776,100.0,67082.0,1.0
469035.743031,258922.53125,264938.5625,283136.90625,263368.65625,257741.90625,255145.359375,228632.78125,245200.96875,-0.1201171875,0.8193359375,-0.58203125,0.5798339247703552,1.3122557401657104,-0.3967284858226776,100.0,67083.0,1.0
469035.7630507,259322.984375,264744.53125,279657.53125,262567.03125,255897.625,255130.78125,228216.421875,245012.953125,-0.119140625,0.81982421875,-0.580322265625,0.5798339247703552,1.3732908964157104,-0.3051757514476776,100.0,67084.0,1.0
469035.7630911,258693.828125,264374.375,278137.6875,262683.0,255664.0,255154.296875,228400.234375,245130.609375,-0.118408203125,0.818115234375,-0.578125,0.5798339247703552,1.4648436307907104,-0.1831054538488388,100.0,67085.0,1.0
469035.7655654,257889.25,264328.53125,280668.09375,263567.03125,257359.078125,255179.421875,228939.8125,245394.265625,-0.118408203125,0.8173828125,-0.581298828125,0.4272460639476776,1.4038084745407104,-0.0915527269244194,100.0,67086.0,1.0
469035.7656038,257968.734375,264612.3125,283730.03125,263997.4375,258636.703125,255164.3125,229089.203125,245441.296875,-0.117919921875,0.81689453125,-0.58251953125,0.3662109076976776,1.4953612089157104,0.0,100.0,67087.0,1.0
469035.7667563,258922.890625,264907.875,283071.8125,263381.875,257722.15625,255156.171875,228631.171875,245217.953125,-0.117919921875,0.816650390625,-0.5830078125,0.3662109076976776,1.5563963651657104,0.1220703050494194,100.0,67088.0,1.0
469035.7680624,259313.0625,264714.9375,279585.90625,262566.3125,255873.9375,255136.40625,228205.421875,245008.390625,-0.11962890625,0.81884765625,-0.58203125,0.4577636420726776,1.5563963651657104,0.2136230319738388,100.0,67089.0,1.0
469035.7692567,258670.671875,264339.96875,278046.9375,262658.3125,255622.78125,255144.1875,228390.9375,245105.578125,-0.119140625,0.816650390625,-0.579833984375,0.3662109076976776,1.6479490995407104,0.3967284858226776,100.0,67090.0,1.0
469035.7879976,257881.828125,264314.9375,280596.125,263547.09375,257332.78125,255177.453125,228944.734375,245378.171875,-0.120361328125,0.819580078125,-0.5810546875,0.4272460639476776,1.6479490995407104,0.5187987685203552,100.0,67091.0,1.0
469035.7880058,257975.4375,264614.8125,283686.375,263989.40625,258630.796875,255171.640625,229077.9375,245431.109375,-0.121826171875,0.8203125,-0.580078125,0.3051757514476776,1.5258787870407104,0.5798339247703552,100.0,67092.0,1.0
469035.7880077,258931.109375,264911.8125,283046.78125,263373.375,257719.5625,255156.0,228621.515625,245202.765625,-0.12353515625,0.819091796875,-0.5791015625,0.2136230319738388,1.5258787870407104,0.7324218153953552,100.0,67093.0,1.0
469035.7891498,259342.75,264744.625,279598.53125,262579.625,255892.703125,255151.25,228224.109375,245021.359375,-0.12451171875,0.818603515625,-0.57763671875,0.0610351525247097,1.5258787870407104,0.8239745497703552,100.0,67094.0,1.0
469035.7904504,258682.109375,264352.5625,278042.125,262652.59375,255621.0,255141.953125,228371.453125,245101.640625,-0.12548828125,0.81689453125,-0.57861328125,0.1220703050494194,1.4648436307907104,0.9155272841453552,100.0,67095.0,1.0
469035.8118721,257881.125,264317.15625,280586.28125,263538.625,257326.078125,255170.828125,228900.296875,245370.484375,-0.125244140625,0.818115234375,-0.577392578125,0.0610351525247097,1.4038084745407104,0.8850097060203552,100.0,67096.0,1.0
469035.8143856,257967.75,264617.21875,283688.71875,263986.375,258631.78125,255168.328125,229050.859375,245428.875,-0.12548828125,0.81689453125,-0.5771484375,0.0,1.3427733182907104,0.9765624403953552,100.0,67097.0,1.0
469035.8143987,258907.0625,264902.25,283044.96875,263363.46875,257712.765625,255144.015625,228618.390625,245196.328125,-0.12451171875,0.817138671875,-0.576171875,-0.03051757626235485,1.2817381620407104,0.9765624403953552,100.0,67098.0,1.0
469035.8169372,259313.234375,264723.25,279586.90625,262568.0,255880.375,255135.25,228232.953125,245011.875,-0.124267578125,0.816650390625,-0.57763671875,-0.1831054538488388,1.2207030057907104,0.9460448622703552,100.0,67099.0,1.0
469035.8169521,258695.890625,264371.78125,278066.1875,262685.65625,255644.609375,255163.6875,228437.796875,245133.921875,-0.124755859375,0.815185546875,-0.578857421875,-0.1831054538488388,1.2207030057907104,0.9765624403953552,100.0,67100.0,1.0
469035.8179476,257883.984375,264323.0625,280597.65625,263561.84375,257337.171875,255178.796875,228977.890625,245392.921875,-0.125732421875,0.81298828125,-0.578125,-0.2746581733226776,1.1596678495407104,0.9765624403953552,100.0,67101.0,1.0
469035.8191756,257968.375,264614.09375,283693.53125,264007.375,258636.15625,255167.609375,229141.421875,245446.21875,-0.12548828125,0.813720703125,-0.577880859375,-0.2746581733226776,1.1596678495407104,0.9155272841453552,100.0,67102.0,1.0
469035.836835,258900.359375,264889.09375,283044.625,263373.65625,257708.5625,255131.5,228684.1875,245200.4375,-0.126220703125,0.813720703125,-0.578369140625,-0.3662109076976776,1.0375975370407104,0.9460448622703552,100.0,67103.0,1.0
469035.8394295,259298.390625,264702.59375,279582.6875,262565.40625,255867.765625,255111.296875,228266.3125,245006.875,-0.121826171875,0.813720703125,-0.578857421875,-0.3967284858226776,0.9765624403953552,0.8544921278953552,100.0,67104.0,1.0
469035.839449,258663.15625,264332.90625,278040.15625,262661.0,255614.03125,255122.734375,228448.421875,245111.125,-0.11962890625,0.814208984375,-0.577880859375,-0.3967284858226776,0.9155272841453552,0.7629393935203552,100.0,67105.0,1.0
469035.8394526,257867.265625,264296.25,280576.375,263551.5,257317.40625,255154.390625,229004.265625,245383.1875,-0.120849609375,0.8125,-0.57666015625,-0.3662109076976776,1.0681151151657104,0.7934569716453552,100.0,67106.0,1.0
469035.8429893,257959.96875,264608.71875,283688.25,264007.03125,258630.96875,255156.625,229170.5625,245446.390625,-0.1220703125,0.81396484375,-0.577392578125,-0.3662109076976776,1.0375975370407104,0.8239745497703552,100.0,67107.0,1.0
469035.8430071,258903.484375,264897.78125,283069.5625,263382.0625,257719.46875,255132.921875,228721.296875,245209.828125,-0.11962890625,0.81201171875,-0.57568359375,-0.3967284858226776,1.0375975370407104,0.7629393935203552,100.0,67108.0,1.0
469035.864428,259324.140625,264733.09375,279635.8125,262587.78125,255897.0,255133.546875,228323.4375,245024.84375,-0.119873046875,0.813232421875,-0.5791015625,-0.4577636420726776,1.0070799589157104,0.7629393935203552,100.0,67109.0,1.0
469035.8644628,258705.1875,264372.0625,278109.0,262693.375,255653.09375,255158.59375,228515.65625,245138.390625,-0.119140625,0.815673828125,-0.5771484375,-0.3662109076976776,1.0375975370407104,0.7019042372703552,100.0,67110.0,1.0
469035.8684295,257896.3125,264324.15625,280638.875,263568.125,257345.484375,255176.5625,229052.734375,245398.5625,-0.12060546875,0.8154296875,-0.576171875,-0.4272460639476776,1.0986326932907104,0.6713866591453552,100.0,67111.0,1.0
469035.8684687,257995.734375,264641.8125,283774.4375,264029.0,258671.65625,255184.421875,229215.0,245458.546875,-0.12060546875,0.8173828125,-0.57470703125,-0.4577636420726776,1.0986326932907104,0.7629393935203552,100.0,67112.0,1.0
469035.8684778,258913.5,264911.0,283145.03125,263380.53125,257736.09375,255134.265625,228729.078125,245193.90625,-0.122314453125,0.81640625,-0.577880859375,-0.6408690810203552,1.2207030057907104,0.6408690810203552,100.0,67113.0,1.0
469035.8684973,259323.34375,264745.53125,279719.5,262577.21875,255903.875,255121.578125,228317.53125,245006.0625,-0.12353515625,0.8173828125,-0.577392578125,-0.6408690810203552,1.2207030057907104,0.7324218153953552,100.0,67114.0,1.0
469035.8685065,258697.21875,264390.40625,278207.96875,262674.3125,255661.5,255142.40625,228508.515625,245118.265625,-0.121826171875,0.817626953125,-0.57666015625,-0.7934569716453552,1.3122557401657104,0.7324218153953552,100.0,67115.0,1.0
469035.8867784,257887.015625,264334.96875,280726.125,263551.5625,257344.3125,255166.546875,229048.703125,245379.703125,-0.121826171875,0.816650390625,-0.575927734375,-0.7934569716453552,1.3122557401657104,0.7629393935203552,100.0,67116.0,1.0
469035.8894287,257979.015625,264636.4375,283830.78125,264013.375,258651.53125,255170.484375,229216.703125,245448.0,-0.121337890625,0.81591796875,-0.5751953125,-0.8239745497703552,1.4343260526657104,0.7629393935203552,100.0,67117.0,1.0
469035.889459,258920.296875,264925.3125,283209.65625,263392.0,257738.6875,255145.4375,228763.59375,245211.703125,-0.11962890625,0.814453125,-0.5751953125,-0.9765624403953552,1.2817381620407104,0.7629393935203552,100.0,67118.0,1.0
469035.8894691,259320.84375,264722.375,279746.75,262571.59375,255885.734375,255115.484375,228332.109375,245009.015625,-0.12109375,0.81591796875,-0.575439453125,-1.0070799589157104,1.3732908964157104,0.6713866591453552,100.0,67119.0,1.0
469035.913207,258686.9375,264348.1875,278180.625,262656.875,255616.703125,255126.84375,228498.59375,245107.90625,-0.119140625,0.8173828125,-0.5791015625,-0.9765624403953552,1.3427733182907104,0.7019042372703552,100.0,67120.0,1.0
469035.9132394,257885.5,264306.625,280684.1875,263540.59375,257307.296875,255163.421875,229042.1875,245374.59375,-0.122314453125,0.818115234375,-0.580078125,-1.0070799589157104,1.4343260526657104,0.7324218153953552,100.0,67121.0,1.0
469035.9132464,257976.15625,264605.6875,283786.0625,264003.625,258621.859375,255172.265625,229206.78125,245442.375,-0.1220703125,0.818359375,-0.580078125,-1.0986326932907104,1.4648436307907104,0.7324218153953552,100.0,67122.0,1.0
469035.9156309,258924.859375,264906.90625,283185.25,263393.59375,257726.796875,255152.859375,228753.03125,245207.140625,-0.124267578125,0.8173828125,-0.578369140625,-1.1291502714157104,1.4953612089157104,0.8239745497703552,100.0,67123.0,1.0
469035.9156626,259336.84375,264738.46875,279753.90625,262587.21875,255897.796875,255134.796875,228326.203125,245007.578125,-0.123779296875,0.817626953125,-0.5771484375,-1.1901854276657104,1.4038084745407104,0.7629393935203552,100.0,67124.0,1.0
