Time,FZ,C3,CZ,C4,PZ,PO7,OZ,PO8,AccX,AccY,AccZ,Gyro1,Gyro2,Gyro3,Battery,Counter,Validation
178654.0681261,304717.875,305583.59375,333821.34375,317635.375,312830.28125,284040.875,291163.75,306038.40625,-0.104248046875,0.890625,-0.378173828125,-0.9155272841453552,-3.875732183456421,0.4882812201976776,100.0,90655.0,1.0
178654.0681585,304983.5625,307132.125,334709.25,318364.21875,313660.78125,284427.75,291551.875,306179.5625,-0.106689453125,0.889892578125,-0.375,-0.9765624403953552,-3.784179449081421,0.5187987685203552,100.0,90656.0,1.0
178654.0681653,305346.125,308811.28125,336584.9375,319136.6875,314955.9375,284699.625,291856.40625,306239.46875,-0.108154296875,0.88916015625,-0.37548828125,-0.9765624403953552,-3.814697027206421,0.3967284858226776,100.0,90657.0,1.0
178654.0706982,305252.34375,308157.625,336581.0,318793.90625,314771.0625,284450.28125,291625.375,306131.90625,-0.107421875,0.8896484375,-0.372314453125,-1.0681151151657104,-3.753661870956421,0.4272460639476776,100.0,90658.0,1.0
178654.0731902,304917.15625,306280.25,334971.3125,317965.84375,313533.5625,284085.0625,291236.1875,306023.46875,-0.10888671875,0.88720703125,-0.374267578125,-1.0375975370407104,-3.662109136581421,0.5493163466453552,100.0,90659.0,1.0
178654.0756922,304692.5625,305550.25,333640.75,317608.125,312744.09375,284028.0,291151.96875,306023.8125,-0.106689453125,0.888671875,-0.3720703125,-1.0986326932907104,-3.723144292831421,0.6713866591453552,100.0,90660.0,1.0
178654.0781383,304953.53125,307085.71875,334506.375,318327.65625,313562.8125,284415.21875,291535.96875,306160.71875,-0.108642578125,0.89013671875,-0.37060546875,-1.0986326932907104,-3.723144292831421,0.8239745497703552,100.0,90661.0,1.0
178654.0806049,305319.21875,308778.09375,336388.59375,319106.3125,314871.53125,284695.0,291846.65625,306225.09375,-0.108154296875,0.890869140625,-0.373779296875,-1.0375975370407104,-3.753661870956421,0.8544921278953552,100.0,90662.0,1.0
178654.0843945,305230.34375,308140.09375,336404.21875,318771.46875,314702.84375,284450.46875,291620.71875,306120.375,-0.108154296875,0.891357421875,-0.373046875,-1.1291502714157104,-3.723144292831421,0.8544921278953552,100.0,90663.0,1.0
178654.1150391,304901.15625,306269.15625,334810.09375,317949.03125,313472.0625,284086.21875,291230.625,306010.59375,-0.10888671875,0.89208984375,-0.371826171875,-1.1596678495407104,-3.692626714706421,0.9765624403953552,100.0,90664.0,1.0
178654.1150715,304671.5625,305516.4375,333466.5,317584.5,312672.5625,284025.78125,291143.375,306008.71875,-0.1083984375,0.891357421875,-0.37158203125,-1.1901854276657104,-3.723144292831421,0.9460448622703552,100.0,90665.0,1.0
178654.1180762,304923.0625,307030.375,334299.3125,318287.34375,313473.75,284409.78125,291525.59375,306143.90625,-0.10986328125,0.89306640625,-0.374755859375,-1.1901854276657104,-3.784179449081421,0.9460448622703552,100.0,90666.0,1.0
178654.1181091,305282.03125,308724.0,336163.8125,319063.125,314777.3125,284688.28125,291837.8125,306205.40625,-0.109619140625,0.89208984375,-0.3740234375,-1.2817381620407104,-3.723144292831421,1.0681151151657104,100.0,90667.0,1.0
178654.1181163,305196.71875,308103.15625,336185.53125,318734.28125,314615.75,284445.09375,291613.21875,306099.5625,-0.10986328125,0.8935546875,-0.373779296875,-1.2512205839157104,-3.784179449081421,1.1596678495407104,100.0,90668.0,1.0
178654.1219182,304869.125,306233.03125,334601.78125,317916.125,313389.0,284081.125,291216.4375,305988.0625,-0.1103515625,0.893310546875,-0.36865234375,-1.2207030057907104,-3.906249761581421,1.2207030057907104,100.0,90669.0,1.0
178654.1219504,304635.59375,305464.5,333256.5625,317547.5,312582.90625,284016.03125,291124.59375,305983.40625,-0.111328125,0.89111328125,-0.373046875,-1.3122557401657104,-3.845214605331421,1.2817381620407104,100.0,90670.0,1.0
178654.1219575,304867.625,306945.78125,334051.40625,318236.03125,313357.0625,284386.4375,291501.375,306120.75,-0.114013671875,0.89111328125,-0.37353515625,-1.2817381620407104,-3.967284917831421,1.4038084745407104,100.0,90671.0,1.0
178654.1244152,305229.71875,308650.25,335919.8125,319023.78125,314668.15625,284671.28125,291821.34375,306194.40625,-0.113037109375,0.88916015625,-0.371826171875,-1.1596678495407104,-3.936767339706421,1.3732908964157104,100.0,90672.0,1.0
178654.1268925,305161.84375,308068.375,335993.75,318722.75,314545.46875,284438.75,291608.375,306097.78125,-0.113037109375,0.888671875,-0.37255859375,-1.2207030057907104,-4.028319835662842,1.3732908964157104,100.0,90673.0,1.0
178654.1309463,304850.90625,306215.25,334452.65625,317919.25,313343.75,284079.34375,291222.0625,305994.59375,-0.111572265625,0.88720703125,-0.370849609375,-1.1596678495407104,-4.119872570037842,1.2817381620407104,100.0,90674.0,1.0
178654.1356505,304626.21875,305441.34375,333124.875,317551.53125,312548.84375,284012.8125,291131.40625,306000.03125,-0.112548828125,0.887451171875,-0.370849609375,-1.1291502714157104,-4.241942882537842,1.5258787870407104,100.0,90675.0,1.0
178654.1381911,304865.75,306919.3125,333919.6875,318237.53125,313324.0,284389.40625,291511.1875,306145.875,-0.111572265625,0.8876953125,-0.37109375,-1.0375975370407104,-4.333495616912842,1.5258787870407104,100.0,90676.0,1.0
178654.1419649,305231.78125,308641.5,335800.5625,319034.34375,314646.875,284685.0625,291841.5625,306229.1875,-0.111328125,0.88623046875,-0.370361328125,-1.0375975370407104,-4.302978038787842,1.4953612089157104,100.0,90677.0,1.0
178654.1462685,305166.9375,308082.0625,335899.0,318745.5625,314536.625,284463.4375,291635.125,306140.25,-0.11181640625,0.885986328125,-0.370849609375,-0.9460448622703552,-4.333495616912842,1.4648436307907104,100.0,90678.0,1.0
178654.1463002,304865.5625,306245.03125,334387.84375,317949.65625,313345.375,284103.65625,291248.59375,306036.25,-0.1103515625,0.883056640625,-0.37060546875,-0.7934569716453552,-4.394530773162842,1.4648436307907104,100.0,90679.0,1.0
178654.1544398,304638.46875,305458.40625,333063.0,317575.75,312542.59375,284031.125,291153.84375,306030.53125,-0.111328125,0.884033203125,-0.372802734375,-0.7324218153953552,-4.364013195037842,1.4343260526657104,100.0,90680.0,1.0
178654.1587855,304863.78125,306911.28125,333829.40625,318243.625,313297.09375,284400.75,291522.1875,306166.6875,-0.111083984375,0.8828125,-0.37158203125,-0.6103515028953552,-4.333495616912842,1.4648436307907104,100.0,90681.0,1.0
178654.1588209,305232.75,308647.28125,335722.21875,319042.8125,314628.625,284699.90625,291851.65625,306246.71875,-0.110595703125,0.88037109375,-0.369873046875,-0.3967284858226776,-4.333495616912842,1.5258787870407104,100.0,90682.0,1.0
178654.1606626,305177.21875,308115.59375,335850.96875,318759.40625,314538.5,284477.1875,291642.96875,306150.15625,-0.11376953125,0.87890625,-0.370849609375,-0.0915527269244194,-4.425048351287842,1.5563963651657104,100.0,90683.0,1.0
178654.1744424,304883.0,306283.8125,334359.59375,317969.59375,313358.59375,284116.34375,291255.84375,306044.21875,-0.115234375,0.880126953125,-0.36962890625,0.03051757626235485,-4.486083507537842,1.4038084745407104,100.0,90684.0,1.0
178654.1775362,304656.25,305484.96875,333037.0625,317590.9375,312551.53125,284043.5625,291157.5,306041.8125,-0.1142578125,0.880615234375,-0.37060546875,0.2441406100988388,-4.577636241912842,1.4343260526657104,100.0,90685.0,1.0
178654.1775682,304878.625,306928.90625,333802.03125,318254.15625,313305.9375,284415.15625,291527.5625,306177.25,-0.115478515625,0.879150390625,-0.37158203125,0.3967284858226776,-4.516601085662842,1.3732908964157104,100.0,90686.0,1.0
178654.1794417,305244.1875,308672.59375,335691.125,319051.125,314634.625,284712.5,291855.15625,306253.15625,-0.114990234375,0.879638671875,-0.370849609375,0.5187987685203552,-4.516601085662842,1.2512205839157104,100.0,90687.0,1.0
178654.1832172,305190.5625,308157.4375,335841.15625,318775.5,314555.03125,284490.4375,291650.03125,306152.75,-0.113037109375,0.87841796875,-0.36962890625,0.7019042372703552,-4.547118663787842,1.0986326932907104,100.0,90688.0,1.0
178654.1969671,304891.21875,306320.75,334356.4375,317980.75,313375.125,284122.96875,291259.53125,306043.125,-0.1162109375,0.880615234375,-0.3701171875,0.9460448622703552,-4.577636241912842,0.9460448622703552,100.0,90689.0,1.0
178654.2006287,304659.125,305506.15625,333025.0,317592.03125,312559.5625,284044.5625,291156.4375,306037.3125,-0.114990234375,0.8798828125,-0.36767578125,1.0375975370407104,-4.547118663787842,0.8544921278953552,100.0,90690.0,1.0
178654.2006603,304878.0625,306936.75,333770.3125,318247.625,313299.15625,284415.0625,291522.71875,306168.3125,-0.114501953125,0.8818359375,-0.369384765625,1.0681151151657104,-4.608153820037842,0.7629393935203552,100.0,90691.0,1.0
178654.2006674,305240.875,308687.8125,335670.375,319050.4375,314635.59375,284714.65625,291849.875,306237.59375,-0.114013671875,0.881591796875,-0.3701171875,1.2512205839157104,-4.577636241912842,0.6713866591453552,100.0,90692.0,1.0
178654.2031931,305191.34375,308189.96875,335842.5625,318784.875,314572.375,284495.15625,291648.53125,306139.34375,-0.113525390625,0.884765625,-0.3720703125,1.2207030057907104,-4.608153820037842,0.5493163466453552,100.0,90693.0,1.0
178654.2057171,304901.40625,306359.8125,334377.1875,317997.75,313403.125,284132.96875,291260.40625,306031.78125,-0.114990234375,0.884765625,-0.37158203125,1.3122557401657104,-4.669188976287842,0.4882812201976776,100.0,90694.0,1.0
178654.2094595,304668.15625,305528.59375,333040.75,317602.03125,312579.25,284051.15625,291150.53125,306023.375,-0.114501953125,0.88427734375,-0.3720703125,1.4648436307907104,-4.669188976287842,0.3967284858226776,100.0,90695.0,1.0
178654.2181925,304881.75,306938.71875,333769.9375,318249.875,313302.90625,284413.34375,291511.28125,306157.59375,-0.113525390625,0.885009765625,-0.370361328125,1.4953612089157104,-4.577636241912842,0.4272460639476776,100.0,90696.0,1.0
178654.2224859,305245.1875,308693.625,335668.15625,319053.71875,314633.71875,284711.875,291842.8125,306231.15625,-0.11572265625,0.88525390625,-0.370849609375,1.4648436307907104,-4.638671398162842,0.3967284858226776,100.0,90697.0,1.0
178654.2225195,305198.96875,308215.375,335857.96875,318797.5,314582.03125,284492.3125,291649.34375,306140.9375,-0.113525390625,0.883056640625,-0.371337890625,1.5563963651657104,-4.608153820037842,0.1831054538488388,100.0,90698.0,1.0
178654.2281181,304909.09375,306388.0625,334398.90625,318009.1875,313416.71875,284127.25,291262.8125,306042.5,-0.11376953125,0.8818359375,-0.371826171875,1.7395018339157104,-4.638671398162842,0.2441406100988388,100.0,90699.0,1.0
178654.2349368,304674.6875,305542.375,333057.375,317608.90625,312590.0625,284041.34375,291155.09375,306039.90625,-0.114990234375,0.880859375,-0.37158203125,1.8005369901657104,-4.669188976287842,0.2136230319738388,100.0,90700.0,1.0
178654.2349693,304879.875,306934.25,333762.34375,318247.8125,313304.25,284401.28125,291517.8125,306173.21875,-0.112060546875,0.87890625,-0.372314453125,1.9836424589157104,-4.669188976287842,0.3356933295726776,100.0,90701.0,1.0
178654.2419415,305246.0,308710.40625,335668.0625,319061.4375,314649.375,284705.625,291856.3125,306252.8125,-0.111083984375,0.87744140625,-0.369873046875,2.105712652206421,-4.669188976287842,0.2746581733226776,100.0,90702.0,1.0
178654.2444528,305204.21875,308259.0,335881.8125,318810.71875,314617.71875,284491.9375,291667.46875,306160.71875,-0.112548828125,0.8779296875,-0.367431640625,2.197265386581421,-4.577636241912842,0.3356933295726776,100.0,90703.0,1.0
178654.2469659,304904.4375,306422.21875,334408.5,318008.65625,313442.8125,284121.71875,291272.21875,306051.1875,-0.111083984375,0.87939453125,-0.36767578125,2.349853277206421,-4.577636241912842,0.2746581733226776,100.0,90704.0,1.0
178654.253166,304668.6875,305562.03125,333046.1875,317598.71875,312602.84375,284036.3125,291159.75,306044.21875,-0.109619140625,0.880615234375,-0.37353515625,2.563476324081421,-4.516601085662842,0.3967284858226776,100.0,90705.0,1.0
178654.2556902,304879.875,306952.0625,333744.28125,318239.6875,313313.96875,284403.875,291523.96875,306184.125,-0.1083984375,0.881103515625,-0.375244140625,2.746581792831421,-4.394530773162842,0.5187987685203552,100.0,90706.0,1.0
178654.2644713,305246.96875,308732.21875,335657.25,319061.96875,314666.53125,284716.53125,291868.28125,306268.09375,-0.10546875,0.882568359375,-0.37353515625,2.990722417831421,-4.333495616912842,0.6408690810203552,100.0,90707.0,1.0
178654.2675444,305206.75,308286.375,335881.375,318817.96875,314640.96875,284512.25,291681.15625,306176.53125,-0.102783203125,0.88134765625,-0.374755859375,3.082275152206421,-4.150390148162842,0.7934569716453552,100.0,90708.0,1.0
178654.2675762,304908.03125,306436.0,334408.03125,318015.28125,313458.90625,284145.75,291286.4375,306065.40625,-0.102783203125,0.879638671875,-0.373291015625,3.204345464706421,-4.028319835662842,0.9460448622703552,100.0,90709.0,1.0
178654.2694661,304667.96875,305548.71875,333028.40625,317593.90625,312598.71875,284053.21875,291166.25,306053.0625,-0.1005859375,0.87841796875,-0.377685546875,3.326415777206421,-3.845214605331421,1.1596678495407104,100.0,90710.0,1.0
178654.2781339,304869.40625,306910.65625,333691.0,318219.21875,313282.4375,284414.34375,291524.96875,306184.5,-0.1005859375,0.877685546875,-0.376953125,3.417968511581421,-3.601073980331421,1.3732908964157104,100.0,90711.0,1.0
178654.2825379,305235.25,308695.5625,335601.53125,319042.90625,314632.65625,284728.96875,291869.4375,306267.0,-0.09912109375,0.877685546875,-0.375244140625,3.631591558456421,-3.326415777206421,1.4648436307907104,100.0,90712.0,1.0
178654.2825745,305194.40625,308269.28125,335848.375,318804.8125,314624.15625,284525.75,291680.53125,306170.1875,-0.099365234375,0.87841796875,-0.378173828125,3.814697027206421,-3.173827886581421,1.5869139432907104,100.0,90713.0,1.0
178654.2931916,304900.78125,306429.75,334396.25,318006.15625,313456.6875,284155.875,291283.03125,306055.21875,-0.1025390625,0.880126953125,-0.37744140625,3.936767339706421,-3.021239995956421,1.8920897245407104,100.0,90714.0,1.0
178654.2987868,304657.78125,305527.34375,333015.09375,317584.15625,312590.6875,284057.875,291161.34375,306043.3125,-0.104248046875,0.88037109375,-0.377197265625,3.997802495956421,-2.929687261581421,1.9226073026657104,100.0,90715.0,1.0
178654.2988184,304854.90625,306880.53125,333665.0625,318206.5,313261.84375,284409.96875,291516.28125,306172.78125,-0.105224609375,0.882568359375,-0.37890625,4.028319835662842,-2.716064214706421,2.044677495956421,100.0,90716.0,1.0
178654.3006926,305233.125,308689.59375,335590.71875,319044.625,314620.21875,284725.84375,291865.59375,306256.1875,-0.10693359375,0.8818359375,-0.379150390625,4.150390148162842,-2.624511480331421,2.166747808456421,100.0,90717.0,1.0
178654.3044099,305202.0,308288.5,335863.125,318823.78125,314626.3125,284521.0,291685.8125,306164.8125,-0.107177734375,0.881591796875,-0.379150390625,4.150390148162842,-2.532958745956421,2.258300542831421,100.0,90718.0,1.0
178654.3112329,304911.15625,306451.46875,334421.625,318031.28125,313464.8125,284151.75,291293.59375,306056.1875,-0.10302734375,0.880615234375,-0.376708984375,4.211425304412842,-2.410888433456421,2.288818120956421,100.0,90719.0,1.0
178654.3112629,304671.46875,305543.625,333041.71875,317606.3125,312601.84375,284054.28125,291171.8125,306046.1875,-0.100341796875,0.880126953125,-0.37646484375,4.302978038787842,-2.258300542831421,2.319335699081421,100.0,90720.0,1.0
178654.3194418,304872.0,306884.625,333685.90625,318222.0625,313271.25,284407.53125,291521.375,306176.8125,-0.095703125,0.8828125,-0.376953125,4.577636241912842,-2.075195074081421,2.380370855331421,100.0,90721.0,1.0
178654.3237896,305253.84375,308708.1875,335625.9375,319063.84375,314636.03125,284732.1875,291870.96875,306262.46875,-0.093994140625,0.88427734375,-0.3798828125,4.608153820037842,-1.8310545682907104,2.471923589706421,100.0,90722.0,1.0
178654.3238232,305226.3125,308325.15625,335916.0625,318850.78125,314652.9375,284537.53125,291694.65625,306175.0,-0.09521484375,0.885498046875,-0.377685546875,4.516601085662842,-1.6174315214157104,2.746581792831421,100.0,90723.0,1.0
178654.3319435,304934.03125,306484.8125,334479.03125,318056.03125,313493.0625,284165.15625,291298.125,306065.125,-0.09228515625,0.888427734375,-0.379638671875,4.547118663787842,-1.3427733182907104,2.960204839706421,100.0,90724.0,1.0
178654.3350421,304690.59375,305547.8125,333081.0625,317620.0,312609.09375,284063.3125,291168.0625,306055.3125,-0.0927734375,0.88818359375,-0.380615234375,4.516601085662842,-1.0375975370407104,3.082275152206421,100.0,90725.0,1.0
178654.3350735,304888.90625,306872.5625,333709.15625,318232.34375,313263.5625,284411.46875,291521.03125,306187.0,-0.0908203125,0.889892578125,-0.381591796875,4.364013195037842,-0.7019042372703552,3.387450933456421,100.0,90726.0,1.0
178654.3369693,305279.34375,308711.125,335663.84375,319087.53125,314645.4375,284736.21875,291878.9375,306271.9375,-0.087890625,0.8896484375,-0.381591796875,4.272460460662842,-0.5187987685203552,3.601073980331421,100.0,90727.0,1.0
178654.3469662,305252.78125,308346.71875,335972.3125,318877.59375,314678.59375,284543.0,291704.3125,306177.25,-0.08544921875,0.888427734375,-0.38037109375,4.180907726287842,-0.2136230319738388,3.845214605331421,100.0,90728.0,1.0
178654.3494432,304950.9375,306495.8125,334522.84375,318069.4375,313510.9375,284167.21875,291305.5625,306061.8125,-0.084716796875,0.88525390625,-0.3818359375,4.211425304412842,0.2441406100988388,3.936767339706421,100.0,90729.0,1.0
178654.3532167,304704.4375,305552.03125,333112.90625,317627.15625,312623.40625,284065.03125,291176.625,306052.71875,-0.081298828125,0.883544921875,-0.381591796875,4.272460460662842,0.6408690810203552,3.967284917831421,100.0,90730.0,1.0
178654.3568841,304899.90625,306872.3125,333719.6875,318228.78125,313271.59375,284413.71875,291521.21875,306189.21875,-0.081298828125,0.8818359375,-0.380126953125,4.364013195037842,1.0986326932907104,4.272460460662842,100.0,90731.0,1.0
178654.3662853,305285.15625,308713.5625,335666.53125,319081.53125,314650.0,284739.875,291879.90625,306275.78125,-0.078857421875,0.879638671875,-0.378662109375,4.333495616912842,1.3122557401657104,4.425048351287842,100.0,90732.0,1.0
178654.3663186,305251.8125,308356.375,335978.28125,318872.9375,314682.4375,284544.4375,291707.28125,306185.03125,-0.07958984375,0.8798828125,-0.3798828125,4.272460460662842,1.7089842557907104,4.547118663787842,100.0,90733.0,1.0
178654.3681923,304948.96875,306513.59375,334538.84375,318069.4375,313520.4375,284166.0625,291307.96875,306071.75,-0.07763671875,0.8798828125,-0.379638671875,4.180907726287842,2.197265386581421,4.669188976287842,100.0,90734.0,1.0
178654.3719679,304695.96875,305555.25,333123.625,317620.625,312624.65625,284058.15625,291173.15625,306052.34375,-0.075439453125,0.87841796875,-0.38232421875,4.211425304412842,2.563476324081421,4.821776866912842,100.0,90735.0,1.0
178654.381286,304886.5625,306857.0,333714.6875,318211.15625,313251.5,284403.53125,291513.34375,306177.25,-0.074462890625,0.876953125,-0.3818359375,4.241942882537842,2.990722417831421,4.913329601287842,100.0,90736.0,1.0
178654.3813187,305271.5625,308707.375,335667.4375,319066.875,314627.28125,284731.65625,291870.25,306264.59375,-0.071533203125,0.8779296875,-0.379150390625,4.150390148162842,3.479003667831421,4.882812023162842,100.0,90737.0,1.0
178654.3875359,305244.28125,308377.5625,336010.40625,318874.46875,314681.03125,284543.1875,291701.90625,306175.28125,-0.07177734375,0.877685546875,-0.380126953125,4.241942882537842,3.906249761581421,4.943847179412842,100.0,90738.0,1.0
178654.3875684,304935.125,306530.84375,334573.71875,318067.40625,313517.03125,284166.59375,291300.09375,306059.59375,-0.07080078125,0.876953125,-0.3818359375,4.089354991912842,4.394530773162842,5.035399913787842,100.0,90739.0,1.0
178654.3894356,304678.78125,305553.625,333140.96875,317606.78125,312601.5,284051.71875,291160.625,306047.15625,-0.068115234375,0.8798828125,-0.381103515625,3.997802495956421,4.882812023162842,4.974364757537842,100.0,90740.0,1.0
178654.4007167,304871.625,306848.59375,333721.21875,318196.84375,313219.65625,284395.5625,291503.25,306180.5625,-0.06884765625,0.8818359375,-0.38330078125,4.028319835662842,5.371093273162842,4.913329601287842,100.0,90741.0,1.0
178654.4050353,305273.875,308731.59375,335701.75,319069.46875,314615.75,284728.4375,291871.15625,306269.25,-0.069091796875,0.881591796875,-0.380126953125,3.845214605331421,5.798339366912842,4.943847179412842,100.0,90742.0,1.0
178654.4050674,305250.0,308422.625,336070.375,318878.9375,314682.4375,284537.375,291703.59375,306173.40625,-0.065673828125,0.884765625,-0.38330078125,3.723144292831421,6.317138195037842,4.943847179412842,100.0,90743.0,1.0
178654.4112028,304949.59375,306587.90625,334649.71875,318072.75,313530.25,284159.625,291303.875,306058.96875,-0.063232421875,0.884765625,-0.38427734375,3.601073980331421,6.866454601287842,5.096435070037842,100.0,90744.0,1.0
178654.411232,304695.59375,305598.25,333215.96875,317610.4375,312617.6875,284049.65625,291160.625,306041.0,-0.064208984375,0.88232421875,-0.387451171875,3.326415777206421,7.354735851287842,5.035399913787842,100.0,90745.0,1.0
178654.4132291,304882.375,306867.75,333773.78125,318190.59375,313216.875,284384.75,291496.34375,306166.53125,-0.061279296875,0.88427734375,-0.38720703125,3.356933355331421,7.904052257537842,5.004882335662842,100.0,90746.0,1.0
178654.4244671,305281.40625,308749.65625,335751.90625,319062.125,314608.875,284716.96875,291862.3125,306253.59375,-0.058837890625,0.8857421875,-0.38916015625,3.356933355331421,8.453368186950684,4.974364757537842,100.0,90747.0,1.0
178654.4287867,305262.15625,308462.84375,336140.84375,318883.9375,314691.84375,284533.0625,291700.03125,306162.21875,-0.056884765625,0.885009765625,-0.390625,3.173827886581421,8.941649436950684,4.974364757537842,100.0,90748.0,1.0
178654.4288182,304952.71875,306615.0,334716.59375,318076.4375,313535.90625,284153.8125,291298.5,306049.65625,-0.05908203125,0.885498046875,-0.388916015625,2.990722417831421,9.490965843200684,5.035399913787842,100.0,90749.0,1.0
178654.4318823,304699.8125,305613.0,333275.15625,317609.90625,312612.21875,284038.21875,291154.71875,306033.75,-0.0546875,0.8837890625,-0.38916015625,2.868652105331421,10.009764671325684,5.096435070037842,100.0,90750.0,1.0
178654.4487868,304894.25,306877.84375,333827.15625,318190.34375,313206.25,284380.46875,291491.71875,306166.6875,-0.054443359375,0.880859375,-0.38818359375,2.807616949081421,10.528563499450684,5.187987804412842,100.0,90751.0,1.0
178654.448823,305300.78125,308774.875,335812.96875,319071.0,314604.9375,284720.28125,291863.1875,306260.9375,-0.054931640625,0.878173828125,-0.3876953125,2.716064214706421,11.138915061950684,5.187987804412842,100.0,90752.0,1.0
178654.4512865,305285.25,308514.0,336229.25,318902.46875,314711.9375,284538.96875,291708.53125,306170.625,-0.052734375,0.87890625,-0.38916015625,2.655029058456421,11.657713890075684,5.218505382537842,100.0,90753.0,1.0
178654.4513189,304970.4375,306648.0625,334801.6875,318093.5,313549.46875,284158.09375,291303.6875,306056.46875,-0.05029296875,0.877685546875,-0.387939453125,2.685546636581421,12.115477561950684,5.035399913787842,100.0,90754.0,1.0
178654.4550208,304716.96875,305615.15625,333350.71875,317625.375,312615.96875,284040.625,291156.875,306041.53125,-0.051025390625,0.8798828125,-0.3916015625,2.593993902206421,12.969969749450684,5.035399913787842,100.0,90755.0,1.0
178654.4550536,304905.71875,306868.0,333886.0,318196.3125,313198.65625,284375.96875,291490.28125,306167.9375,-0.050537109375,0.8779296875,-0.390869140625,2.532958745956421,13.458250999450684,5.157470226287842,100.0,90756.0,1.0
178654.468158,305312.25,308780.15625,335878.78125,319081.09375,314605.1875,284719.9375,291865.875,306265.40625,-0.0498046875,0.877685546875,-0.389404296875,2.502441167831421,14.007567405700684,5.249022960662842,100.0,90757.0,1.0
178654.4731207,305294.8125,308528.90625,336303.375,318920.15625,314720.09375,284547.375,291721.03125,306187.34375,-0.04931640625,0.878173828125,-0.392578125,2.410888433456421,14.343260765075684,5.249022960662842,100.0,90758.0,1.0
178654.473155,304976.4375,306668.53125,334873.125,318107.53125,313563.34375,284166.78125,291320.40625,306072.65625,-0.04833984375,0.87744140625,-0.387939453125,2.410888433456421,14.770506858825684,5.218505382537842,100.0,90759.0,1.0
178654.473164,304720.28125,305629.625,333405.6875,317627.5,312624.84375,284043.5625,291169.3125,306052.09375,-0.04736328125,0.87646484375,-0.390869140625,2.349853277206421,15.167235374450684,5.340575695037842,100.0,90760.0,1.0
178654.4850968,304908.9375,306863.53125,333910.5,318185.5,313187.75,284377.40625,291498.59375,306178.5,-0.046142578125,0.877197265625,-0.391845703125,2.319335699081421,15.380858421325684,5.371093273162842,100.0,90761.0,1.0
178654.4851459,305319.125,308785.15625,335901.3125,319075.28125,314595.0,284728.875,291877.40625,306275.34375,-0.046142578125,0.877685546875,-0.392822265625,2.349853277206421,15.838622093200684,5.340575695037842,100.0,90762.0,1.0
178654.4876345,305300.15625,308545.90625,336337.34375,318918.1875,314717.21875,284555.6875,291727.03125,306180.75,-0.04443359375,0.877685546875,-0.388671875,2.410888433456421,16.235349655151367,5.401610851287842,100.0,90763.0,1.0
178654.487683,304980.0,306681.0625,334915.0625,318107.0,313565.75,284175.96875,291323.4375,306066.21875,-0.044921875,0.878662109375,-0.389404296875,2.441406011581421,16.662595748901367,5.493163585662842,100.0,90764.0,1.0
178654.500778,304717.875,305619.4375,333434.5,317619.03125,312612.75,284048.9375,291165.8125,306044.9375,-0.0458984375,0.880126953125,-0.390380859375,2.288818120956421,17.181394577026367,5.432128429412842,100.0,90765.0,1.0
178654.5051005,304900.6875,306835.28125,333920.6875,318170.5625,313163.59375,284375.53125,291490.09375,306164.90625,-0.044189453125,0.88134765625,-0.385986328125,2.227782964706421,17.395017623901367,5.523681163787842,100.0,90766.0,1.0
178654.5051532,305312.5,308758.875,335903.90625,319063.21875,314568.53125,284722.34375,291871.40625,306264.15625,-0.04541015625,0.88232421875,-0.384765625,2.014159917831421,17.700193405151367,5.554198741912842,100.0,90767.0,1.0
178654.5119679,305305.0,308550.03125,336363.28125,318921.9375,314712.21875,284557.21875,291732.21875,306185.28125,-0.04736328125,0.880859375,-0.38623046875,1.8005369901657104,17.913816452026367,5.645751476287842,100.0,90768.0,1.0
178654.5120147,304985.0,306698.03125,334953.5,318114.15625,313571.375,284175.1875,291326.03125,306055.65625,-0.045654296875,0.88330078125,-0.384033203125,1.6479490995407104,18.035886764526367,5.676269054412842,100.0,90769.0,1.0
178654.5120267,304707.03125,305605.40625,333453.875,317614.5625,312601.0625,284040.53125,291161.25,306032.40625,-0.048583984375,0.88427734375,-0.384521484375,1.5258787870407104,18.096921920776367,5.676269054412842,100.0,90770.0,1.0
178654.515776,304885.5,306801.5,333919.0,318153.125,313136.15625,284368.46875,291482.0625,306159.09375,-0.050048828125,0.88671875,-0.38427734375,1.3732908964157104,18.188474655151367,5.767821788787842,100.0,90771.0,1.0
178654.5219921,305304.46875,308749.9375,335918.125,319051.21875,314553.6875,284724.40625,291867.40625,306258.625,-0.051025390625,0.888671875,-0.38232421875,1.2817381620407104,18.218992233276367,5.737304210662842,100.0,90772.0,1.0
178654.5262984,305302.84375,308564.875,336402.34375,318921.9375,314715.96875,284561.3125,291733.375,306178.5,-0.052001953125,0.89013671875,-0.384765625,1.0375975370407104,18.249509811401367,5.676269054412842,100.0,90773.0,1.0
178654.5263495,304983.40625,306713.25,335002.0625,318118.0,313586.6875,284183.84375,291332.5625,306065.5,-0.05615234375,0.891845703125,-0.38427734375,0.8239745497703552,18.280027389526367,5.645751476287842,100.0,90774.0,1.0
178654.5319712,304713.5625,305617.03125,333507.96875,317618.40625,312622.5,284047.0625,291169.03125,306045.1875,-0.0546875,0.892333984375,-0.385009765625,0.5493163466453552,18.035886764526367,5.584716320037842,100.0,90775.0,1.0
178654.5463399,304897.3125,306799.4375,333959.84375,318154.3125,313146.4375,284368.84375,291487.59375,306171.625,-0.0537109375,0.89013671875,-0.38427734375,0.2441406100988388,17.822263717651367,5.462646007537842,100.0,90776.0,1.0
178654.546389,305314.03125,308744.75,335947.71875,319054.34375,314554.15625,284724.03125,291869.8125,306270.84375,-0.052734375,0.887451171875,-0.384033203125,0.03051757626235485,17.639158248901367,5.432128429412842,100.0,90777.0,1.0
178654.5486026,305317.875,308584.4375,336452.25,318943.6875,314733.78125,284571.96875,291745.96875,306199.0625,-0.05078125,0.88232421875,-0.38623046875,-0.2136230319738388,17.486570358276367,5.279540538787842,100.0,90778.0,1.0
178654.5486514,304989.9375,306726.375,335049.8125,318136.40625,313599.8125,284186.71875,291342.3125,306083.90625,-0.049560546875,0.87939453125,-0.386962890625,-0.2746581733226776,17.364500045776367,5.157470226287842,100.0,90779.0,1.0
178654.5545251,304719.03125,305610.15625,333542.21875,317629.84375,312626.09375,284046.25,291174.65625,306061.03125,-0.046142578125,0.879150390625,-0.38818359375,-0.3051757514476776,17.272947311401367,5.126952648162842,100.0,90780.0,1.0
178654.5569777,304896.6875,306770.46875,333966.1875,318152.40625,313133.125,284365.0,291486.0625,306181.625,-0.044189453125,0.8828125,-0.387451171875,-0.2136230319738388,17.089841842651367,4.821776866912842,100.0,90781.0,1.0
178654.5607595,305311.0,308726.0625,335952.28125,319051.59375,314541.375,284720.46875,291867.9375,306274.4375,-0.04638671875,0.886474609375,-0.39013671875,-0.2136230319738388,16.967771530151367,4.699706554412842,100.0,90782.0,1.0
178654.5700977,305300.34375,308576.75,336463.15625,318935.53125,314726.53125,284566.25,291738.90625,306189.0625,-0.04638671875,0.890625,-0.3896484375,-0.3662109076976776,16.876218795776367,4.547118663787842,100.0,90783.0,1.0
178654.5701464,304977.3125,306730.6875,335070.625,318131.9375,313602.59375,284184.65625,291339.71875,306075.25,-0.04541015625,0.890380859375,-0.390380859375,-0.6408690810203552,16.510007858276367,4.455565929412842,100.0,90784.0,1.0
178654.5720241,304699.71875,305589.3125,333548.9375,317617.0625,312615.90625,284039.09375,291167.34375,306052.53125,-0.04833984375,0.8857421875,-0.38671875,-0.9460448622703552,16.143796920776367,4.455565929412842,100.0,90785.0,1.0
178654.5838474,304876.46875,306731.75,333954.3125,318132.21875,313106.75,284355.59375,291473.375,306172.96875,-0.047607421875,0.88037109375,-0.38818359375,-0.9460448622703552,15.777586936950684,4.364013195037842,100.0,90786.0,1.0
178654.5838966,305300.15625,308699.15625,335942.71875,319038.34375,314519.28125,284717.78125,291861.40625,306269.96875,-0.048095703125,0.876708984375,-0.387451171875,-0.9155272841453552,15.594481468200684,4.272460460662842,100.0,90787.0,1.0
178654.586302,305294.4375,308565.3125,336465.65625,318933.125,314715.25,284566.59375,291739.625,306191.65625,-0.048583984375,0.873046875,-0.387451171875,-0.7934569716453552,15.289305686950684,4.211425304412842,100.0,90788.0,1.0
178654.5863501,304968.1875,306721.03125,335084.75,318134.71875,313605.625,284183.9375,291342.9375,306077.90625,-0.050048828125,0.871826171875,-0.387939453125,-0.6713866591453552,14.953612327575684,4.119872570037842,100.0,90789.0,1.0
178654.5882024,304693.4375,305573.03125,333556.875,317617.6875,312616.6875,284040.09375,291169.5625,306051.46875,-0.052490234375,0.873291015625,-0.3896484375,-0.4577636420726776,14.556883811950684,3.814697027206421,100.0,90790.0,1.0
178654.5970509,304862.875,306686.4375,333924.71875,318117.5625,313082.5,284351.21875,291469.09375,306169.03125,-0.05908203125,0.874267578125,-0.390380859375,-0.3356933295726776,14.038084983825684,3.631591558456421,100.0,90791.0,1.0
178654.5994766,305293.65625,308662.75,335919.5625,319032.8125,314506.125,284717.875,291861.40625,306272.1875,-0.06201171875,0.877685546875,-0.39013671875,-0.3662109076976776,13.397215843200684,3.326415777206421,100.0,90792.0,1.0
178654.6031662,305300.78125,308568.4375,336476.5625,318939.5625,314724.65625,284571.875,291744.46875,306198.8125,-0.06640625,0.87939453125,-0.389404296875,-0.3051757514476776,12.725829124450684,2.990722417831421,100.0,90793.0,1.0
178654.6175974,304973.5625,306730.15625,335097.71875,318137.40625,313608.5,284183.5,291343.125,306079.25,-0.068603515625,0.879150390625,-0.38720703125,-0.4272460639476776,11.840819358825684,2.777099370956421,100.0,90794.0,1.0
178654.6176462,304692.375,305562.03125,333557.59375,317612.75,312609.09375,284031.5,291162.6875,306051.09375,-0.071533203125,0.87841796875,-0.38818359375,-0.3967284858226776,11.016844749450684,2.471923589706421,100.0,90795.0,1.0
178654.6195003,304858.9375,306656.65625,333906.46875,318105.46875,313062.125,284337.8125,291462.1875,306169.125,-0.071533203125,0.877197265625,-0.39013671875,-0.3662109076976776,10.192870140075684,2.258300542831421,100.0,90796.0,1.0
178654.6220253,305289.625,308638.1875,335888.96875,319021.90625,314475.5625,284699.28125,291857.03125,306270.59375,-0.072998046875,0.87548828125,-0.38818359375,-0.3662109076976776,9.368895530700684,1.9531248807907104,100.0,90797.0,1.0
178654.6245271,305300.15625,308568.15625,336465.65625,318940.71875,314713.1875,284562.5625,291746.6875,306191.28125,-0.07421875,0.876220703125,-0.387939453125,-0.1831054538488388,8.361815452575684,1.6174315214157104,100.0,90798.0,1.0
178654.6338477,304968.125,306735.78125,335096.28125,318140.09375,313608.84375,284179.5625,291345.875,306071.125,-0.07373046875,0.87939453125,-0.384033203125,-0.1525878757238388,7.476806163787842,1.4038084745407104,100.0,90799.0,1.0
178654.6338973,304672.875,305539.78125,333531.84375,317598.1875,312589.25,284017.375,291155.28125,306037.78125,-0.07421875,0.881591796875,-0.385986328125,-0.1525878757238388,6.561278820037842,1.1291502714157104,100.0,90800.0,1.0
178654.6357774,304837.03125,306614.375,333852.90625,318081.6875,313023.40625,284318.9375,291448.96875,306153.75,-0.072998046875,0.884033203125,-0.38818359375,-0.1525878757238388,5.584716320037842,1.0070799589157104,100.0,90801.0,1.0
178654.6395424,305274.25,308604.46875,335836.40625,319004.75,314436.75,284692.46875,291850.6875,306263.4375,-0.06982421875,0.88671875,-0.387939453125,-0.2136230319738388,4.669188976287842,0.7019042372703552,100.0,90802.0,1.0
178654.6486927,305293.375,308560.3125,336434.1875,318938.40625,314693.09375,284561.9375,291747.15625,306195.40625,-0.069580078125,0.887939453125,-0.38916015625,-0.2136230319738388,3.723144292831421,0.4882812201976776,100.0,90803.0,1.0
178654.6487519,304962.03125,306742.46875,335080.90625,318144.1875,313603.40625,284180.375,291348.375,306075.3125,-0.068115234375,0.887939453125,-0.390869140625,-0.3662109076976776,2.899169683456421,0.3356933295726776,100.0,90804.0,1.0
178654.6557767,304671.09375,305542.625,333516.375,317599.53125,312585.9375,284025.34375,291156.96875,306042.4375,-0.068359375,0.889892578125,-0.38818359375,-0.5187987685203552,2.014159917831421,0.2441406100988388,100.0,90805.0,1.0
178654.6582779,304826.5,306589.9375,333804.625,318065.15625,312999.375,284326.1875,291446.09375,306159.5625,-0.06689453125,0.8896484375,-0.389404296875,-0.7324218153953552,1.1291502714157104,0.3051757514476776,100.0,90806.0,1.0
178654.6607843,305265.84375,308581.84375,335778.125,318993.375,314416.09375,284703.03125,291851.5625,306273.625,-0.066650390625,0.890625,-0.39111328125,-0.8850097060203552,0.3051757514476776,0.1831054538488388,100.0,90807.0,1.0
178654.6650537,305287.65625,308555.5625,336392.6875,318936.625,314687.09375,284575.09375,291753.59375,306201.5625,-0.067138671875,0.88916015625,-0.390869140625,-0.8850097060203552,-0.5493163466453552,0.3051757514476776,100.0,90808.0,1.0
178654.6651017,304969.53125,306752.9375,335054.53125,318150.90625,313608.40625,284199.125,291361.0,306086.59375,-0.0654296875,0.888671875,-0.39111328125,-0.9460448622703552,-1.3122557401657104,0.2441406100988388,100.0,90809.0,1.0
178654.6732791,304683.0,305543.71875,333489.90625,317609.71875,312588.90625,284037.40625,291168.21875,306056.5625,-0.063232421875,0.8876953125,-0.393310546875,-1.0070799589157104,-2.014159917831421,0.2136230319738388,100.0,90810.0,1.0
178654.6776514,304834.09375,306569.9375,333757.6875,318070.15625,312986.75,284331.5625,291448.25,306162.78125,-0.063232421875,0.88916015625,-0.39013671875,-1.1596678495407104,-2.838134527206421,-0.03051757626235485,100.0,90811.0,1.0
178654.6777012,305259.9375,308552.53125,335718.375,318990.25,314390.0,284701.5,291844.9375,306272.03125,-0.06396484375,0.888427734375,-0.38671875,-1.2207030057907104,-3.509521245956421,-0.03051757626235485,100.0,90812.0,1.0
178654.6832597,305292.375,308561.1875,336358.71875,318948.78125,314680.03125,284581.25,291755.90625,306208.1875,-0.064453125,0.888671875,-0.387939453125,-1.2817381620407104,-4.272460460662842,-0.1831054538488388,100.0,90813.0,1.0
178654.6975668,304970.625,306764.375,335032.0,318160.03125,313610.09375,284206.8125,291363.75,306095.875,-0.06494140625,0.888427734375,-0.3876953125,-1.4343260526657104,-4.974364757537842,-0.3051757514476776,100.0,90814.0,1.0
178654.6976151,304672.34375,305536.28125,333452.625,317606.78125,312577.09375,284045.90625,291164.65625,306058.4375,-0.0654296875,0.885986328125,-0.388916015625,-1.4648436307907104,-5.676269054412842,-0.3967284858226776,100.0,90815.0,1.0
178654.6995112,304825.25,306549.625,333713.625,318064.0,312973.25,284335.21875,291446.65625,306170.71875,-0.065673828125,0.88525390625,-0.3876953125,-1.5563963651657104,-6.317138195037842,-0.6408690810203552,100.0,90816.0,1.0
178654.7019895,305256.34375,308536.6875,335673.5,318986.3125,314381.9375,284706.15625,291845.75,306279.875,-0.06103515625,0.88623046875,-0.390869140625,-1.6479490995407104,-6.927489757537842,-0.7629393935203552,100.0,90817.0,1.0
178654.7044764,305282.90625,308552.25,336317.0625,318943.40625,314670.375,284587.875,291756.4375,306213.0,-0.064697265625,0.884765625,-0.38818359375,-1.7089842557907104,-7.476806163787842,-0.9460448622703552,100.0,90818.0,1.0
178654.7137735,304969.53125,306775.375,335010.28125,318162.25,313610.375,284212.1875,291365.1875,306096.25,-0.06103515625,0.88427734375,-0.39013671875,-1.8005369901657104,-7.904052257537842,-1.2512205839157104,100.0,90819.0,1.0
178654.713819,304675.03125,305544.4375,333437.0,317607.03125,312581.21875,284041.15625,291168.3125,306060.5,-0.063232421875,0.884521484375,-0.39013671875,-1.8615721464157104,-8.483885765075684,-1.3122557401657104,100.0,90820.0,1.0
178654.7162383,304810.75,306517.53125,333653.28125,318043.78125,312943.03125,284324.5625,291439.75,306166.53125,-0.064453125,0.883056640625,-0.387451171875,-1.8920897245407104,-8.911131858825684,-1.6174315214157104,100.0,90821.0,1.0
178654.7162869,305241.34375,308503.1875,335596.96875,318971.3125,314343.59375,284705.71875,291843.78125,306276.9375,-0.06201171875,0.883544921875,-0.39013671875,-1.9531248807907104,-9.307860374450684,-1.7700194120407104,100.0,90822.0,1.0
178654.7270109,305280.6875,308556.375,336270.46875,318947.78125,314659.90625,284588.59375,291760.8125,306209.34375,-0.061767578125,0.883544921875,-0.3916015625,-1.9531248807907104,-9.796141624450684,-1.9531248807907104,100.0,90823.0,1.0
178654.7295496,304961.125,306782.34375,334966.3125,318161.375,313596.59375,284205.5625,291364.5625,306089.09375,-0.0595703125,0.883056640625,-0.391357421875,-1.8920897245407104,-10.101317405700684,-2.288818120956421,100.0,90824.0,1.0
178654.7543809,304674.21875,305546.03125,333396.84375,317604.53125,312566.0,284036.9375,291167.96875,306058.34375,-0.0615234375,0.882568359375,-0.38916015625,-2.044677495956421,-10.528563499450684,-2.563476324081421,100.0,90825.0,1.0
178654.7620283,304811.65625,306508.40625,333596.75,318035.75,312921.84375,284321.0,291437.0,306168.3125,-0.060791015625,0.883544921875,-0.38818359375,-2.166747808456421,-10.864256858825684,-2.777099370956421,100.0,90826.0,1.0
178654.7644953,305238.75,308494.84375,335534.46875,318966.375,314320.15625,284703.3125,291843.0625,306281.40625,-0.06201171875,0.88134765625,-0.388916015625,-2.227782964706421,-11.169432640075684,-3.051757574081421,100.0,90827.0,1.0
178654.7719895,305282.46875,308564.78125,336221.21875,318952.96875,314645.6875,284594.6875,291766.53125,306217.65625,-0.061279296875,0.880615234375,-0.38916015625,-2.166747808456421,-11.474608421325684,-3.204345464706421,100.0,90828.0,1.0
178654.7745256,304977.84375,306813.8125,334940.625,318178.78125,313604.46875,284219.53125,291376.625,306097.84375,-0.0625,0.882568359375,-0.3876953125,-2.075195074081421,-11.657713890075684,-3.509521245956421,100.0,90829.0,1.0
178654.7770495,304687.71875,305567.9375,333366.71875,317615.25,312572.53125,284048.40625,291174.5,306061.75,-0.063232421875,0.880859375,-0.3896484375,-2.105712652206421,-11.901854515075684,-3.753661870956421,100.0,90830.0,1.0
178654.7794971,304809.5,306498.03125,333537.84375,318026.71875,312908.34375,284323.78125,291439.21875,306167.5,-0.064208984375,0.88037109375,-0.389404296875,-2.105712652206421,-12.145995140075684,-3.997802495956421,100.0,90831.0,1.0
178654.7820253,305226.84375,308479.84375,335464.84375,318951.375,314301.21875,284705.71875,291841.65625,306274.0625,-0.063720703125,0.87939453125,-0.389892578125,-2.166747808456421,-12.329100608825684,-4.302978038787842,100.0,90832.0,1.0
178654.784537,305271.28125,308571.46875,336172.9375,318946.53125,314642.46875,284604.6875,291768.40625,306211.84375,-0.06689453125,0.880859375,-0.389892578125,-2.197265386581421,-12.481688499450684,-4.394530773162842,100.0,90833.0,1.0
178654.7870277,304962.75,306823.9375,334906.5,318172.8125,313604.1875,284228.28125,291377.09375,306092.40625,-0.06787109375,0.881103515625,-0.388427734375,-2.197265386581421,-12.725829124450684,-4.547118663787842,100.0,90834.0,1.0
178654.7894622,304667.78125,305561.15625,333322.625,317600.96875,312558.59375,284050.53125,291172.0625,306059.0625,-0.067626953125,0.88134765625,-0.386474609375,-2.075195074081421,-12.969969749450684,-4.669188976287842,100.0,90835.0,1.0
178654.7920245,304786.875,306471.125,333470.4375,318009.0,312879.09375,284321.4375,291435.75,306168.75,-0.071533203125,0.880859375,-0.388916015625,-2.105712652206421,-13.153075218200684,-4.821776866912842,100.0,90836.0,1.0
178654.7944777,305199.6875,308443.625,335385.09375,318935.53125,314266.625,284696.15625,291835.9375,306274.625,-0.071533203125,0.880126953125,-0.3916015625,-2.258300542831421,-13.244627952575684,-4.974364757537842,100.0,90837.0,1.0
178654.7970271,305247.25,308556.09375,336114.65625,318937.59375,314620.75,284589.21875,291764.3125,306210.0625,-0.07373046875,0.882080078125,-0.388916015625,-2.258300542831421,-13.427733421325684,-5.218505382537842,100.0,90838.0,1.0
178654.7995353,304954.0625,306833.84375,334882.78125,318172.34375,313606.875,284208.78125,291376.28125,306088.75,-0.072998046875,0.881591796875,-0.39013671875,-2.197265386581421,-13.580321311950684,-5.432128429412842,100.0,90839.0,1.0
178654.8026379,304661.09375,305562.9375,333307.25,317596.65625,312564.65625,284027.75,291166.71875,306057.0,-0.07568359375,0.882568359375,-0.388671875,-2.105712652206421,-13.763426780700684,-5.554198741912842,100.0,90840.0,1.0
178654.8026868,304764.1875,306440.03125,333424.46875,317987.1875,312861.21875,284292.125,291424.125,306167.59375,-0.07568359375,0.880615234375,-0.38818359375,-2.166747808456421,-14.007567405700684,-5.706786632537842,100.0,90841.0,1.0
178654.8045362,305184.375,308421.09375,335339.125,318920.875,314253.28125,284676.40625,291837.4375,306284.53125,-0.079345703125,0.881103515625,-0.386962890625,-2.136230230331421,-14.129637718200684,-5.798339366912842,100.0,90842.0,1.0
178654.8076116,305248.40625,308567.09375,336097.9375,318944.46875,314632.1875,284591.53125,291777.0,306225.71875,-0.079833984375,0.880859375,-0.38916015625,-2.044677495956421,-14.282225608825684,-5.737304210662842,100.0,90843.0,1.0
178654.8076612,304961.75,306855.3125,334873.6875,318186.21875,313622.53125,284220.78125,291390.3125,306106.15625,-0.08251953125,0.87890625,-0.388427734375,-1.9226073026657104,-14.434813499450684,-5.798339366912842,100.0,90844.0,1.0
178654.8213054,304670.90625,305579.5625,333300.375,317608.65625,312579.78125,284037.40625,291178.0625,306062.53125,-0.0830078125,0.877685546875,-0.386962890625,-1.8920897245407104,-14.526366233825684,-5.920409679412842,100.0,90845.0,1.0
178654.8213601,304769.625,306432.25,333392.90625,317985.6875,312863.0,284301.0625,291429.5625,306167.78125,-0.08544921875,0.87744140625,-0.38818359375,-1.7700194120407104,-14.678954124450684,-6.072997570037842,100.0,90846.0,1.0
178654.8239474,305189.03125,308410.90625,335297.625,318920.15625,314253.125,284691.5,291844.15625,306286.6875,-0.086669921875,0.87841796875,-0.38671875,-1.6784666776657104,-14.770506858825684,-6.134032726287842,100.0,90847.0,1.0
178654.8239947,305261.0,308580.40625,336079.78125,318959.21875,314647.03125,284604.15625,291790.6875,306234.125,-0.0859375,0.878662109375,-0.38525390625,-1.6479490995407104,-14.923094749450684,-6.134032726287842,100.0,90848.0,1.0
178654.8376218,304983.03125,306885.96875,334879.84375,318207.40625,313646.3125,284227.5625,291406.21875,306120.46875,-0.08740234375,0.878173828125,-0.383544921875,-1.5563963651657104,-15.014647483825684,-6.134032726287842,100.0,90849.0,1.0
178654.8376704,304699.1875,305606.21875,333311.5625,317631.96875,312601.21875,284041.59375,291191.84375,306084.1875,-0.091552734375,0.87646484375,-0.3837890625,-1.3122557401657104,-15.136717796325684,-6.103515148162842,100.0,90850.0,1.0
178654.8482155,304791.8125,306435.09375,333382.375,318003.125,312870.0,284300.96875,291438.59375,306190.3125,-0.09423828125,0.876708984375,-0.385009765625,-1.1901854276657104,-15.197752952575684,-6.103515148162842,100.0,90851.0,1.0
178654.8482638,305207.71875,308411.4375,335277.4375,318939.5625,314258.46875,284687.125,291850.75,306305.90625,-0.094970703125,0.87255859375,-0.38427734375,-1.0986326932907104,-15.289305686950684,-6.134032726287842,100.0,90852.0,1.0
178654.8482755,305283.34375,308604.1875,336074.0625,318985.25,314663.03125,284607.71875,291798.8125,306250.28125,-0.09375,0.871337890625,-0.38525390625,-1.0986326932907104,-15.441893577575684,-6.072997570037842,100.0,90853.0,1.0
178654.8507865,305005.125,306922.71875,334892.0,318233.5,313673.3125,284239.0,291416.34375,306132.625,-0.093017578125,0.871337890625,-0.38818359375,-0.7934569716453552,-15.563963890075684,-6.042479991912842,100.0,90854.0,1.0
178654.8532853,304704.1875,305619.09375,333306.46875,317637.96875,312612.21875,284044.90625,291190.6875,306083.28125,-0.091552734375,0.873779296875,-0.383544921875,-0.6408690810203552,-15.533446311950684,-5.981444835662842,100.0,90855.0,1.0
178654.8557801,304789.03125,306428.03125,333354.28125,317997.46875,312866.84375,284303.75,291433.9375,306186.1875,-0.090087890625,0.876220703125,-0.385009765625,-0.3051757514476776,-15.502928733825684,-5.859374523162842,100.0,90856.0,1.0
178654.858277,305201.375,308403.9375,335240.0625,318930.875,314247.3125,284692.03125,291848.8125,306303.03125,-0.09033203125,0.877197265625,-0.386962890625,-0.1831054538488388,-15.472411155700684,-5.828856945037842,100.0,90857.0,1.0
178654.8700513,305271.75,308608.40625,336047.21875,318978.28125,314660.4375,284607.71875,291797.3125,306243.21875,-0.091064453125,0.877197265625,-0.385009765625,-0.0915527269244194,-15.411375999450684,-5.798339366912842,100.0,90858.0,1.0
178654.8700987,305000.125,306944.1875,334885.28125,318233.34375,313685.375,284240.8125,291416.6875,306127.8125,-0.094970703125,0.876953125,-0.384765625,0.03051757626235485,-15.258788108825684,-5.798339366912842,100.0,90859.0,1.0
178654.873948,304701.0625,305635.625,333301.53125,317634.75,312620.375,284050.8125,291194.4375,306084.4375,-0.0986328125,0.876953125,-0.38525390625,0.0915527269244194,-15.106200218200684,-5.523681163787842,100.0,90860.0,1.0
178654.8739968,304775.53125,306421.34375,333324.34375,317979.78125,312857.28125,284301.34375,291431.09375,306181.28125,-0.100830078125,0.875244140625,-0.3837890625,0.1831054538488388,-15.106200218200684,-5.218505382537842,100.0,90861.0,1.0
178654.8819919,305183.75,308392.9375,335201.78125,318913.625,314237.03125,284692.65625,291847.53125,306300.375,-0.097900390625,0.875,-0.387451171875,0.3662109076976776,-15.075682640075684,-4.943847179412842,100.0,90862.0,1.0
178654.8963062,305267.28125,308626.03125,336039.0,318984.34375,314674.21875,284621.125,291806.34375,306251.625,-0.096923828125,0.875,-0.385986328125,0.5798339247703552,-14.984129905700684,-4.791259288787842,100.0,90863.0,1.0
178654.8963538,305001.625,306967.34375,334892.28125,318243.78125,313704.15625,284252.59375,291424.65625,306134.96875,-0.094970703125,0.87890625,-0.3876953125,0.7324218153953552,-14.831542015075684,-4.669188976287842,100.0,90864.0,1.0
178654.8994329,304711.78125,305653.78125,333314.40625,317648.0625,312642.28125,284058.21875,291200.5,306091.96875,-0.093994140625,0.880126953125,-0.387939453125,0.9155272841453552,-14.617918968200684,-4.669188976287842,100.0,90865.0,1.0
178654.8994861,304777.3125,306412.21875,333310.65625,317979.875,312862.21875,284295.6875,291429.65625,306184.59375,-0.094482421875,0.883056640625,-0.385498046875,1.0375975370407104,-14.373778343200684,-4.455565929412842,100.0,90866.0,1.0
178654.8995017,305182.96875,308379.6875,335177.125,318915.25,314236.125,284685.875,291843.0,306302.875,-0.097900390625,0.885009765625,-0.385986328125,1.1596678495407104,-14.251708030700684,-4.333495616912842,100.0,90867.0,1.0
178654.9032762,305272.375,308632.53125,336031.65625,318990.6875,314682.90625,284617.84375,291804.71875,306252.25,-0.100341796875,0.8837890625,-0.38330078125,1.0375975370407104,-14.068602561950684,-4.150390148162842,100.0,90868.0,1.0
178654.9069621,305017.65625,306990.40625,334904.59375,318254.25,313725.78125,284249.65625,291425.71875,306136.03125,-0.09912109375,0.88134765625,-0.385498046875,1.0070799589157104,-13.824461936950684,-3.936767339706421,100.0,90869.0,1.0
178654.9213749,304728.9375,305669.15625,333331.59375,317656.5625,312664.8125,284053.59375,291200.59375,306091.5,-0.096923828125,0.880126953125,-0.38720703125,1.0681151151657104,-13.732909202575684,-3.723144292831421,100.0,90870.0,1.0
178654.9214286,304786.96875,306402.90625,333308.96875,317976.65625,312866.6875,284292.03125,291426.625,306189.9375,-0.09423828125,0.881103515625,-0.3837890625,1.1291502714157104,-13.366698265075684,-3.479003667831421,100.0,90871.0,1.0
178654.9239419,305188.40625,308368.53125,335170.78125,318909.6875,314239.875,284682.1875,291840.40625,306307.6875,-0.093994140625,0.87939453125,-0.3818359375,1.4038084745407104,-13.031004905700684,-3.387450933456421,100.0,90872.0,1.0
178654.9239955,305274.6875,308636.3125,336037.125,318991.15625,314695.3125,284613.625,291802.84375,306250.46875,-0.09375,0.88037109375,-0.38427734375,1.5258787870407104,-12.725829124450684,-3.417968511581421,100.0,90873.0,1.0
178654.9350452,305017.5625,307003.8125,334919.28125,318256.125,313740.71875,284246.0625,291423.03125,306131.84375,-0.094482421875,0.880859375,-0.3828125,1.5869139432907104,-12.329100608825684,-3.234863042831421,100.0,90874.0,1.0
178654.9350854,304723.21875,305666.46875,333333.0,317646.8125,312668.8125,284045.4375,291191.5625,306083.65625,-0.095947265625,0.8828125,-0.38330078125,1.5563963651657104,-12.023924827575684,-3.082275152206421,100.0,90875.0,1.0
178654.9375058,304767.9375,306370.46875,333277.59375,317952.5,312851.9375,284277.375,291411.6875,306175.71875,-0.0966796875,0.884033203125,-0.385498046875,1.4953612089157104,-11.718749046325684,-2.899169683456421,100.0,90876.0,1.0
178654.9375405,305167.9375,308337.40625,335134.03125,318888.34375,314224.0625,284674.6875,291831.1875,306296.59375,-0.09619140625,0.884033203125,-0.38427734375,1.5563963651657104,-11.352538108825684,-2.807616949081421,100.0,90877.0,1.0
178654.9482793,305268.25,308638.53125,336034.53125,318988.1875,314700.875,284615.25,291802.3125,306245.75,-0.09423828125,0.8828125,-0.384765625,1.5563963651657104,-10.925292015075684,-2.593993902206421,100.0,90878.0,1.0
178654.9507869,305011.84375,307008.09375,334926.875,318252.75,313748.15625,284245.0,291415.1875,306122.25,-0.09375,0.88134765625,-0.384521484375,1.5563963651657104,-10.650633811950684,-2.471923589706421,100.0,90879.0,1.0
178654.9532854,304714.90625,305657.96875,333335.4375,317636.1875,312667.75,284045.28125,291182.0,306071.9375,-0.094482421875,0.88134765625,-0.385009765625,1.5869139432907104,-10.284422874450684,-2.349853277206421,100.0,90880.0,1.0
178654.9750518,304759.875,306348.375,333261.21875,317931.40625,312836.28125,284275.65625,291404.28125,306166.53125,-0.096435546875,0.878662109375,-0.385986328125,1.5563963651657104,-9.887694358825684,-2.227782964706421,100.0,90881.0,1.0
178654.9751013,305160.59375,308313.625,335106.5625,318871.0,314201.96875,284670.65625,291824.3125,306289.375,-0.099853515625,0.876953125,-0.3857421875,1.5563963651657104,-9.399413108825684,-2.258300542831421,100.0,90882.0,1.0
178654.9769721,305264.125,308631.84375,336027.46875,318982.5625,314697.125,284610.125,291797.65625,306236.71875,-0.09814453125,0.876708984375,-0.3818359375,1.5258787870407104,-8.941649436950684,-2.136230230331421,100.0,90883.0,1.0
178654.9800949,305014.6875,307018.65625,334941.0,318253.0,313755.28125,284240.53125,291414.71875,306116.0,-0.0986328125,0.87744140625,-0.3828125,1.5869139432907104,-8.605956077575684,-2.044677495956421,100.0,90884.0,1.0
178654.9801442,304722.78125,305665.75,333351.34375,317638.5,312672.03125,284036.78125,291179.6875,306069.4375,-0.099365234375,0.879150390625,-0.3857421875,1.5869139432907104,-8.148192405700684,-2.075195074081421,100.0,90885.0,1.0
178654.9819752,304762.375,306336.5625,333258.53125,317928.46875,312828.59375,284264.75,291397.03125,306165.34375,-0.09814453125,0.879638671875,-0.38427734375,1.7089842557907104,-7.781981945037842,-2.105712652206421,100.0,90886.0,1.0
178654.9845033,305157.28125,308297.71875,335091.8125,318864.71875,314187.65625,284662.09375,291814.46875,306286.5,-0.096435546875,0.879150390625,-0.386962890625,1.6784666776657104,-7.354735851287842,-2.136230230331421,100.0,90887.0,1.0
178654.9870306,305268.78125,308636.84375,336022.90625,318989.4375,314692.71875,284613.1875,291796.40625,306244.3125,-0.095703125,0.881103515625,-0.388916015625,1.7395018339157104,-6.774901866912842,-1.9531248807907104,100.0,90888.0,1.0
178654.9901219,305032.84375,307046.90625,334959.875,318275.71875,313772.375,284249.03125,291424.5625,306131.28125,-0.095458984375,0.8798828125,-0.38916015625,1.7089842557907104,-6.378173351287842,-1.9531248807907104,100.0,90889.0,1.0
178654.9901771,304738.6875,305681.125,333367.6875,317655.6875,312687.40625,284040.78125,291188.53125,306084.71875,-0.09375,0.8779296875,-0.38818359375,1.7089842557907104,-5.859374523162842,-1.8005369901657104,100.0,90890.0,1.0
178654.9919529,304774.0,306331.65625,333252.09375,317932.375,312833.5,284270.21875,291401.40625,306177.6875,-0.093017578125,0.87548828125,-0.388916015625,1.7700194120407104,-5.340575695037842,-1.7395018339157104,100.0,90891.0,1.0
178655.0057832,305166.5,308288.15625,335071.96875,318863.21875,314189.90625,284665.84375,291820.1875,306298.5,-0.092529296875,0.874755859375,-0.38671875,1.8310545682907104,-4.852294445037842,-1.6784666776657104,100.0,90892.0,1.0
178655.0088897,305276.03125,308644.34375,336016.46875,318992.59375,314703.53125,284618.46875,291805.25,306249.125,-0.094970703125,0.873291015625,-0.388427734375,1.9531248807907104,-4.394530773162842,-1.7395018339157104,100.0,90893.0,1.0
178655.0089376,305033.8125,307052.53125,334959.15625,318273.9375,313781.9375,284252.59375,291426.53125,306130.3125,-0.09521484375,0.876220703125,-0.386962890625,2.044677495956421,-3.845214605331421,-1.7395018339157104,100.0,90894.0,1.0
178655.0108028,304742.34375,305682.125,333368.59375,317648.53125,312691.1875,284038.46875,291185.5,306078.71875,-0.095947265625,0.878662109375,-0.3876953125,2.105712652206421,-3.356933355331421,-1.7089842557907104,100.0,90895.0,1.0
178655.0145269,304768.65625,306307.96875,333230.1875,317914.875,312818.84375,284255.375,291392.65625,306169.84375,-0.0966796875,0.877197265625,-0.387451171875,2.105712652206421,-2.929687261581421,-1.8005369901657104,100.0,90896.0,1.0
178655.0289488,305156.84375,308266.6875,335039.53125,318851.40625,314172.125,284657.15625,291813.9375,306292.9375,-0.09912109375,0.876708984375,-0.388671875,2.105712652206421,-2.532958745956421,-1.8005369901657104,100.0,90897.0,1.0
178655.0289976,305268.53125,308646.125,336005.5625,318990.875,314703.46875,284611.3125,291800.59375,306244.9375,-0.100341796875,0.876220703125,-0.38916015625,2.044677495956421,-2.136230230331421,-1.9226073026657104,100.0,90898.0,1.0
178655.0307757,305033.90625,307066.84375,334968.4375,318279.75,313790.96875,284243.84375,291425.53125,306128.0625,-0.1005859375,0.876953125,-0.387451171875,2.014159917831421,-1.7395018339157104,-1.9531248807907104,100.0,90899.0,1.0
178655.0338778,304741.46875,305684.34375,333380.3125,317654.59375,312697.96875,284026.59375,291181.65625,306080.25,-0.102783203125,0.873291015625,-0.384765625,2.105712652206421,-1.3427733182907104,-2.075195074081421,100.0,90900.0,1.0
178655.0339288,304766.40625,306291.25,333221.78125,317913.0,312811.96875,284242.59375,291385.75,306171.625,-0.104736328125,0.873291015625,-0.385498046875,2.166747808456421,-0.9460448622703552,-2.166747808456421,100.0,90901.0,1.0
178655.0357747,305156.84375,308246.9375,335017.625,318846.125,314154.59375,284644.5625,291808.84375,306296.0625,-0.10498046875,0.87255859375,-0.388671875,2.197265386581421,-0.7019042372703552,-2.319335699081421,100.0,90902.0,1.0
178655.0444889,305277.8125,308648.1875,336000.03125,318999.71875,314700.5,284612.28125,291804.53125,306250.75,-0.104736328125,0.8740234375,-0.3896484375,2.288818120956421,-0.3662109076976776,-2.349853277206421,100.0,90903.0,1.0
178655.0489475,305043.21875,307075.625,334973.1875,318288.6875,313800.8125,284248.59375,291429.46875,306128.0,-0.104736328125,0.875,-0.391845703125,2.258300542831421,-0.1220703050494194,-2.410888433456421,100.0,90904.0,1.0
178655.0489962,304752.90625,305684.34375,333379.3125,317658.90625,312701.46875,284029.96875,291183.53125,306074.34375,-0.10693359375,0.875,-0.3876953125,2.075195074081421,0.1525878757238388,-2.410888433456421,100.0,90905.0,1.0
178655.0545251,304774.625,306274.875,333202.3125,317909.40625,312800.25,284245.1875,291381.65625,306163.84375,-0.109375,0.8759765625,-0.38818359375,1.9836424589157104,0.3967284858226776,-2.502441167831421,100.0,90906.0,1.0
178655.0608035,305161.9375,308232.28125,334993.21875,318843.0,314144.84375,284650.46875,291806.6875,306291.25,-0.112060546875,0.873779296875,-0.390625,2.136230230331421,0.6408690810203552,-2.593993902206421,100.0,90907.0,1.0
178655.0726237,305282.65625,308654.4375,335992.59375,319002.5,314702.28125,284621.6875,291806.15625,306252.34375,-0.1123046875,0.87353515625,-0.386962890625,2.105712652206421,0.6713866591453552,-2.532958745956421,100.0,90908.0,1.0
178655.0726723,305056.625,307103.96875,334990.4375,318304.5,313816.4375,284260.46875,291438.15625,306137.5625,-0.111328125,0.873046875,-0.38720703125,2.166747808456421,0.7629393935203552,-2.410888433456421,100.0,90909.0,1.0
178655.0772739,304760.5,305694.625,333393.09375,317667.9375,312709.78125,284032.84375,291189.59375,306076.125,-0.110595703125,0.87548828125,-0.38818359375,2.258300542831421,0.7934569716453552,-2.441406011581421,100.0,90910.0,1.0
178655.0773253,304769.90625,306253.15625,333186.28125,317900.65625,312786.3125,284235.71875,291382.8125,306167.5,-0.10986328125,0.878173828125,-0.390625,2.319335699081421,0.9155272841453552,-2.349853277206421,100.0,90911.0,1.0
178655.0820288,305160.15625,308216.90625,334976.9375,318838.1875,314133.75,284637.84375,291807.21875,306300.0,-0.10888671875,0.880615234375,-0.389892578125,2.258300542831421,1.0375975370407104,-2.288818120956421,100.0,90912.0,1.0
178655.0845355,305285.6875,308660.34375,335995.5625,319008.65625,314704.34375,284610.0625,291812.40625,306257.71875,-0.10693359375,0.8779296875,-0.3876953125,2.227782964706421,1.2207030057907104,-2.166747808456421,100.0,90913.0,1.0
178655.0870104,305051.09375,307104.40625,334994.1875,318306.375,313817.0625,284243.75,291440.21875,306134.96875,-0.10888671875,0.88037109375,-0.3876953125,2.044677495956421,1.3122557401657104,-1.9836424589157104,100.0,90914.0,1.0
178655.0895359,304763.28125,305700.875,333408.375,317671.0625,312720.0625,284021.9375,291190.125,306084.28125,-0.108154296875,0.8828125,-0.390869140625,1.9531248807907104,1.4038084745407104,-1.7700194120407104,100.0,90915.0,1.0
178655.0982842,304774.625,306252.25,333193.28125,317902.25,312789.96875,284227.65625,291381.65625,306171.625,-0.11181640625,0.8828125,-0.387451171875,1.8615721464157104,1.4953612089157104,-1.4343260526657104,100.0,90916.0,1.0
178655.102622,305158.1875,308207.3125,334966.21875,318835.5,314125.875,284632.59375,291805.96875,306296.875,-0.11181640625,0.883056640625,-0.39013671875,1.7395018339157104,1.5258787870407104,-1.3122557401657104,100.0,90917.0,1.0
178655.1026698,305282.71875,308664.46875,335989.28125,319009.3125,314699.34375,284606.5625,291813.125,306254.84375,-0.11376953125,0.88330078125,-0.388916015625,1.7089842557907104,1.6174315214157104,-1.1596678495407104,100.0,90918.0,1.0
178655.1163756,305056.90625,307132.46875,335009.9375,318315.9375,313824.75,284250.0,291445.9375,306139.875,-0.112548828125,0.88232421875,-0.388671875,1.6479490995407104,1.6784666776657104,-0.8850097060203552,100.0,90919.0,1.0
178655.1164246,304762.375,305711.34375,333419.03125,317674.625,312718.09375,284028.1875,291190.0625,306084.625,-0.111572265625,0.880615234375,-0.38623046875,1.6174315214157104,1.7395018339157104,-0.6103515028953552,100.0,90920.0,1.0
178655.1257152,304762.5625,306237.96875,333182.4375,317890.375,312776.1875,284227.65625,291377.71875,306169.84375,-0.111572265625,0.88037109375,-0.3896484375,1.4953612089157104,1.7089842557907104,-0.3662109076976776,100.0,90921.0,1.0
178655.1257655,305143.25,308194.375,334942.59375,318821.375,314108.46875,284633.46875,291805.0625,306296.53125,-0.111083984375,0.8818359375,-0.389404296875,1.4343260526657104,1.7395018339157104,-0.0915527269244194,100.0,90922.0,1.0
178655.1257775,305279.59375,308684.125,335994.46875,319012.25,314707.75,284617.90625,291818.125,306255.84375,-0.110595703125,0.880859375,-0.392578125,1.3732908964157104,1.9226073026657104,0.2746581733226776,100.0,90923.0,1.0
178655.1406574,305055.28125,307155.4375,335027.53125,318323.53125,313840.78125,284257.875,291447.4375,306136.125,-0.1123046875,0.8798828125,-0.390869140625,1.2512205839157104,1.8615721464157104,0.4577636420726776,100.0,90924.0,1.0
178655.1407007,304761.5,305718.875,333430.5625,317679.625,312726.5,284031.78125,291192.90625,306079.78125,-0.1103515625,0.87939453125,-0.391845703125,1.1901854276657104,1.8920897245407104,0.5187987685203552,100.0,90925.0,1.0
178655.1407124,304756.46875,306219.90625,333164.375,317880.09375,312757.6875,284226.84375,291374.3125,306163.46875,-0.111328125,0.879150390625,-0.3896484375,1.1291502714157104,1.8615721464157104,0.8850097060203552,100.0,90926.0,1.0
178655.1439466,305134.6875,308173.15625,334915.78125,318807.0625,314085.9375,284636.15625,291799.71875,306291.59375,-0.11181640625,0.880126953125,-0.38671875,1.0070799589157104,1.8310545682907104,1.0070799589157104,100.0,90927.0,1.0
178655.1439967,305272.0,308677.875,335980.53125,319008.03125,314697.28125,284619.4375,291817.3125,306254.0625,-0.10986328125,0.881103515625,-0.3896484375,0.8239745497703552,1.8920897245407104,1.2817381620407104,100.0,90928.0,1.0
178655.1457357,305052.15625,307164.84375,335033.53125,318324.875,313845.15625,284258.78125,291451.84375,306134.78125,-0.110107421875,0.8798828125,-0.38916015625,0.7934569716453552,1.9226073026657104,1.5869139432907104,100.0,90929.0,1.0
178655.1520052,304756.3125,305726.5625,333443.96875,317677.84375,312737.5,284029.25,291194.0625,306079.53125,-0.111083984375,0.881103515625,-0.390380859375,0.7019042372703552,1.8615721464157104,1.7395018339157104,100.0,90930.0,1.0
178655.1562938,304746.03125,306206.21875,333158.03125,317871.15625,312757.5,284215.21875,291371.28125,306166.0,-0.111572265625,0.880615234375,-0.388671875,0.6408690810203552,1.8615721464157104,1.8005369901657104,100.0,90931.0,1.0
178655.156346,305127.15625,308163.78125,334903.90625,318801.25,314080.125,284623.0,291798.90625,306294.90625,-0.109375,0.8818359375,-0.390380859375,0.5493163466453552,1.8615721464157104,1.9531248807907104,100.0,90932.0,1.0
178655.1720325,305271.1875,308696.125,335991.4375,319010.46875,314702.5625,284618.28125,291822.0625,306259.9375,-0.111083984375,0.88134765625,-0.392578125,0.5187987685203552,1.7700194120407104,2.105712652206421,100.0,90933.0,1.0
178655.1769959,305047.59375,307184.15625,335052.03125,318325.59375,313849.71875,284262.0,291451.375,306138.1875,-0.110107421875,0.882080078125,-0.39306640625,0.3662109076976776,1.8005369901657104,2.288818120956421,100.0,90934.0,1.0
178655.1770454,304746.75,305724.75,333450.84375,317671.15625,312725.15625,284029.0,291187.8125,306075.9375,-0.110595703125,0.882568359375,-0.39111328125,0.3051757514476776,1.8310545682907104,2.471923589706421,100.0,90935.0,1.0
178655.1770572,304737.96875,306192.375,333155.4375,317858.0,312735.875,284211.03125,291364.03125,306158.375,-0.109130859375,0.879150390625,-0.389892578125,0.1831054538488388,1.8310545682907104,2.624511480331421,100.0,90936.0,1.0
178655.1819275,305122.34375,308156.09375,334902.375,318789.34375,314062.59375,284622.9375,291796.6875,306292.59375,-0.105224609375,0.878662109375,-0.389892578125,0.0610351525247097,1.7395018339157104,2.563476324081421,100.0,90937.0,1.0
178655.1894862,305270.125,308709.15625,336010.40625,319011.09375,314702.125,284626.78125,291826.4375,306259.5,-0.104248046875,0.879638671875,-0.392578125,0.0,1.6784666776657104,2.685546636581421,100.0,90938.0,1.0
178655.1920532,305047.9375,307204.4375,335087.34375,318330.78125,313859.0,284270.125,291457.28125,306137.5625,-0.105224609375,0.881103515625,-0.39404296875,-0.1525878757238388,1.7395018339157104,2.807616949081421,100.0,90939.0,1.0
178655.1963716,304753.625,305740.21875,333494.84375,317680.1875,312739.90625,284036.5,291193.53125,306079.09375,-0.10546875,0.881103515625,-0.3916015625,-0.2441406100988388,1.8005369901657104,2.807616949081421,100.0,90940.0,1.0
178655.1964209,304741.71875,306186.8125,333176.90625,317860.5,312736.6875,284218.53125,291367.0625,306165.4375,-0.103759765625,0.8798828125,-0.39453125,-0.3051757514476776,1.8615721464157104,2.685546636581421,100.0,90941.0,1.0
178655.2020288,305122.25,308147.6875,334909.625,318788.5625,314056.40625,284628.46875,291794.4375,306297.15625,-0.103271484375,0.881103515625,-0.39501953125,-0.3356933295726776,1.9836424589157104,2.807616949081421,100.0,90942.0,1.0
178655.2089552,305271.5625,308718.46875,336035.96875,319020.46875,314715.25,284628.5625,291826.71875,306264.78125,-0.10302734375,0.879150390625,-0.392333984375,-0.4272460639476776,2.044677495956421,2.929687261581421,100.0,90943.0,1.0
178655.2090101,305051.09375,307222.78125,335122.03125,318345.4375,313882.6875,284266.90625,291459.0625,306141.40625,-0.10205078125,0.87548828125,-0.39501953125,-0.6103515028953552,1.9836424589157104,2.838134527206421,100.0,90944.0,1.0
178655.2113256,304752.28125,305744.25,333516.46875,317684.1875,312749.5625,284026.65625,291189.875,306078.8125,-0.10107421875,0.87744140625,-0.396240234375,-0.5493163466453552,2.105712652206421,2.838134527206421,100.0,90945.0,1.0
178655.211374,304732.4375,306169.75,333174.9375,317846.125,312724.96875,284204.84375,291353.125,306155.96875,-0.10009765625,0.878662109375,-0.392578125,-0.5187987685203552,2.136230230331421,2.929687261581421,100.0,90946.0,1.0
178655.2245156,305116.25,308132.125,334898.53125,318776.03125,314042.5625,284620.78125,291784.4375,306287.65625,-0.099365234375,0.87744140625,-0.39111328125,-0.4882812201976776,2.166747808456421,2.868652105331421,100.0,90947.0,1.0
178655.2275784,305269.78125,308723.125,336039.4375,319019.03125,314711.3125,284627.21875,291820.46875,306253.6875,-0.10107421875,0.879150390625,-0.391357421875,-0.6103515028953552,2.288818120956421,2.838134527206421,100.0,90948.0,1.0
178655.2276305,305052.40625,307236.0,335141.09375,318349.65625,313885.65625,284271.1875,291459.875,306134.34375,-0.098876953125,0.8779296875,-0.393310546875,-0.7629393935203552,2.319335699081421,2.899169683456421,100.0,90949.0,1.0
178655.2295127,304764.09375,305759.90625,333550.4375,317693.0625,312763.0625,284030.0625,291193.4375,306076.5625,-0.1005859375,0.876953125,-0.39111328125,-0.6408690810203552,2.380370855331421,2.807616949081421,100.0,90950.0,1.0
178655.2407787,304743.96875,306167.6875,333199.34375,317851.375,312733.375,284201.0,291355.53125,306155.6875,-0.099609375,0.876220703125,-0.392578125,-0.7629393935203552,2.441406011581421,2.899169683456421,100.0,90951.0,1.0
178655.2439485,305120.8125,308121.3125,334907.8125,318780.25,314040.6875,284618.625,291788.09375,306288.90625,-0.098388671875,0.87646484375,-0.3955078125,-0.8544921278953552,2.532958745956421,2.838134527206421,100.0,90952.0,1.0
178655.2439987,305275.3125,308725.53125,336051.78125,319028.96875,314712.03125,284632.59375,291828.5,306259.5,-0.099365234375,0.875732421875,-0.3896484375,-0.8850097060203552,2.593993902206421,2.868652105331421,100.0,90953.0,1.0
178655.2457834,305063.875,307257.03125,335169.25,318367.71875,313899.25,284279.4375,291464.78125,306142.84375,-0.09912109375,0.8759765625,-0.392578125,-0.7934569716453552,2.624511480331421,2.777099370956421,100.0,90954.0,1.0
178655.2550018,304770.625,305769.375,333574.5,317705.21875,312768.59375,284035.15625,291193.90625,306084.8125,-0.098876953125,0.8759765625,-0.395263671875,-0.8239745497703552,2.716064214706421,2.899169683456421,100.0,90955.0,1.0
178655.2550501,304739.9375,306151.21875,333192.1875,317847.1875,312714.25,284202.90625,291351.53125,306164.03125,-0.09814453125,0.878173828125,-0.39306640625,-0.8544921278953552,2.685546636581421,2.807616949081421,100.0,90956.0,1.0
178655.2570326,305115.71875,308107.46875,334893.53125,318773.8125,314020.9375,284618.71875,291784.96875,306299.65625,-0.0986328125,0.876220703125,-0.39208984375,-0.7934569716453552,2.777099370956421,2.807616949081421,100.0,90957.0,1.0
178655.265778,305278.625,308743.9375,336066.28125,319034.0625,314717.3125,284633.65625,291832.875,306275.15625,-0.095947265625,0.874755859375,-0.3896484375,-0.6713866591453552,2.838134527206421,2.777099370956421,100.0,90958.0,1.0
178655.2726255,305060.375,307274.90625,335189.71875,318367.09375,313906.40625,284274.78125,291466.40625,306150.6875,-0.095947265625,0.875244140625,-0.39111328125,-0.7324218153953552,2.899169683456421,2.624511480331421,100.0,90959.0,1.0
178655.2726736,304763.0,305768.65625,333589.4375,317702.0,312770.03125,284031.59375,291194.78125,306091.40625,-0.0966796875,0.87646484375,-0.396240234375,-0.6713866591453552,2.838134527206421,2.532958745956421,100.0,90960.0,1.0
178655.2745266,304735.28125,306139.53125,333194.625,317839.9375,312707.0,284198.34375,291349.09375,306166.875,-0.096435546875,0.877685546875,-0.39501953125,-0.7629393935203552,2.929687261581421,2.563476324081421,100.0,90961.0,1.0
178655.2832806,305118.84375,308104.3125,334896.75,318770.5,314013.78125,284614.4375,291783.96875,306292.6875,-0.095703125,0.8779296875,-0.393798828125,-0.8544921278953552,2.899169683456421,2.502441167831421,100.0,90962.0,1.0
178655.2857782,305284.0,308751.46875,336078.25,319042.5625,314713.75,284633.65625,291835.9375,306271.65625,-0.09228515625,0.876220703125,-0.392822265625,-0.7629393935203552,2.960204839706421,2.563476324081421,100.0,90963.0,1.0
178655.2933033,305075.3125,307300.125,335223.15625,318386.3125,313920.6875,284279.6875,291474.4375,306159.5625,-0.093017578125,0.878662109375,-0.394775390625,-0.8239745497703552,3.051757574081421,2.471923589706421,100.0,90964.0,1.0
178655.2989516,304778.65625,305786.90625,333617.59375,317713.4375,312778.53125,284028.90625,291199.53125,306097.6875,-0.092529296875,0.87939453125,-0.394775390625,-0.7629393935203552,3.021239995956421,2.410888433456421,100.0,90965.0,1.0
178655.2990036,304745.5625,306134.96875,333202.9375,317842.96875,312700.84375,284187.96875,291351.25,306173.21875,-0.091796875,0.876220703125,-0.39404296875,-0.7324218153953552,3.021239995956421,2.593993902206421,100.0,90966.0,1.0
178655.300804,305117.78125,308085.5625,334879.3125,318762.34375,313991.40625,284599.78125,291777.8125,306299.03125,-0.09228515625,0.877197265625,-0.395751953125,-0.7629393935203552,3.082275152206421,2.502441167831421,100.0,90967.0,1.0
178655.3033017,305278.1875,308750.125,336068.40625,319030.9375,314698.09375,284623.375,291829.9375,306266.125,-0.093505859375,0.878662109375,-0.396240234375,-0.8239745497703552,3.051757574081421,2.410888433456421,100.0,90968.0,1.0
178655.3057062,305056.09375,307296.625,335211.09375,318367.625,313898.4375,284264.125,291464.96875,306134.4375,-0.09423828125,0.87841796875,-0.3955078125,-0.8239745497703552,3.021239995956421,2.441406011581421,100.0,90969.0,1.0
178655.3145288,304756.9375,305780.46875,333612.3125,317695.09375,312760.90625,284012.09375,291183.4375,306066.65625,-0.09423828125,0.8779296875,-0.393798828125,-0.8544921278953552,3.082275152206421,2.380370855331421,100.0,90970.0,1.0
178655.3213461,304713.65625,306105.46875,333180.84375,317808.375,312671.25,284169.625,291327.5625,306135.3125,-0.094970703125,0.8779296875,-0.392578125,-0.8544921278953552,2.929687261581421,2.349853277206421,100.0,90971.0,1.0
178655.3213982,305082.90625,308057.03125,334852.125,318723.09375,313961.46875,284586.4375,291763.15625,306269.25,-0.094970703125,0.877685546875,-0.393798828125,-0.9155272841453552,2.868652105331421,2.380370855331421,100.0,90972.0,1.0
178655.3401275,305250.28125,308746.375,336063.21875,319005.625,314686.5625,284614.6875,291827.34375,306247.875,-0.093017578125,0.876708984375,-0.392822265625,-0.9460448622703552,2.899169683456421,2.319335699081421,100.0,90973.0,1.0
178655.3401754,305043.75,307312.4375,335231.3125,318356.71875,313907.375,284261.90625,291470.875,306127.8125,-0.093017578125,0.877685546875,-0.390869140625,-0.9155272841453552,2.899169683456421,2.136230230331421,100.0,90974.0,1.0
178655.3420296,304743.25,305777.0625,333624.65625,317676.5,312757.59375,284011.5625,291188.15625,306066.125,-0.0927734375,0.87939453125,-0.388916015625,-0.8544921278953552,2.899169683456421,2.197265386581421,100.0,90975.0,1.0
178655.3445085,304701.78125,306087.5625,333180.75,317785.125,312655.21875,284166.9375,291329.625,306141.5625,-0.09228515625,0.88037109375,-0.38818359375,-0.7934569716453552,2.807616949081421,2.136230230331421,100.0,90976.0,1.0
178655.3470521,305081.46875,308040.3125,334846.65625,318712.46875,313943.3125,284583.40625,291768.40625,306282.03125,-0.089111328125,0.880615234375,-0.39111328125,-0.9155272841453552,2.777099370956421,2.014159917831421,100.0,90977.0,1.0
178655.3495503,305262.34375,308759.0625,336080.5625,319018.3125,314691.125,284622.375,291839.21875,306268.4375,-0.092041015625,0.880859375,-0.39208984375,-0.9460448622703552,2.716064214706421,2.044677495956421,100.0,90978.0,1.0
178655.3519952,305066.09375,307343.28125,335271.34375,318386.5,313932.5,284277.1875,291489.65625,306157.3125,-0.092041015625,0.880615234375,-0.3935546875,-1.0375975370407104,2.593993902206421,2.075195074081421,100.0,90979.0,1.0
178655.3544789,304780.34375,305813.53125,333675.0,317715.59375,312791.03125,284025.96875,291208.71875,306097.6875,-0.09423828125,0.880615234375,-0.393310546875,-1.0681151151657104,2.624511480331421,2.136230230331421,100.0,90980.0,1.0
178655.3576231,304740.125,306103.84375,333216.15625,317818.5,312680.0,284176.4375,291345.875,306166.6875,-0.0927734375,0.87939453125,-0.39404296875,-1.0681151151657104,2.502441167831421,2.075195074081421,100.0,90981.0,1.0
178655.3576706,305113.84375,308052.84375,334871.25,318739.65625,313962.375,284593.15625,291780.21875,306304.46875,-0.091552734375,0.877197265625,-0.392333984375,-1.1596678495407104,2.410888433456421,2.044677495956421,100.0,90982.0,1.0
178655.3682772,305290.78125,308780.59375,336110.34375,319043.375,314712.21875,284631.59375,291850.40625,306286.78125,-0.092041015625,0.87841796875,-0.389404296875,-1.1596678495407104,2.319335699081421,2.044677495956421,100.0,90983.0,1.0
178655.371423,305087.375,307362.25,335300.40625,318400.96875,313949.84375,284283.4375,291492.0625,306163.3125,-0.093017578125,0.87939453125,-0.388916015625,-1.0681151151657104,2.258300542831421,1.9226073026657104,100.0,90984.0,1.0
178655.3714718,304787.34375,305813.1875,333692.53125,317717.53125,312798.90625,284026.125,291201.03125,306093.03125,-0.092529296875,0.878662109375,-0.390625,-1.0681151151657104,2.166747808456421,1.9226073026657104,100.0,90985.0,1.0
178655.4057641,304734.59375,306084.625,333207.5625,317805.53125,312668.65625,284171.96875,291333.09375,306161.78125,-0.09228515625,0.877685546875,-0.388671875,-1.1596678495407104,1.9836424589157104,1.8920897245407104,100.0,90986.0,1.0
178655.4083007,305102.125,308031.8125,334846.84375,318717.5625,313941.71875,284588.25,291765.125,306298.75,-0.091796875,0.879150390625,-0.3876953125,-1.1291502714157104,1.8920897245407104,1.8920897245407104,100.0,90987.0,1.0
178655.410845,305279.34375,308775.6875,336099.09375,319029.40625,314701.84375,284628.46875,291839.21875,306279.09375,-0.092529296875,0.87890625,-0.39306640625,-1.0070799589157104,1.7700194120407104,1.7395018339157104,100.0,90988.0,1.0
178655.4132181,305076.84375,307372.34375,335311.15625,318398.5625,313954.125,284283.4375,291488.75,306160.25,-0.09228515625,0.8759765625,-0.388916015625,-1.0375975370407104,1.6479490995407104,1.7700194120407104,100.0,90989.0,1.0
178655.4157787,304775.71875,305815.59375,333702.25,317709.84375,312796.40625,284024.78125,291198.53125,306092.65625,-0.0947265625,0.87353515625,-0.389404296875,-1.1596678495407104,1.4953612089157104,1.7700194120407104,100.0,90990.0,1.0
178655.4183127,304719.375,306066.84375,333200.96875,317787.28125,312655.78125,284165.6875,291324.59375,306158.375,-0.095458984375,0.873046875,-0.3935546875,-1.0986326932907104,1.3427733182907104,1.6784666776657104,100.0,90991.0,1.0
178655.4208033,305080.9375,308002.6875,334826.5625,318696.0,313921.40625,284579.46875,291756.53125,306288.28125,-0.0947265625,0.87060546875,-0.392333984375,-1.0375975370407104,1.1596678495407104,1.5563963651657104,100.0,90992.0,1.0
178655.4257794,305266.625,308769.78125,336099.53125,319023.4375,314700.25,284627.21875,291838.0625,306268.4375,-0.09423828125,0.8681640625,-0.391357421875,-0.9155272841453552,1.0375975370407104,1.3427733182907104,100.0,90993.0,1.0
178655.4282229,305068.6875,307377.90625,335322.0625,318392.46875,313959.0625,284282.71875,291485.1875,306146.75,-0.093017578125,0.8701171875,-0.3876953125,-0.6103515028953552,0.9155272841453552,1.1901854276657104,100.0,90994.0,1.0
178655.4307577,304770.34375,305809.78125,333713.875,317702.25,312800.53125,284018.8125,291193.53125,306081.40625,-0.09423828125,0.86962890625,-0.387939453125,-0.5187987685203552,0.7934569716453552,1.1901854276657104,100.0,90995.0,1.0
178655.4332188,304718.9375,306045.09375,333198.625,317778.875,312649.34375,284156.84375,291319.40625,306149.53125,-0.093017578125,0.871337890625,-0.392333984375,-0.4882812201976776,0.7019042372703552,1.0375975370407104,100.0,90996.0,1.0
178655.4363729,305088.90625,307988.28125,334818.0625,318694.0625,313915.59375,284575.71875,291754.46875,306284.71875,-0.092041015625,0.87109375,-0.3916015625,-0.3967284858226776,0.6408690810203552,0.9765624403953552,100.0,90997.0,1.0
178655.4364208,305269.59375,308767.71875,336094.78125,319021.0,314695.6875,284621.3125,291837.53125,306267.28125,-0.089599609375,0.872314453125,-0.390869140625,-0.3356933295726776,0.5493163466453552,0.8850097060203552,100.0,90998.0,1.0
178655.4381862,305070.5625,307387.28125,335328.40625,318394.71875,313961.65625,284278.1875,291487.59375,306148.5625,-0.087646484375,0.87255859375,-0.39111328125,-0.2441406100988388,0.3967284858226776,0.9460448622703552,100.0,90999.0,1.0
178655.4408115,304777.9375,305823.5625,333736.59375,317712.53125,312813.21875,284013.71875,291195.59375,306080.0625,-0.08740234375,0.87353515625,-0.38916015625,-0.0610351525247097,0.3662109076976776,1.0986326932907104,100.0,91000.0,1.0
178655.4520316,304712.125,306031.4375,333191.03125,317772.4375,312636.375,284144.15625,291311.0,306144.0,-0.08740234375,0.876953125,-0.392822265625,0.03051757626235485,0.2746581733226776,1.0070799589157104,100.0,91001.0,1.0
178655.4520793,305077.46875,307968.15625,334790.0,318681.25,313889.21875,284568.03125,291745.1875,306281.84375,-0.086181640625,0.881103515625,-0.391357421875,0.0610351525247097,0.3662109076976776,0.9765624403953552,100.0,91002.0,1.0
178655.452091,305271.75,308779.8125,336091.84375,319027.34375,314690.3125,284628.125,291835.65625,306267.90625,-0.087646484375,0.88037109375,-0.392333984375,0.0915527269244194,0.2746581733226776,1.0070799589157104,100.0,91003.0,1.0
178655.4570319,305071.46875,307407.21875,335334.375,318403.46875,313961.65625,284281.03125,291483.40625,306143.90625,-0.091064453125,0.883544921875,-0.38916015625,-0.0610351525247097,0.2136230319738388,0.9765624403953552,100.0,91004.0,1.0
178655.4595261,304772.9375,305829.1875,333729.96875,317710.3125,312805.96875,284016.03125,291189.78125,306074.875,-0.096435546875,0.881591796875,-0.387451171875,-0.2136230319738388,0.0610351525247097,1.1596678495407104,100.0,91005.0,1.0
178655.4619746,304706.9375,306017.3125,333166.0,317758.5,312617.875,284143.34375,291305.46875,306133.875,-0.0947265625,0.87890625,-0.388916015625,-0.2746581733226776,-0.03051757626235485,1.1291502714157104,100.0,91006.0,1.0
178655.4645537,305067.1875,307946.0,334757.09375,318661.40625,313865.09375,284559.53125,291736.6875,306272.65625,-0.09375,0.876708984375,-0.387451171875,-0.3662109076976776,-0.1831054538488388,1.0986326932907104,100.0,91007.0,1.0
178655.4695276,305264.40625,308777.375,336079.78125,319016.8125,314683.875,284623.5625,291832.15625,306259.25,-0.090576171875,0.875732421875,-0.3896484375,-0.3356933295726776,-0.2136230319738388,1.1291502714157104,100.0,91008.0,1.0
178655.4720688,305072.8125,307420.90625,335347.96875,318404.0,313975.0625,284281.5625,291486.53125,306140.3125,-0.088623046875,0.874755859375,-0.392822265625,-0.2136230319738388,-0.3051757514476776,1.0986326932907104,100.0,91009.0,1.0
178655.4745038,304778.03125,305831.4375,333744.65625,317710.5625,312813.03125,284011.65625,291185.9375,306069.6875,-0.086669921875,0.876708984375,-0.3916015625,-0.03051757626235485,-0.3051757514476776,1.0681151151657104,100.0,91010.0,1.0
178655.4775778,304712.21875,306003.34375,333169.03125,317755.09375,312615.09375,284134.21875,291299.21875,306134.5,-0.084716796875,0.878173828125,-0.39111328125,-0.0915527269244194,-0.4272460639476776,1.0070799589157104,100.0,91011.0,1.0
178655.4776263,305077.53125,307934.09375,334751.46875,318664.71875,313860.96875,284553.53125,291736.0625,306275.40625,-0.084716796875,0.878662109375,-0.391357421875,-0.03051757626235485,-0.5187987685203552,1.0375975370407104,100.0,91012.0,1.0
178655.4794751,305273.6875,308778.625,336076.375,319024.59375,314681.1875,284619.15625,291830.8125,306262.8125,-0.085205078125,0.881103515625,-0.39208984375,-0.0610351525247097,-0.4577636420726776,1.1901854276657104,100.0,91013.0,1.0
178655.4982793,305087.8125,307438.875,335359.875,318418.9375,313985.25,284281.375,291489.1875,306148.375,-0.084716796875,0.88134765625,-0.391357421875,-0.03051757626235485,-0.3967284858226776,1.2817381620407104,100.0,91014.0,1.0
178655.5057139,304794.3125,305844.125,333755.90625,317726.5625,312822.875,284014.34375,291191.75,306079.34375,-0.085205078125,0.87890625,-0.3896484375,0.0,-0.3662109076976776,1.3427733182907104,100.0,91015.0,1.0
178655.5057614,304726.34375,305999.25,333166.625,317765.46875,312619.75,284140.40625,291301.0,306137.65625,-0.08349609375,0.87890625,-0.391357421875,-0.0915527269244194,-0.3967284858226776,1.3427733182907104,100.0,91016.0,1.0
178655.5057731,305089.96875,307928.65625,334738.3125,318666.5,313862.84375,284558.71875,291735.34375,306275.15625,-0.085693359375,0.882080078125,-0.39306640625,-0.1220703050494194,-0.3662109076976776,1.3732908964157104,100.0,91017.0,1.0
178655.5081524,305295.0625,308798.125,336084.59375,319039.4375,314700.6875,284631.78125,291839.40625,306266.125,-0.086669921875,0.88134765625,-0.391845703125,-0.1220703050494194,-0.3356933295726776,1.3427733182907104,100.0,91018.0,1.0
178655.5145566,305100.6875,307457.125,335371.5,318429.59375,314001.625,284291.59375,291494.75,306143.90625,-0.0869140625,0.8828125,-0.391357421875,-0.1831054538488388,-0.3051757514476776,1.3122557401657104,100.0,91019.0,1.0
178655.5170273,304803.59375,305853.96875,333769.84375,317731.3125,312838.0625,284023.375,291193.90625,306075.0625,-0.087158203125,0.884765625,-0.388916015625,-0.2136230319738388,-0.3967284858226776,1.3122557401657104,100.0,91020.0,1.0
178655.5195532,304728.59375,305990.5625,333163.59375,317752.875,312617.25,284145.5,291296.25,306133.09375,-0.0869140625,0.88525390625,-0.38623046875,-0.2441406100988388,-0.4272460639476776,1.2817381620407104,100.0,91021.0,1.0
178655.5226577,305083.0,307901.90625,334714.53125,318648.90625,313842.125,284565.09375,291729.34375,306269.25,-0.087646484375,0.884765625,-0.389892578125,-0.3967284858226776,-0.3967284858226776,1.2207030057907104,100.0,91022.0,1.0
178655.522706,305291.21875,308789.625,336076.09375,319032.625,314689.25,284640.375,291836.0,306261.90625,-0.088134765625,0.88623046875,-0.38916015625,-0.5493163466453552,-0.4577636420726776,1.2512205839157104,100.0,91023.0,1.0
178655.5282544,305100.875,307470.25,335385.53125,318430.03125,314005.0,284294.8125,291492.6875,306139.34375,-0.083740234375,0.885498046875,-0.39111328125,-0.7324218153953552,-0.4272460639476776,1.2207030057907104,100.0,91024.0,1.0
178655.537577,304801.625,305862.0,333788.71875,317729.53125,312841.46875,284018.625,291192.625,306072.09375,-0.0849609375,0.884521484375,-0.388916015625,-0.7934569716453552,-0.4272460639476776,1.1901854276657104,100.0,91025.0,1.0
178655.5376272,304716.59375,305970.625,333156.34375,317743.28125,312599.875,284131.90625,291292.78125,306131.21875,-0.082763671875,0.88671875,-0.390625,-0.8850097060203552,-0.3662109076976776,1.0681151151657104,100.0,91026.0,1.0
178655.5439132,305068.59375,307876.59375,334690.84375,318636.28125,313817.0625,284549.78125,291725.78125,306270.21875,-0.083740234375,0.885009765625,-0.39013671875,-0.9460448622703552,-0.1525878757238388,1.0375975370407104,100.0,91027.0,1.0
178655.5439647,305280.9375,308788.75,336070.28125,319026.90625,314686.03125,284630.25,291843.0625,306265.0625,-0.081298828125,0.883056640625,-0.389404296875,-1.0070799589157104,-0.1220703050494194,0.9460448622703552,100.0,91028.0,1.0
178655.557622,305096.6875,307483.5625,335399.28125,318428.40625,314018.78125,284288.8125,291507.25,306146.6875,-0.08154296875,0.883056640625,-0.3876953125,-1.0986326932907104,-0.0915527269244194,0.9155272841453552,100.0,91029.0,1.0
178655.5576996,304797.6875,305863.78125,333796.9375,317723.28125,312847.28125,284009.5,291198.4375,306073.28125,-0.080322265625,0.880859375,-0.38720703125,-1.1596678495407104,0.0,0.9460448622703552,100.0,91030.0,1.0
178655.560735,304710.34375,305950.0625,333147.21875,317725.9375,312592.375,284120.71875,291290.71875,306129.15625,-0.0810546875,0.879638671875,-0.388916015625,-1.2207030057907104,0.0915527269244194,0.7324218153953552,100.0,91031.0,1.0
178655.5607948,305060.75,307852.46875,334668.5625,318617.4375,313802.9375,284541.21875,291726.125,306270.6875,-0.080322265625,0.8779296875,-0.390380859375,-1.2512205839157104,0.2136230319738388,0.8239745497703552,100.0,91032.0,1.0
178655.5608099,305277.625,308786.3125,336058.125,319020.28125,314680.3125,284628.5625,291848.53125,306269.96875,-0.079345703125,0.87841796875,-0.387939453125,-1.2512205839157104,0.3967284858226776,0.8544921278953552,100.0,91033.0,1.0
178655.5645538,305094.25,307496.28125,335404.03125,318428.6875,314027.09375,284292.375,291512.53125,306149.34375,-0.078369140625,0.87744140625,-0.39111328125,-1.2817381620407104,0.4882812201976776,0.9155272841453552,100.0,91034.0,1.0
178655.5757186,304786.96875,305860.65625,333795.6875,317716.125,312850.0625,284009.15625,291197.46875,306073.28125,-0.080322265625,0.876220703125,-0.38916015625,-1.2817381620407104,0.7324218153953552,0.9155272841453552,100.0,91035.0,1.0
178655.5826278,304695.78125,305931.375,333129.96875,317712.09375,312585.0625,284115.53125,291286.875,306128.34375,-0.0810546875,0.875732421875,-0.388671875,-1.2817381620407104,0.7324218153953552,0.9155272841453552,100.0,91036.0,1.0
178655.582677,305047.5,307835.3125,334646.75,318604.28125,313795.625,284534.21875,291720.0625,306264.34375,-0.08154296875,0.876220703125,-0.3876953125,-1.2512205839157104,0.9460448622703552,0.8850097060203552,100.0,91037.0,1.0
178655.5851316,305268.34375,308785.875,336050.71875,319016.90625,314684.15625,284626.78125,291844.0625,306262.46875,-0.08447265625,0.8740234375,-0.38671875,-1.1901854276657104,1.0070799589157104,0.7324218153953552,100.0,91038.0,1.0
178655.5851809,305088.09375,307508.4375,335405.1875,318435.5625,314035.59375,284296.84375,291511.09375,306146.40625,-0.085205078125,0.873291015625,-0.386474609375,-1.1291502714157104,1.0681151151657104,0.6713866591453552,100.0,91039.0,1.0
178655.5870027,304789.125,305876.65625,333802.65625,317725.25,312860.15625,284013.4375,291197.90625,306069.34375,-0.08544921875,0.873779296875,-0.385986328125,-0.9765624403953552,1.0070799589157104,0.5493163466453552,100.0,91040.0,1.0
178655.5970588,304693.1875,305925.5625,333116.5625,317707.1875,312574.40625,284111.0625,291281.0625,306123.34375,-0.08740234375,0.8759765625,-0.3857421875,-1.0070799589157104,1.0375975370407104,0.3967284858226776,100.0,91041.0,1.0
178655.6063719,305048.40625,307829.84375,334629.15625,318602.40625,313782.75,284537.1875,291717.625,306265.75,-0.08837890625,0.87451171875,-0.3857421875,-0.9765624403953552,0.9460448622703552,0.2746581733226776,100.0,91042.0,1.0
178655.6064213,305273.78125,308807.5,336054.5625,319026.8125,314684.40625,284638.40625,291847.1875,306270.6875,-0.086181640625,0.8740234375,-0.38427734375,-1.0375975370407104,0.7934569716453552,0.2136230319738388,100.0,91043.0,1.0
178655.6149999,305090.6875,307539.28125,335419.875,318442.46875,314038.28125,284302.5,291514.78125,306153.5625,-0.087646484375,0.8740234375,-0.385986328125,-1.1596678495407104,0.7324218153953552,0.3051757514476776,100.0,91044.0,1.0
178655.6150482,304788.59375,305898.21875,333820.28125,317727.65625,312860.40625,284017.1875,291201.5,306079.875,-0.087890625,0.877197265625,-0.383056640625,-1.1901854276657104,0.6713866591453552,0.1831054538488388,100.0,91045.0,1.0
178655.6263993,304699.25,305943.625,333134.875,317710.46875,312577.0,284119.28125,291287.59375,306135.5,-0.087158203125,0.87939453125,-0.382080078125,-1.0986326932907104,0.6713866591453552,0.0915527269244194,100.0,91046.0,1.0
178655.6264507,305045.71875,307836.1875,334625.3125,318595.6875,313766.5625,284537.28125,291722.90625,306276.21875,-0.090087890625,0.877685546875,-0.382568359375,-1.1596678495407104,0.6103515028953552,0.0610351525247097,100.0,91047.0,1.0
178655.628949,305269.40625,308823.875,336057.875,319026.28125,314674.03125,284636.15625,291857.375,306275.5,-0.08984375,0.879638671875,-0.38330078125,-1.1291502714157104,0.5187987685203552,0.1220703050494194,100.0,91048.0,1.0
178655.6289967,305100.0,307581.03125,335456.53125,318458.0,314054.8125,284308.9375,291529.625,306163.5625,-0.090087890625,0.881591796875,-0.38330078125,-1.1901854276657104,0.4577636420726776,0.0915527269244194,100.0,91049.0,1.0
178655.6308023,304802.4375,305933.78125,333864.09375,317743.5625,312877.78125,284023.625,291213.21875,306086.40625,-0.08837890625,0.881103515625,-0.383056640625,-1.2817381620407104,0.3356933295726776,0.0915527269244194,100.0,91050.0,1.0
178655.6333167,304704.71875,305950.4375,333149.8125,317709.78125,312566.0,284115.4375,291285.25,306133.09375,-0.08984375,0.88037109375,-0.38134765625,-1.3732908964157104,0.2746581733226776,0.0915527269244194,100.0,91051.0,1.0
178655.6420535,305051.34375,307835.75,334626.5625,318592.03125,313745.71875,284533.78125,291717.90625,306273.28125,-0.089111328125,0.879150390625,-0.3828125,-1.4038084745407104,0.2136230319738388,0.0610351525247097,100.0,91052.0,1.0
178655.6463984,305284.53125,308844.875,336073.5,319034.78125,314664.3125,284639.90625,291858.0,306279.34375,-0.091552734375,0.879150390625,-0.386474609375,-1.4038084745407104,0.0610351525247097,0.0610351525247097,100.0,91053.0,1.0
178655.6464464,305122.96875,307621.53125,335491.125,318475.28125,314057.59375,284314.03125,291532.28125,306161.0625,-0.0927734375,0.88134765625,-0.385498046875,-1.4038084745407104,0.0610351525247097,0.03051757626235485,100.0,91054.0,1.0
178655.6482683,304832.9375,305982.96875,333911.375,317760.28125,312888.5,284028.375,291216.34375,306083.375,-0.09130859375,0.87890625,-0.38671875,-1.4343260526657104,-0.03051757626235485,0.1831054538488388,100.0,91055.0,1.0
178655.6575957,304731.71875,305981.34375,333191.5625,317717.1875,312574.6875,284117.59375,291288.9375,306131.125,-0.09130859375,0.878173828125,-0.385986328125,-1.4038084745407104,-0.1831054538488388,0.2441406100988388,100.0,91056.0,1.0
178655.6576451,305073.78125,307856.75,334659.09375,318594.0,313754.75,284532.4375,291718.25,306269.0625,-0.091552734375,0.876953125,-0.385009765625,-1.3122557401657104,-0.3051757514476776,0.1525878757238388,100.0,91057.0,1.0
178655.6594958,305307.78125,308882.71875,336120.1875,319044.78125,314688.875,284646.25,291863.625,306278.8125,-0.091064453125,0.87939453125,-0.385009765625,-1.3732908964157104,-0.5798339247703552,0.1831054538488388,100.0,91058.0,1.0
178655.6707396,305141.03125,307662.375,335543.78125,318481.34375,314084.5,284320.46875,291540.96875,306169.125,-0.093017578125,0.87841796875,-0.383544921875,-1.2512205839157104,-0.6408690810203552,0.1220703050494194,100.0,91059.0,1.0
178655.6825956,304848.3125,306013.09375,333961.28125,317770.125,312915.125,284035.625,291227.40625,306095.0,-0.092529296875,0.87890625,-0.38525390625,-1.3122557401657104,-0.7629393935203552,0.2136230319738388,100.0,91060.0,1.0
178655.6826445,304736.90625,305982.53125,333218.125,317725.5,312588.625,284118.84375,291295.625,306142.84375,-0.09423828125,0.877685546875,-0.385498046875,-1.2817381620407104,-1.0070799589157104,0.2136230319738388,100.0,91061.0,1.0
178655.6845098,305076.375,307849.96875,334662.40625,318599.1875,313754.21875,284535.125,291724.34375,306281.40625,-0.09375,0.87890625,-0.384765625,-1.2512205839157104,-1.1901854276657104,0.3051757514476776,100.0,91062.0,1.0
178655.6895537,305310.8125,308894.875,336142.4375,319055.34375,314701.84375,284650.1875,291870.53125,306284.375,-0.093017578125,0.878662109375,-0.385986328125,-1.1901854276657104,-1.1901854276657104,0.3356933295726776,100.0,91063.0,1.0
178655.6920528,305140.5625,307677.59375,335579.53125,318497.25,314105.6875,284328.15625,291545.15625,306172.0625,-0.093017578125,0.878662109375,-0.38916015625,-1.1291502714157104,-1.2207030057907104,0.3356933295726776,100.0,91064.0,1.0
178655.6944702,304851.0,306022.9375,334004.0,317785.125,312935.875,284042.75,291227.15625,306098.5625,-0.09228515625,0.879638671875,-0.388671875,-1.0681151151657104,-1.2817381620407104,0.3356933295726776,100.0,91065.0,1.0
178655.6970534,304736.625,305977.875,333248.15625,317726.21875,312594.34375,284122.78125,291292.6875,306146.40625,-0.090576171875,0.879638671875,-0.38916015625,-1.0681151151657104,-1.3427733182907104,0.3967284858226776,100.0,91066.0,1.0
178655.6994937,305066.09375,307830.28125,334673.84375,318589.96875,313749.65625,284538.625,291720.78125,306285.625,-0.089599609375,0.880126953125,-0.3837890625,-0.9765624403953552,-1.3732908964157104,0.3662109076976776,100.0,91067.0,1.0
178655.7033042,305300.53125,308888.6875,336153.25,319049.71875,314701.3125,284658.0625,291866.78125,306291.96875,-0.08984375,0.87890625,-0.386474609375,-0.9155272841453552,-1.4343260526657104,0.3662109076976776,100.0,91068.0,1.0
178655.7125666,305139.15625,307694.5625,335607.15625,318501.09375,314118.8125,284332.4375,291548.65625,306175.5625,-0.0888671875,0.880615234375,-0.3896484375,-1.0070799589157104,-1.4648436307907104,0.4577636420726776,100.0,91069.0,1.0
178655.712613,304850.0,306030.53125,334026.09375,317785.5,312944.65625,284044.28125,291232.34375,306096.0625,-0.089111328125,0.881103515625,-0.3876953125,-0.8544921278953552,-1.4953612089157104,0.3356933295726776,100.0,91070.0,1.0
178655.715014,304736.0,305964.0,333249.6875,317720.3125,312592.375,284122.4375,291290.8125,306143.46875,-0.087646484375,0.879638671875,-0.38623046875,-0.9765624403953552,-1.5258787870407104,0.3967284858226776,100.0,91071.0,1.0
178655.7150485,305067.625,307816.875,334669.46875,318588.09375,313750.75,284541.5625,291718.8125,306281.5,-0.0849609375,0.880615234375,-0.385986328125,-0.8850097060203552,-1.5258787870407104,0.3967284858226776,100.0,91072.0,1.0
178655.7269257,305305.96875,308893.625,336166.3125,319059.09375,314717.0625,284660.125,291873.65625,306286.59375,-0.08642578125,0.8818359375,-0.390380859375,-0.8239745497703552,-1.4648436307907104,0.3662109076976776,100.0,91073.0,1.0
178655.7295539,305139.6875,307703.25,335631.65625,318509.5,314141.1875,284337.71875,291550.625,306174.03125,-0.086669921875,0.885009765625,-0.38916015625,-0.7629393935203552,-1.4648436307907104,0.3051757514476776,100.0,91074.0,1.0
178655.7320552,304842.59375,306023.46875,334047.0,317786.75,312960.03125,284038.5625,291225.71875,306091.0625,-0.087646484375,0.884765625,-0.39013671875,-0.7934569716453552,-1.4038084745407104,0.3051757514476776,100.0,91075.0,1.0
178655.7408089,304726.8125,305941.5625,333253.15625,317706.90625,312589.78125,284104.625,291279.375,306129.25,-0.088623046875,0.88623046875,-0.387939453125,-0.7934569716453552,-1.3427733182907104,0.2746581733226776,100.0,91076.0,1.0
178655.7488746,305055.28125,307783.4375,334649.96875,318566.09375,313729.5625,284517.6875,291706.8125,306269.25,-0.08935546875,0.88720703125,-0.38818359375,-0.8239745497703552,-1.3732908964157104,0.2441406100988388,100.0,91077.0,1.0
178655.7489284,305294.4375,308869.21875,336146.8125,319046.84375,314694.875,284642.59375,291866.21875,306283.1875,-0.0908203125,0.88525390625,-0.38671875,-0.9765624403953552,-1.3732908964157104,0.03051757626235485,100.0,91078.0,1.0
178655.7507824,305138.0625,307700.375,335633.1875,318512.375,314136.25,284324.125,291552.9375,306175.625,-0.089599609375,0.883056640625,-0.382568359375,-1.1596678495407104,-1.4648436307907104,0.0,100.0,91079.0,1.0
178655.753259,304849.03125,306024.0,334060.875,317792.1875,312961.375,284032.21875,291227.5,306100.09375,-0.08837890625,0.880615234375,-0.385009765625,-1.2207030057907104,-1.4343260526657104,-0.0915527269244194,100.0,91080.0,1.0
178655.7558128,304724.75,305915.65625,333256.21875,317703.40625,312583.71875,284100.15625,291274.90625,306139.25,-0.0849609375,0.874267578125,-0.3857421875,-1.2207030057907104,-1.3122557401657104,-0.0610351525247097,100.0,91081.0,1.0
178655.7607346,305052.25,307748.125,334639.96875,318559.9375,313717.375,284517.5,291704.0625,306281.3125,-0.081787109375,0.872314453125,-0.385498046875,-1.0070799589157104,-1.2512205839157104,-0.1525878757238388,100.0,91082.0,1.0
178655.7639464,305303.65625,308865.0,336164.53125,319055.875,314706.84375,284653.3125,291873.65625,306299.75,-0.084228515625,0.87158203125,-0.387939453125,-0.8239745497703552,-1.0986326932907104,-0.3051757514476776,100.0,91083.0,1.0
178655.7640092,305147.09375,307710.75,335664.03125,318522.21875,314154.9375,284338.0,291560.28125,306186.5625,-0.082275390625,0.875244140625,-0.38818359375,-0.5493163466453552,-0.9765624403953552,-0.3051757514476776,100.0,91084.0,1.0
178655.7669732,304852.59375,306032.0625,334087.15625,317797.65625,312977.90625,284045.4375,291235.71875,306110.03125,-0.0859375,0.881591796875,-0.3857421875,-0.4882812201976776,-0.8544921278953552,-0.3356933295726776,100.0,91085.0,1.0
178655.7758093,304725.1875,305910.5625,333261.21875,317705.125,312586.84375,284112.15625,291285.625,306151.3125,-0.08642578125,0.885498046875,-0.385986328125,-0.4882812201976776,-0.7934569716453552,-0.4577636420726776,100.0,91086.0,1.0
178655.7801278,305050.71875,307740.53125,334627.8125,318561.375,313712.65625,284531.1875,291712.53125,306295.4375,-0.087158203125,0.88720703125,-0.3876953125,-0.6713866591453552,-0.8239745497703552,-0.5798339247703552,100.0,91087.0,1.0
178655.7801799,305304.71875,308871.53125,336158.53125,319063.9375,314708.8125,284667.71875,291886.09375,306313.78125,-0.0849609375,0.882080078125,-0.3857421875,-0.7324218153953552,-0.9460448622703552,-0.5493163466453552,100.0,91088.0,1.0
178655.790802,305150.3125,307731.9375,335674.21875,318537.6875,314169.96875,284352.46875,291572.09375,306192.0,-0.081787109375,0.876220703125,-0.39013671875,-0.7629393935203552,-0.7629393935203552,-0.3356933295726776,100.0,91089.0,1.0
178655.8044636,304857.875,306041.96875,334103.34375,317811.78125,312991.03125,284056.09375,291241.8125,306109.5625,-0.082275390625,0.87158203125,-0.39013671875,-0.6103515028953552,-0.5798339247703552,-0.2746581733226776,100.0,91090.0,1.0
178655.8045124,304725.46875,305888.5625,333255.84375,317705.28125,312579.9375,284115.1875,291284.09375,306146.21875,-0.0849609375,0.87353515625,-0.386962890625,-0.3662109076976776,-0.4577636420726776,-0.2136230319738388,100.0,91091.0,1.0
178655.804524,305044.65625,307707.09375,334601.53125,318549.375,313694.59375,284524.5625,291708.0625,306285.0625,-0.088623046875,0.873779296875,-0.38525390625,-0.1525878757238388,-0.3662109076976776,-0.3356933295726776,100.0,91092.0,1.0
178655.8076487,305304.375,308866.25,336147.09375,319062.125,314706.6875,284670.59375,291883.65625,306304.75,-0.0947265625,0.876953125,-0.38720703125,0.1220703050494194,-0.3051757514476776,-0.3356933295726776,100.0,91093.0,1.0
178655.8076972,305150.40625,307738.5625,335674.59375,318542.40625,314174.0,284358.8125,291573.25,306188.25,-0.100341796875,0.87890625,-0.388916015625,0.0,-0.3662109076976776,-0.4272460639476776,100.0,91094.0,1.0
178655.8094734,304860.65625,306048.15625,334104.59375,317815.53125,312994.96875,284058.78125,291243.0625,306106.53125,-0.10595703125,0.878662109375,-0.385986328125,0.03051757626235485,-0.6713866591453552,-0.5493163466453552,100.0,91095.0,1.0
178655.8120533,304722.59375,305878.4375,333241.90625,317698.40625,312573.34375,284111.6875,291278.8125,306148.09375,-0.105224609375,0.8779296875,-0.3857421875,-0.03051757626235485,-0.8239745497703552,-0.7019042372703552,100.0,91096.0,1.0
178655.8170536,305038.5625,307687.34375,334571.75,318539.28125,313677.15625,284524.5,291702.71875,306289.625,-0.103271484375,0.87548828125,-0.383544921875,0.0915527269244194,-0.9155272841453552,-0.7934569716453552,100.0,91097.0,1.0
178655.8257797,305292.5625,308854.28125,336118.65625,319052.46875,314686.65625,284669.15625,291880.0,306306.34375,-0.100830078125,0.8740234375,-0.384033203125,0.1525878757238388,-1.0986326932907104,-0.8850097060203552,100.0,91098.0,1.0
178655.8297436,305144.5,307748.5625,335672.96875,318539.90625,314173.0,284358.46875,291572.0,306193.34375,-0.099609375,0.872314453125,-0.386962890625,0.4577636420726776,-1.1596678495407104,-1.0070799589157104,100.0,91099.0,1.0
178655.8297975,304852.96875,306054.3125,334108.15625,317814.03125,312996.9375,284057.0625,291241.1875,306113.0625,-0.096923828125,0.87353515625,-0.38916015625,0.6408690810203552,-1.3427733182907104,-1.0681151151657104,100.0,91100.0,1.0
178655.8345455,304716.4375,305870.5,333231.4375,317690.53125,312564.9375,284104.28125,291270.78125,306148.09375,-0.096435546875,0.87646484375,-0.386962890625,0.7629393935203552,-1.4038084745407104,-1.1291502714157104,100.0,91101.0,1.0
178655.8382564,305028.28125,307666.78125,334540.90625,318524.53125,313655.59375,284512.34375,291691.09375,306287.125,-0.096435546875,0.877197265625,-0.38623046875,0.8850097060203552,-1.4953612089157104,-1.0375975370407104,100.0,91102.0,1.0
178655.8469731,305290.5,308853.1875,336106.0625,319053.09375,314685.40625,284663.4375,291877.6875,306309.46875,-0.095703125,0.877685546875,-0.38427734375,0.8850097060203552,-1.5869139432907104,-1.0375975370407104,100.0,91103.0,1.0
178655.8501048,305153.1875,307765.46875,335674.5,318551.625,314185.625,284358.5625,291576.90625,306200.0625,-0.09521484375,0.88037109375,-0.383544921875,0.7019042372703552,-1.5869139432907104,-0.9765624403953552,100.0,91104.0,1.0
178655.8501556,304866.09375,306066.5625,334112.71875,317824.375,313008.125,284053.84375,291244.0625,306117.625,-0.09423828125,0.880615234375,-0.38330078125,0.7934569716453552,-1.5869139432907104,-0.8850097060203552,100.0,91105.0,1.0
178655.8520286,304718.9375,305854.21875,333217.9375,317685.0,312556.625,284093.0,291267.65625,306145.875,-0.091552734375,0.881103515625,-0.3837890625,0.8239745497703552,-1.6174315214157104,-0.7019042372703552,100.0,91106.0,1.0
178655.8658008,305032.65625,307650.84375,334521.0625,318516.03125,313643.53125,284501.875,291689.65625,306284.1875,-0.09033203125,0.88134765625,-0.385498046875,0.8544921278953552,-1.4953612089157104,-0.6408690810203552,100.0,91107.0,1.0
178655.8689477,305294.8125,308852.84375,336094.625,319051.0625,314680.21875,284657.78125,291877.3125,306306.1875,-0.09130859375,0.880859375,-0.38671875,0.8850097060203552,-1.4038084745407104,-0.4577636420726776,100.0,91108.0,1.0
178655.8690035,305149.25,307765.28125,335665.5625,318547.875,314180.6875,284350.3125,291573.4375,306190.125,-0.091796875,0.883056640625,-0.3876953125,0.8544921278953552,-1.4343260526657104,-0.4577636420726776,100.0,91109.0,1.0
178655.8708017,304867.09375,306066.84375,334108.71875,317821.96875,313006.15625,284045.28125,291237.6875,306106.71875,-0.09130859375,0.88330078125,-0.39013671875,0.8239745497703552,-1.4038084745407104,-0.3051757514476776,100.0,91110.0,1.0
178655.8732562,304733.9375,305854.21875,333218.65625,317690.375,312561.53125,284091.40625,291265.875,306143.46875,-0.09375,0.88232421875,-0.385986328125,0.7934569716453552,-1.3427733182907104,-0.0610351525247097,100.0,91111.0,1.0
178655.8876267,305045.53125,307635.84375,334504.5,318518.90625,313638.0,284501.6875,291686.0625,306283.8125,-0.093505859375,0.884765625,-0.384521484375,0.6713866591453552,-1.2207030057907104,-0.0915527269244194,100.0,91112.0,1.0
178655.8876766,305313.3125,308854.0,336089.96875,319062.40625,314684.59375,284661.375,291878.40625,306304.3125,-0.0927734375,0.884765625,-0.384765625,0.6408690810203552,-1.2817381620407104,-0.0610351525247097,100.0,91113.0,1.0
178655.8901127,305167.9375,307786.40625,335680.125,318563.59375,314195.53125,284360.875,291574.5,306187.25,-0.0947265625,0.885009765625,-0.388671875,0.6103515028953552,-1.3732908964157104,0.03051757626235485,100.0,91114.0,1.0
178655.890162,304881.5625,306087.5,334125.25,317833.59375,313022.6875,284055.71875,291242.625,306107.875,-0.0947265625,0.884033203125,-0.3876953125,0.5187987685203552,-1.3122557401657104,0.1220703050494194,100.0,91115.0,1.0
178655.8958023,304737.53125,305853.59375,333210.78125,317686.53125,312557.34375,284092.28125,291267.90625,306145.15625,-0.094482421875,0.8857421875,-0.385009765625,0.3967284858226776,-1.2512205839157104,0.0610351525247097,100.0,91116.0,1.0
178655.9008278,305032.125,307615.09375,334464.1875,318499.21875,313608.125,284494.8125,291681.59375,306283.1875,-0.09765625,0.8837890625,-0.385009765625,0.3356933295726776,-1.2512205839157104,0.0610351525247097,100.0,91117.0,1.0
178655.9033039,305299.28125,308849.53125,336061.09375,319051.3125,314662.5,284663.53125,291880.34375,306308.15625,-0.096923828125,0.882080078125,-0.383544921875,0.0915527269244194,-1.3122557401657104,0.0,100.0,91118.0,1.0
178655.905732,305156.84375,307798.375,335674.84375,318563.0625,314192.6875,284365.15625,291585.0625,306194.9375,-0.09912109375,0.88134765625,-0.385986328125,0.0610351525247097,-1.3122557401657104,-0.0610351525247097,100.0,91119.0,1.0
178655.909551,304865.1875,306087.5625,334121.3125,317825.90625,313016.34375,284055.625,291246.90625,306111.90625,-0.097900390625,0.881103515625,-0.38671875,0.0,-1.2207030057907104,-0.1831054538488388,100.0,91120.0,1.0
178655.9244928,304717.3125,305829.90625,333195.5,317671.5,312542.125,284093.8125,291263.90625,306146.84375,-0.098388671875,0.8798828125,-0.38671875,-0.0915527269244194,-1.3427733182907104,-0.2441406100988388,100.0,91121.0,1.0
178655.924541,305025.25,307594.25,334451.03125,318493.96875,313600.34375,284503.5625,291683.40625,306291.15625,-0.09619140625,0.88134765625,-0.3876953125,-0.0915527269244194,-1.4038084745407104,-0.3662109076976776,100.0,91122.0,1.0
178655.9245524,305300.34375,308852.9375,336061.25,319057.21875,314665.46875,284669.5,291887.15625,306316.8125,-0.09619140625,0.880126953125,-0.388427734375,-0.1220703050494194,-1.3732908964157104,-0.4882812201976776,100.0,91123.0,1.0
178655.9275829,305165.78125,307828.34375,335694.875,318578.53125,314210.28125,284371.0625,291594.0625,306206.75,-0.094482421875,0.8798828125,-0.3876953125,-0.1525878757238388,-1.3122557401657104,-0.4882812201976776,100.0,91124.0,1.0
178655.9276322,304880.125,306119.21875,334150.71875,317846.375,313038.6875,284062.0625,291257.5625,306121.1875,-0.095703125,0.87890625,-0.388427734375,-0.2441406100988388,-1.3427733182907104,-0.4882812201976776,100.0,91125.0,1.0
178655.9294181,304725.90625,305836.96875,333202.9375,317680.34375,312544.1875,284091.40625,291269.4375,306147.75,-0.093505859375,0.880126953125,-0.38720703125,-0.2136230319738388,-1.3122557401657104,-0.5493163466453552,100.0,91126.0,1.0
178655.9382783,305027.03125,307591.40625,334444.96875,318494.125,313593.375,284500.96875,291684.8125,306285.4375,-0.092041015625,0.87890625,-0.385986328125,-0.2136230319738388,-1.2817381620407104,-0.6103515028953552,100.0,91127.0,1.0
178655.9408011,305296.0625,308856.6875,336061.34375,319057.21875,314664.46875,284670.3125,291887.0625,306309.75,-0.094482421875,0.87744140625,-0.387451171875,-0.3051757514476776,-1.2512205839157104,-0.5798339247703552,100.0,91128.0,1.0
178655.9445159,305164.71875,307844.5,335708.5625,318581.40625,314218.25,284371.5,291595.34375,306197.28125,-0.093994140625,0.87646484375,-0.386474609375,-0.3356933295726776,-1.1291502714157104,-0.5493163466453552,100.0,91129.0,1.0
178655.9532966,304875.9375,306124.40625,334154.125,317839.5,313035.125,284057.0625,291252.90625,306113.3125,-0.0947265625,0.87744140625,-0.386474609375,-0.3662109076976776,-1.1291502714157104,-0.4272460639476776,100.0,91130.0,1.0
178655.9576029,304726.34375,305830.625,333199.875,317672.5,312539.625,284083.25,291263.71875,306143.1875,-0.094970703125,0.877197265625,-0.38623046875,-0.3356933295726776,-1.1596678495407104,-0.4272460639476776,100.0,91131.0,1.0
178655.9576548,305027.125,307570.9375,334420.8125,318480.09375,313574.96875,284485.875,291678.46875,306283.5625,-0.09375,0.878173828125,-0.38818359375,-0.3051757514476776,-1.0681151151657104,-0.3051757514476776,100.0,91132.0,1.0
178655.9683146,305311.53125,308864.1875,336055.1875,319060.34375,314657.0625,284662.96875,291891.09375,306314.21875,-0.093994140625,0.87744140625,-0.3828125,-0.1525878757238388,-1.0986326932907104,-0.3356933295726776,100.0,91133.0,1.0
178655.9714176,305186.8125,307871.5,335727.5,318594.28125,314226.28125,284363.75,291601.40625,306198.71875,-0.095458984375,0.87646484375,-0.383544921875,-0.1831054538488388,-1.0681151151657104,-0.1220703050494194,100.0,91134.0,1.0
178655.9714671,304893.53125,306139.6875,334180.84375,317850.84375,313045.125,284041.34375,291253.25,306110.65625,-0.09521484375,0.876953125,-0.385009765625,-0.2136230319738388,-0.9765624403953552,-0.03051757626235485,100.0,91135.0,1.0
178655.9732098,304738.78125,305824.53125,333208.65625,317670.6875,312532.5625,284070.21875,291261.65625,306137.8125,-0.095703125,0.87744140625,-0.390380859375,-0.2136230319738388,-0.9765624403953552,-0.0610351525247097,100.0,91136.0,1.0
178655.9819363,305038.125,307564.125,334420.5625,318473.75,313563.6875,284482.03125,291675.34375,306276.84375,-0.097412109375,0.879150390625,-0.387451171875,-0.1220703050494194,-0.8850097060203552,0.0610351525247097,100.0,91137.0,1.0
178655.98503,305317.4375,308868.65625,336063.78125,319056.25,314658.3125,284661.1875,291891.09375,306310.09375,-0.097900390625,0.877685546875,-0.38525390625,-0.1831054538488388,-0.9460448622703552,0.0915527269244194,100.0,91138.0,1.0
178655.9850653,305180.375,307877.40625,335739.75,318589.875,314228.96875,284367.03125,291605.34375,306199.34375,-0.09716796875,0.877685546875,-0.387939453125,-0.1525878757238388,-0.8850097060203552,0.2136230319738388,100.0,91139.0,1.0
178655.9932298,304886.40625,306143.71875,334190.15625,317844.6875,313043.625,284050.53125,291259.25,306113.15625,-0.097900390625,0.878662109375,-0.389404296875,-0.0610351525247097,-0.8239745497703552,0.2441406100988388,100.0,91140.0,1.0
178656.0000635,304726.96875,305812.5625,333202.21875,317653.0,312521.03125,284073.53125,291260.9375,306139.625,-0.0966796875,0.87939453125,-0.38525390625,-0.1525878757238388,-0.8544921278953552,0.2136230319738388,100.0,91141.0,1.0
178656.0000991,305014.6875,307529.8125,334390.4375,318447.1875,313539.28125,284475.59375,291671.6875,306277.125,-0.096435546875,0.876708984375,-0.386962890625,-0.1831054538488388,-0.8239745497703552,0.3356933295726776,100.0,91142.0,1.0
178656.0025627,305299.625,308848.5625,336041.875,319041.40625,314641.21875,284658.6875,291892.34375,306311.09375,-0.09716796875,0.87744140625,-0.38525390625,-0.2136230319738388,-0.7629393935203552,0.3662109076976776,100.0,91143.0,1.0
178656.0025967,305179.5625,307886.4375,335745.65625,318588.0,314237.28125,284365.6875,291607.9375,306198.25,-0.097900390625,0.87744140625,-0.38525390625,-0.1831054538488388,-0.8239745497703552,0.4272460639476776,100.0,91144.0,1.0
178656.0332065,304886.5625,306147.5625,334202.6875,317841.5625,313057.21875,284043.5625,291253.875,306104.375,-0.0986328125,0.873291015625,-0.38818359375,0.0,-0.8544921278953552,0.4272460639476776,100.0,91145.0,1.0
178656.0361272,304721.15625,305791.90625,333199.53125,317644.15625,312516.375,284056.625,291248.6875,306126.46875,-0.096435546875,0.87451171875,-0.387939453125,0.0610351525247097,-0.8544921278953552,0.4272460639476776,100.0,91146.0,1.0
178656.0361612,305010.03125,307503.96875,334376.46875,318440.5,313523.03125,284459.5,291663.0,306270.59375,-0.09765625,0.875,-0.385009765625,0.0,-0.9155272841453552,0.5493163466453552,100.0,91147.0,1.0
178656.041957,305299.09375,308844.15625,336035.875,319040.6875,314630.9375,284647.15625,291884.65625,306305.46875,-0.09765625,0.874267578125,-0.38720703125,0.1525878757238388,-0.8850097060203552,0.5493163466453552,100.0,91148.0,1.0
178656.044409,305177.40625,307896.28125,335756.75,318590.0625,314237.1875,284357.03125,291602.03125,306191.5625,-0.096923828125,0.87646484375,-0.38916015625,0.2136230319738388,-0.8850097060203552,0.5798339247703552,100.0,91149.0,1.0
178656.0468998,304888.71875,306161.5,334223.59375,317848.0,313062.84375,284039.53125,291254.5,306101.53125,-0.098876953125,0.879150390625,-0.3857421875,0.1220703050494194,-0.7629393935203552,0.5798339247703552,100.0,91150.0,1.0
178656.0494343,304721.34375,305785.8125,333205.15625,317643.53125,312509.5,284053.40625,291246.65625,306120.375,-0.09912109375,0.879638671875,-0.3876953125,0.2136230319738388,-0.7934569716453552,0.6103515028953552,100.0,91151.0,1.0
178656.051878,305012.8125,307488.84375,334363.6875,318432.96875,313506.3125,284459.03125,291653.875,306257.90625,-0.099853515625,0.878173828125,-0.38720703125,0.1220703050494194,-0.8850097060203552,0.6103515028953552,100.0,91152.0,1.0
178656.0544098,305308.75,308849.90625,336042.21875,319043.8125,314632.46875,284655.65625,291880.96875,306293.84375,-0.09716796875,0.87841796875,-0.387451171875,0.2746581733226776,-0.8850097060203552,0.6408690810203552,100.0,91153.0,1.0
178656.0568768,305188.21875,307913.90625,335775.0625,318599.1875,314247.65625,284369.90625,291605.4375,306186.1875,-0.0966796875,0.879638671875,-0.388427734375,0.2136230319738388,-0.7934569716453552,0.7324218153953552,100.0,91154.0,1.0
178656.0594256,304896.75,306168.65625,334238.96875,317851.9375,313069.90625,284053.40625,291256.65625,306096.0625,-0.093505859375,0.8798828125,-0.390380859375,0.2441406100988388,-0.7324218153953552,0.9155272841453552,100.0,91155.0,1.0
178656.0618877,304721.15625,305776.625,333208.8125,317635.8125,312508.875,284061.90625,291242.0,306111.34375,-0.09326171875,0.879638671875,-0.38916015625,0.1831054538488388,-0.6713866591453552,1.0681151151657104,100.0,91156.0,1.0
178656.0643845,305003.4375,307466.6875,334347.34375,318415.28125,313493.96875,284466.90625,291652.5625,306252.71875,-0.092041015625,0.882080078125,-0.3876953125,0.1525878757238388,-0.6713866591453552,1.0681151151657104,100.0,91157.0,1.0
178656.0674948,305297.03125,308836.84375,336026.9375,319033.25,314622.46875,284668.0625,291888.21875,306301.96875,-0.091064453125,0.885498046875,-0.386962890625,0.1220703050494194,-0.6103515028953552,1.0070799589157104,100.0,91158.0,1.0
178656.067515,305179.03125,307920.875,335777.40625,318599.1875,314250.4375,284379.90625,291614.90625,306195.125,-0.0908203125,0.885986328125,-0.3876953125,0.0,-0.5187987685203552,1.1291502714157104,100.0,91159.0,1.0
178656.06942,304890.25,306179.40625,334250.59375,317853.34375,313076.34375,284056.25,291262.75,306105.09375,-0.093017578125,0.885009765625,-0.386474609375,-0.0915527269244194,-0.5493163466453552,1.2207030057907104,100.0,91160.0,1.0
178656.0781632,304713.5625,305766.78125,333202.84375,317628.9375,312502.09375,284057.5,291243.34375,306124.40625,-0.092041015625,0.88232421875,-0.38916015625,-0.1220703050494194,-0.3967284858226776,1.2817381620407104,100.0,91161.0,1.0
178656.0824774,304987.25,307439.125,334316.21875,318400.96875,313469.65625,284448.125,291647.53125,306264.34375,-0.091064453125,0.88134765625,-0.387939453125,-0.2136230319738388,-0.4272460639476776,1.3122557401657104,100.0,91162.0,1.0
178656.0824987,305282.1875,308826.28125,336008.0625,319027.96875,314607.78125,284649.46875,291880.96875,306306.8125,-0.091796875,0.880126953125,-0.390380859375,-0.3356933295726776,-0.2746581733226776,1.4343260526657104,100.0,91163.0,1.0
178656.0843928,305170.53125,307928.71875,335775.6875,318601.6875,314250.25,284367.65625,291608.84375,306195.9375,-0.091796875,0.87939453125,-0.390869140625,-0.3051757514476776,-0.1831054538488388,1.4343260526657104,100.0,91164.0,1.0
178656.0981629,304888.71875,306185.375,334256.40625,317858.0,313082.34375,284040.0,291257.28125,306105.375,-0.09130859375,0.879638671875,-0.389404296875,-0.2746581733226776,-0.1831054538488388,1.3732908964157104,100.0,91165.0,1.0
178656.1037569,304714.8125,305755.59375,333203.375,317630.8125,312504.3125,284037.84375,291237.25,306124.9375,-0.091552734375,0.880126953125,-0.392822265625,-0.1831054538488388,-0.0610351525247097,1.3732908964157104,100.0,91166.0,1.0
178656.1037722,304993.5,307425.375,334313.8125,318400.15625,313475.09375,284426.9375,291637.4375,306260.75,-0.09228515625,0.879150390625,-0.38818359375,-0.3051757514476776,-0.03051757626235485,1.4648436307907104,100.0,91167.0,1.0
178656.1056759,305297.75,308831.21875,336015.03125,319033.0,314623.0,284632.125,291877.6875,306304.125,-0.091552734375,0.87744140625,-0.3857421875,-0.3662109076976776,0.0,1.4648436307907104,100.0,91168.0,1.0
178656.1082057,305187.96875,307949.28125,335803.0625,318613.21875,314273.78125,284354.96875,291606.15625,306187.875,-0.089111328125,0.878662109375,-0.38671875,-0.3051757514476776,0.1220703050494194,1.3732908964157104,100.0,91169.0,1.0
178656.1113015,304902.5625,306199.59375,334281.8125,317865.25,313098.15625,284031.3125,291254.5,306097.6875,-0.0888671875,0.879150390625,-0.38818359375,-0.2136230319738388,0.1831054538488388,1.4343260526657104,100.0,91170.0,1.0
178656.1113251,304728.40625,305758.1875,333220.09375,317630.46875,312513.25,284031.84375,291235.5625,306123.0625,-0.08984375,0.87939453125,-0.38623046875,-0.2746581733226776,0.2746581733226776,1.4343260526657104,100.0,91171.0,1.0
178656.1244545,304999.9375,307409.0,334306.21875,318394.0,313462.84375,284429.28125,291635.84375,306259.6875,-0.088623046875,0.877685546875,-0.387451171875,-0.1831054538488388,0.3051757514476776,1.4038084745407104,100.0,91172.0,1.0
178656.1274914,305303.46875,308825.5,336015.75,319033.4375,314614.59375,284645.8125,291880.8125,306301.71875,-0.088623046875,0.8798828125,-0.39013671875,-0.1831054538488388,0.3356933295726776,1.2817381620407104,100.0,91173.0,1.0
