Time,FZ,C3,CZ,C4,PZ,PO7,OZ,PO8,AccX,AccY,AccZ,Gyro1,Gyro2,Gyro3,Battery,Counter,Validation
1167858.6482624,301036.875,325076.46875,332176.96875,314758.875,302822.0,308930.53125,285806.6875,332465.6875,-0.0537109375,0.986083984375,-0.05419921875,13.885497093200684,7.110595226287842,0.3051757514476776,80.0,1319608.0,1.0
1167858.6482957,302186.84375,325276.5625,332659.6875,315652.0625,302939.90625,308998.21875,285953.84375,332536.9375,-0.0498046875,0.992919921875,-0.055419921875,14.251708030700684,6.896972179412842,0.1525878757238388,80.0,1319609.0,1.0
1167858.6483027,304910.8125,326227.21875,335627.90625,319246.6875,304414.6875,309162.0,286694.125,333440.125,-0.04736328125,0.99755859375,-0.058837890625,14.495848655700684,6.866454601287842,0.0610351525247097,80.0,1319610.0,1.0
1167858.6483104,305406.03125,326545.40625,336885.78125,320483.34375,305136.09375,309161.03125,286919.875,333839.0625,-0.047119140625,1.00244140625,-0.061279296875,14.709471702575684,6.774901866912842,-0.03051757626235485,80.0,1319611.0,1.0
1167858.6509032,303057.5625,325886.65625,334830.125,317792.65625,304204.65625,309048.5625,286437.8125,333294.5625,-0.04736328125,1.00732421875,-0.06103515625,14.923094749450684,6.805419445037842,-0.1831054538488388,80.0,1319612.0,1.0
1167858.6509399,301073.71875,325107.03125,332229.90625,314814.6875,302850.40625,308936.09375,285827.6875,332485.96875,-0.04736328125,1.008056640625,-0.06298828125,15.106200218200684,6.744384288787842,-0.3051757514476776,80.0,1319613.0,1.0
1167858.6565984,302190.15625,325291.03125,332682.3125,315667.8125,302955.75,309004.9375,285971.0,332554.0,-0.049560546875,1.0068359375,-0.06298828125,15.014647483825684,6.835937023162842,-0.3967284858226776,80.0,1319614.0,1.0
1167858.6841712,304895.25,326220.0625,335615.40625,319224.84375,304413.78125,309171.3125,286701.1875,333450.3125,-0.051513671875,1.001953125,-0.061279296875,15.167235374450684,6.713866710662842,-0.3967284858226776,80.0,1319615.0,1.0
1167858.6878088,305399.78125,326519.3125,336869.78125,320466.90625,305124.84375,309155.40625,286915.3125,333837.0,-0.05224609375,0.996337890625,-0.064453125,15.380858421325684,6.591796398162842,-0.6408690810203552,80.0,1319616.0,1.0
1167858.6878589,303106.375,325902.75,334874.65625,317849.0625,304232.375,309054.375,286462.90625,333321.03125,-0.054931640625,0.991943359375,-0.072021484375,15.899657249450684,6.469726085662842,-0.9460448622703552,80.0,1319617.0,1.0
1167858.687874,301129.875,325148.4375,332294.375,314888.53125,302900.65625,308953.34375,285869.09375,332528.71875,-0.053466796875,0.995849609375,-0.072021484375,16.448972702026367,6.439208507537842,-1.1901854276657104,80.0,1319618.0,1.0
1167858.6935696,302194.0,325306.0625,332690.625,315676.03125,302975.75,309012.0625,285986.1875,332569.84375,-0.054443359375,1.005859375,-0.06982421875,16.845701217651367,6.164550304412842,-1.5258787870407104,80.0,1319619.0,1.0
1167858.6936256,304862.96875,326201.03125,335572.9375,319180.96875,304403.5,309167.90625,286695.8125,333437.875,-0.05517578125,1.012939453125,-0.070556640625,16.998289108276367,5.889892101287842,-1.7089842557907104,80.0,1319620.0,1.0
1167858.6936419,305406.46875,326515.46875,336853.84375,320456.78125,305130.28125,309164.96875,286923.1875,333836.375,-0.0556640625,1.01318359375,-0.074951171875,16.998289108276367,5.584716320037842,-1.7700194120407104,80.0,1319621.0,1.0
1167858.6936554,303166.8125,325934.59375,334920.25,317908.15625,304273.96875,309085.03125,286495.8125,333347.0625,-0.057861328125,1.00390625,-0.078125,16.937253952026367,5.310058116912842,-1.8005369901657104,80.0,1319622.0,1.0
1167858.69367,301191.1875,325187.21875,332351.9375,314954.25,302947.15625,308983.65625,285902.4375,332552.5,-0.0576171875,0.99365234375,-0.081787109375,17.181394577026367,5.096435070037842,-2.014159917831421,80.0,1319623.0,1.0
1167858.6953434,302211.34375,325324.46875,332710.03125,315687.03125,302998.75,309030.40625,286007.84375,332578.0625,-0.057373046875,0.9853515625,-0.08251953125,17.639158248901367,4.852294445037842,-2.380370855331421,80.0,1319624.0,1.0
1167858.6978919,304856.4375,326203.25,335561.9375,319155.46875,304408.4375,309185.34375,286711.75,333440.5625,-0.05908203125,0.9794921875,-0.0810546875,18.188474655151367,4.577636241912842,-2.777099370956421,80.0,1319625.0,1.0
1167858.7065681,305410.3125,326514.125,336852.0625,320451.34375,305137.28125,309180.25,286937.5,333843.53125,-0.061279296875,0.9794921875,-0.082763671875,18.859861373901367,4.211425304412842,-3.234863042831421,80.0,1319626.0,1.0
1167858.7097135,303196.25,325943.96875,334953.34375,317944.375,304295.40625,309096.3125,286510.125,333358.59375,-0.064453125,0.977783203125,-0.08740234375,19.348142623901367,3.723144292831421,-3.692626714706421,80.0,1319627.0,1.0
1167858.7097682,301229.03125,325219.5,332408.09375,315010.65625,302987.03125,309001.34375,285924.0625,332575.65625,-0.06591796875,0.9755859375,-0.08837890625,19.622800827026367,3.356933355331421,-4.089354991912842,80.0,1319628.0,1.0
1167858.7114958,302220.90625,325353.0,332732.28125,315706.25,303027.1875,309053.03125,286020.1875,332593.53125,-0.059326171875,0.96826171875,-0.091064453125,19.897459030151367,3.051757574081421,-4.241942882537842,80.0,1319629.0,1.0
1167858.7191668,304836.0625,326207.71875,335534.9375,319125.0,304404.21875,309198.65625,286705.9375,333432.0625,-0.052978515625,0.960205078125,-0.092529296875,20.233152389526367,2.838134527206421,-4.302978038787842,80.0,1319630.0,1.0
1167858.7216258,305406.5625,326514.46875,336827.84375,320433.90625,305127.78125,309184.8125,286932.75,333829.5,-0.048828125,0.954833984375,-0.099365234375,20.843503952026367,2.777099370956421,-4.577636241912842,80.0,1319631.0,1.0
1167858.7303694,303243.09375,325973.65625,334985.875,317992.375,304320.4375,309109.53125,286532.65625,333373.34375,-0.046630859375,0.952392578125,-0.10205078125,21.514890670776367,2.685546636581421,-4.791259288787842,80.0,1319632.0,1.0
1167858.7334629,301279.53125,325250.8125,332453.96875,315068.78125,303019.5,309010.90625,285941.84375,332592.46875,-0.046630859375,0.955322265625,-0.104248046875,22.094724655151367,2.807616949081421,-5.004882335662842,80.0,1319633.0,1.0
1167858.7335112,302229.9375,325359.4375,332735.5,315716.34375,303036.75,309054.46875,286021.78125,332592.375,-0.0478515625,0.958251953125,-0.10888671875,22.583005905151367,2.685546636581421,-5.249022960662842,80.0,1319634.0,1.0
1167858.7366243,304822.03125,326208.96875,335502.46875,319100.84375,304396.71875,309203.84375,286703.34375,333422.875,-0.046630859375,0.95849609375,-0.110595703125,22.674558639526367,2.777099370956421,-5.310058116912842,80.0,1319635.0,1.0
1167858.7509641,305431.3125,326544.0625,336823.46875,320444.1875,305141.03125,309214.3125,286944.65625,333833.78125,-0.044677734375,0.955078125,-0.11181640625,22.766111373901367,2.899169683456421,-5.371093273162842,80.0,1319636.0,1.0
1167858.7510228,303296.65625,325996.375,335009.5625,318040.21875,304341.28125,309134.03125,286533.65625,333365.09375,-0.044921875,0.949462890625,-0.11865234375,22.949216842651367,2.899169683456421,-5.401610851287842,80.0,1319637.0,1.0
1167858.752867,301323.0625,325254.8125,332473.0,315111.59375,303028.0625,309016.71875,285927.09375,332563.5,-0.0478515625,0.94677734375,-0.1181640625,23.162839889526367,2.899169683456421,-5.432128429412842,80.0,1319638.0,1.0
1167858.7553383,302227.4375,325353.15625,332710.90625,315704.375,303016.90625,309047.125,285992.0,332540.78125,-0.052001953125,0.941650390625,-0.126953125,23.590085983276367,2.990722417831421,-5.584716320037842,80.0,1319639.0,1.0
1167858.7591868,304795.46875,326206.90625,335456.4375,319060.625,304373.5625,309206.8125,286686.4375,333377.71875,-0.052978515625,0.94384765625,-0.13232421875,23.834226608276367,3.021239995956421,-5.828856945037842,80.0,1319640.0,1.0
1167858.7684392,305418.8125,326543.1875,336787.15625,320420.3125,305122.78125,309217.4375,286937.5,333796.40625,-0.056640625,0.947509765625,-0.135498046875,24.017332077026367,3.082275152206421,-5.981444835662842,80.0,1319641.0,1.0
1167858.7684952,303315.6875,325995.46875,335002.25,318053.53125,304330.5625,309125.53125,286523.53125,333329.0,-0.055908203125,0.95166015625,-0.13916015625,24.047849655151367,3.112792730331421,-6.256103038787842,80.0,1319642.0,1.0
1167858.7703694,301358.84375,325263.40625,332489.0,315149.5,303032.0,309017.34375,285924.15625,332539.53125,-0.056396484375,0.951171875,-0.1435546875,24.108884811401367,3.021239995956421,-6.439208507537842,80.0,1319643.0,1.0
1167858.7822208,302240.125,325361.125,332709.125,315718.0625,303019.65625,309064.28125,285995.84375,332522.53125,-0.05419921875,0.9521484375,-0.149169921875,23.864744186401367,3.204345464706421,-6.439208507537842,80.0,1319644.0,1.0
1167858.7822723,304782.40625,326216.3125,335432.46875,319046.03125,304366.59375,309228.875,286700.84375,333360.0,-0.05615234375,0.95703125,-0.15478515625,23.712156295776367,3.204345464706421,-6.439208507537842,80.0,1319645.0,1.0
1167858.7847107,305419.53125,326555.4375,336781.0,320423.28125,305121.34375,309232.8125,286961.8125,333788.71875,-0.05712890625,0.955078125,-0.160400390625,23.437498092651367,3.234863042831421,-6.256103038787842,80.0,1319646.0,1.0
1167858.7847604,303355.5625,326016.40625,335034.4375,318101.375,304344.6875,309136.53125,286544.8125,333326.65625,-0.057373046875,0.95458984375,-0.16357421875,23.162839889526367,3.326415777206421,-6.134032726287842,80.0,1319647.0,1.0
1167858.7928699,301397.5625,325269.125,332521.1875,315198.15625,303040.125,309020.5625,285927.65625,332518.78125,-0.056640625,0.953125,-0.170654296875,22.918699264526367,3.479003667831421,-6.225585460662842,80.0,1319648.0,1.0
1167858.7972134,302242.1875,325354.96875,332706.96875,315720.71875,303009.5625,309063.9375,285993.1875,332489.46875,-0.057861328125,0.953369140625,-0.172119140625,22.705076217651367,3.540038824081421,-6.225585460662842,80.0,1319649.0,1.0
1167858.7972675,304771.25,326230.53125,335428.4375,319038.0,304368.53125,309250.34375,286730.0625,333357.34375,-0.060302734375,0.956298828125,-0.173828125,22.338865280151367,3.631591558456421,-6.225585460662842,80.0,1319650.0,1.0
1167858.8028725,305442.3125,326617.65625,336822.75,320460.1875,305163.09375,309277.625,287032.4375,333829.75,-0.062255859375,0.958740234375,-0.174560546875,21.942136764526367,3.692626714706421,-6.195067882537842,80.0,1319651.0,1.0
1167858.8091652,303402.25,326060.8125,335092.90625,318161.8125,304390.71875,309164.96875,286602.65625,333361.4375,-0.06591796875,0.961669921875,-0.179443359375,21.484373092651367,3.906249761581421,-6.317138195037842,80.0,1319652.0,1.0
1167858.815973,301437.96875,325280.5625,332565.625,315251.78125,303069.5625,309025.3125,285955.53125,332529.15625,-0.072265625,0.96337890625,-0.1748046875,21.087644577026367,3.997802495956421,-6.439208507537842,80.0,1319653.0,1.0
1167858.816023,302263.46875,325388.65625,332751.34375,315768.375,303053.0,309089.15625,286041.8125,332517.1875,-0.076171875,0.96533203125,-0.179443359375,20.477293014526367,3.997802495956421,-6.347655773162842,80.0,1319654.0,1.0
1167858.8177169,304782.6875,326310.375,335481.90625,319083.15625,304436.6875,309300.875,286818.21875,333422.25,-0.084228515625,0.963623046875,-0.175537109375,19.744871139526367,3.875732183456421,-6.164550304412842,80.0,1319655.0,1.0
1167858.8253904,305467.28125,326709.03125,336894.09375,320522.5,305251.4375,309329.03125,287129.90625,333917.46875,-0.0888671875,0.960693359375,-0.174072265625,19.042966842651367,3.601073980331421,-6.072997570037842,80.0,1319656.0,1.0
1167858.8278721,303449.34375,326136.09375,335180.6875,318244.59375,304486.28125,309200.8125,286676.25,333443.6875,-0.095703125,0.958251953125,-0.177001953125,18.341062545776367,3.326415777206421,-6.286620616912842,80.0,1319657.0,1.0
1167858.8315816,301483.125,325325.71875,332639.75,315318.125,303150.375,309046.3125,285996.03125,332583.0625,-0.10009765625,0.953857421875,-0.1787109375,17.761228561401367,3.143310308456421,-6.378173351287842,80.0,1319658.0,1.0
1167858.8409639,302281.78125,325422.09375,332789.875,315789.03125,303109.4375,309109.1875,286068.28125,332554.71875,-0.10498046875,0.95166015625,-0.1806640625,17.211912155151367,2.655029058456421,-6.622313976287842,80.0,1319659.0,1.0
1167858.8410187,304792.5,326371.78125,335521.59375,319099.25,304501.5,309336.625,286873.5625,333487.875,-0.110107421875,0.947509765625,-0.180908203125,16.906736373901367,2.197265386581421,-6.713866710662842,80.0,1319660.0,1.0
1167858.8428782,305489.96875,326774.84375,336950.875,320560.40625,305326.28125,309365.25,287194.0,333998.03125,-0.11767578125,0.947265625,-0.179443359375,16.510007858276367,1.6784666776657104,-6.774901866912842,80.0,1319661.0,1.0
1167858.8466244,303483.34375,326155.96875,335220.5625,318281.96875,304534.125,309207.875,286692.53125,333481.59375,-0.120849609375,0.94970703125,-0.176513671875,16.174314498901367,1.0986326932907104,-7.080077648162842,80.0,1319662.0,1.0
1167858.8609254,301505.46875,325285.40625,332634.03125,315321.53125,303150.71875,309023.53125,285955.1875,332561.59375,-0.126953125,0.950439453125,-0.17626953125,15.899657249450684,0.5493163466453552,-7.507323741912842,80.0,1319663.0,1.0
1167858.8609772,302268.65625,325351.28125,332737.46875,315745.40625,303071.875,309075.46875,286008.8125,332500.53125,-0.132080078125,0.95166015625,-0.174072265625,15.624999046325684,-0.0610351525247097,-7.934569835662842,80.0,1319664.0,1.0
1167858.8628692,304764.1875,326323.15625,335457.78125,319039.96875,304461.53125,309322.6875,286838.25,333441.28125,-0.13720703125,0.955078125,-0.17333984375,15.319823265075684,-0.8544921278953552,-8.300780296325684,80.0,1319665.0,1.0
1167858.8659734,305493.46875,326762.40625,336916.625,320532.96875,305308.84375,309374.34375,287187.46875,333973.875,-0.140625,0.955810546875,-0.174560546875,14.984129905700684,-1.6479490995407104,-8.666991233825684,80.0,1319666.0,1.0
1167858.8660221,303515.6875,326126.1875,335203.6875,318283.59375,304517.21875,309208.3125,286674.0,333447.71875,-0.146484375,0.954833984375,-0.16845703125,14.526366233825684,-2.410888433456421,-9.094237327575684,80.0,1319667.0,1.0
1167858.8678459,301509.03125,325203.59375,332576.625,315290.9375,303091.46875,308993.03125,285888.75,332475.0625,-0.147216796875,0.955322265625,-0.168701171875,14.129637718200684,-3.173827886581421,-9.552000999450684,80.0,1319668.0,1.0
1167858.881594,302241.8125,325273.6875,332654.6875,315685.15625,302998.03125,309055.875,285940.78125,332402.71875,-0.150390625,0.9541015625,-0.168212890625,14.007567405700684,-3.936767339706421,-10.040282249450684,80.0,1319669.0,1.0
1167858.8846295,304739.9375,326302.9375,335406.34375,318997.75,304425.3125,309338.40625,286824.3125,333391.84375,-0.153076171875,0.955322265625,-0.1669921875,13.763426780700684,-4.791259288787842,-10.528563499450684,80.0,1319670.0,1.0
1167858.8846671,305497.3125,326775.0,336903.125,320529.3125,305303.9375,309401.625,287205.0,333957.0625,-0.1552734375,0.956787109375,-0.167724609375,13.610838890075684,-5.493163585662842,-10.925292015075684,80.0,1319671.0,1.0
1167858.8865128,303538.40625,326122.59375,335205.1875,318298.15625,304512.5,309216.8125,286671.78125,333419.03125,-0.154296875,0.95703125,-0.165771484375,13.427733421325684,-6.103515148162842,-11.383055686950684,80.0,1319672.0,1.0
1167858.8902415,301529.59375,325178.1875,332576.09375,315300.6875,303079.46875,308992.125,285869.78125,332436.0,-0.154052734375,0.960205078125,-0.167724609375,13.244627952575684,-6.713866710662842,-11.718749046325684,80.0,1319673.0,1.0
1167858.9046225,302238.78125,325254.65625,332631.625,315664.03125,302978.71875,309061.6875,285928.0,332363.40625,-0.15625,0.963134765625,-0.16845703125,13.031004905700684,-7.354735851287842,-12.023924827575684,80.0,1319674.0,1.0
1167858.9046568,304728.15625,326322.875,335385.78125,318972.46875,304420.84375,309367.65625,286848.4375,333382.46875,-0.15478515625,0.965087890625,-0.16943359375,12.847899436950684,-7.751464366912842,-12.390135765075684,80.0,1319675.0,1.0
1167858.9065649,305504.1875,326824.8125,336926.71875,320547.1875,305331.46875,309442.40625,287260.53125,333987.65625,-0.152587890625,0.96923828125,-0.171630859375,12.634276390075684,-8.239745140075684,-12.634276390075684,80.0,1319676.0,1.0
1167858.9091708,303561.1875,326152.75,335245.15625,318337.84375,304543.4375,309248.5625,286714.96875,333446.75,-0.15185546875,0.970458984375,-0.171630859375,12.481688499450684,-8.575438499450684,-12.847899436950684,80.0,1319677.0,1.0
1167858.9116024,301550.875,325181.5,332600.3125,315329.5625,303091.375,309011.375,285892.0625,332439.9375,-0.14892578125,0.974853515625,-0.171630859375,12.298583030700684,-8.911131858825684,-13.000487327575684,80.0,1319678.0,1.0
1167858.9208981,302244.875,325268.21875,332645.75,315675.9375,302990.78125,309087.34375,285958.9375,332372.34375,-0.148193359375,0.976806640625,-0.172119140625,12.084959983825684,-9.155272483825684,-13.031004905700684,80.0,1319679.0,1.0
1167858.9209675,304734.21875,326381.34375,335421.375,318995.0,304463.9375,309416.65625,286912.90625,333423.9375,-0.14697265625,0.974853515625,-0.168701171875,11.810301780700684,-9.307860374450684,-12.817381858825684,80.0,1319680.0,1.0
1167858.9226506,305526.53125,326899.46875,336980.1875,320582.3125,305390.5625,309497.28125,287334.0,334039.78125,-0.148193359375,0.974609375,-0.17138671875,11.566161155700684,-9.490965843200684,-12.725829124450684,80.0,1319681.0,1.0
1167858.9303211,303599.8125,326200.03125,335300.78125,318386.65625,304588.84375,309283.15625,286767.1875,333484.28125,-0.15185546875,0.970703125,-0.174072265625,11.230467796325684,-9.460448265075684,-12.481688499450684,80.0,1319682.0,1.0
1167858.9327996,301577.875,325192.5,332630.1875,315360.40625,303109.53125,309028.71875,285912.8125,332451.90625,-0.15283203125,0.96728515625,-0.17919921875,10.986327171325684,-9.582518577575684,-12.298583030700684,80.0,1319683.0,1.0
1167858.9365241,302237.53125,325264.65625,332638.78125,315664.03125,302982.03125,309103.4375,285963.5,332368.5,-0.15283203125,0.96337890625,-0.177978515625,10.925292015075684,-9.704588890075684,-12.084959983825684,80.0,1319684.0,1.0
1167858.9433848,304720.8125,326405.5,335410.84375,318970.6875,304457.3125,309444.1875,286934.71875,333435.125,-0.155029296875,0.96044921875,-0.18212890625,10.833739280700684,-9.582518577575684,-11.810301780700684,80.0,1319685.0,1.0
1167858.9434174,305535.5625,326947.75,336993.59375,320585.53125,305406.75,309531.34375,287375.6875,334072.21875,-0.1572265625,0.958740234375,-0.1845703125,10.864256858825684,-9.582518577575684,-11.566161155700684,80.0,1319686.0,1.0
1167858.9452747,303628.0,326235.875,335341.28125,318425.46875,304620.9375,309310.875,286809.46875,333525.25,-0.158935546875,0.953857421875,-0.18408203125,10.803221702575684,-9.521483421325684,-11.108397483825684,80.0,1319687.0,1.0
1167858.9597137,301597.65625,325203.5,332664.6875,315392.875,303135.96875,309046.9375,285940.875,332487.9375,-0.1611328125,0.951904296875,-0.187744140625,10.833739280700684,-9.552000999450684,-10.742186546325684,80.0,1319688.0,1.0
1167858.9597627,302238.59375,325272.96875,332650.9375,315667.1875,302996.40625,309123.5625,285991.84375,332396.5625,-0.158447265625,0.949462890625,-0.193603515625,10.864256858825684,-9.490965843200684,-10.345458030700684,80.0,1319689.0,1.0
1167858.9615534,304717.59375,326434.1875,335426.03125,318971.84375,304477.90625,309476.375,286984.6875,333479.1875,-0.158935546875,0.94677734375,-0.1923828125,10.833739280700684,-9.338377952575684,-9.887694358825684,80.0,1319690.0,1.0
1167858.9641658,305553.375,326997.90625,337034.46875,320613.96875,305440.96875,309565.6875,287440.3125,334137.6875,-0.16259765625,0.94580078125,-0.193359375,10.925292015075684,-9.277342796325684,-9.460448265075684,80.0,1319691.0,1.0
1167858.9678917,303659.5625,326279.875,335390.71875,318466.0625,304655.0,309329.375,286855.78125,333585.59375,-0.16357421875,0.943603515625,-0.19287109375,10.925292015075684,-9.124754905700684,-8.972167015075684,80.0,1319692.0,1.0
1167858.9716226,301617.6875,325224.78125,332705.03125,315427.46875,303159.75,309051.5,285968.15625,332534.78125,-0.165283203125,0.94384765625,-0.19580078125,10.986327171325684,-9.094237327575684,-8.514403343200684,80.0,1319693.0,1.0
1167858.9809628,302235.75,325288.875,332670.59375,315679.78125,303014.03125,309132.59375,286015.0,332442.25,-0.165771484375,0.942626953125,-0.201904296875,10.864256858825684,-9.002684593200684,-8.026122093200684,80.0,1319694.0,1.0
1167858.981013,304720.4375,326482.28125,335447.65625,318981.5,304509.8125,309504.25,287024.03125,333541.59375,-0.169189453125,0.93994140625,-0.201171875,10.986327171325684,-8.972167015075684,-7.568358898162842,80.0,1319695.0,1.0
1167858.9835021,305577.875,327058.875,337081.65625,320647.15625,305491.9375,309596.96875,287491.1875,334210.1875,-0.170654296875,0.93896484375,-0.2001953125,11.138915061950684,-8.941649436950684,-7.110595226287842,80.0,1319696.0,1.0
1167858.9835586,303712.9375,326337.0,335465.28125,318533.84375,304721.15625,309361.21875,286909.78125,333659.96875,-0.17529296875,0.935791015625,-0.204833984375,11.169432640075684,-9.002684593200684,-6.774901866912842,80.0,1319697.0,1.0
1167858.9941049,301666.03125,325274.125,332775.90625,315490.6875,303219.65625,309077.25,286015.09375,332599.4375,-0.179443359375,0.9345703125,-0.207763671875,11.199950218200684,-8.972167015075684,-6.469726085662842,80.0,1319698.0,1.0
1167858.9971714,302248.875,325322.3125,332701.96875,315697.3125,303051.03125,309146.90625,286043.4375,332480.96875,-0.1826171875,0.932373046875,-0.213623046875,11.352538108825684,-9.063719749450684,-6.256103038787842,80.0,1319699.0,1.0
1167858.9972241,304712.6875,326504.8125,335449.0,318968.96875,304531.53125,309512.84375,287043.875,333562.0625,-0.1826171875,0.93212890625,-0.217529296875,11.322020530700684,-9.216307640075684,-5.859374523162842,80.0,1319700.0,1.0
1167859.000349,305581.96875,327085.6875,337090.96875,320648.21875,305514.9375,309604.40625,287509.4375,334224.84375,-0.181884765625,0.9306640625,-0.220947265625,11.444090843200684,-9.399413108825684,-5.584716320037842,80.0,1319701.0,1.0
1167859.0091668,303727.9375,326357.5625,335489.5,318560.21875,304743.96875,309359.4375,286923.46875,333668.09375,-0.17919921875,0.9287109375,-0.22412109375,11.474608421325684,-9.460448265075684,-5.340575695037842,80.0,1319702.0,1.0
1167859.0122136,301669.875,325275.03125,332793.96875,315518.9375,303238.4375,309074.84375,286026.4375,332602.5625,-0.177490234375,0.92529296875,-0.22705078125,11.657713890075684,-9.552000999450684,-4.943847179412842,80.0,1319703.0,1.0
1167859.0122615,302230.03125,325321.15625,332692.0625,315692.84375,303059.09375,309148.96875,286053.25,332483.65625,-0.17724609375,0.924560546875,-0.23046875,11.932372093200684,-9.613036155700684,-4.791259288787842,80.0,1319704.0,1.0
1167859.0203688,304677.8125,326505.625,335413.96875,318931.15625,304525.09375,309513.65625,287046.84375,333557.875,-0.17919921875,0.923095703125,-0.23486328125,12.115477561950684,-9.674071311950684,-4.486083507537842,80.0,1319705.0,1.0
1167859.033464,305566.875,327092.21875,337070.9375,320630.96875,305518.78125,309610.84375,287519.875,334229.5,-0.1806640625,0.920166015625,-0.238525390625,12.298583030700684,-9.735106468200684,-4.272460460662842,80.0,1319706.0,1.0
1167859.0335135,303743.59375,326378.3125,335515.15625,318594.0,304780.09375,309381.78125,286956.28125,333702.4375,-0.181396484375,0.918212890625,-0.240234375,12.542723655700684,-9.826659202575684,-3.997802495956421,80.0,1319707.0,1.0
1167859.0359987,301689.09375,325303.09375,332831.25,315564.34375,303283.59375,309095.5,286057.375,332644.125,-0.18212890625,0.91357421875,-0.2421875,12.756346702575684,-9.979247093200684,-3.814697027206421,80.0,1319708.0,1.0
1167859.0360541,302223.125,325329.46875,332696.625,315698.75,303083.3125,309159.78125,286065.0625,332506.1875,-0.18408203125,0.9140625,-0.246337890625,12.939452171325684,-10.070799827575684,-3.723144292831421,80.0,1319709.0,1.0
1167859.0378437,304662.4375,326515.90625,335406.09375,318915.875,304543.875,309529.125,287060.4375,333577.8125,-0.18310546875,0.9140625,-0.24853515625,13.153075218200684,-10.223387718200684,-3.692626714706421,80.0,1319710.0,1.0
1167859.0521655,305571.4375,327112.25,337077.09375,320629.53125,305539.5,309626.46875,287534.375,334250.15625,-0.18212890625,0.912353515625,-0.249267578125,13.366698265075684,-10.223387718200684,-3.570556402206421,80.0,1319711.0,1.0
1167859.052219,303774.71875,326401.90625,335549.21875,318623.40625,304806.8125,309392.5,286974.875,333725.5,-0.181396484375,0.914306640625,-0.251220703125,13.610838890075684,-10.375975608825684,-3.570556402206421,80.0,1319712.0,1.0
1167859.0541766,301714.15625,325307.3125,332870.5,315601.1875,303308.09375,309102.125,286078.1875,332670.25,-0.179443359375,0.91357421875,-0.2578125,13.824461936950684,-10.375975608825684,-3.448486089706421,80.0,1319713.0,1.0
1167859.056599,302211.5,325312.5,332697.15625,315686.40625,303075.90625,309150.21875,286067.46875,332507.96875,-0.178955078125,0.9130859375,-0.263427734375,13.885497093200684,-10.406493186950684,-3.295898199081421,80.0,1319714.0,1.0
1167859.060988,304644.0,326502.6875,335379.90625,318874.75,304521.625,309522.21875,287058.1875,333569.9375,-0.174072265625,0.9150390625,-0.263671875,14.007567405700684,-10.467528343200684,-3.204345464706421,80.0,1319715.0,1.0
1167859.0610367,305576.34375,327117.0,337067.4375,320611.125,305530.125,309623.8125,287543.03125,334253.8125,-0.17236328125,0.917236328125,-0.2685546875,14.099120140075684,-10.406493186950684,-3.051757574081421,80.0,1319716.0,1.0
1167859.062828,303811.0,326425.59375,335580.53125,318657.3125,304821.46875,309397.25,287002.59375,333753.65625,-0.171875,0.919677734375,-0.270751953125,13.916014671325684,-10.345458030700684,-2.868652105331421,80.0,1319717.0,1.0
1167859.0765577,301759.125,325353.4375,332931.9375,315661.71875,303345.71875,309121.59375,286128.53125,332721.03125,-0.168212890625,0.92138671875,-0.2734375,13.732909202575684,-10.345458030700684,-2.716064214706421,80.0,1319718.0,1.0
1167859.0796424,302225.5625,325349.9375,332736.40625,315718.75,303108.96875,309173.71875,286110.3125,332557.84375,-0.168212890625,0.92138671875,-0.2724609375,13.702391624450684,-10.253905296325684,-2.502441167831421,80.0,1319719.0,1.0
1167859.0796981,304628.71875,326511.78125,335374.8125,318857.21875,304530.46875,309537.78125,287071.34375,333590.875,-0.16943359375,0.921875,-0.2724609375,13.488768577575684,-10.131834983825684,-2.441406011581421,80.0,1319720.0,1.0
1167859.0815864,305577.78125,327127.0,337064.84375,320599.21875,305536.125,309643.75,287548.40625,334265.4375,-0.168212890625,0.921630859375,-0.274169921875,13.244627952575684,-10.009764671325684,-2.258300542831421,80.0,1319721.0,1.0
1167859.0903426,303831.3125,326439.46875,335601.625,318677.78125,304832.46875,309406.09375,287002.21875,333760.90625,-0.168701171875,0.920166015625,-0.2734375,12.939452171325684,-9.887694358825684,-2.319335699081421,80.0,1319722.0,1.0
1167859.0947376,301776.09375,325366.40625,332961.09375,315694.34375,303359.40625,309122.21875,286126.3125,332733.8125,-0.16845703125,0.916748046875,-0.275390625,12.634276390075684,-9.796141624450684,-2.227782964706421,80.0,1319723.0,1.0
1167859.0947879,302212.75,325350.03125,332733.71875,315717.6875,303107.46875,309170.96875,286099.75,332562.5,-0.170166015625,0.913818359375,-0.274658203125,12.329100608825684,-9.674071311950684,-1.9531248807907104,80.0,1319724.0,1.0
1167859.1028684,304592.0625,326495.875,335325.90625,318810.8125,304493.71875,309523.125,287037.71875,333568.40625,-0.168701171875,0.912353515625,-0.27685546875,12.145995140075684,-9.643553733825684,-2.075195074081421,80.0,1319725.0,1.0
1167859.1059135,305561.5,327118.0625,337022.5625,320568.09375,305499.0,309632.5625,287519.25,334239.59375,-0.17041015625,0.910400390625,-0.279296875,12.084959983825684,-9.552000999450684,-2.044677495956421,80.0,1319726.0,1.0
1167859.1059627,303847.03125,326445.09375,335598.3125,318692.625,304817.625,309405.65625,286991.84375,333747.21875,-0.170166015625,0.908203125,-0.281494140625,11.932372093200684,-9.307860374450684,-2.136230230331421,80.0,1319727.0,1.0
1167859.1078532,301797.1875,325382.6875,332978.25,315728.34375,303361.8125,309132.34375,286131.59375,332731.75,-0.17333984375,0.906005859375,-0.282470703125,11.871336936950684,-9.216307640075684,-2.136230230331421,80.0,1319728.0,1.0
1167859.1216458,302212.84375,325365.34375,332729.25,315719.5625,303102.375,309181.6875,286099.40625,332551.40625,-0.174560546875,0.906005859375,-0.279541015625,11.535643577575684,-9.094237327575684,-2.258300542831421,80.0,1319729.0,1.0
1167859.1247153,304568.0,326489.0,335283.5,318766.375,304467.78125,309525.53125,287019.125,333533.0,-0.1748046875,0.904541015625,-0.27880859375,11.383055686950684,-8.880614280700684,-2.502441167831421,80.0,1319730.0,1.0
1167859.1247722,305545.78125,327101.53125,336970.0,320517.6875,305460.84375,309622.625,287486.375,334183.71875,-0.175048828125,0.903564453125,-0.277099609375,11.383055686950684,-8.880614280700684,-2.624511480331421,80.0,1319731.0,1.0
1167859.1266003,303871.8125,326456.28125,335584.71875,318693.25,304798.59375,309404.3125,286976.28125,333706.375,-0.176025390625,0.902587890625,-0.2783203125,11.199950218200684,-8.850096702575684,-2.716064214706421,80.0,1319732.0,1.0
1167859.1302892,301833.40625,325416.8125,333000.875,315766.5,303363.625,309142.6875,286135.875,332714.3125,-0.179931640625,0.89990234375,-0.2783203125,11.108397483825684,-8.605956077575684,-2.868652105331421,80.0,1319733.0,1.0
1167859.1422165,302214.28125,325380.625,332720.75,315722.4375,303085.375,309182.125,286087.9375,332520.3125,-0.182861328125,0.89990234375,-0.2763671875,10.955809593200684,-8.453368186950684,-3.051757574081421,80.0,1319734.0,1.0
1167859.1422663,304545.3125,326490.96875,335240.6875,318732.84375,304430.6875,309523.5,286994.71875,333485.8125,-0.1826171875,0.902099609375,-0.277587890625,10.772704124450684,-8.453368186950684,-3.295898199081421,80.0,1319735.0,1.0
1167859.1441671,305546.65625,327115.65625,336948.1875,320507.40625,305436.5,309633.625,287477.0625,334150.0,-0.18310546875,0.901123046875,-0.276123046875,10.650633811950684,-8.300780296325684,-3.479003667831421,80.0,1319736.0,1.0
1167859.1466509,303901.125,326484.875,335604.5625,318728.1875,304797.4375,309420.65625,286983.1875,333693.3125,-0.179931640625,0.904541015625,-0.27587890625,10.375975608825684,-8.148192405700684,-3.753661870956421,80.0,1319737.0,1.0
1167859.1502838,301866.03125,325455.09375,333037.875,315814.96875,303373.90625,309155.3125,286151.25,332714.3125,-0.176025390625,0.90576171875,-0.28125,10.223387718200684,-7.781981945037842,-3.875732183456421,80.0,1319738.0,1.0
1167859.1647146,302231.09375,325424.25,332749.1875,315750.21875,303096.5625,309200.375,286110.375,332530.125,-0.173095703125,0.91015625,-0.283447265625,10.040282249450684,-7.507323741912842,-3.936767339706421,80.0,1319739.0,1.0
1167859.1647636,304539.40625,326523.34375,335239.53125,318723.03125,304427.90625,309533.6875,287011.15625,333487.3125,-0.1669921875,0.914306640625,-0.281494140625,9.857176780700684,-7.141112804412842,-3.784179449081421,80.0,1319740.0,1.0
1167859.1665939,305552.90625,327153.65625,336955.96875,320505.0625,305440.4375,309644.8125,287503.71875,334154.46875,-0.16552734375,0.919921875,-0.27978515625,9.582518577575684,-6.713866710662842,-3.570556402206421,80.0,1319741.0,1.0
1167859.178474,303930.8125,326528.4375,335642.21875,318760.84375,304817.71875,309430.9375,287019.03125,333705.40625,-0.166015625,0.92724609375,-0.275634765625,9.277342796325684,-6.286620616912842,-3.326415777206421,80.0,1319742.0,1.0
1167859.1785273,301894.21875,325504.28125,333088.65625,315865.375,303407.59375,309166.9375,286196.125,332737.65625,-0.169921875,0.9326171875,-0.275390625,8.850096702575684,-5.767821788787842,-2.899169683456421,80.0,1319743.0,1.0
1167859.1803936,302224.5625,325455.8125,332770.8125,315762.125,303117.46875,309204.40625,286146.25,332545.5,-0.17236328125,0.936767578125,-0.27587890625,8.209227561950684,-5.371093273162842,-2.471923589706421,80.0,1319744.0,1.0
1167859.1834627,304516.875,326538.25,335234.0625,318697.0,304435.15625,309536.0,287039.875,333495.8125,-0.169921875,0.9404296875,-0.27392578125,7.446288585662842,-4.882812023162842,-2.136230230331421,80.0,1319745.0,1.0
1167859.1835134,305537.53125,327155.625,336946.5625,320481.375,305440.4375,309639.53125,287519.625,334160.28125,-0.168212890625,0.940673828125,-0.272216796875,6.652831554412842,-4.577636241912842,-1.6174315214157104,80.0,1319746.0,1.0
1167859.197217,303951.28125,326558.09375,335681.5625,318791.875,304850.28125,309443.46875,287056.125,333744.46875,-0.159423828125,0.94189453125,-0.275634765625,5.889892101287842,-4.241942882537842,-1.1291502714157104,80.0,1319747.0,1.0
1167859.1972717,301920.0625,325539.9375,333149.5625,315916.1875,303451.59375,309182.65625,286238.96875,332790.3125,-0.15234375,0.94189453125,-0.27587890625,5.340575695037842,-3.723144292831421,-0.5493163466453552,80.0,1319748.0,1.0
1167859.1990902,302222.15625,325473.15625,332801.65625,315778.84375,303143.84375,309212.34375,286172.71875,332588.4375,-0.147216796875,0.94384765625,-0.272216796875,4.699706554412842,-3.173827886581421,0.0915527269244194,80.0,1319749.0,1.0
1167859.2022387,304491.21875,326538.96875,335227.71875,318672.3125,304438.46875,309539.40625,287050.40625,333524.34375,-0.142822265625,0.943603515625,-0.27392578125,4.241942882537842,-2.441406011581421,0.6103515028953552,80.0,1319750.0,1.0
1167859.2022883,305526.71875,327152.84375,336940.21875,320461.34375,305441.875,309645.25,287529.625,334182.125,-0.138671875,0.9482421875,-0.27734375,3.601073980331421,-1.6784666776657104,1.3122557401657104,80.0,1319751.0,1.0
1167859.2040991,303972.46875,326568.84375,335706.15625,318816.4375,304865.84375,309451.34375,287079.90625,333775.75,-0.13330078125,0.95263671875,-0.27587890625,2.838134527206421,-1.0681151151657104,2.044677495956421,80.0,1319752.0,1.0
1167859.2129007,301956.53125,325576.96875,333201.59375,315971.34375,303491.8125,309201.25,286282.21875,332840.65625,-0.131103515625,0.957275390625,-0.2783203125,2.014159917831421,-0.2441406100988388,2.716064214706421,80.0,1319753.0,1.0
1167859.2172398,302229.5625,325497.90625,332826.4375,315799.78125,303174.875,309227.375,286203.46875,332623.65625,-0.128662109375,0.958251953125,-0.277587890625,1.1596678495407104,0.5798339247703552,3.540038824081421,80.0,1319754.0,1.0
1167859.2172887,304466.4375,326528.25,335205.1875,318643.09375,304440.0625,309538.25,287055.34375,333524.0,-0.126708984375,0.959716796875,-0.2744140625,0.3356933295726776,1.1901854276657104,4.455565929412842,80.0,1319755.0,1.0
1167859.2191673,305503.5625,327137.375,336914.84375,320432.375,305439.375,309635.875,287529.53125,334171.46875,-0.128662109375,0.956298828125,-0.27490234375,-0.5493163466453552,1.8005369901657104,5.310058116912842,80.0,1319756.0,1.0
1167859.2278958,303981.0625,326577.6875,335718.84375,318830.9375,304889.625,309447.03125,287097.96875,333782.28125,-0.131103515625,0.94970703125,-0.27587890625,-1.4038084745407104,2.380370855331421,6.072997570037842,80.0,1319757.0,1.0
1167859.2316429,301978.59375,325613.0625,333245.40625,316019.53125,303539.75,309208.9375,286320.84375,332873.625,-0.13916015625,0.947265625,-0.2763671875,-1.9531248807907104,2.777099370956421,6.744384288787842,80.0,1319758.0,1.0
1167859.2384856,302233.875,325543.25,332861.21875,315832.03125,303224.5,309241.59375,286248.15625,332668.90625,-0.142333984375,0.94287109375,-0.278564453125,-2.502441167831421,3.204345464706421,7.293700695037842,80.0,1319759.0,1.0
1167859.2385352,304432.21875,326539.6875,335191.5,318616.8125,304453.46875,309534.46875,287071.78125,333543.375,-0.1474609375,0.940673828125,-0.279296875,-2.868652105331421,3.631591558456421,7.843017101287842,80.0,1319760.0,1.0
1167859.2478656,305479.25,327138.8125,336911.09375,320409.6875,305452.4375,309632.75,287551.28125,334196.0625,-0.14990234375,0.94140625,-0.279541015625,-3.234863042831421,3.753661870956421,8.270262718200684,80.0,1319761.0,1.0
1167859.250995,303997.78125,326615.40625,335769.625,318866.96875,304937.4375,309465.0,287146.09375,333839.5,-0.149169921875,0.943359375,-0.278564453125,-3.601073980331421,3.967284917831421,8.697508811950684,80.0,1319762.0,1.0
1167859.2510452,302004.53125,325679.9375,333323.625,316081.65625,303609.46875,309232.90625,286383.34375,332953.75,-0.147216796875,0.940185546875,-0.28173828125,-3.936767339706421,4.028319835662842,9.094237327575684,80.0,1319763.0,1.0
1167859.2591269,302227.6875,325593.6875,332913.15625,315858.40625,303284.03125,309254.09375,286298.3125,332744.09375,-0.145263671875,0.935546875,-0.286865234375,-4.180907726287842,4.028319835662842,9.552000999450684,80.0,1319764.0,1.0
1167859.2622453,304413.53125,326573.21875,335220.75,318614.5625,304505.875,309547.0,287122.125,333621.15625,-0.142578125,0.934814453125,-0.28857421875,-4.333495616912842,4.089354991912842,9.948729515075684,80.0,1319765.0,1.0
1167859.2622988,305480.0625,327173.21875,336946.65625,320422.46875,305510.375,309651.34375,287612.96875,334286.09375,-0.1416015625,0.93603515625,-0.28955078125,-4.272460460662842,4.150390148162842,10.131834983825684,80.0,1319766.0,1.0
1167859.2703964,304030.78125,326672.625,335846.5,318926.0625,305021.125,309489.96875,287232.34375,333956.28125,-0.138916015625,0.935546875,-0.28857421875,-4.119872570037842,4.119872570037842,10.559081077575684,80.0,1319767.0,1.0
1167859.2734236,302059.625,325778.65625,333448.25,316183.15625,303736.25,309281.625,286507.625,333114.0625,-0.13916015625,0.93798828125,-0.292724609375,-3.997802495956421,4.058837413787842,10.894774436950684,80.0,1319768.0,1.0
1167859.2734707,302254.0625,325684.59375,333021.25,315933.78125,303411.1875,309305.34375,286425.5625,332910.21875,-0.133056640625,0.941650390625,-0.292724609375,-3.936767339706421,4.058837413787842,11.291502952575684,80.0,1319769.0,1.0
1167859.2791688,304409.9375,326625.34375,335288.25,318646.5625,304609.21875,309589.28125,287230.46875,333770.65625,-0.126953125,0.939453125,-0.291259765625,-3.875732183456421,4.089354991912842,11.749266624450684,80.0,1319770.0,1.0
1167859.290965,305488.625,327216.0625,337014.0625,320455.28125,305611.21875,309690.21875,287710.6875,334429.78125,-0.120361328125,0.936767578125,-0.29443359375,-3.631591558456421,4.150390148162842,12.298583030700684,80.0,1319771.0,1.0
1167859.291015,304062.3125,326732.1875,335947.375,318995.96875,305140.21875,309529.375,287338.03125,334113.625,-0.11328125,0.9345703125,-0.29638671875,-3.326415777206421,4.241942882537842,12.756346702575684,80.0,1319772.0,1.0
1167859.2934607,302102.96875,325867.625,333576.03125,316283.71875,303873.59375,309325.625,286630.375,333294.375,-0.10595703125,0.934326171875,-0.29833984375,-3.021239995956421,4.302978038787842,13.275145530700684,80.0,1319773.0,1.0
1167859.2935162,302276.78125,325776.0625,333126.46875,316007.90625,303538.65625,309346.1875,286543.84375,333089.65625,-0.099609375,0.93310546875,-0.300537109375,-2.685546636581421,4.516601085662842,13.763426780700684,80.0,1319774.0,1.0
1167859.2953912,304400.71875,326685.59375,335344.5,318662.5,304710.15625,309616.65625,287322.03125,333924.875,-0.09033203125,0.932861328125,-0.302978515625,-2.319335699081421,4.760741710662842,14.404295921325684,80.0,1319775.0,1.0
1167859.3241717,305475.9375,327247.78125,337043.59375,320448.03125,305686.3125,309698.71875,287773.90625,334552.6875,-0.084228515625,0.932373046875,-0.306640625,-1.8615721464157104,5.096435070037842,14.953612327575684,80.0,1319776.0,1.0
1167859.3266438,304090.84375,326796.1875,336021.9375,319046.40625,305243.84375,309555.40625,287426.375,334260.59375,-0.0791015625,0.931884765625,-0.3046875,-1.3732908964157104,5.249022960662842,15.502928733825684,80.0,1319777.0,1.0
1167859.3291011,302145.0,325959.0,333686.4375,316373.125,304010.84375,309364.59375,286744.28125,333467.9375,-0.07275390625,0.930419921875,-0.306396484375,-1.0375975370407104,5.584716320037842,16.174314498901367,80.0,1319778.0,1.0
1167859.3316255,302287.34375,325851.875,333213.28125,316068.0,303668.65625,309376.6875,286643.53125,333252.8125,-0.06640625,0.927734375,-0.3076171875,-0.5798339247703552,5.920409679412842,16.754148483276367,80.0,1319779.0,1.0
1167859.3347124,304366.9375,326699.28125,335365.0625,318655.25,304789.125,309618.0,287376.21875,334039.78125,-0.0625,0.926025390625,-0.31201171875,0.03051757626235485,6.195067882537842,17.272947311401367,80.0,1319780.0,1.0
1167859.3347672,305444.8125,327228.5625,337042.25,320428.0,305739.5,309688.0,287806.71875,334641.03125,-0.058837890625,0.925048828125,-0.31591796875,0.6713866591453552,6.439208507537842,17.883298873901367,80.0,1319781.0,1.0
1167859.3366001,304107.125,326813.0,336066.0,319080.65625,305324.75,309555.03125,287484.75,334369.0625,-0.05810546875,0.925048828125,-0.31787109375,1.3122557401657104,6.774901866912842,18.402097702026367,80.0,1319782.0,1.0
1167859.3391599,302185.0625,326017.1875,333773.34375,316448.9375,304120.09375,309379.28125,286827.6875,333600.96875,-0.0556640625,0.924072265625,-0.319580078125,1.9836424589157104,7.080077648162842,18.859861373901367,80.0,1319783.0,1.0
1167859.3416497,302298.0625,325890.9375,333270.15625,316103.84375,303757.90625,309378.90625,286702.625,333366.28125,-0.058349609375,0.92578125,-0.31982421875,2.624511480331421,7.354735851287842,19.287107467651367,80.0,1319784.0,1.0
1167859.3441818,304344.59375,326691.9375,335368.28125,318633.34375,304841.25,309605.5625,287396.875,334116.5,-0.058837890625,0.92626953125,-0.322509765625,3.173827886581421,7.537841320037842,19.744871139526367,80.0,1319785.0,1.0
1167859.3493973,305419.09375,327189.6875,337021.75,320386.15625,305761.5,309661.96875,287796.875,334678.84375,-0.058349609375,0.926025390625,-0.321533203125,3.662109136581421,7.568358898162842,20.141599655151367,80.0,1319786.0,1.0
1167859.3494464,304117.21875,326802.0,336087.8125,319088.96875,305365.0,309543.78125,287490.03125,334414.5625,-0.060546875,0.924072265625,-0.322509765625,3.997802495956421,7.629394054412842,20.568845748901367,80.0,1319787.0,1.0
1167859.3541696,302217.0625,326048.21875,333844.6875,316503.40625,304196.0,309387.125,286860.25,333678.84375,-0.059326171875,0.920654296875,-0.3251953125,4.364013195037842,7.507323741912842,20.935056686401367,80.0,1319788.0,1.0
1167859.3565494,302301.8125,325918.75,333327.90625,316133.875,303826.375,309388.75,286731.15625,333443.59375,-0.060302734375,0.914794921875,-0.325927734375,4.760741710662842,7.324218273162842,21.179197311401367,80.0,1319789.0,1.0
1167859.3591226,304297.375,326663.53125,335356.90625,318589.625,304855.09375,309590.71875,287382.03125,334148.21875,-0.06103515625,0.91259765625,-0.32763671875,5.249022960662842,7.171630382537842,21.331785202026367,80.0,1319790.0,1.0
1167859.3709623,305370.34375,327130.40625,336982.59375,320328.6875,305749.15625,309635.96875,287764.96875,334689.0625,-0.061279296875,0.90869140625,-0.3251953125,5.676269054412842,6.896972179412842,21.392820358276367,80.0,1319791.0,1.0
1167859.371013,304109.90625,326779.65625,336091.75,319086.46875,305376.0625,309534.40625,287484.84375,334445.6875,-0.06103515625,0.907470703125,-0.3251953125,6.256103038787842,6.439208507537842,21.331785202026367,80.0,1319792.0,1.0
1167859.3734469,302229.21875,326070.84375,333892.875,316544.25,304242.84375,309399.03125,286892.625,333741.59375,-0.059326171875,0.905029296875,-0.32666015625,6.713866710662842,6.042479991912842,21.240232467651367,80.0,1319793.0,1.0
1167859.3734948,302290.1875,325936.625,333355.375,316151.125,303871.09375,309400.46875,286764.3125,333502.25,-0.05712890625,0.906494140625,-0.325927734375,7.019042491912842,5.615233898162842,21.057126998901367,80.0,1319794.0,1.0
1167859.3752976,304253.75,326636.875,335322.75,318545.8125,304860.5625,309587.21875,287385.34375,334168.0625,-0.052978515625,0.90771484375,-0.328369140625,7.446288585662842,5.249022960662842,20.904539108276367,80.0,1319795.0,1.0
1167859.3840447,305342.375,327092.21875,336943.53125,320286.375,305743.28125,309628.8125,287764.78125,334698.25,-0.05029296875,0.91552734375,-0.331298828125,7.751464366912842,4.852294445037842,20.843503952026367,80.0,1319796.0,1.0
1167859.3866019,304115.15625,326754.96875,336088.96875,319089.21875,305386.625,309528.59375,287498.0,334468.03125,-0.047119140625,0.920166015625,-0.329345703125,7.720946788787842,4.516601085662842,20.690916061401367,80.0,1319797.0,1.0
1167859.3959649,302258.1875,326090.15625,333937.40625,316598.0,304287.625,309404.125,286935.71875,333793.90625,-0.04248046875,0.921630859375,-0.331298828125,7.751464366912842,4.119872570037842,20.538328170776367,80.0,1319798.0,1.0
1167859.3960154,302301.1875,325960.34375,333389.59375,316186.09375,303914.28125,309404.40625,286803.84375,333558.75,-0.038818359375,0.92626953125,-0.3330078125,7.690429210662842,3.753661870956421,20.324705123901367,80.0,1319799.0,1.0
1167859.3978924,304236.3125,326624.34375,335314.09375,318532.9375,304875.5625,309580.96875,287401.0625,334207.15625,-0.032470703125,0.9287109375,-0.337158203125,7.690429210662842,3.448486089706421,20.233152389526367,80.0,1319800.0,1.0
1167859.4071816,305317.6875,327052.71875,336914.21875,320255.4375,305739.4375,309611.28125,287764.0625,334724.4375,-0.02880859375,0.93212890625,-0.341552734375,7.385253429412842,3.112792730331421,20.050046920776367,80.0,1319801.0,1.0
1167859.4072287,304130.0,326749.34375,336107.3125,319107.09375,305410.9375,309527.6875,287522.75,334519.25,-0.027099609375,0.9365234375,-0.343017578125,7.141112804412842,2.990722417831421,19.927976608276367,80.0,1319802.0,1.0
1167859.4091258,302292.53125,326117.25,333997.5625,316656.90625,304346.1875,309426.03125,286996.875,333882.5,-0.0234375,0.936767578125,-0.34375,6.683349132537842,2.685546636581421,19.775388717651367,80.0,1319803.0,1.0
1167859.4128749,302295.03125,325965.15625,333425.28125,316209.0625,303959.78125,309416.1875,286860.875,333642.09375,-0.02099609375,0.935791015625,-0.343994140625,6.408690929412842,2.471923589706421,19.592283248901367,80.0,1319804.0,1.0
1167859.4266103,304191.25,326587.875,335292.625,318491.625,304878.0625,309572.5625,287427.0,334256.9375,-0.017578125,0.9365234375,-0.34814453125,6.103515148162842,2.380370855331421,19.317625045776367,80.0,1319805.0,1.0
1167859.4297159,305296.0625,327017.125,336905.71875,320233.375,305742.46875,309616.375,287808.21875,334780.15625,-0.01513671875,0.93896484375,-0.348388671875,5.706786632537842,2.197265386581421,19.134519577026367,80.0,1319806.0,1.0
1167859.4297713,304130.1875,326725.75,336129.125,319122.75,305426.15625,309532.875,287588.5625,334587.21875,-0.01171875,0.945068359375,-0.351806640625,5.371093273162842,2.075195074081421,18.859861373901367,80.0,1319807.0,1.0
1167859.4316408,302308.875,326130.84375,334060.34375,316709.84375,304394.65625,309445.78125,287095.65625,333987.03125,-0.010009765625,0.950927734375,-0.3486328125,4.943847179412842,2.044677495956421,18.554685592651367,80.0,1319808.0,1.0
1167859.4341107,302296.09375,325980.0,333478.125,316246.25,304014.0625,309441.21875,286962.875,333759.9375,-0.006591796875,0.956787109375,-0.3515625,4.486083507537842,1.9531248807907104,18.188474655151367,80.0,1319809.0,1.0
1167859.44343,304165.0625,326563.46875,335300.5,318482.96875,304900.25,309579.1875,287500.03125,334349.65625,-0.00341796875,0.95947265625,-0.352294921875,3.875732183456421,1.8615721464157104,17.791746139526367,80.0,1319810.0,1.0
1167859.4434797,305262.15625,326960.8125,336879.59375,320196.09375,305731.09375,309603.0625,287843.8125,334839.25,-0.004150390625,0.95849609375,-0.35400390625,3.082275152206421,1.7395018339157104,17.547605514526367,80.0,1319811.0,1.0
1167859.4453227,304124.46875,326677.5625,336128.78125,319119.53125,305427.75,309529.28125,287622.96875,334652.84375,-0.0048828125,0.955810546875,-0.35595703125,2.349853277206421,1.7089842557907104,17.272947311401367,80.0,1319812.0,1.0
1167859.4584277,302305.21875,326085.9375,334071.5,316712.4375,304400.28125,309436.65625,287125.34375,334049.78125,-0.006103515625,0.953369140625,-0.357666015625,1.6479490995407104,1.5563963651657104,16.937253952026367,80.0,1319813.0,1.0
1167859.4584799,302275.8125,325932.09375,333468.46875,316221.84375,304006.28125,309427.375,286981.75,333803.75,-0.009033203125,0.94921875,-0.356689453125,1.0986326932907104,1.4038084745407104,16.448972702026367,80.0,1319814.0,1.0
1167859.4722616,304133.75,326508.5625,335262.25,318435.3125,304879.78125,309565.78125,287505.9375,334374.59375,-0.01025390625,0.94775390625,-0.35498046875,0.7629393935203552,1.2817381620407104,15.899657249450684,80.0,1319815.0,1.0
1167859.472312,305251.8125,326911.09375,336845.625,320161.125,305711.8125,309583.65625,287840.78125,334852.5625,-0.009521484375,0.946533203125,-0.3505859375,0.3051757514476776,1.0986326932907104,15.258788108825684,80.0,1319816.0,1.0
1167859.4747523,304139.5625,326642.25,336127.0625,319120.34375,305427.125,309507.21875,287634.59375,334675.28125,-0.01123046875,0.9443359375,-0.3505859375,-0.1220703050494194,0.8850097060203552,14.739989280700684,80.0,1319817.0,1.0
1167859.4748012,302319.96875,326061.375,334089.9375,316734.59375,304417.8125,309422.8125,287160.21875,334093.875,-0.01416015625,0.941650390625,-0.34912109375,-0.7324218153953552,0.5187987685203552,14.129637718200684,80.0,1319818.0,1.0
1167859.477212,302263.0,325893.375,333462.90625,316218.1875,304010.75,309413.6875,287013.5,333846.125,-0.01611328125,0.9365234375,-0.347412109375,-1.0986326932907104,0.1525878757238388,13.427733421325684,80.0,1319819.0,1.0
1167859.4772671,304113.46875,326468.15625,335238.1875,318411.0625,304868.5,309550.3125,287529.625,334409.75,-0.019287109375,0.93212890625,-0.344970703125,-1.3732908964157104,-0.0915527269244194,12.725829124450684,80.0,1319820.0,1.0
1167859.4878966,305240.4375,326871.5625,336821.40625,320137.15625,305695.34375,309568.46875,287854.1875,334876.4375,-0.0205078125,0.929931640625,-0.343505859375,-1.5258787870407104,-0.4272460639476776,11.932372093200684,80.0,1319821.0,1.0
1167859.4922225,304143.96875,326609.59375,336118.125,319116.40625,305419.15625,309498.53125,287646.75,334697.0,-0.0234375,0.929443359375,-0.343505859375,-1.6784666776657104,-0.7934569716453552,11.230467796325684,80.0,1319822.0,1.0
1167859.4922731,302320.59375,326030.96875,334088.3125,316739.6875,304420.3125,309423.78125,287178.28125,334120.25,-0.02490234375,0.92724609375,-0.34326171875,-1.9226073026657104,-1.2207030057907104,10.375975608825684,80.0,1319823.0,1.0
1167859.5009228,302243.6875,325863.40625,333441.71875,316199.3125,304012.15625,309415.9375,287029.9375,333868.1875,-0.02392578125,0.924072265625,-0.340576171875,-2.136230230331421,-1.5563963651657104,9.552000999450684,80.0,1319824.0,1.0
1167859.5009744,304072.34375,326414.53125,335177.9375,318353.125,304842.84375,309534.9375,287521.0625,334398.84375,-0.020263671875,0.919921875,-0.341796875,-2.258300542831421,-1.9836424589157104,8.789061546325684,80.0,1319825.0,1.0
1167859.5071598,305226.75,326833.9375,336790.125,320115.96875,305685.4375,309561.03125,287870.09375,334882.4375,-0.021240234375,0.919189453125,-0.341552734375,-2.380370855331421,-2.197265386581421,7.812499523162842,80.0,1319826.0,1.0
1167859.507206,304151.09375,326582.59375,336120.1875,319134.90625,305426.59375,309498.1875,287685.5625,334722.40625,-0.021240234375,0.9248046875,-0.3388671875,-2.197265386581421,-2.502441167831421,6.835937023162842,80.0,1319827.0,1.0
1167859.5134905,302318.0,325999.125,334091.53125,316758.125,304427.46875,309421.46875,287223.875,334151.71875,-0.018798828125,0.927734375,-0.336669921875,-2.197265386581421,-2.655029058456421,5.828856945037842,80.0,1319828.0,1.0
1167859.5135401,302216.78125,325818.25,333425.5625,316193.6875,304007.0,309408.78125,287069.8125,333899.125,-0.018310546875,0.931884765625,-0.336181640625,-2.410888433456421,-2.868652105331421,5.004882335662842,80.0,1319829.0,1.0
1167859.5191699,304054.09375,326390.125,335170.9375,318356.4375,304847.6875,309541.53125,287570.6875,334445.5,-0.01806640625,0.931640625,-0.337890625,-2.624511480331421,-3.082275152206421,4.302978038787842,80.0,1319830.0,1.0
1167859.5334843,305230.875,326832.59375,336807.09375,320141.625,305710.46875,309576.875,287928.03125,334945.1875,-0.0146484375,0.92578125,-0.335693359375,-2.777099370956421,-3.173827886581421,3.662109136581421,80.0,1319831.0,1.0
1167859.5335355,304149.9375,326565.8125,336136.625,319156.90625,305443.65625,309495.15625,287724.46875,334777.125,-0.014404296875,0.921142578125,-0.332763671875,-2.807616949081421,-3.295898199081421,2.868652105331421,80.0,1319832.0,1.0
1167859.5360282,302303.0625,325962.75,334094.03125,316760.09375,304430.875,309410.5625,287243.53125,334191.9375,-0.017333984375,0.91845703125,-0.3330078125,-2.716064214706421,-3.326415777206421,2.044677495956421,80.0,1319833.0,1.0
1167859.536084,302174.5,325755.78125,333378.96875,316142.90625,303974.4375,309377.5625,287045.6875,333892.96875,-0.022216796875,0.91943359375,-0.330810546875,-2.532958745956421,-3.387450933456421,1.2207030057907104,80.0,1319834.0,1.0
1167859.5378446,303997.875,326309.5625,335079.3125,318264.09375,304782.21875,309494.0625,287501.46875,334390.78125,-0.027587890625,0.9228515625,-0.329345703125,-2.441406011581421,-3.387450933456421,0.4577636420726776,80.0,1319835.0,1.0
1167859.5571902,305192.0,326747.90625,336710.90625,320057.25,305626.875,309520.1875,287832.0,334855.53125,-0.032470703125,0.92431640625,-0.327880859375,-2.441406011581421,-3.448486089706421,-0.3356933295726776,80.0,1319836.0,1.0
1167859.5572378,304142.25,326485.25,336057.59375,319098.34375,305361.3125,309443.90625,287614.75,334663.84375,-0.03564453125,0.92529296875,-0.328125,-2.502441167831421,-3.692626714706421,-1.1291502714157104,80.0,1319837.0,1.0
1167859.5603361,302292.6875,325866.375,333997.21875,316690.71875,304332.25,309357.375,287115.40625,334050.59375,-0.038818359375,0.92822265625,-0.32470703125,-2.502441167831421,-3.784179449081421,-1.7700194120407104,80.0,1319838.0,1.0
1167859.560386,302130.875,325637.3125,333240.84375,316034.5625,303840.59375,309315.78125,286898.0625,333718.34375,-0.039794921875,0.931640625,-0.327392578125,-2.502441167831421,-3.997802495956421,-2.349853277206421,80.0,1319839.0,1.0
1167859.5603993,303944.5,326189.46875,334925.0,318138.375,304624.78125,309419.59375,287340.4375,334187.125,-0.04296875,0.932861328125,-0.32666015625,-2.593993902206421,-4.150390148162842,-2.929687261581421,80.0,1319840.0,1.0
1167859.5628912,305160.15625,326651.625,336578.40625,319957.46875,305481.03125,309452.3125,287676.8125,334652.21875,-0.04443359375,0.934326171875,-0.326416015625,-2.807616949081421,-4.272460460662842,-3.570556402206421,80.0,1319841.0,1.0
1167859.5654006,304122.84375,326394.59375,335937.71875,319016.8125,305218.8125,309377.125,287461.59375,334458.375,-0.04638671875,0.935302734375,-0.3212890625,-2.960204839706421,-4.364013195037842,-4.119872570037842,80.0,1319842.0,1.0
1167859.5691831,302247.625,325752.0,333856.75,316586.625,304163.53125,309275.375,286948.21875,333821.8125,-0.0458984375,0.93603515625,-0.322509765625,-3.204345464706421,-4.425048351287842,-4.730224132537842,80.0,1319843.0,1.0
1167859.5778571,302071.875,325519.46875,333086.0625,315912.96875,303662.3125,309242.375,286734.71875,333487.25,-0.048095703125,0.937744140625,-0.322998046875,-3.387450933456421,-4.425048351287842,-5.218505382537842,80.0,1319844.0,1.0
1167859.5822024,303908.625,326109.90625,334792.59375,318039.59375,304464.40625,309374.71875,287210.0,333982.03125,-0.049072265625,0.939697265625,-0.3212890625,-3.692626714706421,-4.608153820037842,-5.737304210662842,80.0,1319845.0,1.0
1167859.5822604,305157.03125,326597.71875,336484.34375,319900.3125,305342.71875,309418.4375,287578.53125,334467.75,-0.049072265625,0.937744140625,-0.318359375,-3.814697027206421,-4.516601085662842,-6.164550304412842,80.0,1319846.0,1.0
1167859.5928939,304126.15625,326335.65625,335859.21875,318975.15625,305087.65625,309334.125,287371.28125,334274.46875,-0.0498046875,0.937255859375,-0.318603515625,-3.967284917831421,-4.394530773162842,-6.500243663787842,80.0,1319847.0,1.0
1167859.596583,302225.90625,325671.0,333756.96875,316519.59375,304020.65625,309221.1875,286853.625,333626.71875,-0.05419921875,0.93701171875,-0.31787109375,-4.119872570037842,-4.333495616912842,-6.958007335662842,80.0,1319848.0,1.0
1167859.596632,302037.96875,325441.3125,332973.78125,315830.0625,303521.3125,309201.53125,286657.65625,333304.125,-0.056640625,0.935546875,-0.313720703125,-4.119872570037842,-4.302978038787842,-7.293700695037842,80.0,1319849.0,1.0
1167859.5966453,303881.0,326048.21875,334694.84375,317975.75,304340.375,309347.53125,287160.75,333823.125,-0.0654296875,0.935791015625,-0.31494140625,-4.211425304412842,-4.333495616912842,-7.812499523162842,80.0,1319850.0,1.0
1167859.5991748,305145.5,326557.03125,336417.90625,319868.3125,305237.5,309390.4375,287547.96875,334329.90625,-0.06640625,0.938232421875,-0.3115234375,-4.302978038787842,-4.333495616912842,-8.209227561950684,80.0,1319851.0,1.0
1167859.6053935,304130.71875,326303.21875,335820.75,318973.53125,305001.28125,309312.3125,287355.03125,334159.84375,-0.069580078125,0.94140625,-0.30419921875,-4.425048351287842,-4.241942882537842,-8.636473655700684,80.0,1319852.0,1.0
1167859.609114,302225.375,325634.90625,333727.84375,316521.09375,303946.71875,309209.65625,286848.8125,333532.21875,-0.06787109375,0.9423828125,-0.30224609375,-4.608153820037842,-4.150390148162842,-8.941649436950684,80.0,1319853.0,1.0
1167859.6128221,302015.90625,325400.5625,332925.9375,315801.09375,303439.6875,309189.0,286650.21875,333210.53125,-0.068603515625,0.9404296875,-0.300537109375,-4.882812023162842,-4.211425304412842,-9.185790061950684,80.0,1319854.0,1.0
1167859.6272402,303863.125,326030.0625,334654.53125,317943.5625,304270.1875,309345.5625,287165.3125,333745.625,-0.06591796875,0.938720703125,-0.299560546875,-5.187987804412842,-4.150390148162842,-9.185790061950684,80.0,1319855.0,1.0
1167859.6272898,305162.21875,326569.46875,336424.09375,319884.0625,305204.6875,309404.03125,287581.84375,334294.5,-0.0654296875,0.9345703125,-0.298828125,-5.340575695037842,-3.967284917831421,-9.155272483825684,80.0,1319856.0,1.0
1167859.6291239,304154.59375,326311.875,335849.0,319006.0,304981.6875,309316.6875,287389.71875,334137.40625,-0.06689453125,0.93115234375,-0.297119140625,-5.371093273162842,-3.784179449081421,-9.216307640075684,80.0,1319857.0,1.0
1167859.6316413,302233.25,325629.4375,333740.15625,316533.625,303918.75,309206.53125,286876.25,333508.15625,-0.0703125,0.9296875,-0.29443359375,-5.493163585662842,-3.601073980331421,-9.246825218200684,80.0,1319858.0,1.0
1167859.6353656,302004.53125,325387.0625,332914.75,315789.84375,303399.8125,309187.21875,286674.375,333182.28125,-0.07275390625,0.9326171875,-0.295166015625,-5.462646007537842,-3.448486089706421,-9.490965843200684,80.0,1319859.0,1.0
1167859.6441667,303850.34375,326018.28125,334638.1875,317934.90625,304231.21875,309340.125,287190.0625,333718.4375,-0.074951171875,0.931640625,-0.2890625,-5.310058116912842,-3.204345464706421,-9.704588890075684,80.0,1319860.0,1.0
1167859.659089,305170.96875,326573.5625,336435.6875,319902.65625,305188.6875,309406.8125,287615.90625,334280.46875,-0.0751953125,0.93115234375,-0.286865234375,-5.462646007537842,-3.082275152206421,-9.613036155700684,80.0,1319861.0,1.0
1167859.6591454,304158.8125,326301.34375,335855.625,319022.34375,304960.40625,309308.8125,287406.875,334111.21875,-0.074951171875,0.932373046875,-0.286865234375,-5.401610851287842,-2.960204839706421,-9.704588890075684,80.0,1319862.0,1.0
1167859.6591626,302206.5,325586.53125,333709.78125,316514.03125,303873.6875,309185.0,286867.84375,333458.375,-0.072998046875,0.93212890625,-0.286376953125,-5.279540538787842,-2.746581792831421,-9.735106468200684,80.0,1319863.0,1.0
1167859.6616443,301948.9375,325326.4375,332852.53125,315732.625,303336.0625,309158.25,286652.46875,333115.5625,-0.07373046875,0.93115234375,-0.2861328125,-5.310058116912842,-2.441406011581421,-9.674071311950684,80.0,1319864.0,1.0
1167859.6641674,303806.0,325974.1875,334582.46875,317884.75,304173.375,309322.9375,287179.78125,333656.65625,-0.074462890625,0.93115234375,-0.28125,-5.279540538787842,-2.258300542831421,-9.490965843200684,80.0,1319865.0,1.0
1167859.6666476,305159.625,326559.1875,336412.90625,319893.53125,305149.0625,309394.5625,287621.0,334233.59375,-0.0771484375,0.930908203125,-0.280517578125,-5.279540538787842,-1.9531248807907104,-9.490965843200684,80.0,1319866.0,1.0
1167859.6691667,304178.46875,326308.84375,335868.0625,319048.28125,304950.59375,309307.03125,287426.28125,334082.6875,-0.080322265625,0.929443359375,-0.2802734375,-5.157470226287842,-1.5563963651657104,-9.338377952575684,80.0,1319867.0,1.0
1167859.6715657,302209.90625,325572.40625,333700.84375,316513.5,303850.0,309169.625,286865.25,333410.625,-0.080078125,0.92578125,-0.27685546875,-5.157470226287842,-1.2512205839157104,-9.246825218200684,80.0,1319868.0,1.0
1167859.6759934,301913.78125,325274.59375,332789.96875,315675.84375,303273.40625,309125.625,286616.25,333034.84375,-0.08056640625,0.922607421875,-0.275634765625,-4.913329601287842,-0.9765624403953552,-9.307860374450684,80.0,1319869.0,1.0
1167859.6760434,303780.96875,325941.8125,334528.65625,317837.34375,304120.34375,309306.5,287154.75,333586.84375,-0.08056640625,0.92431640625,-0.27392578125,-4.821776866912842,-0.7629393935203552,-9.124754905700684,80.0,1319870.0,1.0
1167859.6896959,305163.03125,326553.71875,336399.65625,319891.65625,305125.28125,309396.625,287617.4375,334185.34375,-0.081787109375,0.925537109375,-0.27001953125,-4.547118663787842,-0.4577636420726776,-8.941649436950684,80.0,1319871.0,1.0
1167859.6897464,304184.0,326287.28125,335864.3125,319057.5625,304921.25,309293.8125,287412.78125,334029.75,-0.084228515625,0.9248046875,-0.265625,-4.425048351287842,-0.2441406100988388,-8.880614280700684,80.0,1319872.0,1.0
1167859.6916429,302196.84375,325528.21875,333679.71875,316499.71875,303805.71875,309146.625,286838.96875,333349.8125,-0.086181640625,0.92626953125,-0.265869140625,-4.394530773162842,0.03051757626235485,-8.697508811950684,80.0,1319873.0,1.0
1167859.6941674,301893.5,325245.25,332757.6875,315646.96875,303231.375,309115.53125,286599.0,332982.53125,-0.09033203125,0.926025390625,-0.263671875,-4.180907726287842,0.2746581733226776,-8.544920921325684,80.0,1319874.0,1.0
1167859.7028556,303759.25,325927.875,334496.28125,317803.90625,304078.5,309301.03125,287144.46875,333541.96875,-0.095947265625,0.927978515625,-0.262451171875,-3.875732183456421,0.3967284858226776,-8.422850608825684,80.0,1319875.0,1.0
1167859.7071962,305176.25,326571.6875,336411.65625,319906.0625,305111.4375,309400.09375,287635.125,334170.9375,-0.096923828125,0.929443359375,-0.260498046875,-3.662109136581421,0.5493163466453552,-8.392333030700684,80.0,1319876.0,1.0
1167859.7072453,304214.5,326313.40625,335899.625,319096.8125,304925.09375,309302.84375,287443.71875,334030.21875,-0.097412109375,0.934326171875,-0.263671875,-3.479003667831421,0.6713866591453552,-8.392333030700684,80.0,1319877.0,1.0
1167859.7091406,302203.03125,325534.40625,333687.96875,316504.03125,303788.28125,309142.34375,286853.4375,333330.0625,-0.098388671875,0.936767578125,-0.260498046875,-3.509521245956421,0.7629393935203552,-8.361815452575684,80.0,1319878.0,1.0
1167859.7203509,301872.21875,325230.9375,332727.90625,315609.25,303188.90625,309099.4375,286598.71875,332942.75,-0.101806640625,0.938720703125,-0.258056640625,-3.479003667831421,0.8544921278953552,-8.361815452575684,80.0,1319879.0,1.0
1167859.723452,303740.90625,325917.3125,334465.96875,317771.28125,304038.625,309286.1875,287153.3125,333509.84375,-0.103759765625,0.941650390625,-0.254150390625,-3.509521245956421,0.8544921278953552,-8.178709983825684,80.0,1319880.0,1.0
1167859.7235006,305171.59375,326571.15625,336400.46875,319893.53125,305083.96875,309384.0,287649.96875,334151.96875,-0.10400390625,0.941162109375,-0.2529296875,-3.601073980331421,0.8544921278953552,-8.026122093200684,80.0,1319881.0,1.0
1167859.7253461,304227.8125,326324.40625,335909.625,319102.625,304910.34375,309288.0625,287457.84375,334018.5,-0.10693359375,0.939697265625,-0.25,-3.723144292831421,0.7934569716453552,-7.934569835662842,80.0,1319882.0,1.0
1167859.731641,302211.34375,325537.875,333689.65625,316500.71875,303772.03125,309132.59375,286863.03125,333315.21875,-0.108154296875,0.9365234375,-0.25048828125,-3.723144292831421,0.7629393935203552,-7.904052257537842,80.0,1319883.0,1.0
1167859.7360024,301847.0,325205.8125,332687.65625,315560.6875,303145.625,309081.8125,286589.0,332906.71875,-0.110595703125,0.93603515625,-0.25048828125,-3.723144292831421,0.7324218153953552,-7.904052257537842,80.0,1319884.0,1.0
1167859.7360506,303720.71875,325898.65625,334429.40625,317729.0,304000.0,309278.6875,287158.59375,333481.6875,-0.110107421875,0.93310546875,-0.2509765625,-3.784179449081421,0.6408690810203552,-7.781981945037842,80.0,1319885.0,1.0
1167859.749172,305194.9375,326589.21875,336415.3125,319909.625,305082.1875,309395.625,287689.3125,334157.96875,-0.112548828125,0.929931640625,-0.2490234375,-3.601073980331421,0.4272460639476776,-7.781981945037842,80.0,1319886.0,1.0
1167859.7522515,304260.1875,326335.5625,335939.3125,319131.875,304913.84375,309291.125,287495.84375,334025.75,-0.1162109375,0.928466796875,-0.244873046875,-3.417968511581421,0.3967284858226776,-7.904052257537842,80.0,1319887.0,1.0
1167859.7523,302224.84375,325520.8125,333692.96875,316498.125,303756.28125,309116.25,286877.78125,333299.46875,-0.120361328125,0.932373046875,-0.24658203125,-3.356933355331421,0.2136230319738388,-7.904052257537842,80.0,1319888.0,1.0
1167859.7541161,301862.03125,325188.65625,332678.375,315544.875,303128.125,309064.8125,286604.4375,332889.1875,-0.117919921875,0.934814453125,-0.24658203125,-3.021239995956421,0.03051757626235485,-7.995604991912842,80.0,1319889.0,1.0
1167859.7576956,303750.3125,325900.96875,334422.15625,317715.03125,303989.0,309268.59375,287182.1875,333473.1875,-0.117919921875,0.9365234375,-0.243408203125,-2.990722417831421,-0.1525878757238388,-7.995604991912842,80.0,1319890.0,1.0
1167859.7641368,305239.375,326595.125,336422.8125,319912.84375,305078.25,309380.625,287713.1875,334151.34375,-0.11865234375,0.936279296875,-0.24267578125,-2.990722417831421,-0.3051757514476776,-7.843017101287842,80.0,1319891.0,1.0
1167859.7666495,304313.03125,326333.53125,335958.1875,319152.53125,304916.0625,309269.75,287511.5,334016.78125,-0.11767578125,0.935546875,-0.23974609375,-3.082275152206421,-0.5493163466453552,-7.659911632537842,80.0,1319892.0,1.0
1167859.7759896,302258.71875,325503.5625,333696.4375,316496.25,303750.21875,309089.875,286881.4375,333282.9375,-0.119140625,0.93212890625,-0.2431640625,-2.899169683456421,-0.6713866591453552,-7.568358898162842,80.0,1319893.0,1.0
1167859.7760449,301851.75,325153.0,332637.25,315491.21875,303094.84375,309032.375,286588.1875,332854.0625,-0.116943359375,0.929931640625,-0.240966796875,-2.838134527206421,-0.8544921278953552,-7.476806163787842,80.0,1319894.0,1.0
1167859.7778773,303728.5625,325869.21875,334374.34375,317659.96875,303955.65625,309243.71875,287170.03125,333441.375,-0.11767578125,0.930908203125,-0.240478515625,-2.685546636581421,-0.9765624403953552,-7.324218273162842,80.0,1319895.0,1.0
1167859.7816594,305245.53125,326592.09375,336415.21875,319902.21875,305074.3125,309373.0,287725.78125,334148.125,-0.1171875,0.93212890625,-0.2333984375,-2.593993902206421,-1.0986326932907104,-7.141112804412842,80.0,1319896.0,1.0
1167859.7909885,304341.71875,326352.28125,335978.75,319169.34375,304931.0,309266.71875,287533.40625,334027.4375,-0.1181640625,0.932373046875,-0.2333984375,-2.563476324081421,-1.2207030057907104,-7.110595226287842,80.0,1319897.0,1.0
1167859.7910596,302273.65625,325513.03125,333707.09375,316507.5,303763.875,309092.1875,286901.0,333291.25,-0.120849609375,0.929443359375,-0.234375,-2.471923589706421,-1.3427733182907104,-7.049560070037842,80.0,1319898.0,1.0
1167859.7928916,301836.0,325141.375,332613.1875,315469.3125,303087.34375,309032.46875,286596.40625,332848.0625,-0.121826171875,0.927001953125,-0.232666015625,-2.441406011581421,-1.6174315214157104,-6.805419445037842,80.0,1319899.0,1.0
1167859.8047424,303696.84375,325841.25,334320.875,317607.9375,303923.03125,309228.625,287158.40625,333413.46875,-0.123046875,0.924560546875,-0.234619140625,-2.227782964706421,-1.8615721464157104,-6.744384288787842,80.0,1319900.0,1.0
1167859.8047914,305244.75,326580.28125,336391.28125,319888.78125,305055.09375,309364.53125,287727.59375,334129.4375,-0.12255859375,0.924072265625,-0.232666015625,-2.075195074081421,-1.9531248807907104,-6.622313976287842,80.0,1319901.0,1.0
1167859.8072409,304352.28125,326334.21875,335975.0,319182.375,304920.90625,309263.40625,287541.875,334014.84375,-0.124267578125,0.925537109375,-0.23046875,-1.8615721464157104,-2.166747808456421,-6.652831554412842,80.0,1319902.0,1.0
1167859.8072999,302275.53125,325490.40625,333689.9375,316504.65625,303740.0,309083.0625,286899.5,333269.4375,-0.1259765625,0.92822265625,-0.224609375,-1.6174315214157104,-2.319335699081421,-6.622313976287842,80.0,1319903.0,1.0
1167859.8153923,301816.4375,325116.78125,332570.09375,315435.53125,303046.5625,309020.65625,286585.21875,332816.96875,-0.12451171875,0.93115234375,-0.222900390625,-1.5563963651657104,-2.532958745956421,-6.500243663787842,80.0,1319904.0,1.0
1167859.8178527,303685.65625,325832.125,334286.625,317584.34375,303890.84375,309234.4375,287160.84375,333394.53125,-0.12353515625,0.930908203125,-0.22314453125,-1.5258787870407104,-2.563476324081421,-6.225585460662842,80.0,1319905.0,1.0
1167859.8216664,305249.125,326582.15625,336375.8125,319886.375,305033.65625,309378.03125,287739.125,334121.65625,-0.12451171875,0.930908203125,-0.222900390625,-1.5563963651657104,-2.716064214706421,-5.920409679412842,80.0,1319906.0,1.0
1167859.8260094,304382.6875,326360.875,335989.90625,319206.8125,304921.53125,309279.6875,287560.84375,334019.9375,-0.1240234375,0.931396484375,-0.218994140625,-1.5258787870407104,-2.807616949081421,-5.615233898162842,80.0,1319907.0,1.0
1167859.8260643,302292.96875,325507.84375,333702.875,316520.21875,303744.9375,309093.78125,286916.5625,333270.6875,-0.12646484375,0.927978515625,-0.216064453125,-1.6174315214157104,-2.899169683456421,-5.371093273162842,80.0,1319908.0,1.0
1167859.8391057,301805.59375,325115.0,332550.96875,315414.96875,303037.0,309022.71875,286596.5,332803.46875,-0.127197265625,0.9248046875,-0.218505859375,-1.6479490995407104,-3.112792730331421,-5.157470226287842,80.0,1319909.0,1.0
1167859.8441616,303663.5625,325819.875,334248.8125,317547.9375,303869.21875,309224.0625,287166.09375,333372.09375,-0.128173828125,0.921630859375,-0.214111328125,-1.6174315214157104,-3.173827886581421,-4.913329601287842,80.0,1319910.0,1.0
1167859.8442154,305246.6875,326575.4375,336354.96875,319873.9375,305018.0,309361.21875,287749.75,334103.34375,-0.12939453125,0.920654296875,-0.216064453125,-1.5869139432907104,-3.356933355331421,-4.699706554412842,80.0,1319911.0,1.0
1167859.8442349,304393.3125,326346.3125,335979.1875,319210.03125,304903.65625,309251.5,287570.40625,333996.5,-0.12890625,0.92041015625,-0.212646484375,-1.3732908964157104,-3.417968511581421,-4.608153820037842,80.0,1319912.0,1.0
1167859.846667,302283.5,325473.875,333673.21875,316498.5625,303706.9375,309052.5,286908.71875,333231.53125,-0.12744140625,0.92333984375,-0.20654296875,-1.3122557401657104,-3.479003667831421,-4.608153820037842,80.0,1319913.0,1.0
1167859.8503303,301781.75,325082.96875,332518.0625,315383.65625,303000.25,308995.71875,286591.65625,332772.15625,-0.127197265625,0.926513671875,-0.208984375,-1.2512205839157104,-3.601073980331421,-4.455565929412842,80.0,1319914.0,1.0
1167859.8679213,303631.84375,325791.71875,334206.15625,317508.34375,303828.25,309204.125,287156.71875,333339.4375,-0.127197265625,0.93017578125,-0.208740234375,-1.3122557401657104,-3.631591558456421,-4.180907726287842,80.0,1319915.0,1.0
1167859.8715081,305241.0625,326571.6875,336341.09375,319865.46875,304998.40625,309354.25,287757.34375,334089.9375,-0.12451171875,0.934326171875,-0.20556640625,-1.4343260526657104,-3.723144292831421,-3.906249761581421,80.0,1319916.0,1.0
1167859.8715647,304403.78125,326354.0,335993.9375,319234.34375,304903.375,309246.59375,287586.78125,333995.78125,-0.125732421875,0.93798828125,-0.203125,-1.6174315214157104,-3.753661870956421,-3.631591558456421,80.0,1319917.0,1.0
1167859.8715837,302284.5625,325480.65625,333686.4375,316523.34375,303707.84375,309040.78125,286921.84375,333230.375,-0.122802734375,0.943115234375,-0.206787109375,-1.8615721464157104,-3.662109136581421,-3.204345464706421,80.0,1319918.0,1.0
1167859.8747374,301750.53125,325066.875,332486.78125,315357.28125,302972.0,308968.625,286584.78125,332748.1875,-0.12353515625,0.947021484375,-0.207763671875,-2.044677495956421,-3.631591558456421,-2.960204839706421,80.0,1319919.0,1.0
1167859.8747867,303593.75,325770.15625,334161.625,317465.875,303791.96875,309177.75,287152.0625,333311.5625,-0.1240234375,0.94873046875,-0.202880859375,-2.380370855331421,-3.540038824081421,-2.777099370956421,80.0,1319920.0,1.0
1167859.8878621,305222.375,326554.09375,336314.03125,319844.90625,304970.4375,309329.65625,287755.21875,334066.5,-0.121826171875,0.94677734375,-0.20751953125,-2.746581792831421,-3.479003667831421,-2.471923589706421,80.0,1319921.0,1.0
1167859.8922425,304410.03125,326344.6875,335995.1875,319243.53125,304894.0,309232.71875,287595.25,333987.84375,-0.119873046875,0.9443359375,-0.205322265625,-3.112792730331421,-3.356933355331421,-2.166747808456421,80.0,1319922.0,1.0
1167859.8922925,302299.40625,325479.5,333698.0625,316537.09375,303710.96875,309042.21875,286945.53125,333238.40625,-0.121826171875,0.943359375,-0.203857421875,-3.387450933456421,-3.326415777206421,-1.7700194120407104,80.0,1319923.0,1.0
1167859.9009414,301743.5625,325063.65625,332476.65625,315342.375,302966.5625,308969.78125,286603.46875,332750.96875,-0.123046875,0.942626953125,-0.201904296875,-3.479003667831421,-3.234863042831421,-1.6784666776657104,80.0,1319924.0,1.0
1167859.9009916,303572.75,325762.46875,334135.4375,317427.6875,303780.78125,309173.1875,287160.5625,333306.625,-0.12255859375,0.944091796875,-0.2021484375,-3.540038824081421,-3.112792730331421,-1.5258787870407104,80.0,1319925.0,1.0
1167859.9033872,305225.6875,326559.1875,336314.5625,319834.78125,304979.375,309335.0,287779.34375,334074.28125,-0.123291015625,0.94873046875,-0.198486328125,-3.723144292831421,-2.990722417831421,-1.3427733182907104,80.0,1319926.0,1.0
1167859.9034231,304427.5625,326351.5,336015.65625,319258.84375,304910.875,309236.21875,287621.46875,333997.40625,-0.124755859375,0.951904296875,-0.1953125,-4.028319835662842,-2.838134527206421,-1.1596678495407104,80.0,1319927.0,1.0
1167859.9216435,302309.875,325491.65625,333725.5,316561.15625,303738.40625,309052.65625,286978.25,333260.59375,-0.12841796875,0.954833984375,-0.1923828125,-4.272460460662842,-2.838134527206421,-0.8850097060203552,80.0,1319928.0,1.0
1167859.9265436,301736.75,325077.4375,332491.0625,315348.15625,302996.15625,308989.90625,286642.4375,332784.0625,-0.129150390625,0.952880859375,-0.191650390625,-4.638671398162842,-2.868652105331421,-0.7629393935203552,80.0,1319929.0,1.0
1167859.9265948,303545.375,325750.59375,334113.34375,317403.375,303784.0,309175.6875,287177.90625,333319.0625,-0.130126953125,0.9560546875,-0.188232421875,-5.065917491912842,-2.777099370956421,-0.6103515028953552,80.0,1319930.0,1.0
1167859.926609,305217.8125,326557.3125,336301.21875,319827.46875,304978.21875,309330.28125,287787.5625,334084.46875,-0.129638671875,0.95654296875,-0.188720703125,-5.371093273162842,-2.685546636581421,-0.5493163466453552,80.0,1319931.0,1.0
1167859.9303263,304442.84375,326362.84375,336030.25,319279.9375,304919.65625,309230.6875,287633.71875,334016.71875,-0.130859375,0.95703125,-0.189697265625,-5.676269054412842,-2.807616949081421,-0.5798339247703552,80.0,1319932.0,1.0
1167859.9303811,302317.625,325496.03125,333740.0,316572.59375,303739.3125,309038.90625,286986.5,333273.1875,-0.13134765625,0.955810546875,-0.185302734375,-6.042479991912842,-2.929687261581421,-0.5493163466453552,80.0,1319933.0,1.0
1167859.9303974,301711.375,325063.75,332473.90625,315323.5,302976.3125,308966.75,286637.96875,332779.03125,-0.128662109375,0.955322265625,-0.187255859375,-6.347655773162842,-2.868652105331421,-0.4882812201976776,80.0,1319934.0,1.0
1167859.9341274,303527.40625,325745.3125,334089.40625,317372.0625,303763.4375,309166.46875,287177.375,333314.9375,-0.126953125,0.952880859375,-0.18603515625,-6.713866710662842,-2.777099370956421,-0.3356933295726776,80.0,1319935.0,1.0
1167859.9614574,305209.34375,326546.84375,336281.84375,319806.90625,304958.625,309316.0625,287784.8125,334074.28125,-0.126220703125,0.952880859375,-0.18212890625,-6.683349132537842,-2.685546636581421,-0.2746581733226776,80.0,1319936.0,1.0
1167859.9678701,304457.25,326365.34375,336038.1875,319292.8125,304921.71875,309222.4375,287640.0625,334019.84375,-0.124755859375,0.952880859375,-0.1845703125,-6.805419445037842,-2.593993902206421,-0.2441406100988388,80.0,1319937.0,1.0
1167859.9703933,302327.125,325501.59375,333746.875,316589.21875,303747.625,309026.90625,286989.96875,333280.625,-0.123779296875,0.952880859375,-0.18408203125,-6.744384288787842,-2.349853277206421,-0.1525878757238388,80.0,1319938.0,1.0
1167859.972849,301701.09375,325065.28125,332458.0625,315314.03125,302976.65625,308957.09375,286637.4375,332786.1875,-0.12158203125,0.952880859375,-0.181884765625,-6.744384288787842,-2.197265386581421,0.0,80.0,1319939.0,1.0
1167859.9754168,303510.5,325740.75,334058.46875,317342.125,303752.09375,309155.5625,287172.53125,333314.25,-0.117919921875,0.95166015625,-0.1787109375,-6.805419445037842,-2.105712652206421,0.2136230319738388,80.0,1319940.0,1.0
1167859.9779124,305207.53125,326542.8125,336263.6875,319789.5625,304948.09375,309303.90625,287779.625,334069.625,-0.114013671875,0.946533203125,-0.1787109375,-6.652831554412842,-1.8615721464157104,0.3662109076976776,80.0,1319941.0,1.0
1167859.9803932,304463.5,326362.125,336037.84375,319294.15625,304911.6875,309203.125,287634.15625,334014.125,-0.1103515625,0.9443359375,-0.178955078125,-6.408690929412842,-1.6174315214157104,0.3662109076976776,80.0,1319942.0,1.0
1167859.9829268,302341.78125,325524.375,333771.5625,316613.90625,303759.25,309029.0625,287011.25,333302.15625,-0.107177734375,0.945556640625,-0.181396484375,-6.103515148162842,-1.1291502714157104,0.5187987685203552,80.0,1319943.0,1.0
1167859.9854145,301686.78125,325079.0625,332459.59375,315311.875,302979.0625,308951.8125,286653.4375,332804.15625,-0.10693359375,0.94482421875,-0.181396484375,-5.767821788787842,-0.7019042372703552,0.8239745497703552,80.0,1319944.0,1.0
1167859.9879134,303475.28125,325740.84375,334036.71875,317311.71875,303743.0625,309147.71875,287182.75,333322.09375,-0.102783203125,0.9462890625,-0.177734375,-5.493163585662842,-0.2136230319738388,1.0986326932907104,80.0,1319945.0,1.0
1167859.990391,305193.9375,326543.53125,336248.75,319770.0625,304941.1875,309301.84375,287792.03125,334070.0,-0.10107421875,0.943115234375,-0.178955078125,-5.065917491912842,0.2136230319738388,1.4038084745407104,80.0,1319946.0,1.0
1167859.9935113,304479.40625,326369.1875,336046.875,319309.96875,304916.15625,309205.46875,287654.28125,334012.3125,-0.1005859375,0.939697265625,-0.177734375,-4.547118663787842,0.7324218153953552,1.5869139432907104,80.0,1319947.0,1.0
1167859.9935611,302353.03125,325537.09375,333789.625,316641.4375,303769.78125,309027.53125,287039.40625,333302.0,-0.10107421875,0.941162109375,-0.179931640625,-4.058837413787842,1.1596678495407104,1.8615721464157104,80.0,1319948.0,1.0
1167859.9953389,301687.84375,325105.5,332474.96875,315328.9375,302997.84375,308963.96875,286695.1875,332816.59375,-0.103271484375,0.939697265625,-0.179443359375,-3.509521245956421,1.6479490995407104,2.075195074081421,80.0,1319949.0,1.0
1167859.9991366,303456.40625,325742.71875,334014.46875,317290.0,303732.59375,309145.5625,287197.21875,333310.46875,-0.10498046875,0.93896484375,-0.176025390625,-2.807616949081421,1.9226073026657104,2.258300542831421,80.0,1319950.0,1.0
1167860.0084993,305181.875,326538.4375,336235.0625,319758.34375,304929.125,309290.3125,287798.65625,334061.6875,-0.106201171875,0.938720703125,-0.177978515625,-2.075195074081421,2.349853277206421,2.502441167831421,80.0,1319951.0,1.0
1167860.0085538,304503.8125,326400.125,336086.65625,319349.75,304943.78125,309212.53125,287692.34375,334042.71875,-0.107421875,0.936279296875,-0.18212890625,-1.3732908964157104,2.685546636581421,2.624511480331421,80.0,1319952.0,1.0
1167860.0104174,302389.15625,325588.59375,333852.71875,316696.59375,303819.6875,309049.28125,287095.65625,333353.03125,-0.104736328125,0.933837890625,-0.181884765625,-0.7019042372703552,2.929687261581421,2.746581792831421,80.0,1319953.0,1.0
1167860.0141514,301699.40625,325150.21875,332517.34375,315355.3125,303037.625,308979.71875,286743.125,332861.9375,-0.103271484375,0.93310546875,-0.184326171875,0.1525878757238388,3.173827886581421,2.990722417831421,80.0,1319954.0,1.0
1167860.023441,303452.3125,325778.375,334032.4375,317293.03125,303765.9375,309157.71875,287232.96875,333348.75,-0.10205078125,0.93408203125,-0.18798828125,0.9155272841453552,3.540038824081421,3.051757574081421,80.0,1319955.0,1.0
1167860.0234936,305187.6875,326564.46875,336245.96875,319762.1875,304963.46875,309299.0625,287825.125,334092.15625,-0.103271484375,0.93505859375,-0.19091796875,1.8615721464157104,3.784179449081421,3.295898199081421,80.0,1319956.0,1.0
1167860.0254188,304517.3125,326417.84375,336102.65625,319361.21875,304973.375,309207.6875,287703.875,334061.9375,-0.10205078125,0.937255859375,-0.193115234375,2.655029058456421,4.028319835662842,3.326415777206421,80.0,1319957.0,1.0
1167860.0316467,302416.625,325632.375,333893.40625,316732.09375,303862.78125,309054.625,287119.15625,333388.25,-0.10302734375,0.93994140625,-0.1962890625,3.509521245956421,4.364013195037842,3.417968511581421,80.0,1319958.0,1.0
1167860.0459903,301711.09375,325202.78125,332548.8125,315375.625,303074.375,308990.625,286769.21875,332899.125,-0.0986328125,0.943359375,-0.199462890625,4.364013195037842,4.608153820037842,3.540038824081421,80.0,1319959.0,1.0
1167860.0460471,303438.90625,325820.0625,334048.96875,317292.3125,303807.53125,309175.34375,287260.875,333396.5,-0.099853515625,0.948486328125,-0.201904296875,5.249022960662842,4.913329601287842,3.723144292831421,80.0,1319960.0,1.0
1167860.0484259,305172.9375,326574.65625,336245.53125,319751.71875,304984.03125,309300.3125,287834.0625,334119.0,-0.096435546875,0.956298828125,-0.204345703125,5.950927257537842,5.035399913787842,4.028319835662842,80.0,1319961.0,1.0
1167860.0484781,304545.5625,326456.53125,336145.125,319398.5625,305019.34375,309223.53125,287737.25,334106.65625,-0.0947265625,0.959228515625,-0.2080078125,6.591796398162842,5.249022960662842,4.241942882537842,80.0,1319962.0,1.0
1167860.0503866,302469.90625,325712.21875,333972.53125,316798.34375,303934.84375,309085.125,287177.1875,333455.5,-0.093017578125,0.962890625,-0.21435546875,7.110595226287842,5.493163585662842,4.394530773162842,80.0,1319963.0,1.0
1167860.0528778,301756.0,325308.65625,332637.59375,315437.75,303166.8125,309033.625,286841.375,332985.03125,-0.091796875,0.9658203125,-0.2216796875,7.751464366912842,5.584716320037842,4.608153820037842,80.0,1319964.0,1.0
1167860.0616665,303438.4375,325869.0625,334077.59375,317291.25,303850.15625,309184.1875,287292.09375,333435.125,-0.090576171875,0.968994140625,-0.22802734375,8.239745140075684,5.859374523162842,4.882812023162842,80.0,1319965.0,1.0
1167860.0659842,305161.125,326591.375,336261.34375,319738.3125,305016.125,309304.96875,287859.46875,334149.375,-0.09033203125,0.975830078125,-0.2265625,8.819579124450684,5.981444835662842,4.974364757537842,80.0,1319966.0,1.0
1167860.0660353,304560.5,326483.09375,336190.90625,319422.09375,305072.625,309238.53125,287775.9375,334156.09375,-0.092041015625,0.982666015625,-0.22998046875,9.124754905700684,6.256103038787842,5.187987804412842,80.0,1319967.0,1.0
1167860.0772417,302480.28125,325735.03125,334032.1875,316837.78125,303998.40625,309086.71875,287216.625,333512.09375,-0.092529296875,0.98974609375,-0.231689453125,9.429930686950684,6.286620616912842,5.371093273162842,80.0,1319968.0,1.0
1167860.0773023,301758.9375,325325.09375,332681.9375,315463.78125,303222.625,309035.15625,286877.21875,333033.78125,-0.09375,0.997314453125,-0.237548828125,9.521483421325684,6.286620616912842,5.737304210662842,80.0,1319969.0,1.0
1167860.0791227,303405.46875,325852.6875,334068.90625,317261.3125,303864.90625,309176.59375,287295.3125,333449.5,-0.09375,0.9990234375,-0.23974609375,9.368895530700684,6.256103038787842,6.072997570037842,80.0,1319970.0,1.0
1167860.0816076,305119.84375,326543.1875,336225.0625,319691.375,304997.25,309284.40625,287835.59375,334137.5,-0.09375,0.99853515625,-0.241943359375,9.124754905700684,6.164550304412842,6.134032726287842,80.0,1319971.0,1.0
1167860.0878945,304550.59375,326449.84375,336180.34375,319411.375,305058.15625,309221.375,287754.9375,334147.25,-0.092041015625,0.9912109375,-0.245361328125,8.911131858825684,6.134032726287842,6.134032726287842,80.0,1319972.0,1.0
1167860.0947375,302515.84375,325765.15625,334086.09375,316889.46875,304034.25,309111.59375,287241.03125,333548.46875,-0.0888671875,0.98486328125,-0.248291015625,9.002684593200684,6.042479991912842,6.011962413787842,80.0,1319973.0,1.0
1167860.0947929,301759.21875,325347.28125,332734.625,315499.4375,303271.78125,309055.53125,286908.53125,333087.0625,-0.08740234375,0.980712890625,-0.24755859375,9.155272483825684,6.011962413787842,5.859374523162842,80.0,1319974.0,1.0
1167860.1003736,303387.125,325844.0,334088.5,317257.8125,303896.21875,309180.15625,287310.40625,333488.84375,-0.084716796875,0.98095703125,-0.25048828125,9.277342796325684,5.920409679412842,5.706786632537842,80.0,1319975.0,1.0
1167860.1072055,305101.59375,326507.5,336211.8125,319658.5625,304994.5625,309265.0,287820.21875,334136.78125,-0.082763671875,0.978759765625,-0.25390625,9.368895530700684,5.920409679412842,5.676269054412842,80.0,1319976.0,1.0
1167860.1072576,304539.75,326397.09375,336166.3125,319388.125,305043.3125,309186.6875,287727.6875,334126.78125,-0.082763671875,0.978759765625,-0.253173828125,9.338377952575684,5.889892101287842,5.706786632537842,80.0,1319977.0,1.0
1167860.1097052,302539.71875,325756.5,334114.6875,316915.125,304050.0,309103.53125,287240.75,333554.125,-0.080810546875,0.97412109375,-0.2509765625,9.246825218200684,5.828856945037842,5.615233898162842,80.0,1319978.0,1.0
1167860.1097536,301779.40625,325360.15625,332759.1875,315520.375,303291.5625,309058.5625,286911.375,333095.1875,-0.078125,0.9677734375,-0.24853515625,9.185790061950684,5.645751476287842,5.462646007537842,80.0,1319979.0,1.0
1167860.1228629,303348.875,325810.65625,334048.09375,317210.0625,303868.21875,309154.875,287271.4375,333456.75,-0.078125,0.9609375,-0.251708984375,9.033202171325684,5.676269054412842,5.462646007537842,80.0,1319980.0,1.0
1167860.1254164,305076.84375,326466.5625,336168.46875,319614.03125,304970.0,309253.9375,287786.9375,334115.5,-0.07373046875,0.953857421875,-0.2548828125,8.941649436950684,5.676269054412842,5.249022960662842,80.0,1319981.0,1.0
1167860.139786,304560.9375,326378.59375,336151.84375,319381.0625,305032.03125,309191.6875,287710.15625,334114.34375,-0.06982421875,0.9443359375,-0.255859375,9.094237327575684,5.676269054412842,5.035399913787842,80.0,1319982.0,1.0
1167860.1398305,302530.96875,325727.15625,334092.34375,316893.75,304025.84375,309072.4375,287205.1875,333521.46875,-0.068603515625,0.935546875,-0.2548828125,9.185790061950684,5.676269054412842,4.913329601287842,80.0,1319983.0,1.0
1167860.1415861,301756.34375,325329.65625,332731.75,315488.1875,303259.8125,309019.9375,286871.0625,333059.0625,-0.070556640625,0.925048828125,-0.258056640625,9.399413108825684,5.737304210662842,4.791259288787842,80.0,1319984.0,1.0
1167860.1447348,303318.625,325775.25,334005.34375,317162.34375,303832.09375,309131.34375,287237.09375,333424.65625,-0.0703125,0.919189453125,-0.256591796875,9.643553733825684,5.645751476287842,4.577636241912842,80.0,1319985.0,1.0
1167860.1447948,305034.09375,326408.625,336101.9375,319547.09375,304908.125,309218.78125,287736.53125,334063.5625,-0.072021484375,0.9169921875,-0.252685546875,10.101317405700684,5.615233898162842,4.486083507537842,80.0,1319986.0,1.0
1167860.1466187,304538.59375,326334.0625,336111.5,319344.5625,304982.5,309159.875,287665.53125,334070.34375,-0.072021484375,0.92138671875,-0.2529296875,10.498045921325684,5.676269054412842,4.058837413787842,80.0,1319987.0,1.0
1167860.1491956,302560.65625,325729.9375,334111.5625,316919.15625,304022.0,309073.21875,287200.78125,333515.84375,-0.070556640625,0.928955078125,-0.251953125,10.742186546325684,5.554198741912842,3.723144292831421,80.0,1319988.0,1.0
1167860.1579188,301765.8125,325339.5,332740.4375,315493.90625,303258.1875,309028.4375,286868.28125,333049.21875,-0.072509765625,0.93359375,-0.25244140625,10.589598655700684,5.523681163787842,3.479003667831421,80.0,1319989.0,1.0
1167860.162851,303298.53125,325760.875,333973.0625,317126.75,303804.84375,309130.375,287217.59375,333390.9375,-0.0751953125,0.933349609375,-0.254638671875,10.375975608825684,5.340575695037842,3.356933355331421,80.0,1319990.0,1.0
1167860.1629046,305002.8125,326361.3125,336043.84375,319495.03125,304857.0625,309201.875,287698.15625,334008.9375,-0.077880859375,0.926513671875,-0.253173828125,10.040282249450684,5.126952648162842,3.204345464706421,80.0,1319991.0,1.0
1167860.1629217,304545.5625,326298.5625,336079.40625,319330.09375,304941.5625,309146.375,287636.21875,334026.4375,-0.08056640625,0.918212890625,-0.2578125,10.009764671325684,4.882812023162842,2.990722417831421,80.0,1319992.0,1.0
1167860.1654161,302610.4375,325732.0625,334112.09375,316942.75,303992.78125,309070.0,287182.46875,333478.84375,-0.0810546875,0.90771484375,-0.261474609375,10.070799827575684,4.791259288787842,2.593993902206421,80.0,1319993.0,1.0
1167860.1741756,301775.75,325332.15625,332727.5625,315496.59375,303219.84375,309012.0,286840.21875,333010.25,-0.080078125,0.8974609375,-0.26220703125,10.009764671325684,4.394530773162842,2.288818120956421,80.0,1319994.0,1.0
1167860.1834901,303258.5625,325726.53125,333925.15625,317084.0,303752.53125,309109.4375,287177.90625,333350.4375,-0.07861328125,0.895751953125,-0.2666015625,10.742186546325684,4.241942882537842,1.8310545682907104,80.0,1319995.0,1.0
1167860.1835397,304966.9375,326316.96875,335988.40625,319447.46875,304799.9375,309184.28125,287656.875,333966.28125,-0.078369140625,0.914794921875,-0.263916015625,11.688231468200684,4.302978038787842,1.0070799589157104,80.0,1319996.0,1.0
1167860.1853576,304538.40625,326263.34375,336053.5625,319316.59375,304896.21875,309130.90625,287602.875,333981.75,-0.079345703125,0.949951171875,-0.2568359375,11.932372093200684,4.089354991912842,0.1525878757238388,80.0,1319997.0,1.0
1167860.1879164,302596.0625,325710.34375,334109.34375,316949.0,303971.5,309057.59375,287162.34375,333443.4375,-0.082275390625,0.9775390625,-0.259765625,11.077879905700684,3.753661870956421,-0.03051757626235485,80.0,1319998.0,1.0
1167860.1916026,301776.28125,325333.78125,332726.125,315500.625,303208.21875,309005.8125,286826.625,332972.6875,-0.079345703125,0.982177734375,-0.2568359375,9.552000999450684,3.479003667831421,0.4577636420726776,80.0,1319999.0,1.0
1167860.2003793,303272.0625,325742.1875,333920.5,317081.15625,303739.46875,309115.78125,287173.875,333313.53125,-0.080322265625,0.964599609375,-0.260009765625,7.995604991912842,3.143310308456421,0.9155272841453552,80.0,1320000.0,1.0
1167860.2034429,304997.875,326335.40625,336002.15625,319465.09375,304801.625,309206.96875,287673.03125,333953.21875,-0.07861328125,0.942138671875,-0.26708984375,6.835937023162842,2.716064214706421,0.9765624403953552,80.0,1320001.0,1.0
1167860.2035025,304560.59375,326270.03125,336069.75,319332.78125,304891.125,309137.15625,287607.875,333971.75,-0.080810546875,0.925537109375,-0.2744140625,6.774901866912842,2.532958745956421,0.8239745497703552,80.0,1320002.0,1.0
1167860.2141598,302605.0,325713.03125,334133.03125,316971.25,303966.5625,309049.8125,287159.5,333441.90625,-0.082763671875,0.921142578125,-0.273193359375,7.019042491912842,2.532958745956421,0.3356933295726776,80.0,1320003.0,1.0
1167860.2172068,301768.78125,325332.4375,332743.5625,315510.8125,303211.625,309010.375,286831.625,332989.34375,-0.08349609375,0.922119140625,-0.27294921875,7.110595226287842,2.349853277206421,-0.1525878757238388,80.0,1320004.0,1.0
1167860.2172573,303236.125,325713.75,333895.125,317054.6875,303723.65625,309118.65625,287166.90625,333315.84375,-0.082763671875,0.927001953125,-0.27197265625,7.141112804412842,2.166747808456421,-0.4272460639476776,80.0,1320005.0,1.0
1167860.2228744,304933.78125,326269.40625,335923.03125,319393.125,304735.125,309172.5625,287625.46875,333899.21875,-0.08251953125,0.933349609375,-0.271728515625,7.141112804412842,1.9226073026657104,-0.7324218153953552,80.0,1320006.0,1.0
1167860.2322564,304567.375,326247.34375,336029.96875,319310.0625,304843.75,309127.5,287581.3125,333922.75,-0.08056640625,0.93896484375,-0.27294921875,6.866454601287842,1.6479490995407104,-0.9460448622703552,80.0,1320007.0,1.0
1167860.232315,302688.3125,325770.53125,334154.46875,317014.625,303959.5,309083.25,287169.875,333422.59375,-0.08056640625,0.938720703125,-0.274658203125,6.500243663787842,1.5258787870407104,-0.8544921278953552,80.0,1320008.0,1.0
1167860.2341681,301802.9375,325380.625,332762.25,315550.3125,303208.03125,309027.0,286843.875,332979.0625,-0.080810546875,0.930908203125,-0.273681640625,6.103515148162842,1.2817381620407104,-0.6408690810203552,80.0,1320009.0,1.0
1167860.2366721,303215.09375,325713.5625,333867.40625,317030.09375,303690.84375,309102.5625,287150.90625,333286.34375,-0.081787109375,0.9228515625,-0.278564453125,5.889892101287842,1.0681151151657104,-0.5493163466453552,80.0,1320010.0,1.0
1167860.2504294,304914.71875,326263.6875,335907.65625,319381.59375,304725.09375,309171.9375,287625.21875,333899.59375,-0.081787109375,0.9140625,-0.281494140625,5.950927257537842,1.0070799589157104,-0.5798339247703552,80.0,1320011.0,1.0
1167860.25533,304550.03125,326223.625,336031.5,319322.65625,304849.09375,309123.84375,287584.34375,333938.125,-0.07861328125,0.910400390625,-0.28369140625,6.256103038787842,1.0375975370407104,-0.7629393935203552,80.0,1320012.0,1.0
1167860.2553849,302654.71875,325705.53125,334152.96875,317015.0625,303958.15625,309053.21875,287162.53125,333429.84375,-0.0751953125,0.9091796875,-0.2841796875,6.591796398162842,0.9460448622703552,-0.9155272841453552,80.0,1320013.0,1.0
1167860.2554019,301785.40625,325337.15625,332743.5625,315516.78125,303189.625,309006.96875,286830.125,332966.0,-0.07275390625,0.9140625,-0.284912109375,6.988524913787842,0.9460448622703552,-1.0070799589157104,80.0,1320014.0,1.0
1167860.2585114,303191.40625,325685.84375,333830.375,316985.125,303663.03125,309091.8125,287133.84375,333257.46875,-0.0703125,0.914306640625,-0.284423828125,7.202147960662842,0.9155272841453552,-0.8544921278953552,80.0,1320015.0,1.0
1167860.2585606,304922.15625,326252.25,335869.9375,319348.5,304685.0625,309162.46875,287600.71875,333850.3125,-0.0654296875,0.9111328125,-0.291015625,7.324218273162842,0.9765624403953552,-0.5798339247703552,80.0,1320016.0,1.0
1167860.2666251,304602.71875,326245.71875,336025.3125,319331.53125,304817.625,309122.75,287564.25,333889.3125,-0.06689453125,0.90771484375,-0.2919921875,7.598876476287842,1.1291502714157104,-0.3967284858226776,80.0,1320017.0,1.0
1167860.2759764,302725.0625,325781.4375,334194.1875,317068.53125,303966.46875,309083.34375,287171.5625,333411.875,-0.069091796875,0.9052734375,-0.2919921875,7.904052257537842,1.1596678495407104,-0.2441406100988388,80.0,1320018.0,1.0
1167860.2760296,301789.15625,325368.90625,332762.40625,315535.3125,303204.65625,309016.375,286829.3125,332955.53125,-0.070556640625,0.906005859375,-0.29296875,8.361815452575684,1.3122557401657104,-0.2746581733226776,80.0,1320019.0,1.0
1167860.2822371,303219.40625,325701.78125,333821.1875,316984.21875,303653.375,309102.1875,287117.65625,333231.09375,-0.073974609375,0.906494140625,-0.2919921875,8.575438499450684,1.3732908964157104,-0.1525878757238388,80.0,1320020.0,1.0
1167860.2822913,304935.75,326271.03125,335866.53125,319360.5,304681.75,309187.84375,287594.625,333836.1875,-0.077392578125,0.906982421875,-0.29296875,8.911131858825684,1.3427733182907104,-0.03051757626235485,80.0,1320021.0,1.0
1167860.290382,304515.625,326178.65625,335997.53125,319289.5,304813.15625,309095.5,287533.21875,333872.125,-0.0810546875,0.908447265625,-0.296630859375,9.155272483825684,1.4953612089157104,0.03051757626235485,80.0,1320022.0,1.0
1167860.3053562,302644.5,325666.53125,334141.53125,317005.25,303934.3125,309023.6875,287105.75,333361.96875,-0.08251953125,0.908935546875,-0.298828125,9.338377952575684,1.3427733182907104,-0.03051757626235485,80.0,1320023.0,1.0
1167860.3054052,301780.5625,325322.6875,332733.34375,315505.53125,303169.96875,308997.0625,286774.78125,332901.4375,-0.081298828125,0.912109375,-0.303955078125,9.521483421325684,1.1901854276657104,0.03051757626235485,80.0,1320024.0,1.0
1167860.3054191,303184.8125,325661.625,333774.5,316930.125,303604.75,309089.6875,287051.9375,333162.59375,-0.08251953125,0.9150390625,-0.302490234375,9.826659202575684,0.9765624403953552,-0.0610351525247097,80.0,1320025.0,1.0
1167860.3090848,304961.75,326244.5625,335816.46875,319309.34375,304609.21875,309173.53125,287513.0,333740.71875,-0.08203125,0.916259765625,-0.302978515625,9.857176780700684,0.9155272841453552,-0.03051757626235485,80.0,1320026.0,1.0
1167860.309134,304653.03125,326239.1875,336025.5,319370.875,304778.9375,309135.09375,287499.15625,333806.5,-0.081298828125,0.917724609375,-0.305419921875,9.948729515075684,0.7934569716453552,-0.03051757626235485,80.0,1320027.0,1.0
1167860.3091472,302797.3125,325765.78125,334211.0625,317129.6875,303929.125,309071.0,287093.15625,333319.5,-0.083984375,0.9189453125,-0.30810546875,10.101317405700684,0.6713866591453552,0.0,80.0,1320028.0,1.0
1167860.3116122,301822.0625,325389.375,332756.4375,315533.4375,303145.0,309010.5625,286736.59375,332838.6875,-0.08251953125,0.922119140625,-0.308349609375,10.101317405700684,0.5798339247703552,-0.0915527269244194,80.0,1320029.0,1.0
1167860.3140838,303149.40625,325667.53125,333754.75,316897.5,303576.65625,309077.625,287008.125,333107.53125,-0.08447265625,0.92822265625,-0.31005859375,10.131834983825684,0.6103515028953552,-0.2136230319738388,80.0,1320030.0,1.0
1167860.3178978,304868.6875,326165.53125,335761.46875,319257.40625,304570.6875,309126.53125,287457.21875,333687.34375,-0.083251953125,0.933837890625,-0.3134765625,10.223387718200684,0.4272460639476776,-0.3662109076976776,80.0,1320031.0,1.0
1167860.3316,304575.96875,326132.8125,335951.75,319294.15625,304710.78125,309067.0625,287417.15625,333724.78125,-0.080322265625,0.93798828125,-0.318115234375,10.009764671325684,0.5187987685203552,-0.2441406100988388,80.0,1320032.0,1.0
1167860.339142,302775.84375,325707.03125,334179.6875,317109.21875,303885.65625,309042.03125,287039.0625,333258.625,-0.08154296875,0.93798828125,-0.315673828125,9.552000999450684,0.3662109076976776,-0.0610351525247097,80.0,1320033.0,1.0
1167860.3392029,301904.59375,325401.09375,332768.40625,315613.96875,303123.09375,309029.6875,286717.71875,332799.53125,-0.078857421875,0.935546875,-0.316162109375,9.185790061950684,0.2746581733226776,0.03051757626235485,80.0,1320034.0,1.0
1167860.339221,303183.46875,325686.65625,333737.125,316926.375,303527.6875,309081.53125,286976.21875,333046.1875,-0.081298828125,0.936279296875,-0.3193359375,8.941649436950684,0.2746581733226776,0.03051757626235485,80.0,1320035.0,1.0
1167860.3422203,304839.71875,326167.65625,335724.03125,319226.1875,304516.34375,309121.40625,287423.40625,333624.21875,-0.083984375,0.938720703125,-0.318603515625,8.880614280700684,0.1525878757238388,0.0610351525247097,80.0,1320036.0,1.0
1167860.3422689,304582.40625,326145.84375,335943.25,319270.71875,304682.53125,309073.9375,287407.25,333682.0625,-0.08642578125,0.940185546875,-0.31884765625,8.575438499450684,-0.1220703050494194,-0.0610351525247097,80.0,1320037.0,1.0
1167860.3504189,302772.53125,325699.875,334173.875,317092.3125,303859.46875,309029.96875,287023.59375,333211.40625,-0.08984375,0.93994140625,-0.3154296875,8.239745140075684,-0.3662109076976776,0.1220703050494194,80.0,1320038.0,1.0
1167860.3571557,301790.3125,325321.78125,332706.4375,315515.1875,303072.5,308983.03125,286671.96875,332729.59375,-0.10205078125,0.93408203125,-0.302734375,8.392333030700684,-1.2817381620407104,0.2746581733226776,80.0,1320039.0,1.0
1167860.3572034,303122.40625,325635.25,333684.125,316858.6875,303497.09375,309076.90625,286958.9375,333003.8125,-0.094482421875,0.935791015625,-0.31982421875,8.941649436950684,-2.746581792831421,0.6103515028953552,80.0,1320040.0,1.0
1167860.3629184,304852.25,326151.65625,335693.90625,319212.96875,304487.625,309125.0,287418.9375,333591.125,-0.08154296875,0.93798828125,-0.34033203125,8.178709983825684,-1.9836424589157104,0.3662109076976776,80.0,1320041.0,1.0
1167860.3672618,304594.65625,326133.96875,335926.875,319276.625,304651.875,309068.9375,287398.375,333646.65625,-0.080810546875,0.939208984375,-0.328125,6.927489757537842,-0.9155272841453552,-0.03051757626235485,80.0,1320042.0,1.0
1167860.3673103,302839.34375,325728.6875,334184.625,317110.28125,303836.75,309043.90625,287019.9375,333178.53125,-0.083740234375,0.940673828125,-0.320068359375,6.286620616912842,-0.7629393935203552,0.0,80.0,1320043.0,1.0
1167860.3753422,301931.9375,325408.96875,332767.25,315641.0625,303083.0625,309031.9375,286700.84375,332730.0625,-0.085693359375,0.938720703125,-0.318115234375,5.737304210662842,-0.6713866591453552,0.03051757626235485,80.0,1320044.0,1.0
1167860.3785209,303151.90625,325670.03125,333692.96875,316887.75,303472.59375,309090.75,286956.4375,332976.46875,-0.090576171875,0.939453125,-0.31591796875,5.249022960662842,-0.5798339247703552,0.03051757626235485,80.0,1320045.0,1.0
1167860.3785713,304823.625,326156.21875,335691.9375,319201.625,304470.84375,309140.09375,287418.6875,333572.0,-0.09326171875,0.939697265625,-0.313720703125,4.821776866912842,-0.6103515028953552,-0.0915527269244194,80.0,1320046.0,1.0
1167860.3915737,304597.15625,326142.53125,335947.53125,319298.625,304649.46875,309076.09375,287399.375,333639.78125,-0.09375,0.9384765625,-0.31396484375,4.272460460662842,-0.6713866591453552,-0.03051757626235485,80.0,1320047.0,1.0
1167860.3946768,302777.0,325700.0625,334196.9375,317131.65625,303839.25,309018.96875,287011.78125,333179.9375,-0.09130859375,0.93115234375,-0.31494140625,3.845214605331421,-0.7629393935203552,0.0610351525247097,80.0,1320048.0,1.0
1167860.3947116,301820.34375,325340.125,332734.34375,315539.875,303069.65625,308988.21875,286674.8125,332721.03125,-0.091552734375,0.9248046875,-0.31494140625,3.387450933456421,-0.8239745497703552,0.1831054538488388,80.0,1320049.0,1.0
1167860.3965551,303116.40625,325631.59375,333657.03125,316819.0,303453.90625,309070.625,286936.875,332968.15625,-0.087158203125,0.923583984375,-0.31591796875,3.173827886581421,-0.8544921278953552,0.2746581733226776,80.0,1320050.0,1.0
1167860.3990872,304863.59375,326169.28125,335695.15625,319234.25,304465.5625,309154.0625,287427.96875,333586.9375,-0.08642578125,0.923095703125,-0.313232421875,2.929687261581421,-0.7934569716453552,0.2441406100988388,80.0,1320051.0,1.0
1167860.4079164,304608.59375,326145.75,335966.0625,319332.0625,304651.96875,309086.90625,287412.25,333658.71875,-0.084716796875,0.92578125,-0.31494140625,2.746581792831421,-0.7324218153953552,0.1831054538488388,80.0,1320052.0,1.0
1167860.4122623,302775.03125,325698.8125,334211.4375,317096.78125,303847.21875,309031.125,287024.84375,333196.21875,-0.086181640625,0.927734375,-0.31494140625,2.563476324081421,-0.6103515028953552,0.2136230319738388,80.0,1320053.0,1.0
1167860.4123114,301762.25,325322.6875,332709.03125,315436.78125,303054.34375,308976.84375,286667.03125,332715.03125,-0.0869140625,0.93017578125,-0.314208984375,2.197265386581421,-0.6103515028953552,0.3356933295726776,80.0,1320054.0,1.0
1167860.4141672,303017.0625,325598.59375,333602.84375,316690.09375,303428.4375,309052.03125,286925.5,332958.5,-0.0888671875,0.9306640625,-0.3134765625,1.8310545682907104,-0.5798339247703552,0.4577636420726776,80.0,1320055.0,1.0
1167860.4284918,304810.9375,326142.46875,335643.375,319090.3125,304441.3125,309133.3125,287419.125,333578.875,-0.09033203125,0.93212890625,-0.3125,1.4953612089157104,-0.6103515028953552,0.4577636420726776,80.0,1320056.0,1.0
1167860.4285426,304666.0,326173.75,335981.875,319327.6875,304672.53125,309103.28125,287440.21875,333695.8125,-0.091064453125,0.93115234375,-0.31103515625,1.0986326932907104,-0.4882812201976776,0.5798339247703552,80.0,1320057.0,1.0
1167860.4304201,302833.34375,325739.6875,334251.65625,317191.65625,303876.28125,309051.40625,287050.15625,333241.71875,-0.092529296875,0.931884765625,-0.310302734375,0.7019042372703552,-0.6103515028953552,0.5493163466453552,80.0,1320058.0,1.0
1167860.432916,301787.375,325348.34375,332722.1875,315494.09375,303064.375,308991.15625,286671.78125,332741.125,-0.094970703125,0.929931640625,-0.306640625,0.3662109076976776,-0.6713866591453552,0.6103515028953552,80.0,1320059.0,1.0
1167860.4366491,303050.15625,325622.28125,333608.90625,316734.78125,303433.96875,309068.65625,286932.125,332985.03125,-0.095458984375,0.9306640625,-0.30908203125,0.0,-0.7629393935203552,0.4577636420726776,80.0,1320060.0,1.0
1167860.4509907,304842.125,326182.6875,335677.625,319177.46875,304472.96875,309164.875,287449.34375,333635.03125,-0.092529296875,0.930908203125,-0.309326171875,-0.3356933295726776,-0.8239745497703552,0.4272460639476776,80.0,1320061.0,1.0
1167860.4510413,304660.0,326188.9375,336008.25,319367.1875,304693.09375,309109.53125,287453.8125,333737.40625,-0.09228515625,0.930908203125,-0.305908203125,-0.7019042372703552,-0.8239745497703552,0.4882812201976776,80.0,1320062.0,1.0
1167860.4529197,302875.90625,325777.9375,334301.03125,317229.28125,303911.78125,309070.1875,287075.625,333291.71875,-0.09130859375,0.927978515625,-0.30517578125,-1.0375975370407104,-0.8850097060203552,0.5798339247703552,80.0,1320063.0,1.0
1167860.4554189,301819.03125,325357.1875,332750.96875,315572.75,303085.125,308994.03125,286680.8125,332777.625,-0.090576171875,0.925048828125,-0.3037109375,-1.3427733182907104,-0.8850097060203552,0.6103515028953552,80.0,1320064.0,1.0
1167860.4579181,303100.75,325660.90625,333632.25,316839.03125,303450.6875,309092.375,286943.75,333016.78125,-0.090576171875,0.923828125,-0.301513671875,-1.4953612089157104,-0.8239745497703552,0.5493163466453552,80.0,1320065.0,1.0
1167860.467194,304797.6875,326182.0625,335650.875,319147.25,304458.9375,309149.3125,287425.21875,333631.4375,-0.08984375,0.922119140625,-0.303955078125,-1.6479490995407104,-0.8544921278953552,0.4577636420726776,80.0,1320066.0,1.0
1167860.4672462,304630.40625,326155.78125,335985.625,319313.28125,304682.53125,309078.0625,287421.28125,333731.59375,-0.092529296875,0.9248046875,-0.302001953125,-1.7700194120407104,-0.9155272841453552,0.4882812201976776,80.0,1320067.0,1.0
1167860.4697405,302861.15625,325718.65625,334262.5,317188.625,303872.15625,309023.34375,287015.53125,333248.78125,-0.0908203125,0.924072265625,-0.30078125,-2.014159917831421,-1.0070799589157104,0.5187987685203552,80.0,1320068.0,1.0
1167860.4697943,301786.46875,325309.28125,332694.65625,315471.65625,303037.1875,308954.6875,286612.84375,332715.65625,-0.088623046875,0.920654296875,-0.302001953125,-2.075195074081421,-0.8850097060203552,0.4577636420726776,80.0,1320069.0,1.0
1167860.4804168,302970.40625,325579.0,333533.90625,316630.0,303385.96875,309030.125,286861.0625,332940.4375,-0.0869140625,0.91796875,-0.299072265625,-2.075195074081421,-0.8544921278953552,0.4577636420726776,80.0,1320070.0,1.0
1167860.4834616,304795.03125,326135.40625,335611.5625,319093.0625,304425.15625,309128.3125,287376.3125,333583.4375,-0.083251953125,0.914306640625,-0.298828125,-2.136230230331421,-0.7934569716453552,0.5493163466453552,80.0,1320071.0,1.0
1167860.4835199,304684.6875,326142.0,335977.65625,319348.0625,304648.375,309077.25,287370.59375,333666.5,-0.082763671875,0.91357421875,-0.2998046875,-2.075195074081421,-0.6408690810203552,0.5187987685203552,80.0,1320072.0,1.0
1167860.4852666,302836.125,325655.8125,334209.03125,317146.5,303802.0625,308978.90625,286916.5625,333132.28125,-0.08447265625,0.912841796875,-0.297607421875,-1.9531248807907104,-0.5187987685203552,0.4882812201976776,80.0,1320073.0,1.0
1167860.4953503,301795.59375,325263.21875,332639.75,315455.1875,302967.28125,308939.46875,286511.28125,332590.65625,-0.08740234375,0.910400390625,-0.29638671875,-1.7700194120407104,-0.3051757514476776,0.5493163466453552,80.0,1320074.0,1.0
1167860.5072014,302937.15625,325501.40625,333427.96875,316586.0,303271.0625,308991.96875,286725.15625,332771.71875,-0.08837890625,0.910888671875,-0.296142578125,-1.7089842557907104,-0.3051757514476776,0.5798339247703552,80.0,1320075.0,1.0
1167860.5072531,304727.4375,326062.71875,335484.84375,318964.40625,304292.28125,309069.84375,287237.375,333402.5625,-0.08935546875,0.911376953125,-0.2998046875,-1.4953612089157104,-0.2746581733226776,0.2746581733226776,80.0,1320076.0,1.0
1167860.5097397,304650.53125,326101.15625,335901.6875,319269.28125,304555.75,309032.90625,287271.6875,333528.28125,-0.08935546875,0.91357421875,-0.2958984375,-1.2207030057907104,-0.2136230319738388,0.1525878757238388,80.0,1320077.0,1.0
1167860.5097897,302834.84375,325630.78125,334170.75,317121.5625,303744.5,308965.75,286848.53125,333031.53125,-0.085693359375,0.919189453125,-0.298095703125,-1.1291502714157104,-0.1525878757238388,0.1525878757238388,80.0,1320078.0,1.0
1167860.5210099,301709.59375,325174.53125,332528.25,315323.3125,302848.625,308869.46875,286395.5,332437.40625,-0.0859375,0.92626953125,-0.298583984375,-1.0986326932907104,0.0,0.0915527269244194,80.0,1320079.0,1.0
1167860.5210605,302918.375,325460.09375,333347.6875,316491.5,303177.375,308966.21875,286662.375,332658.15625,-0.0830078125,0.9306640625,-0.298095703125,-1.1596678495407104,0.1220703050494194,0.2136230319738388,80.0,1320080.0,1.0
1167860.523419,304736.90625,326054.3125,335459.46875,318974.4375,304242.75,309080.75,287234.5,333346.875,-0.08447265625,0.934326171875,-0.298095703125,-1.3427733182907104,0.2136230319738388,0.2441406100988388,80.0,1320081.0,1.0
1167860.5234656,304685.5,326123.6875,335918.46875,319325.0,304538.0625,309066.53125,287302.8125,333508.78125,-0.088134765625,0.935546875,-0.295166015625,-1.6784666776657104,0.2441406100988388,0.3051757514476776,80.0,1320082.0,1.0
1167860.5279414,302885.28125,325665.90625,334201.59375,317173.78125,303741.8125,308999.28125,286885.625,333025.625,-0.087158203125,0.9384765625,-0.294189453125,-1.8615721464157104,0.3967284858226776,0.2136230319738388,80.0,1320083.0,1.0
1167860.5304193,301797.65625,325227.28125,332570.625,315403.4375,302858.71875,308924.625,286443.59375,332444.125,-0.085205078125,0.941650390625,-0.29296875,-2.075195074081421,0.4577636420726776,0.0610351525247097,80.0,1320084.0,1.0
1167860.5341651,302916.5,325470.46875,333335.59375,316496.96875,303151.53125,308986.40625,286679.375,332633.125,-0.0849609375,0.94677734375,-0.293212890625,-2.410888433456421,0.5187987685203552,0.0610351525247097,80.0,1320085.0,1.0
1167860.5479193,304740.84375,326087.1875,335460.28125,318984.09375,304223.71875,309099.78125,287258.8125,333333.28125,-0.0859375,0.950439453125,-0.29638671875,-2.624511480331421,0.5493163466453552,0.0610351525247097,80.0,1320086.0,1.0
1167860.5522624,304707.21875,326171.875,335942.1875,319336.53125,304532.34375,309070.90625,287324.09375,333506.71875,-0.08642578125,0.95556640625,-0.293212890625,-2.929687261581421,0.5493163466453552,0.0915527269244194,80.0,1320087.0,1.0
1167860.5523116,302895.9375,325688.90625,334223.0625,317188.0625,303736.34375,308984.8125,286895.125,333018.9375,-0.08740234375,0.95703125,-0.29052734375,-3.479003667831421,0.4272460639476776,0.1220703050494194,80.0,1320088.0,1.0
1167860.5547617,301752.6875,325228.09375,332569.9375,315400.03125,302858.8125,308909.625,286458.4375,332445.65625,-0.08984375,0.955322265625,-0.291748046875,-4.028319835662842,0.3967284858226776,0.2441406100988388,80.0,1320089.0,1.0
1167860.5548116,302915.15625,325486.84375,333346.59375,316526.46875,303170.40625,309000.71875,286721.125,332659.875,-0.093505859375,0.951416015625,-0.287109375,-4.425048351287842,0.3662109076976776,0.2136230319738388,80.0,1320090.0,1.0
1167860.568491,304775.09375,326109.375,335481.1875,319007.15625,304242.84375,309121.34375,287314.96875,333364.5625,-0.09716796875,0.949462890625,-0.28759765625,-4.699706554412842,0.3051757514476776,0.03051757626235485,80.0,1320091.0,1.0
1167860.5685404,304737.25,326197.875,335997.53125,319399.5625,304582.59375,309104.4375,287403.84375,333567.71875,-0.09912109375,0.948486328125,-0.287841796875,-4.791259288787842,0.1220703050494194,0.0,80.0,1320092.0,1.0
1167860.5772901,302917.03125,325693.53125,334274.5625,317259.34375,303786.25,309000.71875,286953.40625,333075.34375,-0.099365234375,0.94921875,-0.290283203125,-4.852294445037842,-0.03051757626235485,-0.3662109076976776,80.0,1320093.0,1.0
1167860.5773446,301762.5,325229.15625,332585.375,315402.96875,302873.9375,308911.21875,286485.0,332468.28125,-0.099609375,0.951171875,-0.28759765625,-4.791259288787842,-0.3051757514476776,-0.5798339247703552,80.0,1320094.0,1.0
1167860.6022632,302929.90625,325518.9375,333365.28125,316522.4375,303199.71875,309022.1875,286759.3125,332699.03125,-0.100830078125,0.955322265625,-0.284912109375,-4.943847179412842,-0.5798339247703552,-0.7019042372703552,80.0,1320095.0,1.0
1167860.6023115,304784.46875,326151.21875,335533.3125,319056.25,304313.46875,309157.53125,287388.5625,333450.84375,-0.1025390625,0.9541015625,-0.282470703125,-5.065917491912842,-0.9460448622703552,-0.7324218153953552,80.0,1320096.0,1.0
1167860.6046929,304783.84375,326235.71875,336060.46875,319491.1875,304647.84375,309132.34375,287473.9375,333652.0,-0.1025390625,0.948974609375,-0.281982421875,-5.279540538787842,-1.2512205839157104,-0.7019042372703552,80.0,1320097.0,1.0
1167860.6047334,302951.34375,325745.75,334334.375,317328.625,303841.5,309037.28125,287022.34375,333149.09375,-0.1025390625,0.939697265625,-0.28125,-5.279540538787842,-1.4648436307907104,-0.7629393935203552,80.0,1320098.0,1.0
1167860.6072196,301736.3125,325241.84375,332615.6875,315442.5,302925.53125,308935.28125,286545.1875,332547.3125,-0.10302734375,0.93017578125,-0.278076171875,-5.218505382537842,-1.7700194120407104,-0.8544921278953552,80.0,1320099.0,1.0
1167860.6072696,302897.53125,325517.9375,333368.0625,316515.90625,303233.0625,309038.71875,286810.28125,332769.46875,-0.1025390625,0.922119140625,-0.27587890625,-4.882812023162842,-1.9226073026657104,-1.0681151151657104,80.0,1320100.0,1.0
1167860.6091279,304787.96875,326183.75,335559.34375,319085.125,304354.96875,309190.90625,287452.3125,333534.625,-0.101806640625,0.916748046875,-0.278076171875,-4.425048351287842,-2.136230230331421,-1.3427733182907104,80.0,1320101.0,1.0
1167860.6116674,304768.09375,326255.28125,336089.59375,319481.375,304693.0,309145.90625,287525.96875,333732.65625,-0.1005859375,0.915283203125,-0.277099609375,-3.814697027206421,-2.319335699081421,-1.6784666776657104,80.0,1320102.0,1.0
1167860.6153518,302923.625,325735.46875,334348.84375,317298.59375,303879.9375,309031.125,287053.28125,333215.96875,-0.098876953125,0.912109375,-0.27490234375,-3.265380620956421,-2.532958745956421,-1.8920897245407104,80.0,1320103.0,1.0
1167860.6154071,301757.15625,325261.53125,332638.0625,315450.53125,302961.0,308952.71875,286580.125,332608.53125,-0.098876953125,0.912109375,-0.273193359375,-2.685546636581421,-2.685546636581421,-2.014159917831421,80.0,1320104.0,1.0
1167860.615421,302864.625,325523.5,333371.46875,316525.125,303258.5625,309052.5,286845.125,332826.0625,-0.097412109375,0.90966796875,-0.27294921875,-2.014159917831421,-2.838134527206421,-2.166747808456421,80.0,1320105.0,1.0
1167860.6191659,304746.5625,326160.0625,335547.53125,319056.5,304368.53125,309183.46875,287472.875,333576.90625,-0.094482421875,0.906982421875,-0.27392578125,-1.4953612089157104,-2.868652105331421,-2.319335699081421,80.0,1320106.0,1.0
1167860.627863,304798.25,326252.875,336117.6875,319534.03125,304719.375,309151.5625,287554.59375,333779.875,-0.0927734375,0.905517578125,-0.275146484375,-0.8850097060203552,-2.960204839706421,-2.441406011581421,80.0,1320107.0,1.0
1167860.6303283,302970.5,325740.3125,334393.5625,317385.21875,303903.71875,309037.8125,287079.21875,333257.90625,-0.09228515625,0.906005859375,-0.27490234375,-0.2136230319738388,-2.929687261581421,-2.593993902206421,80.0,1320108.0,1.0
1167860.6340536,301761.0,325269.21875,332640.28125,315421.5,302961.1875,308952.53125,286580.125,332620.53125,-0.091064453125,0.908447265625,-0.275390625,0.3662109076976776,-2.899169683456421,-2.777099370956421,80.0,1320109.0,1.0
1167860.6478739,302923.5625,325590.375,333390.9375,316520.125,303275.53125,309080.65625,286859.25,332853.78125,-0.09033203125,0.906982421875,-0.276123046875,0.9765624403953552,-2.868652105331421,-2.899169683456421,80.0,1320110.0,1.0
1167860.6553479,304831.125,326266.09375,335631.21875,319184.1875,304445.625,309246.78125,287538.125,333671.25,-0.088134765625,0.912109375,-0.2763671875,1.5869139432907104,-2.777099370956421,-2.960204839706421,80.0,1320111.0,1.0
1167860.6554055,304794.46875,326282.1875,336162.46875,319581.15625,304769.71875,309157.375,287578.1875,333845.59375,-0.0859375,0.91552734375,-0.276611328125,2.044677495956421,-2.593993902206421,-3.112792730331421,80.0,1320112.0,1.0
1167860.6554236,302979.6875,325770.78125,334439.96875,317389.0625,303955.84375,309049.0,287101.03125,333324.53125,-0.086181640625,0.91748046875,-0.273681640625,2.532958745956421,-2.380370855331421,-3.173827886581421,80.0,1320113.0,1.0
1167860.6578008,301745.34375,325248.125,332655.75,315417.1875,302991.15625,308941.96875,286582.90625,332672.28125,-0.08935546875,0.919921875,-0.2724609375,2.807616949081421,-2.227782964706421,-3.173827886581421,80.0,1320114.0,1.0
1167860.6603568,302860.15625,325537.0,333352.3125,316447.4375,303264.90625,309056.59375,286837.34375,332869.875,-0.089111328125,0.919677734375,-0.271728515625,3.112792730331421,-2.136230230331421,-3.265380620956421,80.0,1320115.0,1.0
1167860.6629242,304745.3125,326220.34375,335573.90625,319054.0,304423.71875,309215.65625,287516.59375,333675.09375,-0.087646484375,0.91796875,-0.269287109375,3.356933355331421,-1.8920897245407104,-3.234863042831421,80.0,1320116.0,1.0
1167860.6654544,304821.3125,326302.75,336181.0625,319576.84375,304799.9375,309174.25,287611.625,333898.6875,-0.088623046875,0.914306640625,-0.269775390625,3.540038824081421,-1.8005369901657104,-3.234863042831421,80.0,1320117.0,1.0
1167860.6691672,303033.25,325814.59375,334481.625,317449.15625,303997.40625,309073.78125,287143.03125,333385.03125,-0.088623046875,0.91357421875,-0.269287109375,3.845214605331421,-1.6174315214157104,-3.295898199081421,80.0,1320118.0,1.0
1167860.675976,301753.3125,325307.40625,332708.9375,315501.40625,303059.1875,308980.59375,286651.125,332763.5,-0.08935546875,0.91552734375,-0.272216796875,4.119872570037842,-1.4648436307907104,-3.417968511581421,80.0,1320119.0,1.0
1167860.676025,302826.09375,325527.5,333358.5,316489.90625,303303.71875,309058.125,286877.0625,332937.28125,-0.088623046875,0.917724609375,-0.272705078125,4.302978038787842,-1.2512205839157104,-3.417968511581421,80.0,1320120.0,1.0
1167860.6816693,304783.5625,326233.5625,335602.15625,319131.875,304460.375,309242.75,287560.9375,333735.625,-0.08984375,0.9248046875,-0.2734375,4.455565929412842,-1.0375975370407104,-3.356933355331421,80.0,1320121.0,1.0
1167860.6860243,304898.71875,326372.21875,336260.46875,319721.96875,304863.40625,309236.75,287681.53125,333979.5,-0.09033203125,0.931640625,-0.2802734375,4.425048351287842,-0.8544921278953552,-3.387450933456421,80.0,1320122.0,1.0
1167860.6860783,303099.25,325866.71875,334570.125,317580.75,304069.03125,309114.71875,287208.40625,333471.15625,-0.088134765625,0.934326171875,-0.2783203125,4.241942882537842,-0.7629393935203552,-3.387450933456421,80.0,1320123.0,1.0
