Time,FZ,C3,CZ,C4,PZ,PO7,OZ,PO8,AccX,AccY,AccZ,Gyro1,Gyro2,Gyro3,Battery,Counter,Validation
84579.0706132,315101.21875,340519.0,333154.1875,317673.75,314828.90625,301984.6875,304429.96875,272940.5625,0.112060546875,0.968017578125,-0.192138671875,-5.126952648162842,10.833739280700684,-3.265380620956421,100.0,132633.0,1.0
84579.0732535,314730.46875,340678.96875,333405.53125,318204.1875,316003.0625,302985.59375,305129.59375,273605.40625,0.110107421875,0.96337890625,-0.196533203125,-4.608153820037842,11.291502952575684,-2.838134527206421,100.0,132634.0,1.0
84579.0732664,314883.15625,341925.1875,334466.59375,319389.09375,318430.375,304217.375,306199.5,274489.4375,0.106201171875,0.957275390625,-0.20458984375,-3.784179449081421,11.596678733825684,-2.593993902206421,100.0,132635.0,1.0
84579.0758243,315417.90625,342660.125,334957.53125,319627.46875,318790.15625,304003.84375,306171.78125,274383.40625,0.103515625,0.95458984375,-0.21142578125,-2.624511480331421,11.779784202575684,-2.471923589706421,100.0,132636.0,1.0
84579.0783044,315546.21875,341836.78125,334180.40625,318611.875,316672.90625,302662.84375,305104.28125,273461.34375,0.10205078125,0.958984375,-0.2109375,-1.1901854276657104,11.840819358825684,-2.441406011581421,100.0,132637.0,1.0
84579.0783176,315124.125,340627.5625,333226.96875,317727.46875,315020.21875,302048.0,304460.53125,272992.5,0.102783203125,0.963623046875,-0.206298828125,0.3051757514476776,11.871336936950684,-2.532958745956421,100.0,132638.0,1.0
84579.0832884,314730.09375,340750.9375,333438.34375,318211.4375,316153.0,303029.21875,305132.53125,273646.875,0.105224609375,0.966796875,-0.201171875,1.6784666776657104,11.962889671325684,-2.838134527206421,100.0,132639.0,1.0
84579.0856185,314892.71875,341984.3125,334485.46875,319391.4375,318573.53125,304247.5,306214.875,274562.125,0.109130859375,0.968994140625,-0.196533203125,3.204345464706421,12.329100608825684,-3.448486089706421,100.0,132640.0,1.0
84579.0881499,315435.6875,342703.3125,334966.84375,319635.40625,318917.65625,303976.9375,306172.25,274452.96875,0.1064453125,0.97021484375,-0.193359375,4.699706554412842,12.786864280700684,-4.180907726287842,100.0,132641.0,1.0
84579.0881622,315571.25,341926.28125,334224.21875,318644.96875,316855.3125,302645.6875,305113.03125,273535.84375,0.10498046875,0.96875,-0.185791015625,5.981444835662842,13.122557640075684,-4.821776866912842,100.0,132642.0,1.0
84579.0907922,315143.15625,340742.71875,333288.5625,317773.4375,315250.1875,302063.625,304497.75,273096.9375,0.109619140625,0.966796875,-0.182373046875,7.019042491912842,13.641356468200684,-5.340575695037842,100.0,132643.0,1.0
84579.093304,314783.46875,340851.5,333500.65625,318267.65625,316376.8125,303040.59375,305201.90625,273796.625,0.119140625,0.965087890625,-0.180419921875,8.178709983825684,14.007567405700684,-5.706786632537842,100.0,132644.0,1.0
84579.0956887,314944.5,342029.625,334505.84375,319411.0,318728.1875,304223.25,306259.3125,274721.8125,0.12451171875,0.962158203125,-0.18115234375,9.246825218200684,14.312743186950684,-6.042479991912842,100.0,132645.0,1.0
84579.0982976,315480.5,342768.3125,335002.0625,319681.375,319086.625,304000.46875,306249.75,274675.5,0.11572265625,0.95556640625,-0.1845703125,10.650633811950684,14.678954124450684,-6.195067882537842,100.0,132646.0,1.0
84579.1020775,315603.6875,341992.71875,334261.5,318704.96875,317028.21875,302650.59375,305203.4375,273799.0625,0.098388671875,0.952392578125,-0.19091796875,12.023924827575684,14.770506858825684,-5.859374523162842,100.0,132647.0,1.0
84579.1020914,315170.59375,340768.625,333302.53125,317814.03125,315417.1875,301994.78125,304566.125,273343.78125,0.08544921875,0.950439453125,-0.19140625,13.092040061950684,14.556883811950684,-5.218505382537842,100.0,132648.0,1.0
84579.1195312,314780.34375,340836.84375,333476.25,318260.34375,316529.0625,302931.0625,305228.5625,273993.40625,0.08056640625,0.9541015625,-0.194580078125,14.068602561950684,14.038084983825684,-4.333495616912842,100.0,132649.0,1.0
84579.1245915,314917.84375,341989.5625,334466.5,319375.34375,318873.40625,304121.25,306257.625,274896.15625,0.079833984375,0.960205078125,-0.19921875,14.984129905700684,13.549803733825684,-3.417968511581421,100.0,132650.0,1.0
84579.1246125,315438.21875,342709.65625,334964.875,319637.03125,319251.0625,303916.25,306231.34375,274850.21875,0.076171875,0.968994140625,-0.205810546875,16.113279342651367,12.847899436950684,-2.929687261581421,100.0,132651.0,1.0
84579.1269517,315576.34375,341926.375,334248.90625,318689.84375,317236.4375,302620.09375,305198.6875,273992.25,0.07568359375,0.979248046875,-0.218505859375,17.181394577026367,11.962889671325684,-2.655029058456421,100.0,132652.0,1.0
84579.1293922,315145.65625,340678.40625,333283.46875,317782.46875,315617.09375,302002.84375,304545.84375,273565.78125,0.075439453125,0.98583984375,-0.2294921875,17.944334030151367,11.016844749450684,-2.441406011581421,100.0,132653.0,1.0
84579.1320436,314726.53125,340721.875,333430.28125,318189.34375,316721.0,302958.96875,305186.625,274254.65625,0.076171875,0.986572265625,-0.23486328125,18.493650436401367,10.223387718200684,-2.227782964706421,100.0,132654.0,1.0
84579.134422,314904.53125,341927.15625,334448.09375,319356.90625,319123.1875,304197.96875,306255.9375,275221.34375,0.07861328125,0.980224609375,-0.2353515625,18.585203170776367,9.521483421325684,-1.8920897245407104,100.0,132655.0,1.0
84579.1395507,315471.09375,342700.375,334969.34375,319666.71875,319552.625,304035.5,306276.5,275221.34375,0.081787109375,0.966064453125,-0.23876953125,18.493650436401367,9.094237327575684,-1.4953612089157104,100.0,132656.0,1.0
84579.1696631,315616.9375,341939.15625,334240.03125,318703.15625,317577.28125,302758.15625,305241.53125,274418.90625,0.085693359375,0.95458984375,-0.236328125,18.432615280151367,9.063719749450684,-1.1901854276657104,100.0,132657.0,1.0
84579.1697041,315212.4375,340735.8125,333291.53125,317818.84375,316045.8125,302171.5625,304618.34375,274049.125,0.0830078125,0.942626953125,-0.23291015625,18.585203170776367,9.246825218200684,-1.0986326932907104,100.0,132658.0,1.0
84579.178409,314828.4375,340818.78125,333462.46875,318250.0625,317152.125,303133.125,305312.15625,274755.625,0.07568359375,0.939697265625,-0.230224609375,18.920896530151367,9.521483421325684,-0.9460448622703552,100.0,132659.0,1.0
84579.1784507,314946.03125,341975.34375,334452.21875,319349.65625,319493.25,304324.65625,306361.59375,275685.34375,0.07080078125,0.949462890625,-0.22119140625,18.951414108276367,9.155272483825684,-0.6103515028953552,100.0,132660.0,1.0
84579.1810238,315490.59375,342687.9375,334982.46875,319637.84375,319930.0,304144.125,306378.25,275677.125,0.068115234375,0.966796875,-0.210205078125,18.615720748901367,8.575438499450684,0.0610351525247097,100.0,132661.0,1.0
84579.1810613,315665.9375,341884.15625,334298.59375,318689.21875,317940.78125,302866.875,305406.28125,274901.96875,0.065673828125,0.988037109375,-0.199951171875,17.791746139526367,7.995604991912842,0.9155272841453552,100.0,132662.0,1.0
84579.1832866,315248.21875,340630.59375,333357.875,317744.09375,316350.4375,302267.75,304839.09375,274520.375,0.064208984375,1.011962890625,-0.192138671875,16.540525436401367,7.202147960662842,1.4648436307907104,100.0,132663.0,1.0
84579.1857298,314831.3125,340676.90625,333521.9375,318115.3125,317476.59375,303197.59375,305532.96875,275207.5625,0.066162109375,1.030517578125,-0.186767578125,15.106200218200684,6.225585460662842,2.014159917831421,100.0,132664.0,1.0
84579.1883536,315001.8125,341875.84375,334560.75,319251.78125,319913.1875,304412.28125,306639.46875,276171.5625,0.07080078125,1.039306640625,-0.1884765625,13.427733421325684,5.310058116912842,2.441406011581421,100.0,132665.0,1.0
84579.1908549,315591.71875,342660.40625,335102.8125,319562.09375,320356.65625,304233.09375,306713.875,276220.0,0.0751953125,1.03759765625,-0.191650390625,12.329100608825684,4.547118663787842,2.777099370956421,100.0,132666.0,1.0
84579.1933602,315769.625,341889.625,334379.625,318601.96875,318317.03125,302924.34375,305706.0625,275405.96875,0.08251953125,1.02490234375,-0.19482421875,11.688231468200684,3.997802495956421,2.685546636581421,100.0,132667.0,1.0
84579.1956951,315323.5,340661.53125,333409.90625,317662.28125,316680.5,302304.6875,305073.25,274999.96875,0.09619140625,1.00732421875,-0.193359375,11.291502952575684,3.662109136581421,2.410888433456421,100.0,132668.0,1.0
84579.2033643,314894.625,340785.09375,333592.8125,318058.375,317858.625,303300.5,305799.0625,275765.5625,0.11328125,0.99267578125,-0.19140625,11.230467796325684,3.784179449081421,2.410888433456421,100.0,132669.0,1.0
84579.2147264,315085.75,342028.90625,334628.78125,319232.1875,320361.75,304548.78125,306946.0625,276786.59375,0.124755859375,0.980712890625,-0.194580078125,11.138915061950684,4.364013195037842,2.502441167831421,100.0,132670.0,1.0
84579.2147667,315647.40625,342704.65625,335083.25,319497.28125,320786.96875,304304.71875,306954.09375,276783.28125,0.130126953125,0.971435546875,-0.197509765625,11.077879905700684,4.821776866912842,2.471923589706421,100.0,132671.0,1.0
84579.2147774,315826.9375,341816.5625,334290.84375,318501.65625,318691.71875,302947.15625,305945.34375,275962.53125,0.1376953125,0.963134765625,-0.19921875,11.322020530700684,5.310058116912842,2.319335699081421,100.0,132672.0,1.0
84579.2196096,315420.78125,340590.90625,333338.1875,317574.21875,317066.3125,302356.625,305382.15625,275608.28125,0.14111328125,0.94677734375,-0.197998046875,11.688231468200684,6.042479991912842,1.8615721464157104,100.0,132673.0,1.0
84579.2196464,315040.34375,340797.40625,333599.1875,318051.84375,318331.59375,303410.90625,306165.625,276396.59375,0.14892578125,0.93798828125,-0.19873046875,12.329100608825684,6.744384288787842,1.2512205839157104,100.0,132674.0,1.0
84579.2219935,315234.53125,342108.9375,334686.0,319265.625,320847.9375,304685.0625,307322.90625,277412.96875,0.15576171875,0.9375,-0.204833984375,13.519286155700684,7.507323741912842,0.4882812201976776,100.0,132675.0,1.0
84579.2245366,315791.09375,342774.75,335136.53125,319530.71875,321209.4375,304426.125,307345.0,277396.25,0.1513671875,0.948486328125,-0.20458984375,14.648436546325684,8.239745140075684,-0.2136230319738388,100.0,132676.0,1.0
84579.2269524,315918.3125,341806.5625,334285.03125,318475.09375,319025.3125,303032.8125,306290.53125,276555.65625,0.14306640625,0.9599609375,-0.208251953125,15.655516624450684,9.124754905700684,-0.7019042372703552,100.0,132677.0,1.0
84579.2294981,315534.59375,340572.28125,333337.3125,317564.9375,317342.75,302460.15625,305723.6875,276208.84375,0.13330078125,0.968017578125,-0.21142578125,16.571043014526367,9.765624046325684,-1.1596678495407104,100.0,132678.0,1.0
84579.2320896,315187.5,340811.90625,333620.46875,318085.8125,318547.25,303551.53125,306536.125,277012.15625,0.1240234375,0.96875,-0.215576171875,17.211912155151367,10.345458030700684,-1.3122557401657104,100.0,132679.0,1.0
84579.2345116,315394.21875,342145.6875,334716.40625,319336.96875,321059.9375,304853.3125,307710.59375,278024.78125,0.11767578125,0.966064453125,-0.22265625,17.852781295776367,10.955809593200684,-1.3732908964157104,100.0,132680.0,1.0
84579.2483308,315946.5625,342776.1875,335133.21875,319606.96875,321382.875,304593.125,307709.5,277978.09375,0.111572265625,0.96240234375,-0.226806640625,18.341062545776367,11.199950218200684,-1.2817381620407104,100.0,132681.0,1.0
84579.2509458,316076.03125,341760.0625,334253.1875,318548.9375,319139.65625,303182.03125,306642.15625,277100.21875,0.1083984375,0.954345703125,-0.234130859375,19.439695358276367,11.260985374450684,-1.8920897245407104,100.0,132682.0,1.0
84579.2509831,315703.125,340520.09375,333320.0625,317657.03125,317474.0,302630.03125,306073.53125,276753.84375,0.109130859375,0.95947265625,-0.23779296875,20.172117233276367,11.291502952575684,-2.655029058456421,100.0,132683.0,1.0
84579.2533692,315393.0625,340808.875,333659.4375,318235.84375,318756.1875,303755.84375,306896.875,277550.21875,0.112060546875,0.968505859375,-0.23681640625,20.416257858276367,11.230467796325684,-3.356933355331421,100.0,132684.0,1.0
84579.2557032,315555.9375,342132.4375,334729.8125,319467.0625,321284.78125,305012.0,308071.0625,278482.53125,0.11376953125,0.98095703125,-0.235107421875,20.233152389526367,11.291502952575684,-3.936767339706421,100.0,132685.0,1.0
84579.2607152,316078.625,342712.6875,335098.1875,319709.4375,321598.15625,304693.1875,308061.3125,278375.0625,0.11572265625,0.99755859375,-0.23291015625,19.409177780151367,11.505125999450684,-4.425048351287842,100.0,132686.0,1.0
84579.2684241,316229.28125,341642.9375,334185.875,318664.0,319330.53125,303262.59375,306971.8125,277500.59375,0.119140625,1.01123046875,-0.234375,17.974851608276367,11.901854515075684,-4.882812023162842,100.0,132687.0,1.0
84579.2684658,315856.1875,340377.375,333230.375,317765.46875,317604.53125,302693.3125,306366.25,277137.3125,0.126220703125,1.01708984375,-0.24072265625,16.632078170776367,12.390135765075684,-5.493163585662842,100.0,132688.0,1.0
84579.2707578,315535.75,340702.1875,333568.15625,318337.59375,318851.125,303819.78125,307151.25,277916.59375,0.12939453125,1.022216796875,-0.24951171875,15.289305686950684,13.031004905700684,-6.164550304412842,100.0,132689.0,1.0
84579.2807177,315768.03125,342101.25,334695.3125,319620.65625,321402.28125,305139.78125,308296.28125,278917.5,0.130126953125,1.027099609375,-0.259033203125,13.763426780700684,13.580321311950684,-6.530761241912842,100.0,132690.0,1.0
84579.2833401,316323.96875,342672.5625,335076.28125,319882.09375,321702.25,304844.1875,308226.90625,278848.125,0.128173828125,1.02783203125,-0.26708984375,12.237547874450684,14.099120140075684,-6.530761241912842,100.0,132691.0,1.0
84579.2851501,316450.5625,341561.40625,334136.25,318796.40625,319387.5,303400.09375,307083.84375,277936.1875,0.12353515625,1.029296875,-0.275390625,10.742186546325684,14.862059593200684,-6.988524913787842,100.0,132692.0,1.0
84579.3221108,316086.59375,340310.59375,333176.375,317891.8125,317645.40625,302811.34375,306447.78125,277522.9375,0.115234375,1.022216796875,-0.284912109375,9.521483421325684,15.563963890075684,-7.263183116912842,100.0,132693.0,1.0
84579.3246705,315783.6875,340690.59375,333537.9375,318466.0625,318910.78125,303949.59375,307231.28125,278288.1875,0.1015625,1.011962890625,-0.285400390625,8.331297874450684,16.357419967651367,-7.720946788787842,100.0,132694.0,1.0
84579.3247085,316020.15625,342125.65625,334676.8125,319774.09375,321482.90625,305289.78125,308414.84375,279286.75,0.08837890625,0.997802734375,-0.281982421875,7.202147960662842,16.906736373901367,-8.117674827575684,100.0,132695.0,1.0
84579.3296027,316592.4375,342691.40625,335057.84375,320062.78125,321770.09375,305021.125,308411.0,279221.84375,0.074951171875,0.97900390625,-0.283203125,6.042479991912842,17.181394577026367,-8.270262718200684,100.0,132696.0,1.0
84579.3320704,316726.125,341515.375,334095.125,318965.65625,319389.375,303532.875,307273.375,278276.8125,0.059326171875,0.951416015625,-0.2861328125,5.432128429412842,17.242429733276367,-8.361815452575684,100.0,132697.0,1.0
84579.3321114,316358.03125,340237.28125,333141.40625,318044.59375,317617.84375,302912.5625,306646.8125,277851.25,0.04443359375,0.92822265625,-0.279052734375,5.218505382537842,16.815183639526367,-8.728026390075684,100.0,132698.0,1.0
84579.3344536,316075.125,340639.8125,333535.6875,318633.625,318900.125,304052.5,307453.96875,278576.25,0.041015625,0.913330078125,-0.27490234375,5.249022960662842,15.838622093200684,-9.338377952575684,100.0,132699.0,1.0
84579.337032,316303.40625,342091.9375,334684.5625,319944.5,321503.3125,305398.34375,308656.9375,279529.0625,0.039306640625,0.902099609375,-0.263427734375,5.340575695037842,14.465331077575684,-9.155272483825684,100.0,132700.0,1.0
84579.3394518,316844.3125,342605.6875,335016.46875,320186.59375,321782.53125,305067.4375,308606.0,279392.0,0.03857421875,0.891845703125,-0.2568359375,5.065917491912842,13.122557640075684,-8.850096702575684,100.0,132701.0,1.0
84579.3419961,316966.875,341397.6875,334031.625,319053.8125,319411.0,303559.15625,307446.75,278408.5,0.044921875,0.890869140625,-0.25341796875,5.493163585662842,11.535643577575684,-8.697508811950684,100.0,132702.0,1.0
84579.3445274,316613.71875,340149.125,333102.15625,318123.8125,317663.09375,302997.65625,306849.6875,277978.1875,0.050537109375,0.896728515625,-0.256591796875,6.134032726287842,10.070799827575684,-8.331297874450684,100.0,132703.0,1.0
84579.3470011,316354.28125,340619.0625,333531.75,318737.78125,318954.75,304199.125,307690.8125,278753.34375,0.05322265625,0.9052734375,-0.266357421875,6.683349132537842,8.666991233825684,-7.690429210662842,100.0,132704.0,1.0
84579.3494549,316596.75,342105.90625,334688.15625,320063.6875,321549.25,305557.5625,308881.71875,279716.8125,0.055908203125,0.91552734375,-0.272216796875,7.202147960662842,7.080077648162842,-6.896972179412842,100.0,132705.0,1.0
84579.3519935,317125.59375,342586.90625,334998.125,320296.21875,321791.46875,305196.90625,308803.9375,279554.96875,0.05908203125,0.921630859375,-0.274658203125,7.873534679412842,5.950927257537842,-6.103515148162842,100.0,132706.0,1.0
84579.3544422,317229.75,341343.15625,333994.625,319166.03125,319358.25,303658.03125,307614.90625,278550.65625,0.0654296875,0.93115234375,-0.27294921875,8.422850608825684,5.096435070037842,-5.187987804412842,100.0,132707.0,1.0
84579.357036,316866.75,340081.71875,333064.15625,318233.59375,317549.625,303075.1875,306965.0,278104.53125,0.06591796875,0.9375,-0.264404296875,8.789061546325684,4.486083507537842,-4.516601085662842,100.0,132708.0,1.0
84579.3570757,316588.15625,340554.40625,333492.34375,318827.53125,318802.3125,304280.84375,307769.84375,278872.53125,0.068115234375,0.9443359375,-0.256103515625,8.850096702575684,4.211425304412842,-3.601073980331421,100.0,132709.0,1.0
84579.3596616,316818.8125,342067.0,334664.71875,320170.78125,321405.3125,305643.9375,308991.25,279845.90625,0.0673828125,0.951416015625,-0.256103515625,8.911131858825684,3.967284917831421,-2.899169683456421,100.0,132710.0,1.0
84579.3596976,317364.46875,342557.5625,334996.53125,320448.5625,321654.65625,305279.4375,308925.875,279696.25,0.066650390625,0.954345703125,-0.258544921875,9.094237327575684,3.814697027206421,-2.563476324081421,100.0,132711.0,1.0
84579.3621389,317453.15625,341268.96875,333973.53125,319287.34375,319179.15625,303715.15625,307694.3125,278681.46875,0.054931640625,0.958740234375,-0.260986328125,9.277342796325684,3.570556402206421,-2.227782964706421,100.0,132712.0,1.0
84579.4067778,317092.6875,340015.03125,333047.96875,318355.71875,317372.25,303153.40625,307066.84375,278259.84375,0.05029296875,0.961181640625,-0.26708984375,9.399413108825684,3.143310308456421,-2.136230230331421,100.0,132713.0,1.0
84579.4068248,316845.28125,340550.375,333523.4375,319017.34375,318686.90625,304392.96875,307920.6875,279041.6875,0.04638671875,0.96533203125,-0.266845703125,9.552000999450684,2.563476324081421,-1.8310545682907104,100.0,132714.0,1.0
84579.4121559,317094.75,342083.625,334710.78125,320382.21875,321322.0625,305769.09375,309131.15625,280004.34375,0.04345703125,0.963623046875,-0.271484375,9.277342796325684,2.197265386581421,-1.5563963651657104,100.0,132715.0,1.0
84579.4147424,317581.75,342513.3125,334967.28125,320566.3125,321538.0,305364.09375,309014.125,279810.5,0.042724609375,0.960693359375,-0.266357421875,8.972167015075684,1.7089842557907104,-1.1901854276657104,100.0,132716.0,1.0
84579.4169953,317686.53125,341215.03125,333933.375,319418.875,319066.25,303787.3125,307769.59375,278768.65625,0.04345703125,0.95849609375,-0.261474609375,8.697508811950684,1.1901854276657104,-0.8544921278953552,100.0,132717.0,1.0
84579.4195257,317342.65625,339955.125,333008.28125,318500.84375,317247.09375,303207.5,307110.125,278314.625,0.04931640625,0.953369140625,-0.263427734375,8.514403343200684,0.9155272841453552,-0.6713866591453552,100.0,132718.0,1.0
84579.422107,317089.28125,340508.625,333493.0625,319144.03125,318570.9375,304464.40625,307970.125,279092.375,0.056396484375,0.943359375,-0.27001953125,8.300780296325684,0.5493163466453552,-0.6408690810203552,100.0,132719.0,1.0
84579.4245974,317300.71875,342046.625,334667.3125,320491.40625,321211.65625,305843.9375,309186.5,280048.0625,0.060791015625,0.935791015625,-0.27880859375,8.605956077575684,0.2136230319738388,-0.8544921278953552,100.0,132720.0,1.0
84579.4269787,317814.375,342480.0625,334936.4375,320723.6875,321431.15625,305443.40625,309070.46875,279855.75,0.06640625,0.9306640625,-0.28955078125,9.063719749450684,0.03051757626235485,-0.9460448622703552,100.0,132721.0,1.0
84579.4295254,317925.78125,341160.78125,333895.125,319570.40625,318944.5625,303875.28125,307824.9375,278826.40625,0.06982421875,0.927978515625,-0.287841796875,9.613036155700684,0.0915527269244194,-1.0375975370407104,100.0,132722.0,1.0
84579.4321237,317563.84375,339913.09375,332975.03125,318659.625,317130.3125,303327.75,307183.96875,278387.5,0.072998046875,0.926025390625,-0.28759765625,10.192870140075684,0.2746581733226776,-1.2817381620407104,100.0,132723.0,1.0
84579.4371268,317314.59375,340499.34375,333474.625,319334.46875,318460.15625,304595.90625,308045.40625,279174.09375,0.074462890625,0.927978515625,-0.28564453125,10.498045921325684,0.6103515028953552,-1.3122557401657104,100.0,132724.0,1.0
84579.4371693,317566.96875,342060.375,334668.5625,320702.03125,321092.03125,305976.25,309251.96875,280134.34375,0.072265625,0.931396484375,-0.2880859375,10.650633811950684,0.8850097060203552,-1.1291502714157104,100.0,132725.0,1.0
84579.4396531,318075.71875,342480.34375,334936.09375,320915.0,321298.84375,305561.25,309118.03125,279923.34375,0.071044921875,0.93701171875,-0.2880859375,10.681151390075684,0.9460448622703552,-1.0070799589157104,100.0,132726.0,1.0
84579.4419411,318160.8125,341138.96875,333880.375,319734.03125,318796.5,303982.9375,307843.71875,278853.65625,0.071533203125,0.94189453125,-0.288818359375,10.803221702575684,0.8544921278953552,-1.0070799589157104,100.0,132727.0,1.0
84579.4446581,317813.9375,339908.4375,332985.03125,318833.625,317004.34375,303446.3125,307198.09375,278413.625,0.06982421875,0.949462890625,-0.29052734375,10.589598655700684,0.5493163466453552,-0.8239745497703552,100.0,132728.0,1.0
84579.4446977,317575.65625,340526.15625,333516.84375,319521.25,318378.53125,304722.6875,308070.875,279211.21875,0.068115234375,0.955810546875,-0.2880859375,10.101317405700684,0.4272460639476776,-0.6103515028953552,100.0,132729.0,1.0
84579.4471559,317820.28125,342098.46875,334729.375,320903.75,321049.65625,306119.59375,309300.875,280195.75,0.063720703125,0.964111328125,-0.28466796875,9.460448265075684,0.3051757514476776,-0.2746581733226776,100.0,132730.0,1.0
84579.4494757,318289.5625,342472.625,334951.09375,321084.15625,321226.9375,305699.46875,309152.71875,279965.71875,0.058349609375,0.973876953125,-0.285400390625,8.483885765075684,0.1525878757238388,0.0610351525247097,100.0,132731.0,1.0
84579.4521342,318356.0,341121.0625,333870.78125,319893.53125,318720.875,304064.90625,307865.625,278852.25,0.054931640625,0.978759765625,-0.28564453125,7.446288585662842,0.03051757626235485,0.2746581733226776,100.0,132732.0,1.0
84579.4521738,317986.40625,339904.15625,332969.46875,318968.625,316952.21875,303478.3125,307200.875,278363.4375,0.052734375,0.977783203125,-0.286376953125,6.622313976287842,-0.0915527269244194,0.3051757514476776,100.0,132733.0,1.0
84579.4545032,317715.03125,340502.8125,333482.3125,319625.125,318340.96875,304717.59375,308065.25,279117.6875,0.047607421875,0.968994140625,-0.286376953125,5.767821788787842,-0.3662109076976776,0.2746581733226776,100.0,132734.0,1.0
84579.457129,317943.3125,342033.28125,334667.84375,320990.03125,321012.8125,306081.9375,309291.21875,280066.75,0.043212890625,0.960693359375,-0.28369140625,5.126952648162842,-0.5493163466453552,0.3051757514476776,100.0,132735.0,1.0
84579.4571709,318437.625,342431.5,334917.03125,321195.3125,321235.53125,305674.34375,309171.5,279878.09375,0.040771484375,0.9560546875,-0.284423828125,4.852294445037842,-0.7324218153953552,0.2746581733226776,100.0,132736.0,1.0
84579.4634366,318515.3125,341114.71875,333875.53125,320025.5,318763.59375,304115.0,307908.53125,278852.6875,0.0380859375,0.946533203125,-0.290771484375,4.882812023162842,-1.3427733182907104,0.2441406100988388,100.0,132737.0,1.0
84579.4634733,318168.6875,339933.84375,333010.6875,319137.6875,317013.5625,303577.03125,307261.3125,278432.28125,0.04052734375,0.944091796875,-0.293212890625,5.096435070037842,-2.075195074081421,0.1831054538488388,100.0,132738.0,1.0
84579.4946779,317904.6875,340556.375,333541.40625,319820.75,318417.78125,304848.125,308138.03125,279240.4375,0.041748046875,0.94091796875,-0.289794921875,5.859374523162842,-2.960204839706421,0.1525878757238388,100.0,132739.0,1.0
84579.4947146,318107.71875,342067.09375,334700.65625,321161.15625,321060.84375,306189.59375,309312.84375,280187.4375,0.046142578125,0.942626953125,-0.282958984375,6.500243663787842,-3.631591558456421,0.0,100.0,132740.0,1.0
84579.4996903,318601.25,342463.25,334948.25,321362.9375,321260.21875,305767.0625,309154.15625,279987.71875,0.053466796875,0.9443359375,-0.277099609375,7.080077648162842,-4.119872570037842,-0.0915527269244194,100.0,132741.0,1.0
84579.4997271,318670.90625,341167.65625,333916.5625,320190.53125,318796.78125,304214.0625,307901.1875,278961.40625,0.057861328125,0.94384765625,-0.2734375,7.446288585662842,-4.425048351287842,-0.2441406100988388,100.0,132742.0,1.0
84579.5020995,318296.53125,339979.71875,333034.125,319282.09375,317044.3125,303689.21875,307258.8125,278532.78125,0.061767578125,0.946044921875,-0.2744140625,7.720946788787842,-4.486083507537842,-0.5493163466453552,100.0,132743.0,1.0
84579.5071236,318028.78125,340611.625,333568.875,319977.75,318455.25,304968.375,308121.125,279335.03125,0.064208984375,0.947265625,-0.27880859375,7.812499523162842,-4.547118663787842,-0.7019042372703552,100.0,132744.0,1.0
84579.5094647,318203.375,342113.75,334708.09375,321316.4375,321101.6875,306289.625,309285.125,280265.59375,0.066162109375,0.949462890625,-0.283203125,8.087157249450684,-4.577636241912842,-0.6713866591453552,100.0,132745.0,1.0
84579.514584,318650.59375,342438.65625,334885.65625,321471.5625,321259.21875,305823.5625,309100.59375,280028.3125,0.067626953125,0.954833984375,-0.287353515625,8.178709983825684,-4.669188976287842,-0.7324218153953552,100.0,132746.0,1.0
84579.5170998,318688.59375,341040.78125,333777.09375,320254.75,318715.875,304227.09375,307803.75,278961.9375,0.070556640625,0.962890625,-0.286865234375,8.361815452575684,-4.608153820037842,-0.8544921278953552,100.0,132747.0,1.0
84579.5219507,318318.625,339826.1875,332888.9375,319352.25,316931.9375,303696.28125,307147.21875,278533.5,0.074951171875,0.966796875,-0.285888671875,8.209227561950684,-4.425048351287842,-0.9765624403953552,100.0,132748.0,1.0
84579.524584,318101.5625,340546.09375,333515.84375,320123.84375,318406.25,305031.84375,308065.53125,279385.5625,0.08056640625,0.968017578125,-0.290771484375,7.995604991912842,-4.119872570037842,-0.9765624403953552,100.0,132749.0,1.0
84579.5296026,318307.53125,342124.65625,334733.125,321505.4375,321116.09375,306400.21875,309280.3125,280353.28125,0.084228515625,0.96484375,-0.294921875,7.659911632537842,-3.570556402206421,-0.8850097060203552,100.0,132750.0,1.0
84579.5321157,318734.90625,342458.5,334914.71875,321636.875,321285.59375,305912.59375,309071.0,280066.65625,0.085205078125,0.962646484375,-0.296630859375,7.263183116912842,-3.051757574081421,-0.8544921278953552,100.0,132751.0,1.0
84579.5345803,318759.0625,341106.3125,333834.125,320413.78125,318781.75,304305.25,307745.53125,278948.71875,0.087158203125,0.95947265625,-0.29736328125,7.110595226287842,-2.532958745956421,-0.7019042372703552,100.0,132752.0,1.0
84579.534616,318381.75,339905.0625,332957.5,319507.125,317007.75,303767.71875,307065.78125,278501.6875,0.08740234375,0.961669921875,-0.294677734375,7.080077648162842,-2.105712652206421,-0.8239745497703552,100.0,132753.0,1.0
84579.5369886,318135.875,340558.78125,333526.84375,320227.5625,318425.65625,305058.40625,307935.25,279316.09375,0.0888671875,0.96240234375,-0.296142578125,6.896972179412842,-1.5869139432907104,-0.9765624403953552,100.0,132754.0,1.0
84579.539582,318329.625,342062.1875,334686.0,321574.46875,321068.875,306359.46875,309110.5,280268.625,0.09130859375,0.96142578125,-0.299560546875,6.683349132537842,-0.7324218153953552,-1.1596678495407104,100.0,132755.0,1.0
84579.5419525,318757.15625,342380.28125,334860.71875,321714.40625,321214.6875,305862.71875,308918.90625,280018.71875,0.094970703125,0.96142578125,-0.30078125,6.317138195037842,0.2441406100988388,-1.4648436307907104,100.0,132756.0,1.0
84579.5446786,318785.59375,340999.46875,333763.59375,320490.78125,318677.0625,304269.21875,307608.5625,278925.1875,0.10107421875,0.961669921875,-0.2998046875,6.011962413787842,0.9765624403953552,-1.4953612089157104,100.0,132757.0,1.0
84579.5447185,318386.65625,339778.53125,332872.75,319575.15625,316882.75,303733.3125,306939.8125,278490.9375,0.10400390625,0.958740234375,-0.2978515625,5.554198741912842,1.8005369901657104,-1.3732908964157104,100.0,132758.0,1.0
84579.5496502,318105.65625,340448.90625,333448.96875,320299.0,318308.34375,305028.1875,307823.3125,279311.625,0.101806640625,0.95361328125,-0.296142578125,5.187987804412842,2.838134527206421,-1.2207030057907104,100.0,132759.0,1.0
84579.5544314,318308.4375,342012.1875,334651.0625,321679.875,320998.6875,306386.0,309026.75,280260.84375,0.0927734375,0.94873046875,-0.29638671875,5.157470226287842,3.875732183456421,-1.4343260526657104,100.0,132760.0,1.0
84579.557144,318789.625,342372.875,334870.8125,321866.75,321186.09375,305945.5,308876.625,280034.03125,0.088134765625,0.945556640625,-0.301513671875,5.218505382537842,4.486083507537842,-1.6174315214157104,100.0,132761.0,1.0
84579.5571906,318833.25,340990.09375,333787.90625,320667.15625,318652.21875,304355.59375,307581.84375,278964.4375,0.082763671875,0.94189453125,-0.302978515625,5.218505382537842,5.279540538787842,-1.8310545682907104,100.0,132762.0,1.0
84579.5634086,318364.3125,339725.4375,332848.15625,319682.875,316823.03125,303777.75,306879.0,278499.71875,0.075927734375,0.94384765625,-0.303466796875,5.371093273162842,5.828856945037842,-1.8615721464157104,100.0,132763.0,1.0
84579.5945676,318084.84375,340372.03125,333404.53125,320368.71875,318234.59375,305052.0625,307744.8125,279300.09375,0.068115234375,0.94580078125,-0.30419921875,5.706786632537842,6.164550304412842,-1.9531248807907104,100.0,132764.0,1.0
84579.5946043,318307.90625,341923.15625,334602.3125,321742.8125,320913.65625,306394.5,308939.84375,280243.59375,0.06005859375,0.952880859375,-0.30322265625,6.134032726287842,6.225585460662842,-2.014159917831421,100.0,132765.0,1.0
84579.5974092,318754.9375,342275.40625,334809.03125,321913.6875,321099.28125,305943.71875,308776.5,280013.0,0.0556640625,0.957763671875,-0.3017578125,6.286620616912842,6.164550304412842,-2.197265386581421,100.0,132766.0,1.0
84579.5974444,318792.9375,340908.65625,333734.4375,320706.6875,318585.5,304346.71875,307497.875,278960.5,0.052978515625,0.959228515625,-0.300048828125,6.072997570037842,6.134032726287842,-2.105712652206421,100.0,132767.0,1.0
84579.5974541,318411.15625,339738.40625,332878.1875,319799.75,316829.90625,303776.40625,306848.0625,278529.03125,0.051513671875,0.955078125,-0.300048828125,5.828856945037842,5.645751476287842,-1.8005369901657104,100.0,132768.0,1.0
84579.6061563,318167.8125,340457.3125,333486.875,320537.25,318285.46875,305041.78125,307735.78125,279343.1875,0.046630859375,0.94970703125,-0.302001953125,5.462646007537842,5.310058116912842,-1.4038084745407104,100.0,132769.0,1.0
84579.6061931,318375.3125,342035.71875,334691.90625,321916.53125,320976.15625,306363.3125,308928.21875,280279.53125,0.04443359375,0.947509765625,-0.304931640625,5.310058116912842,4.821776866912842,-1.0986326932907104,100.0,132770.0,1.0
84579.606202,318801.4375,342364.71875,334874.84375,322060.40625,321137.625,305875.5,308744.46875,280034.46875,0.04541015625,0.947998046875,-0.307373046875,5.249022960662842,4.150390148162842,-0.8850097060203552,100.0,132771.0,1.0
84579.606211,318798.21875,340937.4375,333746.34375,320805.5625,318566.375,304258.5625,307434.125,278957.84375,0.04736328125,0.944580078125,-0.308837890625,5.340575695037842,3.631591558456421,-0.7629393935203552,100.0,132772.0,1.0
84579.6084185,318417.0625,339754.125,332889.5625,319909.625,316794.875,303739.65625,306787.71875,278538.59375,0.0498046875,0.944580078125,-0.311767578125,5.279540538787842,3.051757574081421,-0.5187987685203552,100.0,132773.0,1.0
84579.6108185,318180.5,340502.75,333524.96875,320671.1875,318267.125,305040.0,307675.625,279367.9375,0.049560546875,0.94482421875,-0.31494140625,5.187987804412842,2.716064214706421,-0.4577636420726776,100.0,132774.0,1.0
84579.613364,318380.21875,342121.4375,334749.9375,322068.28125,320993.15625,306397.71875,308888.25,280328.96875,0.0537109375,0.947265625,-0.317138671875,5.218505382537842,2.349853277206421,-0.4577636420726776,100.0,132775.0,1.0
84579.6170913,318772.46875,342408.71875,334885.125,322186.03125,321126.625,305882.21875,308684.21875,280061.75,0.056884765625,0.94677734375,-0.31591796875,5.187987804412842,2.075195074081421,-0.4272460639476776,100.0,132776.0,1.0
84579.6259092,318768.34375,340956.3125,333729.96875,320919.21875,318533.21875,304202.53125,307331.84375,278945.84375,0.059326171875,0.944580078125,-0.316650390625,5.187987804412842,1.7395018339157104,-0.0610351525247097,100.0,132777.0,1.0
84579.6259502,318392.375,339807.5,332894.65625,320034.625,316787.96875,303686.8125,306680.0625,278516.25,0.0625,0.94287109375,-0.31396484375,4.974364757537842,1.4648436307907104,0.0610351525247097,100.0,132778.0,1.0
84579.6283148,318129.8125,340543.59375,333511.1875,320773.3125,318254.78125,304993.21875,307566.53125,279337.1875,0.068603515625,0.942138671875,-0.31787109375,4.669188976287842,1.5258787870407104,0.0915527269244194,100.0,132779.0,1.0
84579.6283466,318314.875,342114.21875,334702.5625,322139.625,320948.09375,306319.3125,308756.09375,280279.90625,0.0732421875,0.947021484375,-0.318603515625,4.425048351287842,1.7395018339157104,-0.2441406100988388,100.0,132780.0,1.0
84579.6446617,318736.59375,342420.53125,334863.46875,322284.53125,321109.28125,305826.96875,308570.5,280035.53125,0.07275390625,0.95068359375,-0.3232421875,3.967284917831421,1.8615721464157104,-0.2441406100988388,100.0,132781.0,1.0
84579.6521699,318748.78125,341010.65625,333740.4375,321048.40625,318567.1875,304219.59375,307273.375,278973.75,0.069091796875,0.95166015625,-0.321533203125,3.753661870956421,2.044677495956421,0.0,100.0,132782.0,1.0
84579.6522126,318364.40625,339843.0,332893.84375,320136.8125,316817.40625,303697.46875,306630.71875,278540.125,0.058349609375,0.95556640625,-0.3212890625,3.265380620956421,1.9836424589157104,0.5493163466453552,100.0,132783.0,1.0
84579.6522227,318117.71875,340575.34375,333524.34375,320872.375,318278.65625,304990.90625,307521.03125,279348.09375,0.056640625,0.95703125,-0.31884765625,2.929687261581421,1.7089842557907104,0.9460448622703552,100.0,132784.0,1.0
84579.6546799,318295.84375,342147.03125,334722.75,322227.3125,320968.65625,306316.28125,308718.65625,280291.15625,0.0673828125,0.957763671875,-0.318359375,2.777099370956421,1.4343260526657104,0.8850097060203552,100.0,132785.0,1.0
84579.6596455,318695.46875,342445.09375,334881.625,322349.53125,321114.46875,305820.34375,308527.65625,280038.75,0.078369140625,0.95751953125,-0.318359375,2.441406011581421,1.4343260526657104,0.6408690810203552,100.0,132786.0,1.0
84579.6621275,318704.875,341014.84375,333762.875,321096.78125,318544.03125,304206.28125,307216.34375,278970.53125,0.08251953125,0.960205078125,-0.319091796875,2.105712652206421,1.8310545682907104,0.3662109076976776,100.0,132787.0,1.0
84579.6645145,318318.71875,339833.25,332905.375,320183.65625,316770.53125,303676.34375,306566.25,278545.9375,0.078369140625,0.9580078125,-0.322265625,1.4953612089157104,2.319335699081421,0.0610351525247097,100.0,132788.0,1.0
84579.6695447,318077.3125,340582.5625,333529.15625,320920.375,318242.0,304980.71875,307475.53125,279376.6875,0.074462890625,0.953369140625,-0.323486328125,0.8544921278953552,2.777099370956421,-0.1525878757238388,100.0,132789.0,1.0
84579.6719228,318259.1875,342163.1875,334723.8125,322278.46875,320943.625,306316.46875,308691.5625,280330.75,0.072509765625,0.94677734375,-0.324462890625,0.3051757514476776,3.204345464706421,-0.1831054538488388,100.0,132790.0,1.0
84579.6758931,318671.875,342461.71875,334885.65625,322422.9375,321096.5,305842.25,308523.65625,280090.09375,0.068603515625,0.940185546875,-0.322509765625,-0.0915527269244194,3.692626714706421,-0.1831054538488388,100.0,132791.0,1.0
84579.6795177,318699.78125,341042.9375,333781.75,321194.03125,318540.09375,304243.375,307233.5,279025.15625,0.068603515625,0.94140625,-0.323974609375,-0.1220703050494194,3.753661870956421,-0.2441406100988388,100.0,132792.0,1.0
84579.6795603,318305.3125,339859.0,332923.53125,320269.03125,316756.78125,303700.40625,306565.46875,278574.09375,0.06787109375,0.9482421875,-0.320556640625,-0.0610351525247097,3.784179449081421,-0.5187987685203552,100.0,132793.0,1.0
84579.6946168,318043.78125,340597.0625,333535.6875,320973.375,318215.375,304995.5625,307472.75,279371.15625,0.068603515625,0.96240234375,-0.315673828125,-0.2746581733226776,3.631591558456421,-0.5493163466453552,100.0,132794.0,1.0
84579.6971194,318218.84375,342178.5,334732.6875,322328.625,320921.8125,306331.84375,308691.03125,280302.59375,0.065185546875,0.972412109375,-0.310791015625,-0.9155272841453552,3.387450933456421,-0.1525878757238388,100.0,132795.0,1.0
84579.6971602,318626.90625,342465.40625,334884.9375,322462.28125,321076.375,305833.9375,308503.53125,280070.9375,0.063720703125,0.972412109375,-0.310791015625,-1.6174315214157104,3.143310308456421,0.1831054538488388,100.0,132796.0,1.0
84579.7058409,318655.78125,341035.34375,333774.6875,321231.875,318519.96875,304227.375,307231.8125,279015.84375,0.06396484375,0.973876953125,-0.3125,-2.288818120956421,2.960204839706421,0.2136230319738388,100.0,132797.0,1.0
84579.7081511,318255.25,339846.3125,332909.5,320319.125,316746.125,303694.34375,306565.0,278593.5,0.0634765625,0.96728515625,-0.312255859375,-2.960204839706421,2.716064214706421,0.1525878757238388,100.0,132798.0,1.0
84579.7107576,317992.90625,340585.875,333527.28125,321063.78125,318220.1875,305008.625,307450.6875,279442.40625,0.060302734375,0.954833984375,-0.309814453125,-3.265380620956421,2.410888433456421,0.0915527269244194,100.0,132799.0,1.0
84579.7131983,318180.21875,342158.5625,334726.25,322438.21875,320923.0625,306354.375,308684.3125,280413.65625,0.056396484375,0.947021484375,-0.309814453125,-3.479003667831421,1.8920897245407104,0.2136230319738388,100.0,132800.0,1.0
84579.715796,318599.46875,342452.96875,334891.09375,322576.28125,321074.59375,305859.0625,308519.0,280174.40625,0.052978515625,0.94140625,-0.308837890625,-3.387450933456421,1.3122557401657104,0.2441406100988388,100.0,132801.0,1.0
84579.7680048,318611.34375,341025.40625,333778.4375,321334.40625,318514.53125,304238.28125,307196.75,279112.40625,0.048583984375,0.94189453125,-0.308349609375,-3.173827886581421,0.6408690810203552,0.0610351525247097,100.0,132802.0,1.0
84579.7680467,318223.40625,339840.78125,332930.84375,320428.1875,316743.625,303724.09375,306538.53125,278699.8125,0.045166015625,0.944091796875,-0.306396484375,-2.716064214706421,-0.2746581733226776,-0.4272460639476776,100.0,132803.0,1.0
84579.7783986,317963.25,340566.125,333541.34375,321159.96875,318194.34375,305022.65625,307445.65625,279532.1875,0.046875,0.9521484375,-0.301513671875,-2.563476324081421,-1.1596678495407104,-0.8850097060203552,100.0,132804.0,1.0
84579.7784442,318142.75,342127.71875,334720.53125,322516.8125,320851.625,306338.53125,308645.6875,280483.90625,0.047607421875,0.9580078125,-0.302490234375,-2.685546636581421,-2.105712652206421,-1.0375975370407104,100.0,132805.0,1.0
84579.7807523,318565.84375,342427.5,334884.9375,322655.6875,320962.125,305839.8125,308462.59375,280239.5625,0.04833984375,0.959228515625,-0.302001953125,-2.868652105331421,-2.960204839706421,-1.0986326932907104,100.0,132806.0,1.0
84579.7831983,318596.3125,341031.84375,333794.4375,321429.09375,318387.75,304244.625,307172.53125,279177.0625,0.0498046875,0.96044921875,-0.3017578125,-3.204345464706421,-3.784179449081421,-0.9155272841453552,100.0,132807.0,1.0
84579.7857718,318184.59375,339838.8125,332923.96875,320501.9375,316596.46875,303715.4375,306514.5,278741.8125,0.05126953125,0.96142578125,-0.299560546875,-3.387450933456421,-4.638671398162842,-0.9155272841453552,100.0,132808.0,1.0
84579.7885473,317906.65625,340524.90625,333498.59375,321214.53125,318024.65625,305010.21875,307413.46875,279564.46875,0.0546875,0.9599609375,-0.30419921875,-3.448486089706421,-5.249022960662842,-1.1901854276657104,100.0,132809.0,1.0
84579.7908129,318129.34375,342110.53125,334706.125,322609.34375,320724.5625,306394.0625,308663.5625,280546.5,0.06103515625,0.962890625,-0.30615234375,-3.692626714706421,-5.767821788787842,-1.2817381620407104,100.0,132810.0,1.0
84579.7933451,318583.71875,342492.5,334931.59375,322789.59375,320930.21875,305957.21875,308539.75,280341.21875,0.062255859375,0.958251953125,-0.309326171875,-3.967284917831421,-6.378173351287842,-1.3122557401657104,100.0,132811.0,1.0
84579.7958068,318580.84375,341094.15625,333822.78125,321532.0,318375.9375,304309.90625,307232.34375,279250.625,0.064208984375,0.94775390625,-0.31494140625,-4.058837413787842,-6.652831554412842,-1.6174315214157104,100.0,132812.0,1.0
84579.7983529,318163.875,339870.90625,332924.875,320582.9375,316571.71875,303746.4375,306552.21875,278770.34375,0.064453125,0.93603515625,-0.314697265625,-4.089354991912842,-6.958007335662842,-1.8920897245407104,100.0,132813.0,1.0
84579.8006968,317874.71875,340511.0625,333470.34375,321269.59375,317990.3125,304998.59375,307411.4375,279539.6875,0.063720703125,0.92236328125,-0.314697265625,-4.089354991912842,-7.141112804412842,-1.7700194120407104,100.0,132814.0,1.0
84579.8022774,318057.84375,342075.40625,334662.84375,322644.59375,320712.78125,306344.625,308628.0625,280488.9375,0.06396484375,0.90087890625,-0.3095703125,-3.997802495956421,-7.263183116912842,-1.2817381620407104,100.0,132815.0,1.0
84579.8095305,318511.84375,342460.21875,334888.96875,322816.4375,320940.3125,305912.78125,308487.96875,280260.5,0.06201171875,0.883544921875,-0.310791015625,-3.906249761581421,-7.415771007537842,-0.9460448622703552,100.0,132816.0,1.0
84579.8119816,318551.8125,341098.1875,333820.0,321581.4375,318430.65625,304340.90625,307198.0,279192.625,0.060791015625,0.87109375,-0.310791015625,-3.387450933456421,-7.598876476287842,-0.8544921278953552,100.0,132817.0,1.0
84579.8145489,318139.0,339883.875,332944.34375,320640.34375,316664.875,303822.28125,306535.25,278753.0,0.06005859375,0.87158203125,-0.31640625,-2.441406011581421,-7.873534679412842,-1.0681151151657104,100.0,132818.0,1.0
84579.8170912,317839.84375,340492.1875,333474.8125,321312.40625,318075.09375,305071.1875,307382.90625,279536.5625,0.059814453125,0.88232421875,-0.31884765625,-1.1596678495407104,-8.483885765075684,-1.4038084745407104,100.0,132819.0,1.0
84579.8171315,318041.75,342055.65625,334676.1875,322685.625,320798.15625,306413.46875,308601.15625,280498.125,0.062744140625,0.90087890625,-0.314453125,0.1220703050494194,-9.033202171325684,-1.7395018339157104,100.0,132820.0,1.0
84579.8196356,318497.96875,342458.875,334910.0625,322843.96875,321031.0625,305975.1875,308462.65625,280284.09375,0.0693359375,0.919189453125,-0.307373046875,1.0681151151657104,-9.490965843200684,-1.9531248807907104,100.0,132821.0,1.0
84579.8196676,318522.125,341120.09375,333839.15625,321587.4375,318521.125,304395.5625,307172.53125,279219.0,0.077392578125,0.93115234375,-0.297607421875,1.6784666776657104,-9.643553733825684,-1.9226073026657104,100.0,132822.0,1.0
84579.8220846,318106.1875,339893.34375,332942.5625,320636.0625,316722.96875,303850.4375,306499.03125,278769.09375,0.08642578125,0.930419921875,-0.289794921875,2.166747808456421,-9.429930686950684,-1.8615721464157104,100.0,132823.0,1.0
84579.8221163,317810.625,340498.53125,333475.78125,321326.0,318123.1875,305093.90625,307361.4375,279561.15625,0.093994140625,0.92529296875,-0.282958984375,2.746581792831421,-8.941649436950684,-1.8920897245407104,100.0,132824.0,1.0
84579.8245155,318001.5,342054.5625,334670.625,322700.03125,320828.5625,306425.8125,308571.65625,280511.8125,0.105712890625,0.92236328125,-0.27783203125,3.723144292831421,-8.270262718200684,-2.105712652206421,100.0,132825.0,1.0
84579.8269108,318433.78125,342453.6875,334898.625,322850.3125,321045.28125,305985.5625,308421.28125,280276.6875,0.12158203125,0.92529296875,-0.279541015625,5.218505382537842,-7.659911632537842,-2.655029058456421,100.0,132826.0,1.0
84579.8294316,318463.03125,341119.28125,333835.9375,321603.34375,318537.21875,304421.46875,307138.46875,279211.75,0.1328125,0.938232421875,-0.2841796875,6.683349132537842,-6.622313976287842,-3.387450933456421,100.0,132827.0,1.0
84579.8320332,318047.625,339879.75,332935.40625,320646.15625,316732.71875,303867.34375,306457.71875,278761.03125,0.135009765625,0.955322265625,-0.2841796875,7.598876476287842,-5.523681163787842,-3.906249761581421,100.0,132828.0,1.0
84579.8320649,317766.4375,340485.3125,333477.6875,321343.1875,318133.5625,305108.46875,307315.03125,279560.875,0.137939453125,0.967041015625,-0.28662109375,8.117674827575684,-4.211425304412842,-4.364013195037842,100.0,132829.0,1.0
84579.8345752,317971.5625,342049.9375,334685.125,322729.25,320835.875,306443.59375,308526.59375,280510.125,0.141357421875,0.973876953125,-0.291259765625,8.209227561950684,-2.685546636581421,-5.218505382537842,100.0,132830.0,1.0
84579.8346164,318407.59375,342440.0,334903.90625,322871.5,321032.03125,305999.34375,308366.8125,280263.09375,0.14208984375,0.981689453125,-0.301025390625,7.690429210662842,-1.0681151151657104,-5.950927257537842,100.0,132831.0,1.0
84579.8446405,318431.46875,341096.21875,333825.90625,321607.09375,318503.78125,304428.1875,307065.96875,279172.75,0.1455078125,0.9912109375,-0.308349609375,6.866454601287842,0.5187987685203552,-6.378173351287842,100.0,132832.0,1.0
84579.8469992,318028.59375,339873.5,332935.875,320658.84375,316703.75,303893.09375,306387.34375,278709.625,0.14501953125,0.989013671875,-0.31005859375,5.706786632537842,2.166747808456421,-6.713866710662842,100.0,132833.0,1.0
84579.84704,317756.15625,340496.3125,333491.09375,321363.5625,318112.53125,305135.375,307248.0,279494.375,0.13818359375,0.966064453125,-0.3115234375,4.394530773162842,3.631591558456421,-6.927489757537842,100.0,132834.0,1.0
84579.8496188,317969.5,342077.8125,334706.3125,322750.8125,320823.8125,306464.96875,308462.75,280436.96875,0.130615234375,0.932373046875,-0.306640625,3.753661870956421,5.187987804412842,-6.896972179412842,100.0,132835.0,1.0
84579.8696182,318423.6875,342492.125,334946.8125,322920.0625,321046.15625,306054.5,308333.65625,280240.03125,0.12255859375,0.903564453125,-0.304931640625,4.150390148162842,6.744384288787842,-7.659911632537842,100.0,132836.0,1.0
84579.8720778,318414.125,341110.0,333837.96875,321635.0,318501.71875,304445.875,307036.375,279133.34375,0.125244140625,0.8701171875,-0.2958984375,5.645751476287842,8.392333030700684,-9.368895530700684,100.0,132837.0,1.0
84579.8721175,317984.34375,339860.53125,332924.6875,320657.15625,316692.40625,303846.15625,306354.625,278624.96875,0.154052734375,0.816650390625,-0.271484375,7.720946788787842,10.345458030700684,-11.840819358825684,100.0,132838.0,1.0
84579.874563,317713.0625,340502.125,333505.46875,321361.15625,318099.9375,305062.96875,307196.65625,279426.875,0.1953125,0.746337890625,-0.2607421875,10.192870140075684,12.512206077575684,-13.916014671325684,100.0,132839.0,1.0
84579.8771105,317911.28125,342107.15625,334745.71875,322750.1875,320825.25,306392.1875,308410.46875,280353.03125,0.216552734375,0.701171875,-0.256103515625,14.709471702575684,15.838622093200684,-16.448972702026367,100.0,132840.0,1.0
84579.879432,318337.5,342475.9375,334951.0,322880.71875,321028.46875,305939.78125,308238.4375,280041.875,0.209228515625,0.72705078125,-0.270263671875,21.179197311401367,19.897459030151367,-20.782468795776367,100.0,132841.0,1.0
84579.8820681,318350.5625,341059.28125,333837.0,321595.46875,318465.53125,304350.5625,306894.125,278937.1875,0.1845703125,0.82373046875,-0.2822265625,27.526853561401367,23.529050827026367,-26.306150436401367,100.0,132842.0,1.0
84579.8959196,317960.09375,339812.15625,332944.28125,320619.0625,316629.1875,303796.96875,306189.15625,278479.40625,0.1650390625,0.9130859375,-0.284423828125,31.036375045776367,26.489255905151367,-29.815671920776367,100.0,132843.0,1.0
84579.8959613,317701.28125,340505.40625,333542.03125,321308.5,318038.34375,305052.59375,307057.90625,279257.6875,0.13671875,0.943115234375,-0.2685546875,31.494138717651367,29.205320358276367,-29.937742233276367,100.0,132844.0,1.0
84579.8959714,317904.3125,342140.5,334792.125,322693.3125,320772.40625,306396.84375,308256.5,280176.09375,0.099365234375,0.9267578125,-0.254150390625,30.334470748901367,31.158445358276367,-27.893064498901367,100.0,132845.0,1.0
84579.898481,318310.40625,342444.3125,334967.375,322848.0,320985.90625,305934.96875,308071.34375,279890.25,0.05810546875,0.90283203125,-0.245849609375,30.181882858276367,32.440181732177734,-26.184080123901367,100.0,132846.0,1.0
84579.8985157,318287.78125,340902.03125,333777.1875,321577.0625,318419.75,304306.3125,306736.21875,278733.5,0.015380859375,0.890869140625,-0.248779296875,31.890867233276367,32.714839935302734,-25.360105514526367,100.0,132847.0,1.0
84579.9007089,317898.0625,339667.0625,332886.6875,320627.375,316559.09375,303752.96875,306041.09375,278220.3125,-0.022216796875,0.883056640625,-0.26416015625,34.240718841552734,31.219480514526367,-24.719236373901367,100.0,132848.0,1.0
84579.9194831,317692.59375,340541.625,333579.78125,321357.46875,317944.46875,305065.375,306926.9375,278991.53125,-0.04833984375,0.875,-0.28173828125,36.956783294677734,28.411863327026367,-23.498533248901367,100.0,132849.0,1.0
84579.9246929,317924.4375,342283.8125,334877.6875,322735.5,320657.34375,306434.90625,308156.71875,279907.4375,-0.065185546875,0.870849609375,-0.295654296875,39.428707122802734,24.658201217651367,-22.308347702026367,100.0,132850.0,1.0
84579.9247332,318300.125,342529.40625,334990.4375,322808.46875,320805.03125,305923.5,307974.0625,279605.0625,-0.08203125,0.875,-0.310546875,41.809078216552734,20.751951217651367,-21.118162155151367,100.0,132851.0,1.0
84579.9247436,318264.34375,340929.125,333748.9375,321476.84375,318156.0,304275.03125,306638.78125,278484.15625,-0.10400390625,0.896240234375,-0.315673828125,43.945308685302734,16.815183639526367,-20.019529342651367,100.0,132852.0,1.0
84579.9522286,317901.375,339690.28125,332877.3125,320511.25,316281.03125,303728.75,305938.4375,278006.09375,-0.1240234375,0.931640625,-0.315185546875,45.776363372802734,12.786864280700684,-18.890378952026367,100.0,132853.0,1.0
84579.9522647,317733.28125,340620.5,333663.28125,321265.03125,317724.875,305055.375,306818.21875,278809.15625,-0.143798828125,0.96484375,-0.309326171875,46.966548919677734,8.575438499450684,-17.364500045776367,100.0,132854.0,1.0
84579.9522744,317963.59375,342369.71875,334993.3125,322655.75,320423.96875,306410.34375,308033.875,279757.40625,-0.156494140625,0.987060546875,-0.3046875,47.668453216552734,4.058837413787842,-15.594481468200684,100.0,132855.0,1.0
84579.9546238,318297.25,342498.46875,335006.96875,322704.03125,320422.65625,305845.8125,307818.9375,279459.3125,-0.15478515625,0.9921875,-0.3076171875,47.546382904052734,-0.7019042372703552,-13.122557640075684,100.0,132856.0,1.0
84579.9546604,318224.125,340739.21875,333656.5,321342.09375,317659.15625,304152.8125,306468.71875,278328.9375,-0.137939453125,0.9833984375,-0.315185546875,47.058101654052734,-5.493163585662842,-10.772704124450684,100.0,132857.0,1.0
84579.9585994,317868.28125,339457.375,332805.15625,320408.53125,315833.125,303625.40625,305790.5625,277855.625,-0.110595703125,0.968505859375,-0.326416015625,46.539302825927734,-9.765624046325684,-9.002684593200684,100.0,132858.0,1.0
84579.9586346,317718.09375,340434.15625,333680.28125,321223.46875,317431.71875,304999.3125,306709.21875,278671.8125,-0.079345703125,0.958984375,-0.340576171875,45.745845794677734,-13.580321311950684,-7.812499523162842,100.0,132859.0,1.0
84579.9586435,317925.25,342195.75,335048.71875,322623.40625,320264.40625,306345.96875,307916.5625,279584.65625,-0.042236328125,0.953125,-0.3583984375,44.433589935302734,-16.723630905151367,-7.049560070037842,100.0,132860.0,1.0
84579.9586525,318212.6875,342302.59375,335034.15625,322630.09375,320350.40625,305745.59375,307672.75,279243.75,-0.007080078125,0.95166015625,-0.370361328125,42.968746185302734,-18.615720748901367,-6.469726085662842,100.0,132861.0,1.0
84579.9608228,318111.46875,340553.0625,333625.375,321216.125,317601.125,304025.84375,306299.46875,278094.96875,0.016357421875,0.95166015625,-0.375,41.229244232177734,-19.348142623901367,-6.347655773162842,100.0,132862.0,1.0
84579.9633548,317758.21875,339427.15625,332794.0625,320283.25,315776.53125,303489.0625,305639.90625,277657.40625,0.02587890625,0.951171875,-0.37939453125,39.428707122802734,-19.134519577026367,-6.500243663787842,100.0,132863.0,1.0
84579.9657708,317630.03125,340597.34375,333762.78125,321130.75,317382.0,304858.84375,306591.125,278497.03125,0.026123046875,0.945556640625,-0.388916015625,37.780757904052734,-18.157957077026367,-6.958007335662842,100.0,132864.0,1.0
84579.9945344,317861.03125,342494.46875,335200.09375,322568.21875,320208.5,306243.21875,307845.9375,279447.59375,0.0205078125,0.937744140625,-0.397705078125,36.590572357177734,-16.723630905151367,-7.293700695037842,100.0,132865.0,1.0
84579.9995163,318129.8125,342548.8125,335138.40625,322558.5,320234.53125,305665.75,307626.0,279140.75,0.0087890625,0.9296875,-0.409423828125,36.102291107177734,-15.319823265075684,-7.385253429412842,100.0,132866.0,1.0
84579.9995303,318050.9375,340709.90625,333732.9375,321145.21875,317451.46875,303992.3125,306282.75,278038.5625,-0.005615234375,0.925537109375,-0.4091796875,36.315914154052734,-14.312743186950684,-7.476806163787842,100.0,132867.0,1.0
84580.0069185,317721.84375,339487.96875,332903.21875,320235.96875,315615.5,303502.8125,305652.78125,277604.9375,-0.017578125,0.925048828125,-0.409912109375,36.560054779052734,-13.885497093200684,-7.232665538787842,100.0,132868.0,1.0
84580.0094073,317631.34375,340600.1875,333891.1875,321144.0625,317249.21875,304914.28125,306655.84375,278457.40625,-0.02490234375,0.92626953125,-0.40771484375,36.834712982177734,-14.099120140075684,-6.713866710662842,100.0,132869.0,1.0
84580.0120397,317876.78125,342478.0,335331.875,322618.65625,320131.53125,306301.96875,307968.53125,279410.125,-0.02734375,0.9326171875,-0.406005859375,37.109371185302734,-14.739989280700684,-6.042479991912842,100.0,132870.0,1.0
84580.0161172,318119.6875,342491.0625,335192.3125,322589.0625,320177.65625,305705.1875,307780.75,279083.8125,-0.029052734375,0.94140625,-0.39208984375,36.987300872802734,-15.930174827575684,-5.187987804412842,100.0,132871.0,1.0
84580.0232618,317988.34375,340652.03125,333680.4375,321146.21875,317403.625,304004.21875,306452.0,277957.90625,-0.030517578125,0.946533203125,-0.382568359375,36.468502044677734,-17.272947311401367,-4.211425304412842,100.0,132872.0,1.0
84580.0255766,317646.09375,339466.6875,332815.96875,320215.65625,315576.15625,303484.65625,305807.8125,277519.28125,-0.028076171875,0.947509765625,-0.372802734375,35.949703216552734,-18.249509811401367,-3.295898199081421,100.0,132873.0,1.0
84580.028316,317553.125,340601.4375,333791.125,321078.1875,317156.59375,304816.84375,306691.25,278302.75,-0.0244140625,0.94970703125,-0.363525390625,35.156246185302734,-19.256589889526367,-2.685546636581421,100.0,132874.0,1.0
84580.0307766,317781.75,342468.875,335203.5,322514.0625,319998.6875,306146.3125,307904.6875,279202.09375,-0.017822265625,0.9541015625,-0.35693359375,33.905025482177734,-20.050046920776367,-2.227782964706421,100.0,132875.0,1.0
84580.0333538,318016.4375,342469.96875,335050.25,322462.28125,320007.25,305550.6875,307641.46875,278891.84375,-0.01025390625,0.957275390625,-0.34814453125,32.409664154052734,-20.507810592651367,-1.5563963651657104,100.0,132876.0,1.0
84580.0357993,317872.75,340594.46875,333496.71875,320994.21875,317213.03125,303870.8125,306245.1875,277779.96875,-0.009033203125,0.952392578125,-0.35107421875,30.853269577026367,-20.690916061401367,-0.9155272841453552,100.0,132877.0,1.0
84580.0358242,317566.28125,339471.53125,332690.8125,320112.9375,315466.53125,303415.28125,305607.625,277374.96875,-0.013427734375,0.93603515625,-0.369873046875,29.754636764526367,-20.721433639526367,-0.8239745497703552,100.0,132878.0,1.0
84580.0406272,317524.4375,340707.375,333798.71875,321060.84375,317164.46875,304831.84375,306567.4375,278231.03125,-0.017822265625,0.917236328125,-0.395263671875,29.724119186401367,-20.690916061401367,-1.5869139432907104,100.0,132879.0,1.0
84580.0433271,317768.15625,342577.96875,335280.90625,322520.5625,319943.15625,306184.40625,307859.1875,279164.90625,-0.020263671875,0.903076171875,-0.412841796875,30.670164108276367,-20.629880905151367,-2.532958745956421,100.0,132880.0,1.0
84580.0457586,317967.09375,342497.75,335057.9375,322428.9375,319826.3125,305558.28125,307681.15625,278797.25,-0.01611328125,0.902099609375,-0.4228515625,32.379146575927734,-20.721433639526367,-3.753661870956421,100.0,132881.0,1.0
84580.0482452,317800.15625,340557.625,333434.9375,320928.5,316927.53125,303838.28125,306322.0,277657.0625,-0.0068359375,0.908935546875,-0.424072265625,34.210201263427734,-20.599363327026367,-4.791259288787842,100.0,132882.0,1.0
84580.0482774,317485.625,339385.25,332598.0,320031.84375,315095.6875,303325.53125,305689.1875,277238.4375,0.003662109375,0.922119140625,-0.4150390625,35.522457122802734,-20.355222702026367,-5.493163585662842,100.0,132883.0,1.0
84580.0508319,317477.125,340670.65625,333753.84375,321026.84375,316831.34375,304738.96875,306727.28125,278129.84375,0.011474609375,0.931884765625,-0.403564453125,36.437984466552734,-19.836423873901367,-5.798339366912842,100.0,132884.0,1.0
84580.0532026,317748.03125,342618.90625,335283.59375,322535.875,319764.34375,306101.15625,307961.53125,279099.53125,0.013916015625,0.93994140625,-0.391845703125,36.865230560302734,-19.073484420776367,-5.889892101287842,100.0,132885.0,1.0
84580.059498,317951.0,342561.59375,335082.625,322444.65625,319798.84375,305483.375,307687.6875,278769.0,0.01708984375,0.94384765625,-0.38330078125,36.804195404052734,-18.310544967651367,-5.767821788787842,100.0,132886.0,1.0
84580.0595391,317759.125,340579.71875,333424.90625,320905.875,316972.34375,303754.59375,306317.4375,277611.1875,0.02001953125,0.946044921875,-0.375732421875,36.437984466552734,-17.700193405151367,-5.340575695037842,100.0,132887.0,1.0
84580.0634155,317459.0625,339416.25,332601.03125,320027.71875,315251.15625,303269.5625,305706.875,277210.46875,0.01806640625,0.937255859375,-0.38134765625,35.980220794677734,-17.150876998901367,-4.730224132537842,100.0,132888.0,1.0
84580.0634533,317470.6875,340688.6875,333769.9375,321046.96875,317034.5625,304668.40625,306680.96875,278092.28125,0.021728515625,0.9267578125,-0.38525390625,35.705562591552734,-16.754148483276367,-3.997802495956421,100.0,132889.0,1.0
84580.0986427,317701.8125,342558.03125,335254.71875,322508.0625,319926.6875,305962.21875,307857.125,278988.5,0.023193359375,0.9130859375,-0.3955078125,35.736080169677734,-16.662595748901367,-3.326415777206421,100.0,132890.0,1.0
84580.1482341,317846.1875,342423.03125,334974.25,322362.15625,319918.65625,305304.71875,307571.5625,278623.34375,0.022705078125,0.899169921875,-0.4052734375,35.919185638427734,-16.448972702026367,-2.685546636581421,100.0,132891.0,1.0
84580.1482746,317654.5,340464.375,333313.0625,320826.6875,317150.09375,303615.75,306238.03125,277495.5,0.012939453125,0.886474609375,-0.410400390625,36.315914154052734,-16.174314498901367,-2.136230230331421,100.0,132892.0,1.0
84580.150885,317364.125,339335.875,332504.65625,319955.65625,315443.125,303151.90625,305651.34375,277096.75,0.004150390625,0.877197265625,-0.416259765625,36.895748138427734,-15.838622093200684,-1.5869139432907104,100.0,132893.0,1.0
84580.1533705,317453.53125,340697.28125,333766.0,321058.5,317273.1875,304616.375,306692.59375,278065.375,-0.0087890625,0.869384765625,-0.41845703125,37.414546966552734,-15.350340843200684,-1.2512205839157104,100.0,132894.0,1.0
84580.1559669,317722.1875,342590.65625,335293.71875,322559.125,320173.375,305937.09375,307877.3125,279003.875,-0.02392578125,0.863037109375,-0.41796875,37.780757904052734,-14.801024436950684,-1.0375975370407104,100.0,132895.0,1.0
84580.1581766,317869.53125,342466.5625,335028.96875,322413.75,320165.875,305313.84375,307578.875,278646.96875,-0.040283203125,0.857177734375,-0.42138671875,38.421627044677734,-14.373778343200684,-1.1291502714157104,100.0,132896.0,1.0
84580.1608925,317666.5,340507.375,333369.03125,320874.875,317409.28125,303654.28125,306233.9375,277528.75,-0.0546875,0.843994140625,-0.424072265625,39.062496185302734,-14.465331077575684,-1.2207030057907104,100.0,132897.0,1.0
84580.1708385,317401.84375,339382.09375,332594.34375,320036.125,315747.1875,303217.25,305667.53125,277157.4375,-0.0654296875,0.829345703125,-0.4228515625,39.886470794677734,-14.831542015075684,-1.4953612089157104,100.0,132898.0,1.0
84580.1782077,317418.9375,340608.9375,333775.5625,321050.71875,317514.3125,304575.0625,306616.875,278019.40625,-0.070556640625,0.82275390625,-0.42529296875,40.710445404052734,-15.655516624450684,-1.7700194120407104,100.0,132899.0,1.0
84580.1808129,317667.375,342434.71875,335274.46875,322518.78125,320375.09375,305849.3125,307771.1875,278921.96875,-0.072265625,0.82373046875,-0.425537109375,41.442867279052734,-16.784666061401367,-1.8005369901657104,100.0,132900.0,1.0
84580.1833091,317837.09375,342385.90625,335047.21875,322416.0625,320418.34375,305272.71875,307521.03125,278591.34375,-0.073486328125,0.828125,-0.4248046875,42.053218841552734,-17.944334030151367,-1.9531248807907104,100.0,132901.0,1.0
84580.1883251,317634.65625,340488.53125,333390.9375,320896.3125,317677.3125,303646.5,306218.03125,277474.21875,-0.060546875,0.84326171875,-0.470947265625,42.755123138427734,-19.073484420776367,-2.014159917831421,100.0,132902.0,1.0
84580.1933635,317341.15625,339338.21875,332572.96875,320029.6875,315952.21875,303179.0625,305632.21875,277078.3125,-0.035400390625,0.882080078125,-0.50244140625,45.989986419677734,-19.470212936401367,-1.8005369901657104,100.0,132903.0,1.0
84580.1957073,317353.03125,340493.09375,333726.65625,321035.625,317674.09375,304460.0,306549.0,277925.71875,-0.029296875,0.8935546875,-0.48486328125,45.928951263427734,-19.592283248901367,-1.2817381620407104,100.0,132904.0,1.0
84580.1983459,317619.03125,342367.3125,335246.21875,322525.21875,320532.4375,305721.1875,307694.65625,278849.65625,-0.01513671875,0.88720703125,-0.466064453125,44.250484466552734,-19.897459030151367,0.0610351525247097,100.0,132905.0,1.0
84580.2006787,317777.71875,342361.25,335012.78125,322422.6875,320546.84375,305182.15625,307463.90625,278549.34375,0.000732421875,0.878662109375,-0.4521484375,43.731685638427734,-18.981931686401367,1.5258787870407104,100.0,132906.0,1.0
84580.2033183,317559.84375,340510.6875,333364.40625,320902.75,317833.0625,303617.625,306200.40625,277433.96875,0.012451171875,0.883544921875,-0.44140625,42.755123138427734,-17.333982467651367,1.8005369901657104,100.0,132907.0,1.0
84580.2060938,317242.25,339313.625,332520.03125,319997.59375,316154.625,303140.09375,305613.1875,276983.0,0.0263671875,0.899169921875,-0.442626953125,41.809078216552734,-16.448972702026367,1.6784666776657104,100.0,132908.0,1.0
84580.2083454,317251.375,340419.6875,333670.625,320974.46875,317853.625,304412.53125,306500.28125,277782.9375,0.034912109375,0.919921875,-0.4501953125,40.801998138427734,-15.960692405700684,2.014159917831421,100.0,132909.0,1.0
84580.2106861,317556.53125,342247.59375,335245.4375,322499.03125,320739.40625,305720.125,307710.75,278715.90625,0.036376953125,0.933837890625,-0.45751953125,39.367671966552734,-15.350340843200684,2.502441167831421,100.0,132910.0,1.0
84580.2132996,317764.5625,342257.0,335071.34375,322442.625,320817.28125,305246.15625,307599.96875,278450.53125,0.035888671875,0.93408203125,-0.466064453125,37.872310638427734,-15.197752952575684,2.990722417831421,100.0,132911.0,1.0
84580.2157032,317545.71875,340413.6875,333405.25,320910.625,318110.84375,303670.71875,306384.40625,277372.90625,0.041259765625,0.9296875,-0.478759765625,36.560054779052734,-14.739989280700684,3.265380620956421,100.0,132912.0,1.0
84580.2197196,317218.375,339268.5625,332549.8125,320001.0,316358.1875,303161.46875,305800.9375,276971.9375,0.040283203125,0.930419921875,-0.482421875,35.400386810302734,-13.610838890075684,3.387450933456421,100.0,132913.0,1.0
84580.2197597,317226.0,340424.5,333707.4375,320987.53125,317974.3125,304402.875,306680.25,277792.21875,0.029052734375,0.9306640625,-0.477294921875,34.362789154052734,-11.901854515075684,3.509521245956421,100.0,132914.0,1.0
84580.2197697,317584.5,342390.125,335347.25,322569.84375,320810.03125,305754.96875,307892.53125,278785.09375,0.01708984375,0.931884765625,-0.475341796875,32.684322357177734,-10.437010765075684,3.875732183456421,100.0,132915.0,1.0
84580.2221308,317782.09375,342472.8125,335170.40625,322509.59375,320844.8125,305288.0,307707.90625,278532.875,-0.00390625,0.92724609375,-0.4658203125,31.158445358276367,-9.063719749450684,4.516601085662842,100.0,132916.0,1.0
84580.2244754,317516.90625,340646.3125,333459.0,320943.71875,318095.375,303710.96875,306423.65625,277420.46875,-0.017578125,0.916015625,-0.464599609375,29.541013717651367,-7.904052257537842,5.004882335662842,100.0,132917.0,1.0
84580.2261621,317231.09375,339541.53125,332630.28125,320068.40625,316378.59375,303273.9375,305877.75,277038.8125,-0.02490234375,0.908203125,-0.456298828125,28.350828170776367,-7.263183116912842,5.432128429412842,100.0,132918.0,1.0
84580.233399,317239.9375,340678.875,333780.3125,321041.0625,318017.875,304487.28125,306742.65625,277810.125,-0.02587890625,0.90478515625,-0.4521484375,27.191160202026367,-7.080077648162842,6.164550304412842,100.0,132919.0,1.0
84580.2358217,317458.34375,342456.375,335277.15625,322482.84375,320737.96875,305662.09375,307814.5625,278628.53125,-0.0234375,0.903564453125,-0.45263671875,26.153562545776367,-6.958007335662842,6.866454601287842,100.0,132920.0,1.0
84580.2407466,317561.625,342424.625,335008.125,322336.03125,320710.96875,305116.875,307571.8125,278273.78125,-0.024169921875,0.901611328125,-0.454833984375,24.902341842651367,-6.896972179412842,7.812499523162842,100.0,132921.0,1.0
84580.2407873,317292.59375,340568.0,333288.21875,320759.53125,317976.5625,303554.0625,306315.5625,277147.15625,-0.025390625,0.890625,-0.46337890625,23.864744186401367,-7.232665538787842,8.544920921325684,100.0,132922.0,1.0
84580.2435055,317049.21875,339476.15625,332499.28125,319921.6875,316313.84375,303146.53125,305805.6875,276777.375,-0.023681640625,0.877197265625,-0.475830078125,23.223875045776367,-7.629394054412842,9.246825218200684,100.0,132923.0,1.0
84580.2435429,317233.21875,340746.1875,333822.25,321075.59375,318079.71875,304537.25,306829.21875,277724.375,-0.025390625,0.863037109375,-0.485595703125,22.613523483276367,-7.537841320037842,9.948729515075684,100.0,132924.0,1.0
84580.2510243,317587.5625,342640.53125,335452.40625,322659.4375,320918.21875,305854.5,308027.34375,278695.34375,-0.030029296875,0.850341796875,-0.49365234375,22.216794967651367,-7.812499523162842,10.284422874450684,100.0,132925.0,1.0
84580.2510609,317716.46875,342664.6875,335211.90625,322538.8125,320942.625,305341.46875,307813.5,278384.65625,-0.013671875,0.848876953125,-0.498291015625,22.338865280151367,-8.148192405700684,10.467528343200684,100.0,132926.0,1.0
84580.2510697,317444.0625,340849.1875,333492.6875,320959.25,318248.25,303784.375,306554.71875,277280.1875,-0.006103515625,0.85595703125,-0.50146484375,22.583005905151367,-7.690429210662842,11.169432640075684,100.0,132927.0,1.0
84580.2510787,317144.09375,339717.375,332650.5625,320070.46875,316553.75,303314.15625,305979.5625,276874.90625,-0.0068359375,0.869140625,-0.496337890625,22.766111373901367,-6.896972179412842,11.840819358825684,100.0,132928.0,1.0
84580.2533801,317186.28125,340846.15625,333833.875,321082.375,318174.0625,304539.5,306836.0,277684.40625,-0.017578125,0.880126953125,-0.491455078125,22.338865280151367,-6.439208507537842,12.268065452575684,100.0,132929.0,1.0
84580.25613,317464.34375,342662.375,335390.53125,322583.96875,320930.03125,305760.15625,307930.4375,278586.6875,-0.0126953125,0.89892578125,-0.483642578125,21.728513717651367,-6.256103038787842,12.451170921325684,100.0,132930.0,1.0
84580.2582441,317616.59375,342708.9375,335171.5,322483.65625,320991.4375,305272.375,307725.6875,278312.65625,-0.005859375,0.916259765625,-0.4794921875,20.629880905151367,-5.950927257537842,13.153075218200684,100.0,132931.0,1.0
84580.25828,317383.96875,340928.75,333483.84375,320935.40625,318356.8125,303763.09375,306497.9375,277240.21875,-0.009521484375,0.9267578125,-0.482421875,19.134519577026367,-5.950927257537842,14.129637718200684,100.0,132932.0,1.0
84580.2609333,317088.9375,339799.46875,332647.4375,320050.625,316691.5,303296.90625,305922.15625,276845.3125,0.003173828125,0.933349609375,-0.489501953125,17.761228561401367,-6.317138195037842,14.709471702575684,100.0,132933.0,1.0
84580.2609687,317140.59375,340937.25,333850.40625,321087.28125,318316.5625,304521.25,306786.125,277692.46875,0.010986328125,0.940185546875,-0.491455078125,16.754148483276367,-6.347655773162842,15.594481468200684,100.0,132934.0,1.0
84580.2632904,317408.8125,342737.09375,335399.125,322579.84375,321090.5,305716.8125,307863.90625,278564.15625,0.017333984375,0.949951171875,-0.49462890625,15.563963890075684,-6.286620616912842,16.754148483276367,100.0,132935.0,1.0
84580.2656948,317529.6875,342745.96875,335139.375,322432.59375,321127.25,305200.3125,307626.4375,278224.59375,0.02490234375,0.953857421875,-0.496337890625,14.495848655700684,-5.798339366912842,17.883298873901367,100.0,132936.0,1.0
84580.2683238,317346.6875,341021.75,333494.84375,320926.71875,318554.21875,303755.40625,306466.40625,277210.625,0.036376953125,0.95654296875,-0.491455078125,13.214110374450684,-4.638671398162842,19.256589889526367,100.0,132937.0,1.0
84580.2707435,317098.03125,339931.59375,332702.6875,320084.9375,316929.25,303328.9375,305943.71875,276844.59375,0.021728515625,0.9365234375,-0.49462890625,11.871336936950684,-3.082275152206421,20.507810592651367,100.0,132938.0,1.0
84580.2732066,317145.25,341017.1875,333892.0625,321106.875,318523.8125,304520.4375,306777.53125,277636.03125,0.0166015625,0.9150390625,-0.497802734375,11.199950218200684,-1.9226073026657104,20.904539108276367,100.0,132939.0,1.0
84580.2783858,317425.90625,342792.625,335453.9375,322618.75,321241.96875,305728.34375,307877.40625,278527.6875,0.010986328125,0.8984375,-0.504150390625,11.016844749450684,-0.6103515028953552,21.148679733276367,100.0,132940.0,1.0
84580.2784264,317543.75,342775.0,335192.5,322473.90625,321237.40625,305226.40625,307675.25,278218.96875,-0.00048828125,0.88525390625,-0.510986328125,11.230467796325684,0.1831054538488388,21.453855514526367,100.0,132941.0,1.0
84580.2808805,317281.59375,340959.25,333469.625,320878.4375,318550.90625,303710.0625,306454.78125,277117.375,-0.009033203125,0.87353515625,-0.51611328125,11.566161155700684,0.3662109076976776,21.514890670776367,100.0,132942.0,1.0
84580.2809166,316960.34375,339805.09375,332612.125,319967.75,316834.90625,303214.40625,305855.125,276675.1875,-0.017578125,0.8671875,-0.522216796875,12.054442405700684,0.0915527269244194,21.545408248901367,100.0,132943.0,1.0
84580.2833427,317008.46875,340915.0,333817.78125,321007.46875,318450.25,304407.4375,306699.21875,277476.90625,-0.01611328125,0.863037109375,-0.524658203125,12.634276390075684,-0.2746581733226776,21.636960983276367,100.0,132944.0,1.0
84580.2945816,317346.3125,342726.90625,335420.40625,322572.6875,321229.375,305656.375,307840.65625,278415.03125,-0.023193359375,0.861083984375,-0.526123046875,13.336180686950684,-0.4882812201976776,21.575925827026367,100.0,132945.0,1.0
84580.3207812,317569.84375,342766.15625,335219.5,322498.3125,321291.0625,305244.75,307709.6875,278174.96875,-0.0234375,0.851806640625,-0.53173828125,14.068602561950684,-0.9155272841453552,20.935056686401367,100.0,132946.0,1.0
84580.3208198,317287.3125,340900.875,333447.53125,320859.5625,318526.59375,303704.96875,306446.0,277034.96875,-0.0263671875,0.852783203125,-0.534912109375,14.678954124450684,-1.1291502714157104,20.629880905151367,100.0,132947.0,1.0
84580.3208301,317006.21875,339825.75,332658.0,320003.40625,316860.84375,303273.75,305890.25,276608.75,-0.04638671875,0.844482421875,-0.532958984375,15.136717796325684,-1.4038084745407104,19.622800827026367,100.0,132948.0,1.0
84580.3321786,317106.375,341064.9375,333965.3125,321131.1875,318613.03125,304543.96875,306792.71875,277472.0625,-0.02783203125,0.840087890625,-0.53466796875,15.869139671325684,-2.380370855331421,18.157957077026367,100.0,132949.0,1.0
84580.3322525,317396.9375,342866.46875,335538.25,322664.53125,321376.15625,305740.5,307892.0,278397.15625,-0.019287109375,0.837646484375,-0.532470703125,16.448972702026367,-2.716064214706421,17.547605514526367,100.0,132950.0,1.0
84580.3322627,317482.9375,342721.0,335165.40625,322431.34375,321250.5625,305158.0,307613.65625,278040.25,-0.025146484375,0.822998046875,-0.53466796875,16.998289108276367,-3.173827886581421,16.540525436401367,100.0,132951.0,1.0
84580.3359505,317217.59375,340822.0,333367.6875,320779.75,318441.5625,303605.1875,306356.875,276925.53125,-0.004638671875,0.8212890625,-0.5439453125,18.127439498901367,-4.180907726287842,15.258788108825684,100.0,132952.0,1.0
84580.3359863,316956.25,339751.09375,332584.125,319933.3125,316775.46875,303177.09375,305812.1875,276542.59375,0.007080078125,0.829345703125,-0.556640625,19.378660202026367,-4.577636241912842,14.648436546325684,100.0,132953.0,1.0
84580.335996,317063.8125,341008.25,333917.71875,321087.03125,318528.09375,304467.0625,306725.21875,277395.8125,0.015869140625,0.8447265625,-0.567138671875,20.385740280151367,-4.608153820037842,14.007567405700684,100.0,132954.0,1.0
84580.3373947,317353.65625,342829.09375,335516.96875,322644.84375,321292.21875,305697.75,307842.1875,278286.28125,0.012451171875,0.86865234375,-0.57568359375,20.935056686401367,-4.699706554412842,13.641356468200684,100.0,132955.0,1.0
84580.3446251,317419.71875,342651.28125,335120.625,322385.5625,321147.71875,305117.6875,307565.75,277895.3125,0.0068359375,0.88720703125,-0.585205078125,20.904539108276367,-4.852294445037842,12.420653343200684,100.0,132956.0,1.0
84580.3471073,317160.53125,340737.4375,333316.03125,320722.875,318367.8125,303570.78125,306314.3125,276777.375,0.030517578125,0.90869140625,-0.593994140625,20.782468795776367,-5.004882335662842,11.566161155700684,100.0,132957.0,1.0
84580.3494593,316930.9375,339676.15625,332569.21875,319914.53125,316704.9375,303169.59375,305789.40625,276400.0,0.0390625,0.930419921875,-0.59033203125,20.080564498901367,-4.241942882537842,12.023924827575684,100.0,132958.0,1.0
84580.3520078,317041.09375,340900.15625,333909.0625,321074.5,318451.125,304466.8125,306678.65625,277219.65625,0.02392578125,0.930908203125,-0.580810546875,18.737791061401367,-3.448486089706421,11.993407249450684,100.0,132959.0,1.0
84580.3520431,317320.59375,342681.5,335504.875,322625.09375,321230.15625,305693.46875,307761.4375,278087.53125,0.045166015625,0.93115234375,-0.58447265625,17.944334030151367,-3.631591558456421,11.199950218200684,100.0,132960.0,1.0
84580.3561577,317386.75,342504.1875,335117.125,322367.5,321106.53125,305111.875,307484.28125,277720.0,0.070556640625,0.925537109375,-0.583984375,17.425535202026367,-3.143310308456421,11.505125999450684,100.0,132961.0,1.0
84580.3958143,317101.4375,340510.59375,333282.0625,320669.40625,318253.1875,303563.78125,306212.125,276541.96875,0.072998046875,0.917724609375,-0.58203125,16.906736373901367,-2.136230230331421,11.871336936950684,100.0,132962.0,1.0
84580.3958532,316861.75,339408.03125,332515.84375,319839.8125,316601.9375,303174.25,305674.59375,276119.0625,0.086669921875,0.91064453125,-0.5751953125,16.296384811401367,-1.8310545682907104,11.993407249450684,100.0,132963.0,1.0
84580.3958636,316992.1875,340714.4375,333892.53125,321036.59375,318366.375,304482.09375,306592.1875,276997.03125,0.08544921875,0.910888671875,-0.5693359375,14.923094749450684,-1.6479490995407104,11.505125999450684,100.0,132964.0,1.0
84580.398362,317295.0,342623.8125,335519.90625,322613.21875,321181.625,305701.34375,307706.09375,277965.0625,0.106201171875,0.91064453125,-0.56982421875,13.214110374450684,-1.4038084745407104,10.833739280700684,100.0,132965.0,1.0
84580.4007081,317363.03125,342528.34375,335110.5,322339.8125,321074.59375,305085.84375,307415.28125,277653.90625,0.119873046875,0.907470703125,-0.5673828125,11.260985374450684,-0.5493163466453552,10.742186546325684,100.0,132966.0,1.0
84580.4031925,317084.09375,340627.90625,333255.3125,320637.5,318243.78125,303505.21875,306134.0625,276557.4375,0.135498046875,0.905517578125,-0.56298828125,9.368895530700684,0.8850097060203552,10.620116233825684,100.0,132967.0,1.0
84580.4058031,316841.625,339610.46875,332485.875,319815.3125,316568.9375,303091.1875,305591.0,276203.90625,0.126953125,0.904296875,-0.5615234375,7.354735851287842,2.777099370956421,10.406493186950684,100.0,132968.0,1.0
84580.4083512,316986.5625,340987.15625,333893.25,321043.40625,318361.8125,304417.09375,306530.3125,277134.28125,0.11376953125,0.8974609375,-0.564208984375,5.676269054412842,4.486083507537842,9.460448265075684,100.0,132969.0,1.0
84580.4106735,317278.28125,342875.78125,335511.6875,322617.40625,321146.84375,305630.875,307637.34375,278098.1875,0.11181640625,0.89697265625,-0.565185546875,4.577636241912842,6.072997570037842,8.026122093200684,100.0,132970.0,1.0
84580.4131932,317321.5625,342663.0,335060.625,322308.5,320949.875,304990.375,307325.3125,277750.3125,0.106689453125,0.9033203125,-0.56298828125,3.417968511581421,7.965087413787842,7.049560070037842,100.0,132971.0,1.0
84580.4158633,317021.59375,340608.5,333153.3125,320556.125,318000.4375,303363.53125,305980.5625,276576.84375,0.08740234375,0.90869140625,-0.559814453125,1.8310545682907104,9.460448265075684,6.256103038787842,100.0,132972.0,1.0
84580.4182375,316793.34375,339570.3125,332413.46875,319754.40625,316289.28125,302972.8125,305436.15625,276219.46875,0.0634765625,0.9052734375,-0.55908203125,0.3662109076976776,9.887694358825684,4.882812023162842,100.0,132973.0,1.0
84580.4208427,316925.03125,340967.65625,333829.84375,320981.71875,318090.5625,304294.15625,306396.75,277191.3125,0.04443359375,0.903076171875,-0.55615234375,-0.7934569716453552,9.674071311950684,2.899169683456421,100.0,132974.0,1.0
84580.4208841,317218.125,342849.84375,335437.84375,322542.40625,320997.4375,305476.125,307517.625,278208.5,0.03369140625,0.9052734375,-0.55419921875,-1.7395018339157104,8.911131858825684,1.0986326932907104,100.0,132975.0,1.0
84580.4232512,317277.46875,342673.71875,334999.375,322239.40625,320921.90625,304819.6875,307217.21875,277904.71875,0.024169921875,0.907470703125,-0.5478515625,-2.593993902206421,7.812499523162842,-0.5493163466453552,100.0,132976.0,1.0
84580.4258781,317008.375,340724.03125,333151.96875,320535.03125,318073.90625,303227.71875,305935.40625,276812.78125,0.0185546875,0.9072265625,-0.543212890625,-3.143310308456421,6.072997570037842,-2.014159917831421,100.0,132977.0,1.0
84580.4259147,316795.59375,339707.90625,332418.375,319745.28125,316391.46875,302835.5625,305418.09375,276481.09375,0.017333984375,0.911865234375,-0.5390625,-3.631591558456421,4.364013195037842,-3.143310308456421,100.0,132978.0,1.0
84580.428247,316921.90625,341050.625,333806.25,320959.875,318132.75,304152.625,306348.1875,277360.5625,0.02099609375,0.919921875,-0.531494140625,-4.058837413787842,2.807616949081421,-4.241942882537842,100.0,132979.0,1.0
84580.4320254,317208.375,342862.625,335388.75,322512.96875,320919.65625,305365.6875,307461.03125,278286.03125,0.02197265625,0.929443359375,-0.521728515625,-4.821776866912842,1.3427733182907104,-4.882812023162842,100.0,132980.0,1.0
84580.4441813,317260.21875,342613.46875,334936.96875,322205.6875,320751.84375,304745.9375,307173.0625,277925.34375,0.012451171875,0.93310546875,-0.52294921875,-6.408690929412842,0.0610351525247097,-5.523681163787842,100.0,132981.0,1.0
84580.4442212,316984.78125,340639.625,333084.1875,320497.75,317862.84375,303168.96875,305901.4375,276794.375,0.0068359375,0.911865234375,-0.5341796875,-7.934569835662842,-1.1901854276657104,-6.347655773162842,100.0,132982.0,1.0
84580.4509249,316768.21875,339653.375,332363.65625,319708.46875,316191.90625,302792.65625,305396.46875,276447.5625,0.0009765625,0.88671875,-0.55322265625,-9.033202171325684,-2.410888433456421,-7.293700695037842,100.0,132983.0,1.0
84580.4509618,316911.8125,341058.5,333781.125,320942.53125,317996.84375,304143.875,306358.5625,277376.125,-0.00537109375,0.854736328125,-0.57568359375,-9.307860374450684,-3.448486089706421,-8.575438499450684,100.0,132984.0,1.0
84580.4532592,317193.875,342914.5,335358.4375,322494.84375,320804.0625,305367.59375,307470.25,278316.875,-0.009521484375,0.825439453125,-0.59423828125,-8.270262718200684,-4.608153820037842,-10.284422874450684,100.0,132985.0,1.0
84580.4556861,317244.6875,342658.875,334884.65625,322179.84375,320624.0,304719.46875,307129.34375,277945.21875,-0.003173828125,0.806640625,-0.606689453125,-6.408690929412842,-5.645751476287842,-11.932372093200684,100.0,132986.0,1.0
84580.4581861,316946.9375,340587.75,332966.0,320427.90625,317669.34375,303067.9375,305755.59375,276777.90625,-0.00244140625,0.78955078125,-0.612060546875,-4.333495616912842,-6.256103038787842,-13.427733421325684,100.0,132987.0,1.0
84580.4942711,316712.875,339540.0,332209.4375,319615.65625,315936.75,302660.34375,305165.96875,276403.65625,-0.00048828125,0.783447265625,-0.61474609375,-2.532958745956421,-6.439208507537842,-14.678954124450684,100.0,132988.0,1.0
84580.494314,316869.875,340994.84375,333676.6875,320883.34375,317761.90625,304064.46875,306111.0,277351.8125,0.0,0.758544921875,-0.61865234375,-1.6174315214157104,-6.713866710662842,-15.624999046325684,100.0,132989.0,1.0
84580.5074302,317166.25,342924.3125,335327.0625,322470.25,320615.125,305345.0625,307231.8125,278298.375,0.00244140625,0.721435546875,-0.624755859375,-0.1220703050494194,-6.683349132537842,-16.754148483276367,100.0,132990.0,1.0
84580.5145865,317220.8125,342662.1875,334878.40625,322151.875,320431.84375,304712.21875,306888.65625,277914.28125,0.0107421875,0.69677734375,-0.6298828125,2.044677495956421,-6.652831554412842,-17.761228561401367,100.0,132991.0,1.0
84580.517103,316944.71875,340570.5,332985.84375,320414.40625,317487.9375,303061.25,305532.71875,276755.28125,0.024169921875,0.695556640625,-0.629638671875,4.333495616912842,-6.500243663787842,-18.371580123901367,100.0,132992.0,1.0
84580.5194355,316714.65625,339505.65625,332238.59375,319606.09375,315758.46875,302646.46875,304982.78125,276374.25,0.033447265625,0.708740234375,-0.622314453125,5.859374523162842,-6.286620616912842,-18.066404342651367,100.0,132993.0,1.0
84580.5219735,316868.53125,340990.28125,333723.71875,320883.71875,317622.15625,304078.875,306001.3125,277311.65625,0.033203125,0.680908203125,-0.633544921875,7.171630382537842,-6.164550304412842,-17.486570358276367,100.0,132994.0,1.0
84580.5245327,317160.625,342968.65625,335405.65625,322489.09375,320555.21875,305393.875,307201.0625,278269.75,0.036865234375,0.648681640625,-0.636474609375,10.070799827575684,-5.920409679412842,-17.211912155151367,100.0,132995.0,1.0
84580.5269454,317214.1875,342717.71875,334961.75,322183.6875,320422.375,304761.125,306915.21875,277884.78125,0.041259765625,0.642333984375,-0.631103515625,13.763426780700684,-5.798339366912842,-17.120359420776367,100.0,132996.0,1.0
84580.5295528,316916.71875,340583.28125,333028.84375,320422.03125,317475.625,303079.125,305573.9375,276693.96875,0.052734375,0.648193359375,-0.630615234375,17.425535202026367,-6.103515148162842,-16.876218795776367,100.0,132997.0,1.0
84580.5321316,316687.21875,339532.03125,332278.71875,319612.71875,315786.90625,302678.5625,305024.71875,276321.21875,0.05859375,0.672119140625,-0.629638671875,21.209714889526367,-6.164550304412842,-16.540525436401367,100.0,132998.0,1.0
84580.5321715,316863.8125,341094.0,333807.0625,320922.59375,317736.21875,304142.53125,306057.625,277291.1875,0.061279296875,0.695556640625,-0.62744140625,24.230955123901367,-5.889892101287842,-16.113279342651367,100.0,132999.0,1.0
84580.5359818,317173.78125,343137.46875,335527.15625,322559.65625,320730.21875,305474.6875,307274.28125,278274.6875,0.05712890625,0.718505859375,-0.623779296875,26.519773483276367,-5.523681163787842,-15.533446311950684,100.0,133000.0,1.0
84580.5360167,317213.90625,342877.375,335064.5625,322242.96875,320596.71875,304829.625,306980.46875,277885.65625,0.05859375,0.75048828125,-0.61328125,27.740476608276367,-4.913329601287842,-14.923094749450684,100.0,133001.0,1.0
84580.5360271,316900.09375,340710.4375,333099.3125,320455.09375,317620.90625,303133.46875,305624.71875,276687.15625,0.05615234375,0.75341796875,-0.619384765625,28.411863327026367,-3.845214605331421,-13.946532249450684,100.0,133002.0,1.0
84580.5382368,316663.78125,339657.21875,332346.59375,319639.625,315923.5,302743.3125,305092.75,276336.0625,0.05126953125,0.75830078125,-0.626220703125,29.602048873901367,-2.349853277206421,-13.122557640075684,100.0,133003.0,1.0
84580.5406982,316852.625,341251.34375,333893.875,320963.71875,317900.03125,304201.71875,306156.15625,277329.8125,0.041015625,0.758056640625,-0.632568359375,31.066892623901367,-0.8239745497703552,-12.023924827575684,100.0,133004.0,1.0
84580.5432723,317170.65625,343291.4375,335611.28125,322596.65625,320890.875,305499.53125,307375.5625,278296.5,0.023193359375,0.757080078125,-0.63720703125,33.447261810302734,0.5187987685203552,-11.627196311950684,100.0,133005.0,1.0
84580.5433118,317198.4375,342967.34375,335110.875,322257.1875,320721.4375,304822.65625,307073.09375,277903.90625,0.009765625,0.784423828125,-0.625732421875,35.614009857177734,1.0070799589157104,-11.138915061950684,100.0,133006.0,1.0
84580.5457129,316880.34375,340723.84375,333098.6875,320442.3125,317681.78125,303110.84375,305698.21875,276697.09375,0.0,0.79541015625,-0.619140625,36.071773529052734,1.0070799589157104,-9.948729515075684,100.0,133007.0,1.0
84580.5483243,316667.375,339652.125,332351.78125,319633.0,315948.0,302710.3125,305159.0,276325.15625,-0.008056640625,0.80810546875,-0.61279296875,36.376949310302734,1.0681151151657104,-8.666991233825684,100.0,133008.0,1.0
84580.5508431,316847.78125,341242.59375,333915.40625,320950.9375,317888.21875,304163.625,306206.21875,277285.03125,-0.024658203125,0.794677734375,-0.623291015625,36.376949310302734,0.9765624403953552,-7.354735851287842,100.0,133009.0,1.0
84580.5541238,317138.71875,343259.875,335620.21875,322565.0,320863.40625,305448.5,307429.84375,278244.28125,-0.030517578125,0.7900390625,-0.617919921875,37.445064544677734,0.5798339247703552,-7.171630382537842,100.0,133010.0,1.0
84580.5541611,317136.5,342847.625,335053.1875,322192.46875,320656.8125,304722.34375,307124.6875,277838.375,-0.031494140625,0.796630859375,-0.6005859375,37.780757904052734,-0.3662109076976776,-6.591796398162842,100.0,133011.0,1.0
84580.5907226,316813.09375,340565.6875,333015.53125,320373.28125,317603.8125,302995.78125,305746.5,276630.65625,-0.03564453125,0.787109375,-0.596435546875,37.139888763427734,-0.8239745497703552,-5.004882335662842,100.0,133012.0,1.0
84580.5947239,316606.65625,339469.625,332265.40625,319559.34375,315857.53125,302583.96875,305175.90625,276252.71875,-0.036376953125,0.77734375,-0.5888671875,37.231441497802734,-1.2207030057907104,-3.875732183456421,100.0,133013.0,1.0
84580.5947646,316808.71875,341054.46875,333865.6875,320894.90625,317802.03125,304020.84375,306220.96875,277224.6875,-0.038818359375,0.76611328125,-0.58544921875,37.322994232177734,-1.4648436307907104,-3.173827886581421,100.0,133014.0,1.0
84580.5947736,317108.15625,343041.09375,335563.1875,322519.9375,320757.46875,305291.125,307433.40625,278211.09375,-0.041015625,0.744140625,-0.5888671875,37.414546966552734,-2.105712652206421,-2.746581792831421,100.0,133015.0,1.0
84580.5947828,317091.96875,342582.15625,334960.9375,322142.65625,320521.78125,304570.875,307095.5625,277821.375,-0.041015625,0.726318359375,-0.591064453125,38.146968841552734,-3.112792730331421,-2.441406011581421,100.0,133016.0,1.0
84580.5986154,316767.6875,340323.5625,332920.125,320340.125,317491.0,302879.375,305721.28125,276641.75,-0.007080078125,0.7431640625,-0.5830078125,38.635250091552734,-3.906249761581421,-2.014159917831421,100.0,133017.0,1.0
84580.5986509,316575.71875,339307.625,332181.8125,319552.34375,315789.75,302508.0,305199.5,276290.46875,-0.005126953125,0.744384765625,-0.58251953125,38.360591888427734,-4.211425304412842,-0.1831054538488388,100.0,133018.0,1.0
84580.59866,316794.15625,340919.5625,333744.90625,320888.46875,317721.75,303966.21875,306247.625,277282.53125,0.003173828125,0.74951171875,-0.5830078125,37.750240325927734,-4.760741710662842,1.3732908964157104,100.0,133019.0,1.0
84580.5986693,317106.53125,342932.1875,335436.9375,322516.8125,320658.59375,305259.65625,307441.65625,278271.375,-0.00048828125,0.74560546875,-0.59130859375,36.560054779052734,-5.157470226287842,2.929687261581421,100.0,133020.0,1.0
84580.6006777,317102.25,342574.90625,334868.5625,322149.90625,320447.59375,304586.4375,307108.34375,277875.65625,0.017578125,0.7685546875,-0.587646484375,35.369869232177734,-5.279540538787842,3.967284917831421,100.0,133021.0,1.0
84580.6034332,316763.5625,340343.78125,332820.1875,320322.96875,317427.0625,302912.28125,305755.25,276658.28125,0.06787109375,0.826904296875,-0.587890625,32.989498138427734,-4.760741710662842,6.469726085662842,100.0,133022.0,1.0
84580.6057239,316555.96875,339301.5625,332094.1875,319514.34375,315723.15625,302539.28125,305233.8125,276241.28125,0.112548828125,0.8828125,-0.6025390625,28.076169967651367,-2.441406011581421,11.138915061950684,100.0,133023.0,1.0
84580.6108066,316783.15625,340955.65625,333765.03125,320895.59375,317731.84375,304042.46875,306314.65625,277173.1875,0.12158203125,0.911865234375,-0.619873046875,22.369382858276367,1.7700194120407104,15.686034202575684,100.0,133024.0,1.0
84580.6132019,317102.0625,342981.71875,335536.28125,322555.0,320747.5625,305370.09375,307567.4375,278069.21875,0.098388671875,0.91259765625,-0.6318359375,16.357419967651367,6.835937023162842,19.317625045776367,100.0,133025.0,1.0
84580.6183956,317077.03125,342542.65625,334960.5,322155.53125,320546.375,304691.40625,307292.0625,277541.4375,0.0595703125,0.898681640625,-0.645751953125,10.498045921325684,11.444090843200684,21.789548873901367,100.0,133026.0,1.0
84580.6184342,316746.0625,340275.46875,332927.71875,320317.78125,317567.34375,303051.21875,306022.5625,276239.59375,0.015869140625,0.879638671875,-0.65966796875,5.157470226287842,15.411375999450684,22.705076217651367,100.0,133027.0,1.0
84580.6206633,316571.15625,339288.40625,332274.6875,319555.75,315997.4375,302750.71875,305630.875,275811.96875,-0.027099609375,0.864013671875,-0.66650390625,1.0375975370407104,17.944334030151367,22.552488327026367,100.0,133028.0,1.0
84580.6444533,316791.375,340929.65625,333936.59375,320938.78125,318040.5625,304249.09375,306792.8125,276723.375,-0.05859375,0.85595703125,-0.666748046875,-1.7395018339157104,19.042966842651367,21.301267623901367,100.0,133029.0,1.0
84580.6470562,317085.96875,342949.09375,335658.84375,322577.625,320998.6875,305556.21875,308026.375,277650.25,-0.08251953125,0.851318359375,-0.66455078125,-3.814697027206421,18.646238327026367,19.622800827026367,100.0,133030.0,1.0
84580.6470966,317049.0625,342529.6875,335050.6875,322159.71875,320767.9375,304867.875,307662.3125,277212.59375,-0.095947265625,0.855224609375,-0.656494140625,-5.218505382537842,16.937253952026367,17.852781295776367,100.0,133031.0,1.0
84580.649579,316704.375,340238.71875,332979.40625,320293.375,317730.34375,303190.53125,306276.9375,276005.625,-0.1123046875,0.862548828125,-0.6455078125,-6.134032726287842,13.885497093200684,15.869139671325684,100.0,133032.0,1.0
84580.6519353,316528.0,339294.65625,332293.03125,319517.65625,316030.53125,302845.6875,305758.5625,275673.03125,-0.110107421875,0.87255859375,-0.629150390625,-6.713866710662842,9.552000999450684,13.885497093200684,100.0,133033.0,1.0
84580.6545476,316772.0625,341027.1875,333946.0625,320927.4375,318002.84375,304311.0625,306793.0,276699.3125,-0.10498046875,0.877685546875,-0.614501953125,-6.652831554412842,4.882812023162842,12.664793968200684,100.0,133034.0,1.0
84580.6561582,317077.84375,343045.5625,335658.03125,322574.40625,320971.4375,305570.71875,307938.5625,277696.65625,-0.076171875,0.892578125,-0.609619140625,-6.530761241912842,0.4272460639476776,11.566161155700684,100.0,133035.0,1.0
84580.6633414,317036.96875,342593.34375,335016.71875,322144.09375,320736.71875,304843.3125,307557.0625,277279.46875,-0.056640625,0.892578125,-0.606689453125,-6.378173351287842,-3.570556402206421,11.230467796325684,100.0,133036.0,1.0
84580.6658957,316674.25,340284.84375,332899.84375,320257.25,317686.53125,303146.71875,306157.3125,276061.65625,-0.0498046875,0.89306640625,-0.602783203125,-6.591796398162842,-6.805419445037842,10.620116233825684,100.0,133037.0,1.0
84580.6659337,316491.875,339254.25,332183.0625,319471.0,316012.65625,302779.15625,305619.34375,275711.03125,-0.0546875,0.886474609375,-0.605224609375,-6.866454601287842,-9.307860374450684,9.338377952575684,100.0,133038.0,1.0
84580.6708288,316742.5625,340929.125,333861.125,320882.1875,318019.5625,304237.75,306652.625,276724.53125,-0.0390625,0.88134765625,-0.61083984375,-7.385253429412842,-10.803221702575684,7.751464366912842,100.0,133039.0,1.0
84580.6735154,317050.46875,342948.5625,335599.9375,322534.96875,320969.53125,305508.84375,307817.15625,277701.9375,-0.033935546875,0.885009765625,-0.616455078125,-8.544920921325684,-10.833739280700684,6.469726085662842,100.0,133040.0,1.0
84580.6756775,317002.90625,342507.34375,334952.0,322089.625,320680.21875,304788.03125,307445.3125,277253.03125,-0.029541015625,0.880615234375,-0.6201171875,-9.979247093200684,-10.833739280700684,5.249022960662842,100.0,133041.0,1.0
84580.679442,316653.96875,340240.6875,332849.5,320210.65625,317587.375,303112.75,306063.875,276018.40625,-0.05859375,0.872314453125,-0.6171875,-11.291502952575684,-10.711668968200684,3.814697027206421,100.0,133042.0,1.0
84580.699635,316485.59375,339299.75,332176.34375,319455.25,315896.40625,302774.59375,305553.625,275677.75,-0.0517578125,0.862060546875,-0.61181640625,-12.115477561950684,-11.016844749450684,1.6174315214157104,100.0,133043.0,1.0
84580.699675,316721.375,340980.875,333836.8125,320856.1875,317834.84375,304206.625,306584.0625,276679.75,-0.064697265625,0.86181640625,-0.60009765625,-12.390135765075684,-11.413573265075684,-0.5493163466453552,100.0,133044.0,1.0
84580.7021695,317019.375,342987.71875,335543.15625,322485.96875,320702.5,305443.21875,307732.65625,277658.375,-0.0546875,0.862060546875,-0.593017578125,-13.275145530700684,-12.145995140075684,-2.288818120956421,100.0,133045.0,1.0
84580.7022057,316987.8125,342616.21875,334943.6875,322067.46875,320411.75,304737.8125,307380.5,277249.96875,-0.036865234375,0.863525390625,-0.5830078125,-14.373778343200684,-13.214110374450684,-3.112792730331421,100.0,133046.0,1.0
84580.7069822,316654.5,340436.3125,332903.15625,320213.15625,317353.65625,303080.28125,306027.59375,276060.78125,-0.038818359375,0.86572265625,-0.57666015625,-15.716551780700684,-14.038084983825684,-3.265380620956421,100.0,133047.0,1.0
84580.7094498,316465.9375,339420.46875,332170.625,319407.25,315604.21875,302692.78125,305498.21875,275701.1875,-0.041015625,0.873779296875,-0.566162109375,-17.913816452026367,-14.953612327575684,-3.753661870956421,100.0,133048.0,1.0
84580.7170604,316686.9375,340980.96875,333762.4375,320762.375,317478.5625,304077.0,306504.21875,276695.03125,-0.026123046875,0.88330078125,-0.564697265625,-20.660398483276367,-15.930174827575684,-4.180907726287842,100.0,133049.0,1.0
84580.7195954,316997.0,342961.59375,335479.84375,322414.53125,320393.84375,305324.21875,307668.75,277698.96875,0.00390625,0.873291015625,-0.570556640625,-23.956296920776367,-15.808104515075684,-3.753661870956421,100.0,133050.0,1.0
84580.7221233,316983.5,342620.875,334925.53125,322036.25,320203.25,304662.6875,307343.5625,277312.84375,0.01953125,0.85888671875,-0.57275390625,-26.641843795776367,-14.587401390075684,-2.563476324081421,100.0,133051.0,1.0
84580.7221622,316647.15625,340420.125,332889.1875,320190.71875,317210.4375,303018.9375,305985.03125,276112.28125,0.025390625,0.834716796875,-0.581787109375,-29.602048873901367,-13.061522483825684,-1.2817381620407104,100.0,133052.0,1.0
84580.7271323,316448.6875,339335.625,332136.03125,319380.15625,315508.03125,302629.21875,305431.5,275738.8125,0.025146484375,0.810302734375,-0.592041015625,-31.524656295776367,-11.322020530700684,-0.2746581733226776,100.0,133053.0,1.0
84580.7294497,316661.75,340838.0,333706.5625,320738.96875,317443.96875,304055.4375,306441.625,276703.0,0.02490234375,0.78271484375,-0.60546875,-32.684322357177734,-9.307860374450684,0.4577636420726776,100.0,133054.0,1.0
84580.7320939,316975.375,342787.8125,335428.0,322399.78125,320405.75,305363.75,307622.6875,277675.1875,0.020263671875,0.76416015625,-0.612060546875,-32.867427825927734,-7.629394054412842,1.2512205839157104,100.0,133055.0,1.0
84580.7358524,316973.9375,342469.78125,334897.625,322031.15625,320215.03125,304742.1875,307307.09375,277271.25,0.016357421875,0.75244140625,-0.616943359375,-33.020015716552734,-6.347655773162842,1.8005369901657104,100.0,133056.0,1.0
84580.7358925,316645.28125,340331.625,332893.40625,320197.0625,317223.40625,303127.125,305971.78125,276076.5,0.020751953125,0.736572265625,-0.62060546875,-32.012935638427734,-5.249022960662842,2.136230230331421,100.0,133057.0,1.0
84580.7695074,316434.46875,339270.25,332130.65625,319370.5,315478.4375,302704.40625,305403.78125,275680.25,0.01806640625,0.737060546875,-0.6142578125,-30.548093795776367,-4.150390148162842,2.471923589706421,100.0,133058.0,1.0
84580.7720879,316638.5,340778.5625,333675.1875,320715.09375,317352.40625,304090.84375,306391.8125,276642.5625,0.017333984375,0.739013671875,-0.609375,-29.235837936401367,-3.387450933456421,2.502441167831421,100.0,133059.0,1.0
84580.7721296,316950.96875,342756.78125,335388.21875,322369.46875,320272.625,305369.375,307569.5,277633.1875,0.017578125,0.75,-0.602783203125,-27.923582077026367,-2.777099370956421,2.380370855331421,100.0,133060.0,1.0
84580.7794708,316956.4375,342437.78125,334857.9375,321984.03125,320045.34375,304697.28125,307218.9375,277226.8125,0.026611328125,0.759521484375,-0.600341796875,-26.641843795776367,-1.9226073026657104,2.075195074081421,100.0,133061.0,1.0
84580.7820484,316643.21875,340317.75,332880.625,320164.53125,317046.46875,303045.6875,305860.46875,276044.3125,0.02978515625,0.771484375,-0.5986328125,-25.299070358276367,-0.8239745497703552,1.9226073026657104,100.0,133062.0,1.0
84580.7845289,316442.6875,339316.84375,332158.5625,319378.625,315366.3125,302666.875,305348.4375,275710.46875,0.03955078125,0.777099609375,-0.594482421875,-24.749753952026367,0.3356933295726776,2.105712652206421,100.0,133063.0,1.0
84580.7869283,316640.90625,340837.84375,333704.21875,320730.46875,317282.3125,304059.8125,306378.15625,276707.46875,0.048095703125,0.779541015625,-0.59912109375,-24.047849655151367,1.6174315214157104,2.685546636581421,100.0,133064.0,1.0
84580.7921012,316946.9375,342808.71875,335406.4375,322377.78125,320227.46875,305332.0,307579.40625,277705.875,0.056884765625,0.7783203125,-0.608154296875,-22.979734420776367,3.295898199081421,3.326415777206421,100.0,133065.0,1.0
84580.7944065,316949.1875,342508.65625,334890.5625,321997.375,320033.46875,304661.0,307242.71875,277292.0,0.06640625,0.776611328125,-0.6142578125,-21.728513717651367,4.913329601287842,3.753661870956421,100.0,133066.0,1.0
84580.7970738,316634.65625,340372.46875,332905.46875,320158.28125,317031.96875,302966.1875,305858.6875,276081.4375,0.0771484375,0.77490234375,-0.616455078125,-20.019529342651367,6.591796398162842,3.997802495956421,100.0,133067.0,1.0
84580.7995969,316433.9375,339346.0,332162.84375,319359.9375,315333.5,302558.3125,305323.5,275731.84375,0.084716796875,0.7802734375,-0.613525390625,-18.249509811401367,8.392333030700684,4.333495616912842,100.0,133068.0,1.0
84580.8019781,316628.03125,340870.75,333690.09375,320716.78125,317254.6875,303963.90625,306369.03125,276743.125,0.09619140625,0.7822265625,-0.608642578125,-16.662595748901367,10.437010765075684,4.699706554412842,100.0,133069.0,1.0
84580.8045054,316923.0,342789.3125,335340.375,322329.59375,320144.21875,305179.8125,307510.21875,277716.25,0.103271484375,0.785400390625,-0.603759765625,-15.411375999450684,12.695311546325684,5.126952648162842,100.0,133070.0,1.0
84580.8069025,316932.03125,342462.90625,334810.0,321947.03125,319919.625,304484.25,307147.84375,277321.78125,0.108642578125,0.78955078125,-0.596435546875,-14.434813499450684,15.167235374450684,5.645751476287842,100.0,133071.0,1.0
84580.8095908,316633.40625,340356.1875,332868.625,320144.40625,316948.90625,302825.5625,305814.53125,276140.53125,0.111572265625,0.79296875,-0.5908203125,-13.916014671325684,17.730710983276367,6.347655773162842,100.0,133072.0,1.0
84580.8120744,316430.1875,339323.90625,332148.90625,319343.3125,315255.8125,302404.71875,305274.0625,275752.0625,0.107421875,0.794921875,-0.58447265625,-13.610838890075684,20.355222702026367,7.019042491912842,100.0,133073.0,1.0
84580.8121135,316639.3125,340879.40625,333725.875,320729.5,317249.15625,303830.9375,306339.4375,276762.25,0.102783203125,0.794921875,-0.580078125,-13.458250999450684,22.644041061401367,7.690429210662842,100.0,133074.0,1.0
84580.8144434,316953.03125,342852.625,335437.375,322397.1875,320271.09375,305135.375,307605.0,277781.40625,0.09375,0.794189453125,-0.572509765625,-13.458250999450684,24.810789108276367,8.728026390075684,100.0,133075.0,1.0
84580.8171233,316952.9375,342474.25,334881.53125,321992.375,320065.375,304437.9375,307308.25,277351.90625,0.081298828125,0.79052734375,-0.568603515625,-13.824461936950684,26.519773483276367,9.796141624450684,100.0,133076.0,1.0
84580.8171662,316630.1875,340299.78125,332885.53125,320142.34375,317040.28125,302765.21875,305940.5,276113.4375,0.068603515625,0.78564453125,-0.564697265625,-14.404295921325684,27.801511764526367,10.925292015075684,100.0,133077.0,1.0
84580.8784681,316427.03125,339294.03125,332162.6875,319346.1875,315327.875,302394.09375,305394.3125,275739.09375,0.05908203125,0.78125,-0.56201171875,-14.648436546325684,28.900144577026367,11.718749046325684,100.0,133078.0,1.0
84580.8808125,316620.53125,340808.875,333688.84375,320699.28125,317262.90625,303860.28125,306451.375,276746.09375,0.050537109375,0.778076171875,-0.5615234375,-14.801024436950684,29.510496139526367,12.420653343200684,100.0,133079.0,1.0
84580.8808495,316914.5,342738.90625,335346.8125,322327.5625,320187.9375,305163.46875,307668.375,277746.71875,0.039794921875,0.774169921875,-0.5625,-14.556883811950684,29.785154342651367,12.542723655700684,100.0,133080.0,1.0
84580.8834025,316937.5625,342416.9375,334838.8125,321949.90625,319971.84375,304492.8125,307348.03125,277336.4375,0.031494140625,0.77392578125,-0.5595703125,-14.190672874450684,29.846189498901367,12.420653343200684,100.0,133081.0,1.0
84580.8858888,316653.0625,340313.46875,332908.5,320148.34375,316997.1875,302843.53125,306010.5,276136.9375,0.024169921875,0.771728515625,-0.557861328125,-13.854979515075684,29.754636764526367,12.145995140075684,100.0,133082.0,1.0
84580.8859261,316448.875,339300.46875,332186.53125,319350.90625,315286.9375,302455.9375,305455.46875,275755.375,0.014404296875,0.773193359375,-0.558349609375,-13.244627952575684,29.541013717651367,11.627196311950684,100.0,133083.0,1.0
84580.8884397,316629.28125,340845.6875,333719.875,320709.0,317211.15625,303906.40625,306488.75,276742.3125,0.005859375,0.780517578125,-0.553466796875,-12.573241233825684,29.449460983276367,10.925292015075684,100.0,133084.0,1.0
84580.8907035,316919.21875,342821.25,335399.9375,322350.625,320162.75,305205.125,307692.59375,277722.59375,-0.003662109375,0.792724609375,-0.5517578125,-11.993407249450684,28.900144577026367,9.948729515075684,100.0,133085.0,1.0
84580.8933253,316935.875,342480.6875,334879.5625,321975.09375,319957.375,304525.375,307373.4375,277301.65625,-0.0087890625,0.805908203125,-0.5498046875,-11.566161155700684,28.076169967651367,8.697508811950684,100.0,133086.0,1.0
84580.8956636,316639.65625,340303.90625,332909.59375,320152.09375,316946.3125,302845.40625,306026.25,276079.0,-0.012451171875,0.81591796875,-0.5439453125,-11.169432640075684,27.221677780151367,7.141112804412842,100.0,133087.0,1.0
84580.8983422,316430.34375,339243.71875,332171.4375,319345.46875,315225.875,302448.625,305490.78125,275688.3125,-0.01416015625,0.828369140625,-0.536376953125,-10.498045921325684,26.184080123901367,5.249022960662842,100.0,133088.0,1.0
84580.9008298,316598.34375,340728.65625,333688.84375,320672.09375,317143.03125,303870.625,306497.59375,276651.5625,-0.017822265625,0.838623046875,-0.53369140625,-10.162352561950684,25.268552780151367,3.417968511581421,100.0,133089.0,1.0
84580.9033178,316887.9375,342642.0625,335354.15625,322295.28125,320097.90625,305153.28125,307687.0625,277640.78125,-0.015380859375,0.844970703125,-0.5302734375,-9.765624046325684,24.169919967651367,1.4343260526657104,100.0,133090.0,1.0
84580.9056806,316901.0,342261.5625,334827.28125,321915.75,319914.90625,304451.59375,307375.9375,277224.9375,-0.01708984375,0.85107421875,-0.5283203125,-9.490965843200684,23.345945358276367,-0.6103515028953552,100.0,133091.0,1.0
84580.908178,316604.0625,340095.65625,332878.09375,320106.3125,316921.09375,302752.96875,306021.25,276001.9375,-0.018798828125,0.859130859375,-0.52197265625,-9.216307640075684,22.460935592651367,-2.502441167831421,100.0,133092.0,1.0
84580.9106965,316406.5625,339082.78125,332172.25,319320.25,315226.03125,302373.6875,305483.90625,275630.28125,-0.015625,0.8681640625,-0.51806640625,-9.521483421325684,21.423337936401367,-4.119872570037842,100.0,133093.0,1.0
84580.9133226,316578.6875,340607.4375,333690.0,320650.375,317160.625,303833.28125,306540.0625,276626.0,-0.013427734375,0.8740234375,-0.5166015625,-10.192870140075684,20.385740280151367,-5.279540538787842,100.0,133094.0,1.0
84580.920949,316860.03125,342515.46875,335335.46875,322255.65625,320098.09375,305127.53125,307750.28125,277615.03125,-0.013671875,0.879638671875,-0.51220703125,-10.681151390075684,19.439695358276367,-6.439208507537842,100.0,133095.0,1.0
84580.9209881,316884.53125,342146.65625,334820.5625,321886.40625,319909.28125,304448.125,307432.78125,277215.03125,-0.01318359375,0.8837890625,-0.51025390625,-11.413573265075684,18.127439498901367,-7.537841320037842,100.0,133096.0,1.0
84580.920998,316590.3125,339978.90625,332865.59375,320076.46875,316903.3125,302759.59375,306052.34375,276002.9375,-0.01171875,0.88427734375,-0.510986328125,-11.993407249450684,16.845701217651367,-8.666991233825684,100.0,133097.0,1.0
84580.9233741,316381.90625,338936.59375,332131.5625,319266.34375,315188.9375,302365.375,305490.15625,275633.3125,-0.008056640625,0.885498046875,-0.51416015625,-12.023924827575684,15.624999046325684,-9.857176780700684,100.0,133098.0,1.0
84580.9234079,316554.1875,340464.8125,333649.6875,320591.1875,317136.21875,303822.625,306534.96875,276642.28125,-0.0048828125,0.88720703125,-0.518310546875,-11.779784202575684,14.495848655700684,-11.077879905700684,100.0,133099.0,1.0
84580.9257439,316841.4375,342412.46875,335308.5625,322207.21875,320101.84375,305131.375,307748.9375,277653.46875,-0.003173828125,0.890380859375,-0.524169921875,-11.474608421325684,13.305663108825684,-12.023924827575684,100.0,133100.0,1.0
84580.9283089,316866.75,342077.46875,334784.34375,321848.6875,319923.46875,304449.375,307438.25,277255.875,0.00341796875,0.8935546875,-0.525146484375,-11.383055686950684,12.420653343200684,-12.695311546325684,100.0,133101.0,1.0
84580.928348,316573.6875,339937.25,332823.40625,320057.6875,316930.84375,302758.15625,306071.65625,276043.53125,0.0087890625,0.896240234375,-0.52099609375,-11.535643577575684,11.810301780700684,-13.519286155700684,100.0,133102.0,1.0
84580.930738,316363.125,338923.28125,332090.6875,319257.5,315229.71875,302359.3125,305530.3125,275669.09375,0.01513671875,0.899658203125,-0.52001953125,-11.779784202575684,11.413573265075684,-13.977049827575684,100.0,133103.0,1.0
84580.9333266,316532.09375,340454.46875,333590.9375,320565.78125,317164.90625,303825.03125,306576.90625,276659.4375,0.0205078125,0.901611328125,-0.517333984375,-12.268065452575684,11.138915061950684,-14.099120140075684,100.0,133104.0,1.0
84580.9358719,316820.4375,342407.5625,335239.34375,322176.71875,320117.9375,305130.46875,307786.03125,277654.1875,0.02197265625,0.89990234375,-0.516845703125,-12.847899436950684,10.803221702575684,-14.251708030700684,100.0,133105.0,1.0
84580.9382832,316851.90625,342091.3125,334750.03125,321836.875,319948.0625,304450.1875,307471.5,277247.46875,0.021484375,0.899169921875,-0.51708984375,-13.275145530700684,10.681151390075684,-14.129637718200684,100.0,133106.0,1.0
84580.9383195,316564.5625,339937.25,332815.78125,320049.09375,316956.875,302761.46875,306088.46875,276022.15625,0.01904296875,0.898193359375,-0.517822265625,-13.610838890075684,10.498045921325684,-14.068602561950684,100.0,133107.0,1.0
84580.9431878,316362.6875,338924.15625,332094.8125,319244.0,315252.5,302370.21875,305533.96875,275638.34375,0.018310546875,0.892333984375,-0.5224609375,-13.793944358825684,10.223387718200684,-14.160155296325684,100.0,133108.0,1.0
84580.9470946,316529.875,340488.96875,333617.9375,320552.375,317191.65625,303833.8125,306575.46875,276624.3125,0.01806640625,0.88427734375,-0.524658203125,-13.641356468200684,9.979247093200684,-14.587401390075684,100.0,133109.0,1.0
84580.947137,316826.0625,342503.5,335309.875,322184.75,320197.59375,305169.09375,307811.96875,277637.5625,0.018798828125,0.8818359375,-0.521240234375,-13.366698265075684,9.918211936950684,-14.831542015075684,100.0,133110.0,1.0
84580.9508108,316866.21875,342188.59375,334826.28125,321854.21875,320062.0625,304494.78125,307502.09375,277245.59375,0.018310546875,0.880126953125,-0.5185546875,-13.214110374450684,9.826659202575684,-14.862059593200684,100.0,133111.0,1.0
84580.9696739,316575.90625,340009.03125,332876.59375,320064.9375,317059.40625,302778.875,306103.5,276025.375,0.015869140625,0.884033203125,-0.51806640625,-13.641356468200684,9.765624046325684,-14.526366233825684,100.0,133112.0,1.0
84580.9697096,316360.09375,338938.28125,332116.1875,319234.59375,315296.21875,302362.0625,305502.75,275630.625,0.01416015625,0.88720703125,-0.516845703125,-14.007567405700684,9.704588890075684,-13.977049827575684,100.0,133113.0,1.0
84580.9719735,316524.5,340492.71875,333626.90625,320532.625,317234.375,303847.5625,306544.8125,276626.90625,0.011962890625,0.890380859375,-0.51171875,-14.404295921325684,9.643553733825684,-13.580321311950684,100.0,133114.0,1.0
84580.9759813,316817.5,342516.53125,335320.78125,322168.59375,320266.0,305193.3125,307808.84375,277647.5625,0.009521484375,0.900146484375,-0.50390625,-15.106200218200684,9.521483421325684,-13.275145530700684,100.0,133115.0,1.0
84580.9760208,316852.8125,342190.84375,334831.21875,321835.09375,320110.34375,304495.25,307491.625,277236.65625,0.0078125,0.913330078125,-0.489990234375,-16.571043014526367,9.399413108825684,-12.542723655700684,100.0,133116.0,1.0
84580.9760312,316569.65625,340020.46875,332889.8125,320054.46875,317112.78125,302778.4375,306088.1875,276003.75,0.0068359375,0.923583984375,-0.479736328125,-18.615720748901367,8.941649436950684,-11.260985374450684,100.0,133117.0,1.0
84580.9833887,316342.46875,338942.75,332111.53125,319204.125,315320.71875,302346.96875,305450.1875,275575.28125,0.01025390625,0.917236328125,-0.479248046875,-20.843503952026367,8.605956077575684,-9.796141624450684,100.0,133118.0,1.0
84580.9871039,316501.96875,340513.71875,333614.71875,320497.125,317243.5,303843.625,306487.84375,276569.875,0.010009765625,0.900634765625,-0.48779296875,-22.460935592651367,8.300780296325684,-8.758543968200684,100.0,133119.0,1.0
84580.9908652,316793.0,342529.25,335288.875,322120.21875,320244.46875,305202.34375,307740.8125,277591.5,0.004150390625,0.87744140625,-0.500732421875,-23.132322311401367,7.843017101287842,-7.873534679412842,100.0,133120.0,1.0
84580.9909052,316841.90625,342218.09375,334813.15625,321801.5625,320085.03125,304527.0625,307433.34375,277200.96875,-0.00341796875,0.85791015625,-0.517333984375,-22.796628952026367,7.415771007537842,-7.232665538787842,100.0,133121.0,1.0
84581.0195787,316571.15625,340092.625,332910.5625,320051.78125,317103.15625,302828.6875,306047.15625,275988.96875,-0.007568359375,0.84765625,-0.53076171875,-21.484373092651367,6.896972179412842,-6.652831554412842,100.0,133122.0,1.0
84581.0234702,316355.0625,339075.71875,332169.125,319238.34375,315370.875,302425.03125,305478.0,275603.5625,-0.0107421875,0.844970703125,-0.5390625,-19.836423873901367,6.622313976287842,-6.256103038787842,100.0,133123.0,1.0
84581.0235088,316502.9375,340626.84375,333638.59375,320506.875,317275.0625,303896.03125,306519.21875,276589.25,-0.010498046875,0.847412109375,-0.540771484375,-18.127439498901367,6.469726085662842,-6.072997570037842,100.0,133124.0,1.0
84581.0235193,316795.21875,342615.96875,335289.875,322109.75,320234.4375,305228.28125,307745.4375,277601.71875,-0.00927734375,0.852294921875,-0.538330078125,-16.601560592651367,6.469726085662842,-5.706786632537842,100.0,133125.0,1.0
84581.0310295,316869.0625,342364.28125,334870.1875,321833.03125,320116.25,304573.03125,307445.3125,277233.34375,-0.0107421875,0.858642578125,-0.528076171875,-14.984129905700684,6.835937023162842,-5.401610851287842,100.0,133126.0,1.0
84581.031066,316606.03125,340267.15625,333000.59375,320108.375,317165.28125,302874.09375,306063.625,276030.75,-0.012451171875,0.861572265625,-0.517578125,-13.763426780700684,7.141112804412842,-4.760741710662842,100.0,133127.0,1.0
84581.0310752,316370.53125,339188.46875,332217.84375,319261.59375,315395.5625,302434.125,305469.59375,275624.1875,-0.0146484375,0.8623046875,-0.507568359375,-12.969969749450684,7.202147960662842,-3.967284917831421,100.0,133128.0,1.0
84581.031084,316491.6875,340641.125,333620.1875,320478.53125,317213.75,303862.40625,306464.5,276577.28125,-0.018310546875,0.86083984375,-0.50341796875,-12.298583030700684,7.232665538787842,-3.112792730331421,100.0,133129.0,1.0
84581.0333767,316778.875,342599.78125,335265.53125,322077.5625,320143.875,305207.8125,307677.59375,277580.15625,-0.018798828125,0.855712890625,-0.503662109375,-11.474608421325684,7.080077648162842,-2.349853277206421,100.0,133130.0,1.0
84581.0356726,316846.53125,342311.09375,334839.53125,321795.5625,320005.28125,304548.15625,307362.53125,277194.1875,-0.0224609375,0.854736328125,-0.5068359375,-10.833739280700684,6.774901866912842,-1.4648436307907104,100.0,133131.0,1.0
84581.038213,316583.6875,340177.03125,332959.28125,320064.125,317031.53125,302834.0625,305962.21875,275980.40625,-0.02294921875,0.85205078125,-0.51025390625,-10.253905296325684,6.134032726287842,-0.5493163466453552,100.0,133132.0,1.0
84581.0409748,316356.40625,339131.6875,332201.65625,319236.5625,315284.6875,302420.28125,305369.625,275576.28125,-0.02490234375,0.851318359375,-0.513671875,-9.490965843200684,5.584716320037842,0.1525878757238388,100.0,133133.0,1.0
84581.0433277,316494.28125,340680.75,333658.4375,320496.3125,317196.9375,303908.09375,306407.75,276553.5,-0.025634765625,0.852783203125,-0.5185546875,-8.697508811950684,5.187987804412842,0.8544921278953552,100.0,133134.0,1.0
84581.0695411,316783.0625,342679.71875,335310.25,322099.90625,320184.375,305261.09375,307643.0,277560.59375,-0.024169921875,0.854736328125,-0.51904296875,-7.720946788787842,4.974364757537842,1.4953612089157104,100.0,133135.0,1.0
84581.0720929,316848.59375,342381.09375,334861.78125,321798.4375,320046.5,304576.875,307311.03125,277160.84375,-0.0234375,0.86181640625,-0.518310546875,-6.866454601287842,4.821776866912842,2.075195074081421,100.0,133136.0,1.0
84581.0721066,316592.4375,340269.21875,332993.4375,320071.90625,317094.1875,302857.125,305892.125,275939.09375,-0.022705078125,0.86865234375,-0.514404296875,-6.103515148162842,4.882812023162842,2.777099370956421,100.0,133137.0,1.0
84581.0786381,316359.8125,339226.4375,332233.03125,319238.90625,315361.75,302436.1875,305288.53125,275527.65625,-0.01953125,0.879150390625,-0.50732421875,-5.767821788787842,4.791259288787842,3.326415777206421,100.0,133138.0,1.0
84581.0857882,316478.0,340695.84375,333634.3125,320458.40625,317214.09375,303888.625,306296.96875,276481.09375,-0.0185546875,0.8818359375,-0.503662109375,-5.798339366912842,5.035399913787842,3.906249761581421,100.0,133139.0,1.0
84581.0881469,316765.8125,342666.03125,335279.84375,322064.6875,320185.09375,305244.375,307535.25,277494.15625,-0.016845703125,0.87744140625,-0.50390625,-6.042479991912842,5.035399913787842,4.638671398162842,100.0,133140.0,1.0
84581.0909756,316850.84375,342424.375,334889.84375,321812.03125,320103.28125,304604.03125,307245.84375,277125.0625,-0.015869140625,0.869384765625,-0.508056640625,-6.286620616912842,5.096435070037842,5.279540538787842,100.0,133141.0,1.0
84581.0932645,316599.0625,340322.125,333038.6875,320097.5625,317165.71875,302895.65625,305854.5,275915.125,-0.0146484375,0.856689453125,-0.513916015625,-6.530761241912842,4.974364757537842,5.706786632537842,100.0,133142.0,1.0
84581.0957658,316361.5,339240.75,332254.3125,319248.46875,315396.625,302458.8125,305253.40625,275505.46875,-0.012939453125,0.844970703125,-0.52197265625,-6.103515148162842,4.943847179412842,6.072997570037842,100.0,133143.0,1.0
84581.1007099,316489.1875,340728.125,333666.5,320480.75,317264.15625,303925.90625,306285.15625,276474.375,-0.0107421875,0.833984375,-0.53125,-5.187987804412842,4.882812023162842,6.256103038787842,100.0,133144.0,1.0
84581.1031144,316776.8125,342713.3125,335305.78125,322085.4375,320230.40625,305279.34375,307528.09375,277483.15625,-0.0078125,0.83056640625,-0.537109375,-4.089354991912842,4.699706554412842,6.500243663787842,100.0,133145.0,1.0
84581.1057161,316847.09375,342437.40625,334875.28125,321799.78125,320101.40625,304600.5625,307217.0625,277095.3125,-0.00341796875,0.82958984375,-0.541259765625,-2.929687261581421,4.730224132537842,6.652831554412842,100.0,133146.0,1.0
84581.108151,316594.875,340317.21875,333001.9375,320069.125,317118.15625,302870.25,305802.09375,275873.65625,0.001953125,0.83203125,-0.5458984375,-1.7089842557907104,4.974364757537842,6.958007335662842,100.0,133147.0,1.0
84581.1081675,316370.375,339303.625,332258.78125,319255.15625,315390.28125,302466.9375,305221.21875,275478.375,0.005615234375,0.836669921875,-0.539306640625,-0.5798339247703552,5.432128429412842,6.927489757537842,100.0,133148.0,1.0
84581.1107645,316500.4375,340874.5,333720.84375,320520.1875,317325.59375,303973.53125,306281.0625,276466.9375,0.0087890625,0.840576171875,-0.537353515625,0.3662109076976776,5.828856945037842,6.988524913787842,100.0,133149.0,1.0
84581.1132929,316779.84375,342863.09375,335364.34375,322117.8125,320324.21875,305328.96875,307526.59375,277466.78125,0.010986328125,0.841064453125,-0.53564453125,1.1291502714157104,6.347655773162842,7.141112804412842,100.0,133150.0,1.0
84581.1170553,316842.6875,342539.96875,334914.8125,321812.375,320192.15625,304632.03125,307195.875,277056.40625,0.01171875,0.842529296875,-0.533203125,1.5869139432907104,6.866454601287842,7.110595226287842,100.0,133151.0,1.0
84581.1170749,316584.21875,340363.15625,333024.125,320063.9375,317191.9375,302885.375,305760.875,275819.46875,0.0146484375,0.844482421875,-0.530029296875,2.075195074081421,7.171630382537842,6.988524913787842,100.0,133152.0,1.0
84581.1443728,316364.71875,339342.59375,332294.625,319249.96875,315468.78125,302486.875,305181.4375,275426.15625,0.014892578125,0.844970703125,-0.53271484375,2.349853277206421,7.629394054412842,6.927489757537842,100.0,133153.0,1.0
