Time,FZ,C3,CZ,C4,PZ,PO7,OZ,PO8,AccX,AccY,AccZ,Gyro1,Gyro2,Gyro3,Battery,Counter,Validation
560189.8439197,307675.875,297258.53125,462206.28125,496486.28125,329486.53125,300092.5625,294356.9375,297020.8125,0.2685546875,0.955810546875,-0.20703125,-16.479490280151367,62.866207122802734,-27.313230514526367,100.0,30382.0,1.0
560189.8464748,308482.25,297308.25,462706.96875,496483.40625,329429.40625,299597.4375,294222.65625,296879.28125,0.2626953125,0.959228515625,-0.20263671875,-16.937253952026367,62.530513763427734,-28.259275436401367,100.0,30383.0,1.0
560189.8539266,309042.46875,296672.125,462739.4375,496176.65625,325424.78125,298166.125,292860.78125,296417.40625,0.260986328125,0.957763671875,-0.201171875,-17.486570358276367,61.767574310302734,-29.113767623901367,100.0,30384.0,1.0
560189.8566355,308600.28125,296196.75,462225.5,495954.3125,322720.84375,297689.3125,292069.0,296245.375,0.258544921875,0.95849609375,-0.19775390625,-18.066404342651367,60.455318450927734,-29.876707077026367,100.0,30385.0,1.0
560189.8666247,307803.5625,296595.0625,461920.0,496149.46875,324877.625,298841.59375,292926.59375,296626.875,0.255126953125,0.959228515625,-0.199462890625,-18.646238327026367,58.776851654052734,-30.395505905151367,100.0,30386.0,1.0
560189.8690425,307664.0,297260.96875,462152.65625,496449.78125,328818.125,300021.40625,294224.78125,297005.78125,0.252685546875,0.956787109375,-0.196044921875,-19.409177780151367,56.793209075927734,-30.548093795776367,100.0,30387.0,1.0
560189.8715468,308516.21875,297397.125,462745.0625,496516.59375,329031.8125,299634.71875,294208.4375,296902.34375,0.2509765625,0.95361328125,-0.1923828125,-20.141599655151367,54.473873138427734,-30.395505905151367,100.0,30388.0,1.0
560189.8740906,309060.09375,296782.90625,462805.84375,496209.03125,325283.625,298228.25,292916.21875,296420.71875,0.24609375,0.951416015625,-0.19287109375,-20.538328170776367,51.940914154052734,-30.151365280151367,100.0,30389.0,1.0
560189.8765555,308614.03125,296338.8125,462306.15625,495968.59375,322791.84375,297782.28125,292170.21875,296233.40625,0.24072265625,0.951171875,-0.193115234375,-20.690916061401367,49.377437591552734,-29.663084030151367,100.0,30390.0,1.0
560189.8791041,307809.46875,296761.25,461989.46875,496129.53125,325056.59375,298944.75,293035.6875,296593.28125,0.2314453125,0.951904296875,-0.195068359375,-20.568845748901367,46.783443450927734,-29.144285202026367,100.0,30391.0,1.0
560189.8815504,307686.875,297450.25,462221.40625,496434.6875,329042.90625,300146.3125,294347.0,296976.46875,0.218505859375,0.951171875,-0.1953125,-20.050046920776367,44.006343841552734,-28.320310592651367,100.0,30392.0,1.0
560189.8864945,308565.9375,297608.40625,462847.78125,496534.0,329397.84375,299787.25,294375.09375,296895.8125,0.202880859375,0.947509765625,-0.200439453125,-19.317625045776367,41.290279388427734,-27.587888717651367,100.0,30393.0,1.0
560189.88911,309173.375,297108.15625,463028.21875,496298.5,326032.65625,298483.96875,293211.28125,296476.9375,0.185546875,0.939697265625,-0.201904296875,-18.341062545776367,38.543697357177734,-26.611326217651367,100.0,30394.0,1.0
560189.8891294,308615.5625,296600.96875,462454.125,495943.75,323706.5625,297962.53125,292395.25,296186.65625,0.171142578125,0.928466796875,-0.198486328125,-17.211912155151367,35.736080169677734,-25.665281295776367,100.0,30395.0,1.0
560189.8916042,307746.6875,296980.125,462075.03125,496036.28125,326034.0,299071.1875,293179.1875,296487.15625,0.15673828125,0.920654296875,-0.197509765625,-15.808104515075684,33.020015716552734,-24.597166061401367,100.0,30396.0,1.0
560189.8940591,307593.09375,297619.40625,462264.3125,496318.09375,330036.9375,300227.75,294432.03125,296855.15625,0.139404296875,0.913818359375,-0.192626953125,-14.068602561950684,30.059812545776367,-23.651121139526367,100.0,30397.0,1.0
560189.8966132,308541.25,297810.1875,462957.21875,496498.15625,330521.78125,299936.8125,294537.8125,296858.53125,0.12353515625,0.903076171875,-0.190673828125,-12.481688499450684,26.977537155151367,-22.552488327026367,100.0,30398.0,1.0
560189.8989324,309337.53125,297458.46875,463323.6875,496453.71875,327403.53125,298826.375,293580.78125,296640.46875,0.111328125,0.8935546875,-0.185302734375,-11.016844749450684,23.803709030151367,-21.606443405151367,100.0,30399.0,1.0
560189.9040579,308898.875,297026.4375,462847.25,496211.875,325160.0625,298401.0625,292851.9375,296470.4375,0.102783203125,0.88720703125,-0.184326171875,-9.643553733825684,20.477293014526367,-20.477293014526367,100.0,30400.0,1.0
560189.9090286,307973.34375,297298.78125,462375.71875,496248.53125,327303.84375,299425.0625,293526.34375,296724.875,0.0966796875,0.886962890625,-0.181396484375,-8.422850608825684,16.906736373901367,-19.317625045776367,100.0,30401.0,1.0
560189.9090554,307785.25,297870.53125,462512.34375,496495.21875,331185.1875,300532.90625,294708.46875,297052.71875,0.09423828125,0.89013671875,-0.17529296875,-7.385253429412842,13.244627952575684,-17.913816452026367,100.0,30402.0,1.0
560189.9116546,308644.96875,297979.0625,463133.0,496592.125,331624.90625,300156.84375,294714.375,296969.3125,0.094482421875,0.89697265625,-0.170166015625,-6.591796398162842,9.613036155700684,-16.448972702026367,100.0,30403.0,1.0
560189.9116834,309241.59375,297438.15625,463313.0625,496354.65625,328372.71875,298839.15625,293555.03125,296551.4375,0.09814453125,0.9091796875,-0.16162109375,-5.981444835662842,5.798339366912842,-14.984129905700684,100.0,30404.0,1.0
560189.9139991,308767.5625,296952.875,462788.5,496083.40625,326069.84375,298364.6875,292782.03125,296350.875,0.107177734375,0.91943359375,-0.162353515625,-5.554198741912842,1.6479490995407104,-13.427733421325684,100.0,30405.0,1.0
560189.916695,307862.46875,297169.40625,462286.03125,496129.4375,328030.65625,299374.625,293429.59375,296633.78125,0.118408203125,0.927734375,-0.164794921875,-5.157470226287842,-2.319335699081421,-11.596678733825684,100.0,30406.0,1.0
560189.9167298,307647.8125,297635.5625,462340.84375,496340.28125,331584.21875,300407.71875,294531.375,296930.875,0.130615234375,0.92724609375,-0.162841796875,-4.760741710662842,-6.378173351287842,-9.613036155700684,100.0,30407.0,1.0
560189.9190927,308528.03125,297749.84375,462959.90625,496451.84375,331830.0,300007.28125,294544.0625,296837.09375,0.141357421875,0.923828125,-0.166015625,-4.364013195037842,-10.620116233825684,-7.751464366912842,100.0,30408.0,1.0
560189.921662,309131.25,297249.25,463149.0,496222.53125,328480.4375,298689.0625,293413.34375,296408.09375,0.151123046875,0.915283203125,-0.168212890625,-3.662109136581421,-14.617918968200684,-6.011962413787842,100.0,30409.0,1.0
560189.9230547,308681.28125,296820.8125,462655.90625,495971.65625,326149.15625,298248.90625,292698.625,296228.84375,0.155517578125,0.9140625,-0.170654296875,-2.441406011581421,-18.463132858276367,-4.486083507537842,100.0,30410.0,1.0
560189.9302851,307810.625,297079.375,462195.125,496059.875,328121.46875,299278.0625,293410.03125,296532.65625,0.158203125,0.91650390625,-0.176025390625,-1.0070799589157104,-22.125242233276367,-3.051757574081421,100.0,30411.0,1.0
560189.9329476,307672.5,297617.6875,462327.78125,496354.46875,331741.3125,300360.625,294582.9375,296900.125,0.1611328125,0.922119140625,-0.1748046875,0.7019042372703552,-25.695798873901367,-1.7395018339157104,100.0,30412.0,1.0
560189.9329893,308585.0625,297788.71875,462995.65625,496493.59375,332050.375,299999.40625,294609.25,296842.96875,0.1640625,0.929443359375,-0.17822265625,2.471923589706421,-28.900144577026367,-0.6103515028953552,100.0,30413.0,1.0
560189.9378035,309139.40625,297281.625,463162.0625,496206.25,328731.15625,298656.25,293410.75,296370.5625,0.1748046875,0.932861328125,-0.180419921875,4.302978038787842,-32.012935638427734,0.5798339247703552,100.0,30414.0,1.0
560189.940396,308589.0,296756.96875,462574.65625,495861.84375,326355.0625,298115.875,292577.71875,296091.6875,0.1875,0.93798828125,-0.1767578125,6.225585460662842,-34.606929779052734,1.8310545682907104,100.0,30415.0,1.0
560189.9466646,307651.21875,296904.5,462031.6875,495894.40625,328229.84375,299069.9375,293215.65625,296350.25,0.199462890625,0.946044921875,-0.17822265625,7.873534679412842,-36.834712982177734,2.960204839706421,100.0,30416.0,1.0
560189.9522069,307491.96875,297393.5625,462133.15625,496168.4375,331762.125,300128.25,294368.46875,296706.375,0.207763671875,0.956787109375,-0.179443359375,9.460448265075684,-38.635250091552734,3.997802495956421,100.0,30417.0,1.0
560189.9779157,308494.3125,297644.15625,462865.84375,496379.96875,332035.90625,299827.75,294458.78125,296732.46875,0.211669921875,0.966796875,-0.183349609375,10.589598655700684,-40.130611419677734,5.126952648162842,100.0,30418.0,1.0
560189.977957,309147.8125,297194.09375,463078.0,496177.71875,328553.5,298551.90625,293315.59375,296364.46875,0.2119140625,0.973876953125,-0.188720703125,11.383055686950684,-41.473384857177734,6.103515148162842,100.0,30419.0,1.0
560189.9805184,308657.84375,296718.78125,462538.4375,495896.28125,326101.3125,298053.90625,292538.84375,296143.46875,0.211669921875,0.97412109375,-0.191650390625,12.054442405700684,-42.602535247802734,6.988524913787842,100.0,30420.0,1.0
560189.9829384,307753.0625,296902.875,462045.34375,495982.46875,328003.46875,299032.1875,293235.59375,296418.375,0.207275390625,0.97119140625,-0.19287109375,12.329100608825684,-43.579097747802734,7.781981945037842,100.0,30421.0,1.0
560189.9851951,307584.6875,297405.53125,462173.46875,496261.15625,331605.75,300094.53125,294417.8125,296776.09375,0.205810546875,0.96435546875,-0.188232421875,12.390135765075684,-44.403072357177734,8.728026390075684,100.0,30422.0,1.0
560189.9878768,308549.5625,297697.90625,462922.71875,496429.59375,331993.78125,299815.3125,294505.15625,296775.375,0.20361328125,0.957275390625,-0.18310546875,12.329100608825684,-44.921871185302734,9.857176780700684,100.0,30423.0,1.0
560189.9952619,309189.5625,297363.15625,463200.5,496210.90625,328805.4375,298599.125,293387.9375,296362.6875,0.202880859375,0.947021484375,-0.1728515625,12.054442405700684,-45.440670013427734,11.047362327575684,100.0,30424.0,1.0
560189.9977663,308697.625,296921.3125,462694.375,495943.375,326555.0625,298147.78125,292654.09375,296148.46875,0.202880859375,0.93359375,-0.1650390625,11.657713890075684,-45.867916107177734,12.237547874450684,100.0,30425.0,1.0
560190.0002435,307747.40625,297025.0,462165.15625,496009.0,328514.34375,299087.625,293341.8125,296429.03125,0.2021484375,0.917236328125,-0.156982421875,11.230467796325684,-46.478267669677734,13.397215843200684,100.0,30426.0,1.0
560190.0002781,307540.25,297422.25,462235.34375,496255.15625,332039.125,300069.84375,294472.0,296765.8125,0.204345703125,0.8994140625,-0.158203125,10.589598655700684,-47.088619232177734,14.343260765075684,100.0,30427.0,1.0
560190.0028384,308428.96875,297556.90625,462860.75,496340.34375,332120.84375,299666.8125,294425.3125,296683.03125,0.207275390625,0.879638671875,-0.16552734375,10.253905296325684,-47.882076263427734,14.923094749450684,100.0,30428.0,1.0
560190.0079016,309045.0625,297136.78125,463071.46875,496087.5,328633.5,298383.375,293218.78125,296263.34375,0.216796875,0.863037109375,-0.173583984375,10.009764671325684,-48.828121185302734,15.655516624450684,100.0,30429.0,1.0
560190.0079143,308529.46875,296603.46875,462507.875,495794.4375,326135.46875,297850.25,292392.03125,296023.125,0.22509765625,0.851318359375,-0.181884765625,9.704588890075684,-49.926753997802734,16.174314498901367,100.0,30430.0,1.0
560190.0104014,307534.96875,296610.875,461927.96875,495827.875,327912.90625,298717.75,293038.625,296244.65625,0.230224609375,0.84423828125,-0.190673828125,9.765624046325684,-51.269527435302734,16.296384811401367,100.0,30431.0,1.0
560190.012797,307360.09375,297037.25,462046.875,496103.59375,331408.53125,299730.65625,294229.96875,296593.1875,0.235595703125,0.8408203125,-0.196044921875,10.131834983825684,-52.642818450927734,16.326902389526367,100.0,30432.0,1.0
560190.0153222,308328.5625,297350.71875,462790.5625,496236.8125,331656.1875,299427.90625,294288.96875,296541.9375,0.240478515625,0.836669921875,-0.1982421875,10.650633811950684,-53.924556732177734,16.113279342651367,100.0,30433.0,1.0
560190.0202701,309069.84375,297172.09375,463158.9375,496091.1875,328442.28125,298322.3125,293262.78125,296221.78125,0.246337890625,0.837646484375,-0.198974609375,11.718749046325684,-55.145259857177734,15.747069358825684,100.0,30434.0,1.0
560190.0391289,308613.9375,296744.71875,462667.1875,495868.375,326112.5,297908.09375,292571.90625,296050.03125,0.252197265625,0.842529296875,-0.199462890625,13.000487327575684,-56.365962982177734,15.441893577575684,100.0,30435.0,1.0
560190.0391472,307655.3125,296750.8125,462111.25,495968.78125,327953.65625,298814.40625,293241.59375,296299.03125,0.2626953125,0.856201171875,-0.2041015625,14.434813499450684,-57.250972747802734,15.075682640075684,100.0,30436.0,1.0
560190.0414441,307491.25,297150.625,462218.4375,496280.375,331450.1875,299812.09375,294386.96875,296653.96875,0.270263671875,0.876220703125,-0.208251953125,16.143796920776367,-58.013912200927734,14.953612327575684,100.0,30437.0,1.0
560190.0441416,308417.34375,297441.90625,462895.96875,496334.8125,331608.8125,299460.90625,294351.46875,296563.21875,0.279052734375,0.897216796875,-0.21337890625,17.730710983276367,-58.898921966552734,15.045165061950684,100.0,30438.0,1.0
560190.0441645,309046.15625,297209.625,463144.625,496029.59375,328301.28125,298264.03125,293167.0,296146.40625,0.286376953125,0.920654296875,-0.217041015625,19.653318405151367,-59.661861419677734,14.984129905700684,100.0,30439.0,1.0
560190.0466247,308579.71875,296814.1875,462667.53125,495801.40625,326114.125,297879.125,292487.15625,295987.53125,0.29296875,0.94140625,-0.2177734375,21.728513717651367,-60.241695404052734,14.770506858825684,100.0,30440.0,1.0
560190.0490843,307697.53125,296902.25,462223.71875,495981.5625,328244.15625,298881.1875,293305.78125,296337.375,0.299072265625,0.962158203125,-0.21923828125,23.681638717651367,-60.882564544677734,14.617918968200684,100.0,30441.0,1.0
560190.0514412,307569.40625,297343.21875,462392.4375,496290.90625,331959.28125,299910.71875,294534.75,296712.1875,0.304931640625,0.9794921875,-0.214599609375,25.604246139526367,-61.462398529052734,14.495848655700684,100.0,30442.0,1.0
560190.0539848,308460.0,297640.5,463045.09375,496317.1875,332207.09375,299557.90625,294459.65625,296622.15625,0.307861328125,0.990478515625,-0.21240234375,26.977537155151367,-62.072750091552734,14.862059593200684,100.0,30443.0,1.0
560190.0578619,309059.28125,297411.53125,463257.0,496031.28125,328935.96875,298375.34375,293236.125,296193.0,0.31201171875,0.99365234375,-0.21240234375,28.076169967651367,-62.469478607177734,15.045165061950684,100.0,30444.0,1.0
560190.057901,308573.34375,297015.8125,462773.75,495814.09375,326852.0625,297990.875,292557.625,296012.65625,0.3115234375,0.995849609375,-0.2109375,29.266355514526367,-63.018795013427734,14.770506858825684,100.0,30445.0,1.0
560190.0965913,307703.34375,297102.8125,462373.03125,496015.375,329173.53125,299000.5625,293415.3125,296379.84375,0.314208984375,0.999755859375,-0.212158203125,30.059812545776367,-63.598628997802734,14.526366233825684,100.0,30446.0,1.0
560190.0966322,307599.4375,297563.34375,462597.34375,496360.90625,333072.21875,300061.375,294695.6875,296763.40625,0.31884765625,1.00390625,-0.2197265625,30.181882858276367,-64.17845916748047,14.465331077575684,100.0,30447.0,1.0
560190.1016378,308522.84375,297945.09375,463300.375,496422.25,333497.25,299777.21875,294703.5625,296672.125,0.318359375,1.00244140625,-0.223876953125,29.907224655151367,-64.66674041748047,14.587401390075684,100.0,30448.0,1.0
560190.1016746,309149.0625,297810.53125,463549.71875,496156.09375,330396.78125,298669.9375,293573.375,296276.21875,0.322265625,0.996337890625,-0.222412109375,29.174802780151367,-65.24657440185547,15.014647483825684,100.0,30449.0,1.0
560190.1016833,308689.9375,297434.40625,463086.9375,495967.25,328427.4375,298328.65625,292948.59375,296121.125,0.32080078125,0.9921875,-0.220458984375,28.228757858276367,-65.85692596435547,15.289305686950684,100.0,30450.0,1.0
560190.101691,307778.53125,297409.09375,462623.65625,496140.4375,330714.09375,299248.65625,293741.625,296401.65625,0.31494140625,0.989013671875,-0.217529296875,27.557371139526367,-66.10106658935547,15.380858421325684,100.0,30451.0,1.0
560190.1016998,307644.5,297789.0,462796.375,496462.5625,334540.53125,300236.96875,294984.375,296749.5625,0.305908203125,0.984619140625,-0.213134765625,26.733396530151367,-66.19261932373047,15.319823265075684,100.0,30452.0,1.0
560190.1054661,308522.40625,298096.03125,463407.28125,496465.53125,334767.625,299876.5625,294914.375,296630.28125,0.306396484375,0.97021484375,-0.205322265625,25.634763717651367,-66.31468963623047,14.770506858825684,100.0,30453.0,1.0
560190.1055005,309105.15625,297891.5625,463561.4375,496146.0625,331429.96875,298696.9375,293693.96875,296200.78125,0.306640625,0.9560546875,-0.203125,24.749753952026367,-66.16210174560547,14.190672874450684,100.0,30454.0,1.0
560190.1055094,308630.125,297455.15625,463056.46875,495946.4375,329309.0625,298308.1875,293050.4375,296047.875,0.3037109375,0.9462890625,-0.208740234375,23.559568405151367,-65.79589080810547,13.305663108825684,100.0,30455.0,1.0
560190.1055182,307770.75,297419.125,462637.59375,496169.15625,331544.25,299248.03125,293966.40625,296410.78125,0.296630859375,0.933349609375,-0.22265625,22.216794967651367,-65.39916229248047,12.084959983825684,100.0,30456.0,1.0
560190.1076878,307638.59375,297743.03125,462788.6875,496473.5,335214.40625,300192.71875,295250.90625,296770.28125,0.2958984375,0.918701171875,-0.244140625,20.843503952026367,-65.27709197998047,10.314940452575684,100.0,30457.0,1.0
560190.1104526,308508.53125,298037.8125,463358.75,496449.0625,335242.46875,299805.21875,295132.53125,296641.625,0.298095703125,0.913330078125,-0.264892578125,19.622800827026367,-65.06346893310547,8.422850608825684,100.0,30458.0,1.0
560190.1141502,309076.90625,297836.375,463472.375,496104.6875,331719.9375,298621.8125,293828.09375,296192.71875,0.30224609375,0.9169921875,-0.27783203125,18.402097702026367,-64.66674041748047,6.774901866912842,100.0,30459.0,1.0
560190.1465741,308616.8125,297425.46875,462969.375,495922.75,329512.84375,298246.21875,293133.21875,296043.5,0.306884765625,0.917236328125,-0.28173828125,17.120359420776367,-64.11742401123047,5.615233898162842,100.0,30460.0,1.0
560190.1466111,307759.21875,297397.21875,462556.5,496151.625,331732.71875,299181.78125,294018.34375,296406.75,0.3115234375,0.91748046875,-0.2822265625,16.296384811401367,-63.232418060302734,4.791259288787842,100.0,30461.0,1.0
560190.1516625,307621.8125,297736.6875,462708.9375,496455.4375,335397.40625,300124.3125,295261.09375,296761.25,0.321533203125,0.915771484375,-0.280029296875,16.113279342651367,-61.889644622802734,3.784179449081421,100.0,30462.0,1.0
560190.1516834,308465.09375,298050.96875,463249.03125,496417.15625,335380.875,299729.5,295078.28125,296595.875,0.33056640625,0.92041015625,-0.278564453125,16.662595748901367,-60.028072357177734,2.471923589706421,100.0,30463.0,1.0
560190.1539352,309027.90625,297885.65625,463343.625,496074.0,331839.46875,298564.96875,293743.78125,296143.09375,0.3359375,0.927978515625,-0.27978515625,17.761228561401367,-57.678218841552734,1.6479490995407104,100.0,30464.0,1.0
560190.1591043,308548.9375,297495.46875,462833.46875,495882.9375,329661.6875,298193.125,293051.15625,295999.96875,0.33642578125,0.932373046875,-0.28564453125,18.737791061401367,-55.297847747802734,1.0070799589157104,100.0,30465.0,1.0
560190.1606373,307736.34375,297488.6875,462489.09375,496176.65625,332001.21875,299174.34375,294003.0625,296421.78125,0.33349609375,0.93701171875,-0.29248046875,20.019529342651367,-53.039546966552734,0.3051757514476776,100.0,30466.0,1.0
560190.1894451,307624.46875,297794.1875,462675.78125,496520.875,335715.15625,300127.25,295260.375,296816.0625,0.328857421875,0.940673828125,-0.29833984375,21.423337936401367,-50.872798919677734,-0.2746581733226776,100.0,30467.0,1.0
560190.2052959,308480.28125,298083.6875,463205.3125,496488.9375,335616.03125,299731.53125,295051.53125,296675.0625,0.321533203125,0.948974609375,-0.301513671875,22.399900436401367,-48.919673919677734,-0.8239745497703552,100.0,30468.0,1.0
560190.2079193,309027.28125,297843.28125,463233.9375,496124.96875,331848.125,298522.75,293657.3125,296216.875,0.31103515625,0.953125,-0.30126953125,22.949216842651367,-47.424312591552734,-1.3122557401657104,100.0,30469.0,1.0
560190.210274,308527.59375,297253.625,462632.59375,495898.15625,329349.65625,298055.875,292870.8125,296034.125,0.30029296875,0.956298828125,-0.295654296875,23.040769577026367,-46.356197357177734,-1.9836424589157104,100.0,30470.0,1.0
560190.2128848,307690.03125,297025.90625,462198.15625,496139.375,331309.90625,298904.78125,293694.875,296401.5,0.29052734375,0.959716796875,-0.28466796875,22.735593795776367,-45.471187591552734,-2.655029058456421,100.0,30471.0,1.0
560190.2154312,307543.5625,297208.84375,462324.65625,496438.09375,334688.875,299765.96875,294856.0,296750.0,0.27978515625,0.96337890625,-0.281982421875,22.247312545776367,-44.830318450927734,-3.295898199081421,100.0,30472.0,1.0
560190.2206318,308394.71875,297477.15625,462829.0,496383.09375,334314.15625,299350.125,294605.75,296605.4375,0.2734375,0.964111328125,-0.279541015625,21.362302780151367,-44.372554779052734,-3.692626714706421,100.0,30473.0,1.0
560190.2229335,308917.5625,297214.5625,462806.125,495979.5,330248.375,298105.0625,293133.21875,296103.75,0.27001953125,0.959228515625,-0.28173828125,20.416257858276367,-44.219966888427734,-4.150390148162842,100.0,30474.0,1.0
560190.2279079,308427.96875,296641.8125,462201.46875,495776.65625,327515.75,297640.65625,292330.15625,295933.8125,0.264892578125,0.955810546875,-0.28564453125,19.592283248901367,-44.067378997802734,-4.669188976287842,100.0,30475.0,1.0
560190.2304559,307544.46875,296347.75,461707.125,495997.9375,329159.5,298420.375,293105.40625,296269.34375,0.256103515625,0.953369140625,-0.2880859375,18.920896530151367,-44.250484466552734,-5.310058116912842,100.0,30476.0,1.0
560190.2318358,307397.46875,296433.125,461759.4375,496292.875,332041.96875,299201.53125,294208.78125,296622.25,0.248291015625,0.94921875,-0.2900390625,18.524168014526367,-44.311519622802734,-6.042479991912842,100.0,30477.0,1.0
560190.239093,308230.40625,296586.375,462147.28125,496207.59375,330994.03125,298679.84375,293840.53125,296456.65625,0.244140625,0.945556640625,-0.289794921875,18.280027389526367,-44.555660247802734,-6.896972179412842,100.0,30478.0,1.0
560190.2416379,308791.96875,296377.4375,462147.0,495840.9375,326552.28125,297463.8125,292367.625,295999.4375,0.239501953125,0.941162109375,-0.294677734375,18.157957077026367,-44.586177825927734,-7.690429210662842,100.0,30479.0,1.0
560190.244162,308330.4375,295897.0625,461609.3125,495661.84375,323698.4375,297044.9375,291600.15625,295847.34375,0.237548828125,0.940185546875,-0.29638671875,18.402097702026367,-44.586177825927734,-8.544920921325684,100.0,30480.0,1.0
560190.2465952,307483.75,295699.375,461208.40625,495919.96875,325368.1875,297880.1875,292448.4375,296198.53125,0.236328125,0.945556640625,-0.297607421875,18.646238327026367,-44.494625091552734,-9.613036155700684,100.0,30481.0,1.0
560190.2490142,307344.8125,295885.15625,461346.375,496221.96875,328392.5625,298707.21875,293599.21875,296537.84375,0.241943359375,0.953125,-0.2919921875,18.951414108276367,-44.403072357177734,-10.833739280700684,100.0,30482.0,1.0
560190.2542333,308173.8125,296204.78125,461839.1875,496135.34375,327659.5,298275.5625,293305.0625,296359.46875,0.233154296875,0.9619140625,-0.285400390625,19.653318405151367,-44.036861419677734,-13.061522483825684,100.0,30483.0,1.0
560190.2579118,308731.59375,296114.59375,461908.03125,495773.6875,323473.3125,297131.21875,291899.65625,295903.03125,0.242919921875,0.958740234375,-0.274169921875,19.989011764526367,-43.334957122802734,-15.228270530700684,100.0,30484.0,1.0
560190.2579518,308263.75,295667.1875,461401.28125,495612.3125,320741.125,296740.0,291187.90625,295749.1875,0.263671875,0.93359375,-0.2626953125,19.042966842651367,-42.938228607177734,-15.808104515075684,100.0,30485.0,1.0
560190.2579621,307432.0,295485.53125,461039.71875,495903.78125,322500.375,297601.875,292075.96875,296109.9375,0.271728515625,0.91064453125,-0.26513671875,17.578123092651367,-41.961666107177734,-15.930174827575684,100.0,30486.0,1.0
560190.2629781,307371.28125,295783.5,461292.5625,496284.125,325720.46875,298532.5,293341.90625,296523.53125,0.261474609375,0.90185546875,-0.27099609375,16.723630905151367,-40.344234466552734,-16.601560592651367,100.0,30487.0,1.0
560190.2630141,308324.8125,296328.1875,461970.09375,496311.9375,325374.28125,298299.5,293229.78125,296470.6875,0.23876953125,0.904052734375,-0.27001953125,15.624999046325684,-39.123531341552734,-17.761228561401367,100.0,30488.0,1.0
560190.2653311,308924.71875,296407.5625,462148.09375,495988.625,321627.65625,297295.75,291941.0625,296079.28125,0.223876953125,0.89990234375,-0.27392578125,14.251708030700684,-38.299556732177734,-18.981931686401367,100.0,30489.0,1.0
560190.2679144,308473.125,296060.84375,461708.21875,495828.9375,319332.78125,296991.5625,291295.09375,295950.0,0.219970703125,0.89013671875,-0.279296875,13.000487327575684,-37.445064544677734,-20.080564498901367,100.0,30490.0,1.0
560190.2679564,307694.3125,295988.4375,461448.3125,496160.375,321561.5,297954.3125,292299.125,296366.8125,0.2197265625,0.886962890625,-0.27490234375,12.298583030700684,-36.346431732177734,-21.331785202026367,100.0,30491.0,1.0
560190.2703152,307582.90625,296291.875,461695.15625,496484.03125,325129.21875,298877.34375,293564.25,296732.75,0.2158203125,0.893310546875,-0.273681640625,11.901854515075684,-35.308834075927734,-22.857664108276367,100.0,30492.0,1.0
560190.2752741,308413.75,296743.46875,462258.59375,496390.59375,324942.0,298546.375,293344.9375,296577.1875,0.2158203125,0.899658203125,-0.27490234375,11.596678733825684,-34.240718841552734,-24.078367233276367,100.0,30493.0,1.0
560190.2804595,308910.96875,296702.875,462308.46875,495967.4375,321230.0625,297449.4375,291931.78125,296090.53125,0.21923828125,0.90625,-0.27978515625,11.413573265075684,-33.203121185302734,-25.268552780151367,100.0,30494.0,1.0
560190.2805,308444.53125,296301.53125,461826.65625,495798.46875,319008.65625,297131.21875,291264.625,295963.3125,0.21875,0.913330078125,-0.281005859375,11.322020530700684,-32.379146575927734,-26.184080123901367,100.0,30495.0,1.0
560190.2830156,307662.65625,296179.75,461544.59375,496122.5625,321321.53125,298077.96875,292268.75,296386.03125,0.222412109375,0.92041015625,-0.283203125,11.169432640075684,-31.768796920776367,-26.824949264526367,100.0,30496.0,1.0
560190.2854225,307583.71875,296464.15625,461804.5,496471.875,324953.4375,299013.875,293571.75,296788.96875,0.2265625,0.918701171875,-0.285400390625,10.864256858825684,-31.463621139526367,-27.130125045776367,100.0,30497.0,1.0
560190.287758,308439.875,296884.65625,462350.3125,496394.53125,324715.34375,298682.71875,293357.1875,296649.5,0.23046875,0.916748046875,-0.2880859375,10.559081077575684,-31.280515670776367,-27.099607467651367,100.0,30498.0,1.0
560190.2902663,309026.28125,296877.75,462437.21875,496048.96875,320964.09375,297640.59375,292008.65625,296226.96875,0.23193359375,0.91796875,-0.293701171875,10.498045921325684,-31.188962936401367,-27.160642623901367,100.0,30499.0,1.0
560190.2927831,308651.59375,296529.34375,462019.4375,495967.875,318751.8125,297386.65625,291428.3125,296169.21875,0.2333984375,0.917724609375,-0.294677734375,10.253905296325684,-31.311033248901367,-27.160642623901367,100.0,30500.0,1.0
560190.2928232,307940.96875,296456.9375,461801.46875,496358.34375,321111.875,298384.1875,292504.6875,296641.09375,0.23583984375,0.91845703125,-0.294921875,10.040282249450684,-31.463621139526367,-27.130125045776367,100.0,30501.0,1.0
560190.2954755,307886.625,296763.59375,462078.34375,496722.21875,324767.1875,299332.875,293830.25,297056.84375,0.237060546875,0.918701171875,-0.298095703125,9.918211936950684,-31.524656295776367,-26.824949264526367,100.0,30502.0,1.0
560190.2977609,308652.03125,297111.375,462526.71875,496547.34375,324447.125,298915.625,293524.65625,296815.8125,0.23583984375,0.920654296875,-0.303466796875,9.857176780700684,-31.585691452026367,-26.275632858276367,100.0,30503.0,1.0
560190.3004466,309080.21875,296960.71875,462451.1875,496048.53125,320541.09375,297725.96875,292036.5625,296253.6875,0.232177734375,0.925537109375,-0.309814453125,9.918211936950684,-31.585691452026367,-25.634763717651367,100.0,30504.0,1.0
560190.3004874,308520.15625,296438.15625,461845.90625,495779.5,318182.8125,297294.75,291286.15625,296017.21875,0.233642578125,0.929443359375,-0.314453125,10.253905296325684,-31.311033248901367,-25.024412155151367,100.0,30505.0,1.0
560190.3030396,307663.65625,296221.96875,461486.9375,496021.25,320451.53125,298142.4375,292220.28125,296322.625,0.234130859375,0.928955078125,-0.319580078125,10.650633811950684,-30.822751998901367,-24.200437545776367,100.0,30506.0,1.0
560190.3030768,307517.28125,296434.9375,461683.96875,496298.6875,324074.75,298999.65625,293467.25,296626.78125,0.23095703125,0.920166015625,-0.323974609375,11.108397483825684,-30.181882858276367,-23.223875045776367,100.0,30507.0,1.0
560190.3215272,308341.34375,296829.9375,462182.78125,496182.03125,323798.125,298628.53125,293218.0625,296448.34375,0.21826171875,0.91650390625,-0.329345703125,11.962889671325684,-29.205320358276367,-22.827146530151367,100.0,30508.0,1.0
560190.3266486,308886.28125,296798.375,462210.40625,495804.90625,319987.40625,297553.6875,291843.6875,296009.96875,0.199462890625,0.909423828125,-0.333251953125,13.244627952575684,-28.564451217651367,-23.010251998901367,100.0,30509.0,1.0
560190.3266904,308517.9375,296464.875,461805.65625,495753.65625,317847.09375,297333.375,291297.875,295990.5625,0.18359375,0.901611328125,-0.33544921875,14.617918968200684,-28.015134811401367,-23.559568405151367,100.0,30510.0,1.0
560190.3341608,307852.28125,296436.28125,461651.0,496197.5,320350.9375,298379.8125,292417.0625,296514.6875,0.173095703125,0.893798828125,-0.3427734375,15.838622093200684,-27.526853561401367,-24.291990280151367,100.0,30511.0,1.0
560190.3341962,307819.9375,296763.9375,461966.40625,496583.71875,324104.875,299343.78125,293735.375,296937.5,0.161865234375,0.888916015625,-0.3486328125,16.967771530151367,-27.191160202026367,-24.871824264526367,100.0,30512.0,1.0
560190.3342067,308672.5,297198.46875,462500.875,496502.0,323882.4375,299012.1875,293486.28125,296802.46875,0.14501953125,0.888671875,-0.35595703125,17.761228561401367,-27.008054733276367,-25.634763717651367,100.0,30513.0,1.0
560190.3358598,309238.09375,297185.9375,462546.5625,496146.0,320103.1875,297968.25,292078.03125,296397.03125,0.130126953125,0.887939453125,-0.356201171875,18.646238327026367,-27.038572311401367,-26.702878952026367,100.0,30514.0,1.0
560190.3427946,308842.46875,296814.8125,462099.09375,496023.15625,317911.03125,297693.59375,291438.0625,296322.53125,0.11962890625,0.890625,-0.359375,19.317625045776367,-27.374265670776367,-27.648923873901367,100.0,30515.0,1.0
560190.3452382,308138.5625,296752.3125,461907.03125,496389.34375,320394.21875,298678.875,292523.5625,296782.8125,0.111328125,0.892578125,-0.36181640625,19.592283248901367,-27.679441452026367,-28.442380905151367,100.0,30516.0,1.0
560190.3479517,308067.9375,297062.21875,462207.625,496766.65625,324174.875,299622.1875,293868.9375,297179.34375,0.110595703125,0.89599609375,-0.364990234375,19.714353561401367,-28.137205123901367,-29.083250045776367,100.0,30517.0,1.0
560190.351544,308833.25,297398.375,462654.3125,496637.53125,323875.09375,299227.75,293568.09375,296984.0625,0.113525390625,0.898681640625,-0.366455078125,19.592283248901367,-28.656003952026367,-29.724119186401367,100.0,30518.0,1.0
560190.3515858,309319.375,297295.90625,462603.78125,496207.78125,319985.53125,298109.6875,292094.75,296511.375,0.1201171875,0.90625,-0.363525390625,19.348142623901367,-29.052732467651367,-30.242918014526367,100.0,30519.0,1.0
560190.3553409,308959.40625,296957.15625,462187.59375,496144.1875,317832.96875,297875.53125,291526.5,296473.28125,0.126953125,0.915283203125,-0.3642578125,18.951414108276367,-29.541013717651367,-30.548093795776367,100.0,30520.0,1.0
560190.3715867,308340.4375,296978.0,462089.96875,496617.6875,320438.65625,298945.3125,292711.03125,297008.5625,0.1357421875,0.92333984375,-0.3720703125,18.157957077026367,-29.876707077026367,-30.548093795776367,100.0,30521.0,1.0
560190.3716676,308327.75,297334.0,462445.90625,497017.09375,324291.28125,299922.59375,294077.71875,297442.8125,0.14892578125,0.92431640625,-0.37744140625,16.967771530151367,-30.029294967651367,-29.998777389526367,100.0,30522.0,1.0
560190.3766388,309065.53125,297652.75,462860.3125,496844.34375,323957.625,299496.40625,293763.0,297213.75,0.16015625,0.91845703125,-0.381103515625,15.991209983825684,-30.151365280151367,-29.388425827026367,100.0,30523.0,1.0
560190.3766731,309500.59375,297498.0625,462751.0625,496393.28125,320001.1875,298334.125,292284.46875,296706.71875,0.17041015625,0.91552734375,-0.384033203125,15.136717796325684,-29.998777389526367,-28.656003952026367,100.0,30524.0,1.0
560190.3766832,309019.5,297033.25,462208.25,496211.78125,317726.3125,297970.84375,291611.25,296543.1875,0.185302734375,0.9140625,-0.391845703125,14.526366233825684,-29.418943405151367,-27.770994186401367,100.0,30525.0,1.0
560190.3830221,308342.875,297003.8125,462067.1875,496620.8125,320314.625,298977.125,292767.09375,296994.625,0.197265625,0.9150390625,-0.400390625,14.068602561950684,-28.533933639526367,-26.428220748901367,100.0,30526.0,1.0
560190.3854055,308260.34375,297300.84375,462367.40625,496960.3125,324135.0,299889.15625,294149.25,297350.8125,0.208251953125,0.907958984375,-0.404052734375,13.946532249450684,-27.435300827026367,-25.115964889526367,100.0,30527.0,1.0
560190.3891212,308963.96875,297576.9375,462733.34375,496752.6875,323749.84375,299428.375,293981.5,297055.9375,0.218505859375,0.9013671875,-0.407958984375,14.282225608825684,-26.000974655151367,-23.803709030151367,100.0,30528.0,1.0
560190.4215593,309424.0625,297429.9375,462628.90625,496317.46875,319771.9375,298297.71875,292554.75,296571.8125,0.2255859375,0.890869140625,-0.411865234375,14.953612327575684,-24.017332077026367,-22.125242233276367,100.0,30529.0,1.0
560190.4215975,308958.25,296981.5625,462107.125,496160.75,317510.84375,297957.71875,291885.90625,296437.34375,0.220703125,0.88134765625,-0.422607421875,15.869139671325684,-22.033689498901367,-20.935056686401367,100.0,30530.0,1.0
560190.4268015,308244.6875,296921.75,461947.71875,496536.15625,320090.125,298922.0625,292958.59375,296845.3125,0.216064453125,0.8779296875,-0.427490234375,17.547605514526367,-20.111082077026367,-19.805906295776367,100.0,30531.0,1.0
560190.4268396,308211.53125,297274.09375,462312.5,496915.0625,323982.375,299869.9375,294314.65625,297266.6875,0.21044921875,0.875244140625,-0.430419921875,19.226072311401367,-18.127439498901367,-19.226072311401367,100.0,30532.0,1.0
560190.4315855,308878.0625,297511.84375,462643.5,496671.625,323565.46875,299374.625,293932.34375,296996.5,0.205322265625,0.87451171875,-0.43115234375,20.904539108276367,-16.082761764526367,-18.676755905151367,100.0,30533.0,1.0
560190.4316218,309248.125,297253.625,462439.375,496154.3125,319470.625,298148.5,292364.59375,296436.1875,0.19775390625,0.881103515625,-0.427490234375,22.308347702026367,-14.343260765075684,-18.432615280151367,100.0,30534.0,1.0
560190.4366801,308832.1875,296834.5625,461964.1875,496040.9375,317226.875,297844.78125,291739.71875,296328.0,0.189208984375,0.891845703125,-0.42578125,23.468015670776367,-12.603758811950684,-18.371580123901367,100.0,30535.0,1.0
560190.4380831,308168.6875,296829.75,461868.15625,496449.875,319858.21875,298848.8125,292868.75,296771.375,0.178466796875,0.90478515625,-0.4228515625,24.200437545776367,-11.016844749450684,-18.554685592651367,100.0,30536.0,1.0
560190.4452396,308068.65625,297121.125,462175.28125,496746.09375,323692.0625,299721.8125,294143.96875,297098.5,0.168701171875,0.915283203125,-0.421630859375,24.475095748901367,-9.582518577575684,-18.676755905151367,100.0,30537.0,1.0
560190.4503096,308753.25,297360.75,462516.1875,496532.03125,323246.125,299240.59375,293756.5625,296861.9375,0.155517578125,0.921875,-0.422119140625,24.261472702026367,-8.300780296325684,-18.890378952026367,100.0,30538.0,1.0
560190.4529064,309140.375,297097.4375,462307.6875,496049.4375,319089.9375,298016.53125,292210.71875,296325.21875,0.139892578125,0.9267578125,-0.421875,23.712156295776367,-7.141112804412842,-19.134519577026367,100.0,30539.0,1.0
560190.4578928,308715.6875,296673.65625,461819.53125,495934.1875,316789.78125,297679.125,291572.34375,296190.3125,0.125,0.93017578125,-0.42236328125,23.132322311401367,-6.072997570037842,-19.744871139526367,100.0,30540.0,1.0
560190.4579348,308108.96875,296750.8125,461795.375,496388.625,319488.25,298725.8125,292779.0625,296658.53125,0.111328125,0.933837890625,-0.427001953125,22.399900436401367,-5.279540538787842,-20.568845748901367,100.0,30541.0,1.0
560190.4604957,308101.03125,297157.59375,462211.21875,496771.75,323447.5625,299697.9375,294189.90625,297059.78125,0.101806640625,0.936767578125,-0.427978515625,21.575925827026367,-4.455565929412842,-21.423337936401367,100.0,30542.0,1.0
560190.4629523,308768.96875,297375.65625,462527.0,496557.25,322972.71875,299210.375,293797.5,296795.6875,0.09375,0.940673828125,-0.427490234375,20.782468795776367,-3.631591558456421,-22.247312545776367,100.0,30543.0,1.0
560190.4651914,309117.3125,297055.40625,462266.0,496053.0,318737.15625,297965.3125,292168.53125,296244.03125,0.083984375,0.9443359375,-0.428955078125,19.836423873901367,-2.960204839706421,-22.827146530151367,100.0,30544.0,1.0
560190.4703657,308686.8125,296622.15625,461765.4375,495924.53125,316414.34375,297640.21875,291456.84375,296143.28125,0.078125,0.947509765625,-0.42626953125,19.104001998901367,-2.410888433456421,-23.468015670776367,100.0,30545.0,1.0
560190.472888,308066.78125,296709.59375,461747.1875,496362.34375,319145.71875,298683.0625,292544.65625,296629.65625,0.0703125,0.94677734375,-0.420654296875,18.371580123901367,-1.8005369901657104,-24.108884811401367,100.0,30546.0,1.0
560190.4753439,308051.40625,297131.9375,462172.125,496740.71875,323143.75,299643.125,293921.0625,297010.53125,0.064208984375,0.947265625,-0.422607421875,17.669675827026367,-1.1596678495407104,-24.719236373901367,100.0,30547.0,1.0
560190.4753845,308748.0625,297372.0,462512.96875,496565.84375,322698.21875,299188.40625,293662.59375,296771.625,0.056640625,0.94287109375,-0.42529296875,17.181394577026367,-0.9460448622703552,-25.268552780151367,100.0,30548.0,1.0
560190.4777731,309074.65625,297007.03125,462216.03125,496039.15625,318411.6875,297923.65625,292096.1875,296210.96875,0.048583984375,0.944091796875,-0.42822265625,16.693113327026367,-0.8544921278953552,-25.756834030151367,100.0,30549.0,1.0
560190.4829094,308653.375,296580.9375,461726.71875,495908.875,316098.21875,297600.78125,291504.84375,296068.375,0.039306640625,0.944091796875,-0.4287109375,16.113279342651367,-0.9460448622703552,-26.306150436401367,100.0,30550.0,1.0
560190.4829492,308060.53125,296721.03125,461757.125,496352.4375,318909.875,298663.03125,292703.34375,296543.8125,0.030029296875,0.94140625,-0.432373046875,15.563963890075684,-1.3122557401657104,-26.641843795776367,100.0,30551.0,1.0
560190.487864,308035.03125,297152.5,462193.6875,496717.75,322957.96875,299622.75,294049.90625,296956.0,0.02392578125,0.937744140625,-0.433349609375,15.228270530700684,-1.7395018339157104,-26.947019577026367,100.0,30552.0,1.0
560190.4916172,308686.46875,297339.46875,462487.21875,496510.40625,322485.1875,299134.125,293645.625,296744.8125,0.0166015625,0.93603515625,-0.431884765625,14.801024436950684,-2.258300542831421,-27.374265670776367,100.0,30553.0,1.0
560190.524118,309017.53125,296958.0625,462172.59375,496003.84375,318175.40625,297871.96875,292036.1875,296227.0625,0.009033203125,0.93505859375,-0.433837890625,14.404295921325684,-2.929687261581421,-27.587888717651367,100.0,30554.0,1.0
560190.5265129,308644.25,296587.1875,461730.75,495916.125,315911.875,297607.3125,291410.0625,296185.21875,0.00341796875,0.936279296875,-0.435791015625,14.068602561950684,-3.601073980331421,-27.770994186401367,100.0,30555.0,1.0
560190.52655,308112.03125,296821.875,461839.90625,496394.8125,318837.90625,298740.03125,292603.5625,296713.0,0.0009765625,0.93603515625,-0.44091796875,13.854979515075684,-4.241942882537842,-27.862546920776367,100.0,30556.0,1.0
560190.5282218,308120.78125,297313.0,462324.03125,496780.40625,322986.84375,299745.40625,293996.25,297135.25,-0.000732421875,0.927734375,-0.4423828125,13.610838890075684,-5.126952648162842,-27.740476608276367,100.0,30557.0,1.0
560190.5568334,308786.15625,297504.9375,462621.21875,496594.8125,322547.21875,299283.96875,293675.21875,296920.21875,-0.0029296875,0.925537109375,-0.4462890625,13.336180686950684,-5.950927257537842,-27.801511764526367,100.0,30558.0,1.0
560190.5802422,309102.8125,297090.09375,462278.25,496093.5,318207.3125,298022.875,292120.5,296363.125,-0.008056640625,0.917724609375,-0.44677734375,13.275145530700684,-6.774901866912842,-27.648923873901367,100.0,30559.0,1.0
560190.5828993,308687.53125,296663.71875,461788.3125,495977.71875,315898.1875,297706.84375,291484.90625,296225.09375,-0.010986328125,0.911376953125,-0.448486328125,13.488768577575684,-7.751464366912842,-27.618406295776367,100.0,30560.0,1.0
560190.5829404,308107.53125,296856.5625,461861.09375,496411.96875,318810.09375,298785.0,292684.5,296676.15625,-0.008056640625,0.907470703125,-0.452392578125,13.854979515075684,-8.483885765075684,-27.496335983276367,100.0,30561.0,1.0
560190.5853532,308114.625,297360.375,462357.65625,496796.78125,323001.59375,299793.3125,294106.78125,297093.78125,-0.005859375,0.904052734375,-0.45263671875,14.282225608825684,-9.063719749450684,-27.343748092651367,100.0,30562.0,1.0
560190.5880648,308723.125,297489.125,462590.125,496572.28125,322503.84375,299278.6875,293716.78125,296858.71875,-0.005126953125,0.901123046875,-0.4541015625,14.739989280700684,-9.704588890075684,-27.130125045776367,100.0,30563.0,1.0
560190.5903026,309034.59375,297040.40625,462216.9375,496070.4375,318118.34375,297997.0625,292131.78125,296335.15625,-0.002197265625,0.90283203125,-0.458251953125,15.319823265075684,-10.253905296325684,-26.977537155151367,100.0,30564.0,1.0
560190.593519,308638.0,296626.71875,461738.96875,495958.6875,315809.96875,297691.53125,291514.9375,296227.15625,-0.000244140625,0.902587890625,-0.460205078125,15.777586936950684,-10.742186546325684,-26.916501998901367,100.0,30565.0,1.0
560190.5935598,308098.15625,296873.28125,461867.4375,496418.15625,318791.5,298800.46875,292752.25,296691.78125,-0.001220703125,0.902587890625,-0.46435546875,16.235349655151367,-11.108397483825684,-26.855466842651367,100.0,30566.0,1.0
560190.5935696,308113.28125,297386.5,462382.875,496806.625,323011.6875,299799.59375,294207.71875,297073.75,0.000732421875,0.900146484375,-0.46484375,16.479490280151367,-11.413573265075684,-26.855466842651367,100.0,30567.0,1.0
560190.6281059,308713.0,297491.1875,462603.0,496577.65625,322487.9375,299274.3125,293855.8125,296815.09375,0.00390625,0.8994140625,-0.465087890625,16.632078170776367,-11.505125999450684,-26.794431686401367,100.0,30568.0,1.0
560190.6281427,308995.34375,296994.625,462189.46875,496057.46875,318026.53125,297969.5,292253.1875,296263.625,0.0087890625,0.8994140625,-0.46337890625,16.571043014526367,-11.474608421325684,-26.580808639526367,100.0,30569.0,1.0
560190.6281526,308608.59375,296583.875,461719.90625,495952.875,315703.375,297669.625,291618.84375,296167.96875,0.017333984375,0.896728515625,-0.467041015625,16.113279342651367,-11.352538108825684,-25.970457077026367,100.0,30570.0,1.0
560190.6391433,308079.5625,296855.5,461869.0625,496408.84375,318706.375,298788.9375,292821.1875,296652.625,0.024658203125,0.890869140625,-0.466064453125,15.472411155700684,-10.986327171325684,-24.780271530151367,100.0,30571.0,1.0
560190.6391786,308114.875,297410.8125,462417.1875,496814.65625,322988.96875,299834.375,294258.3125,297082.6875,0.030029296875,0.88818359375,-0.46826171875,14.770506858825684,-10.131834983825684,-23.284910202026367,100.0,30572.0,1.0
560190.6391882,308705.15625,297489.3125,462613.09375,496573.625,322455.75,299318.125,293877.96875,296820.8125,0.021240234375,0.892578125,-0.4677734375,14.038084983825684,-9.216307640075684,-21.850584030151367,100.0,30573.0,1.0
560190.6415762,308962.28125,296948.75,462153.53125,496002.9375,317959.9375,298008.65625,292264.09375,296258.53125,0.01025390625,0.894775390625,-0.472412109375,13.519286155700684,-8.453368186950684,-20.721433639526367,100.0,30574.0,1.0
560190.641607,308577.125,296546.15625,461681.75,495851.46875,315653.84375,297723.5625,291633.59375,296168.9375,0.0029296875,0.890380859375,-0.477294921875,13.153075218200684,-7.720946788787842,-20.080564498901367,100.0,30575.0,1.0
560190.643122,308089.5625,296880.625,461887.46875,496318.0,318740.53125,298882.90625,292863.125,296682.84375,-0.00390625,0.87890625,-0.478515625,12.939452171325684,-6.958007335662842,-19.744871139526367,100.0,30576.0,1.0
560190.6502753,308077.78125,297394.96875,462395.65625,496690.75,322990.59375,299857.6875,294210.3125,297054.6875,-0.013671875,0.869873046875,-0.476806640625,12.939452171325684,-6.286620616912842,-19.744871139526367,100.0,30577.0,1.0
560190.6529315,308658.75,297460.0625,462577.96875,496496.28125,322430.0,299316.78125,293783.21875,296800.5,-0.01904296875,0.868896484375,-0.47265625,12.969969749450684,-5.859374523162842,-19.714353561401367,100.0,30578.0,1.0
560190.6551974,308943.21875,296932.5625,462130.46875,496006.25,317919.0625,298018.15625,292164.03125,296270.0625,-0.0205078125,0.871826171875,-0.47412109375,12.908934593200684,-5.401610851287842,-19.805906295776367,100.0,30579.0,1.0
560190.6579055,308585.875,296543.75,461678.25,495931.59375,315605.5,297737.15625,291557.875,296202.5625,-0.02783203125,0.873779296875,-0.470458984375,12.512206077575684,-4.882812023162842,-19.775388717651367,100.0,30580.0,1.0
560190.6579464,308093.59375,296877.03125,461885.15625,496407.78125,318679.125,298873.5,292787.125,296714.40625,-0.0322265625,0.87255859375,-0.469482421875,11.993407249450684,-4.730224132537842,-19.836423873901367,100.0,30581.0,1.0
560190.6604983,308107.28125,297427.78125,462423.46875,496775.59375,322961.53125,299866.28125,294164.34375,297134.28125,-0.03759765625,0.87548828125,-0.467529296875,11.322020530700684,-4.791259288787842,-19.989011764526367,100.0,30582.0,1.0
560190.6629633,308662.75,297461.84375,462569.09375,496521.5,322352.125,299297.125,293704.34375,296885.1875,-0.037841796875,0.88037109375,-0.46435546875,10.650633811950684,-4.821776866912842,-20.141599655151367,100.0,30583.0,1.0
560190.6653118,308902.375,296879.5625,462063.5,495979.34375,317756.34375,297952.875,292061.59375,296307.53125,-0.038818359375,0.888427734375,-0.46630859375,9.948729515075684,-4.760741710662842,-20.355222702026367,100.0,30584.0,1.0
560190.6678774,308517.84375,296471.40625,461583.40625,495867.21875,315397.0625,297646.40625,291458.4375,296189.3125,-0.043212890625,0.892822265625,-0.46533203125,9.246825218200684,-5.035399913787842,-20.477293014526367,100.0,30585.0,1.0
560190.6703961,308053.46875,296849.875,461825.6875,496356.8125,318502.28125,298808.59375,292720.34375,296672.3125,-0.042236328125,0.8994140625,-0.464111328125,8.422850608825684,-5.310058116912842,-20.477293014526367,100.0,30586.0,1.0
560190.672918,308099.78125,297445.21875,462404.96875,496756.5625,322822.5,299835.15625,294130.8125,297082.15625,-0.042724609375,0.904052734375,-0.4638671875,7.446288585662842,-5.645751476287842,-20.202634811401367,100.0,30587.0,1.0
560190.6753125,308640.78125,297459.8125,462530.9375,496492.4375,322189.3125,299258.59375,293669.84375,296826.09375,-0.0439453125,0.904052734375,-0.46240234375,6.469726085662842,-6.072997570037842,-19.927976608276367,100.0,30588.0,1.0
560190.6777501,308862.3125,296849.59375,462005.9375,495934.0,317574.84375,297916.40625,292004.625,296275.78125,-0.045166015625,0.905029296875,-0.46435546875,5.737304210662842,-6.408690929412842,-19.531248092651367,100.0,30589.0,1.0
560190.6802401,308499.25,296444.75,461537.96875,495839.78125,315229.4375,297632.625,291376.625,296180.84375,-0.048583984375,0.902099609375,-0.463623046875,5.035399913787842,-6.988524913787842,-19.073484420776367,100.0,30590.0,1.0
560190.6827952,308047.1875,296826.625,461792.78125,496336.25,318365.9375,298800.1875,292628.4375,296665.5,-0.055419921875,0.8994140625,-0.460205078125,4.486083507537842,-7.598876476287842,-18.890378952026367,100.0,30591.0,1.0
560190.6852019,308093.40625,297416.96875,462376.25,496741.09375,322701.0,299823.53125,294055.625,297053.0,-0.059814453125,0.893798828125,-0.462890625,3.997802495956421,-8.361815452575684,-18.798826217651367,100.0,30592.0,1.0
560190.6877555,308638.96875,297444.78125,462515.09375,496481.4375,322092.21875,299268.3125,293663.03125,296778.53125,-0.064453125,0.886474609375,-0.462890625,3.631591558456421,-9.124754905700684,-18.737791061401367,100.0,30593.0,1.0
560190.6905001,308879.125,296846.65625,462001.09375,495951.15625,317473.71875,297943.84375,292059.71875,296228.40625,-0.068115234375,0.880615234375,-0.46826171875,3.295898199081421,-9.796141624450684,-18.707273483276367,100.0,30594.0,1.0
560190.6928437,308511.65625,296443.0625,461535.1875,495861.75,315113.375,297652.75,291434.9375,296136.5625,-0.071044921875,0.877197265625,-0.465087890625,2.838134527206421,-10.406493186950684,-18.524168014526367,100.0,30595.0,1.0
560190.6928778,308045.3125,296826.53125,461787.78125,496346.71875,318231.1875,298807.625,292641.65625,296642.875,-0.076171875,0.877197265625,-0.466552734375,2.227782964706421,-10.986327171325684,-18.341062545776367,100.0,30596.0,1.0
560190.6953303,308095.46875,297424.5,462374.90625,496739.28125,322561.96875,299831.9375,294019.40625,297063.71875,-0.0810546875,0.87646484375,-0.4638671875,1.6784666776657104,-11.474608421325684,-18.035886764526367,100.0,30597.0,1.0
560190.6953804,308664.375,297455.15625,462520.8125,496511.03125,321934.25,299278.875,293593.84375,296810.71875,-0.078857421875,0.8740234375,-0.463623046875,1.0070799589157104,-11.688231468200684,-17.578123092651367,100.0,30598.0,1.0
560190.6992466,308883.59375,296849.0625,461993.0625,495977.71875,317308.59375,297944.84375,291984.4375,296242.4375,-0.0791015625,0.873046875,-0.463134765625,0.0610351525247097,-11.871336936950684,-17.242429733276367,100.0,30599.0,1.0
560190.6992833,308491.28125,296442.96875,461514.90625,495869.53125,314964.34375,297651.40625,291392.46875,296145.0625,-0.080810546875,0.874755859375,-0.464111328125,-0.6103515028953552,-12.145995140075684,-16.815183639526367,100.0,30600.0,1.0
560190.6992931,308053.46875,296852.375,461796.71875,496377.0,318115.6875,298825.3125,292648.375,296662.46875,-0.081787109375,0.876708984375,-0.462158203125,-1.6479490995407104,-12.420653343200684,-16.052244186401367,100.0,30601.0,1.0
560190.7017122,308099.78125,297456.5,462395.3125,496773.0,322458.875,299849.375,294045.53125,297077.5,-0.082275390625,0.8779296875,-0.464599609375,-2.380370855331421,-12.786864280700684,-15.502928733825684,100.0,30602.0,1.0
560190.7017442,308644.625,297466.0625,462524.3125,496527.84375,321822.3125,299278.0625,293606.0,296814.625,-0.082763671875,0.877197265625,-0.465087890625,-3.082275152206421,-13.122557640075684,-14.984129905700684,100.0,30603.0,1.0
560190.7040862,308905.6875,296884.90625,462021.40625,496026.28125,317233.21875,297971.9375,292012.21875,296288.84375,-0.078369140625,0.875244140625,-0.46240234375,-3.814697027206421,-13.427733421325684,-14.221190452575684,100.0,30604.0,1.0
560190.706561,308558.4375,296493.3125,461561.21875,495952.40625,314905.25,297689.125,291411.59375,296202.125,-0.074462890625,0.875732421875,-0.462158203125,-4.302978038787842,-13.885497093200684,-13.427733421325684,100.0,30605.0,1.0
560190.7065993,308092.34375,296886.0,461824.15625,496438.78125,318066.21875,298852.03125,292659.625,296685.625,-0.073974609375,0.8740234375,-0.46435546875,-4.547118663787842,-14.221190452575684,-12.603758811950684,100.0,30606.0,1.0
560190.7091586,308138.40625,297490.65625,462427.125,496836.46875,322448.875,299884.96875,294088.0,297093.21875,-0.0732421875,0.873046875,-0.466552734375,-4.760741710662842,-14.465331077575684,-11.688231468200684,100.0,30607.0,1.0
560190.7114944,308634.34375,297478.125,462523.875,496541.6875,321826.78125,299300.4375,293663.75,296808.03125,-0.0732421875,0.8720703125,-0.46728515625,-4.760741710662842,-14.739989280700684,-10.803221702575684,100.0,30608.0,1.0
560190.7153383,308875.46875,296877.9375,461996.0,496000.0,317237.53125,297975.0625,292073.75,296251.28125,-0.074462890625,0.87060546875,-0.465576171875,-4.638671398162842,-15.075682640075684,-9.948729515075684,100.0,30609.0,1.0
560190.7153773,308532.9375,296500.28125,461541.0,495928.09375,314930.5625,297691.28125,291491.53125,296162.9375,-0.075439453125,0.870361328125,-0.46923828125,-4.516601085662842,-15.319823265075684,-9.063719749450684,100.0,30610.0,1.0
560190.7457534,308077.3125,296927.21875,461829.34375,496432.71875,318135.4375,298872.4375,292772.1875,296675.6875,-0.073974609375,0.865234375,-0.466552734375,-4.302978038787842,-15.441893577575684,-8.270262718200684,100.0,30611.0,1.0
560190.7529317,308083.40625,297484.21875,462412.09375,496807.40625,322539.09375,299890.34375,294198.0625,297078.21875,-0.0732421875,0.8603515625,-0.463623046875,-4.028319835662842,-15.411375999450684,-7.446288585662842,100.0,30612.0,1.0
560190.7529715,308640.0625,297494.21875,462544.6875,496564.0625,321923.4375,299315.96875,293770.59375,296805.96875,-0.07275390625,0.854736328125,-0.45947265625,-3.814697027206421,-15.319823265075684,-6.683349132537842,100.0,30613.0,1.0
560190.7554793,308882.875,296929.78125,462033.75,496031.28125,317362.6875,298010.28125,292188.375,296259.59375,-0.0712890625,0.852783203125,-0.461669921875,-3.631591558456421,-15.167235374450684,-5.889892101287842,100.0,30614.0,1.0
560190.7579314,308455.53125,296483.46875,461531.28125,495897.4375,315076.375,297707.375,291587.09375,296135.5,-0.070556640625,0.85205078125,-0.457275390625,-3.631591558456421,-15.106200218200684,-5.249022960662842,100.0,30615.0,1.0
560190.7603024,308029.125,296875.34375,461824.53125,496402.5,318290.8125,298878.25,292851.59375,296645.3125,-0.07080078125,0.85009765625,-0.45654296875,-3.784179449081421,-14.862059593200684,-4.577636241912842,100.0,30616.0,1.0
560190.7627354,308103.78125,297516.40625,462452.15625,496798.3125,322673.1875,299905.8125,294262.25,297068.1875,-0.072021484375,0.8466796875,-0.45751953125,-4.058837413787842,-14.526366233825684,-3.936767339706421,100.0,30617.0,1.0
560190.7653806,308682.625,297536.875,462611.21875,496585.96875,322106.96875,299368.1875,293863.21875,296838.875,-0.073974609375,0.841796875,-0.4541015625,-4.394530773162842,-14.190672874450684,-3.356933355331421,100.0,30618.0,1.0
560190.7654221,308897.0,296936.0625,462072.1875,496053.90625,317518.78125,298032.71875,292238.875,296274.34375,-0.072265625,0.83984375,-0.454833984375,-4.638671398162842,-13.854979515075684,-2.777099370956421,100.0,30619.0,1.0
560190.7678177,308497.375,296544.0,461594.75,495942.40625,315238.5625,297742.3125,291643.15625,296168.75,-0.0732421875,0.83935546875,-0.45849609375,-4.730224132537842,-13.458250999450684,-2.349853277206421,100.0,30620.0,1.0
560190.7703184,308088.15625,296977.28125,461900.53125,496443.71875,318456.75,298926.96875,292920.34375,296693.125,-0.07470703125,0.837158203125,-0.4609375,-4.913329601287842,-12.969969749450684,-1.7395018339157104,100.0,30621.0,1.0
560190.7728265,308209.125,297600.625,462538.71875,496908.0,322825.1875,299965.0,294334.84375,297131.59375,-0.07373046875,0.836669921875,-0.46630859375,-4.974364757537842,-12.542723655700684,-1.1596678495407104,100.0,30622.0,1.0
560190.7777941,308650.15625,297551.0,462614.0625,496640.5,322172.15625,299351.75,293852.40625,296827.5,-0.073974609375,0.83544921875,-0.466064453125,-4.943847179412842,-12.115477561950684,-0.7019042372703552,100.0,30623.0,1.0
560190.7778338,308844.15625,296959.5625,462065.125,496041.8125,317593.71875,298022.4375,292226.375,296270.40625,-0.07373046875,0.83544921875,-0.466796875,-4.730224132537842,-11.749266624450684,-0.2136230319738388,100.0,30624.0,1.0
560190.7828983,308515.78125,296591.65625,461615.21875,495919.25,315339.3125,297763.78125,291648.875,296184.9375,-0.0712890625,0.839599609375,-0.4697265625,-4.455565929412842,-11.322020530700684,0.3967284858226776,100.0,30625.0,1.0
560190.7854409,308097.0,296983.09375,461901.6875,496498.34375,318505.9375,298915.78125,292890.46875,296681.875,-0.0703125,0.844970703125,-0.472412109375,-4.119872570037842,-11.077879905700684,1.0681151151657104,100.0,30626.0,1.0
560190.7854776,308049.0625,297477.5,462434.46875,496859.53125,322817.21875,299880.40625,294256.53125,297062.375,-0.0703125,0.850341796875,-0.472412109375,-3.753661870956421,-10.772704124450684,1.6174315214157104,100.0,30627.0,1.0
560190.7879225,308566.125,297447.28125,462534.6875,496515.3125,322171.0,299293.90625,293801.4375,296790.9375,-0.06884765625,0.8583984375,-0.47607421875,-3.417968511581421,-10.681151390075684,2.136230230331421,100.0,30628.0,1.0
560190.8239896,308794.1875,296900.03125,462004.0625,495908.15625,317599.4375,297977.75,292176.46875,296218.65625,-0.067138671875,0.860595703125,-0.475830078125,-3.204345464706421,-10.650633811950684,2.563476324081421,100.0,30629.0,1.0
560190.8266844,308403.40625,296510.3125,461522.96875,495818.75,315320.90625,297691.8125,291576.46875,296108.875,-0.05908203125,0.866943359375,-0.480224609375,-3.021239995956421,-10.620116233825684,3.082275152206421,100.0,30630.0,1.0
560190.8267245,307928.71875,296829.9375,461772.5,496337.75,318510.6875,298842.3125,292844.6875,296627.25,-0.0517578125,0.874755859375,-0.481201171875,-3.051757574081421,-10.437010765075684,3.662109136581421,100.0,30631.0,1.0
560190.8291679,307987.75,297379.15625,462346.125,496722.3125,322769.03125,299818.53125,294203.40625,297017.0625,-0.04443359375,0.881591796875,-0.482666015625,-3.326415777206421,-10.223387718200684,4.394530773162842,100.0,30632.0,1.0
560190.8316606,308558.15625,297453.0,462499.1875,496494.0625,322112.4375,299264.75,293752.8125,296756.15625,-0.03515625,0.885498046875,-0.48291015625,-3.662109136581421,-9.887694358825684,5.065917491912842,100.0,30633.0,1.0
560190.8366526,308763.78125,296870.875,461977.59375,495933.46875,317598.90625,297968.25,292163.25,296215.25,-0.02978515625,0.89208984375,-0.481689453125,-3.997802495956421,-9.216307640075684,5.767821788787842,100.0,30634.0,1.0
560190.8390241,308389.625,296466.5,461499.0,495814.09375,315337.8125,297687.15625,291567.0625,296117.90625,-0.02099609375,0.89697265625,-0.484619140625,-4.425048351287842,-8.392333030700684,6.439208507537842,100.0,30635.0,1.0
560190.8441111,307937.6875,296809.0,461748.625,496318.90625,318472.9375,298825.3125,292801.6875,296626.25,-0.015625,0.9052734375,-0.48876953125,-4.974364757537842,-7.385253429412842,7.232665538787842,100.0,30636.0,1.0
560190.8541332,307926.5,297303.15625,462280.0625,496664.90625,322695.8125,299771.25,294137.875,297018.75,-0.008056640625,0.91162109375,-0.49267578125,-5.584716320037842,-6.164550304412842,8.148192405700684,100.0,30637.0,1.0
560190.8564407,308522.9375,297390.78125,462469.15625,496453.375,322098.3125,299267.875,293733.21875,296787.625,-0.006591796875,0.921875,-0.49658203125,-6.103515148162842,-4.852294445037842,9.124754905700684,100.0,30638.0,1.0
560190.8591509,308786.0625,296892.5,461998.15625,495958.6875,317599.34375,298003.84375,292145.625,296245.28125,-0.00146484375,0.927978515625,-0.496337890625,-6.866454601287842,-3.417968511581421,10.192870140075684,100.0,30639.0,1.0
560190.8615451,308350.28125,296462.03125,461495.6875,495826.90625,315353.0,297707.625,291565.375,296145.6875,0.006591796875,0.93505859375,-0.492919921875,-7.629394054412842,-1.9531248807907104,11.352538108825684,100.0,30640.0,1.0
560190.8615847,307863.09375,296712.625,461689.96875,496274.28125,318446.84375,298796.96875,292800.90625,296628.125,0.0146484375,0.939208984375,-0.48876953125,-8.453368186950684,-0.3662109076976776,12.603758811950684,100.0,30641.0,1.0
560190.8640654,307912.71875,297197.5625,462237.75,496682.875,322649.5,299746.46875,294149.96875,296981.28125,0.021484375,0.939208984375,-0.486572265625,-9.124754905700684,1.2512205839157104,13.854979515075684,100.0,30642.0,1.0
560190.8666106,308476.71875,297280.53125,462402.09375,496470.09375,321979.03125,299190.1875,293709.28125,296697.78125,0.027587890625,0.938720703125,-0.4853515625,-9.552000999450684,2.960204839706421,15.228270530700684,100.0,30643.0,1.0
560190.8691348,308690.65625,296779.40625,461910.25,495880.71875,317485.1875,297908.53125,292144.5625,296135.78125,0.02978515625,0.93505859375,-0.482666015625,-9.704588890075684,4.608153820037842,16.662595748901367,100.0,30644.0,1.0
560190.8716073,308314.96875,296405.78125,461444.0,495771.0,315258.21875,297632.71875,291611.5,296022.40625,0.02880859375,0.92724609375,-0.479736328125,-9.796141624450684,6.103515148162842,17.822263717651367,100.0,30645.0,1.0
560190.8766465,307848.8125,296702.53125,461681.90625,496299.3125,318399.09375,298758.4375,292943.0625,296526.84375,0.031005859375,0.919921875,-0.478271484375,-9.399413108825684,7.202147960662842,18.768308639526367,100.0,30646.0,1.0
560190.8790963,307882.40625,297199.90625,462237.59375,496674.21875,322597.75,299716.625,294384.1875,296911.125,0.029052734375,0.9150390625,-0.476806640625,-8.789061546325684,8.270262718200684,19.470212936401367,100.0,30647.0,1.0
560190.8852324,308449.09375,297297.875,462411.40625,496413.65625,321923.78125,299167.28125,293990.71875,296616.96875,0.02587890625,0.911376953125,-0.4775390625,-7.934569835662842,9.033202171325684,19.775388717651367,100.0,30648.0,1.0
560190.8852711,308715.6875,296793.71875,461964.8125,495901.1875,317499.46875,297914.625,292458.375,296082.65625,0.023681640625,0.912353515625,-0.473388671875,-6.988524913787842,9.765624046325684,19.714353561401367,100.0,30649.0,1.0
560190.8877992,308369.25,296426.71875,461525.0,495856.5,315307.125,297644.34375,291883.65625,296007.75,0.019775390625,0.91748046875,-0.470947265625,-5.920409679412842,10.192870140075684,19.805906295776367,100.0,30650.0,1.0
560190.8902339,307808.75,296629.21875,461675.40625,496276.0,318368.4375,298710.78125,293068.75,296490.4375,0.0205078125,0.923828125,-0.462646484375,-5.218505382537842,10.589598655700684,19.836423873901367,100.0,30651.0,1.0
560190.8929178,307817.40625,297098.59375,462197.8125,496626.8125,322514.78125,299645.1875,294383.65625,296884.65625,0.017333984375,0.928955078125,-0.456787109375,-4.821776866912842,10.986327171325684,19.775388717651367,100.0,30652.0,1.0
560190.8929592,308466.25,297227.15625,462410.5,496401.34375,321857.8125,299102.84375,293916.34375,296630.28125,0.018798828125,0.931396484375,-0.453369140625,-4.608153820037842,11.260985374450684,19.836423873901367,100.0,30653.0,1.0
560190.8943596,308734.75,296799.875,461988.75,495897.71875,317452.625,297866.59375,292335.34375,296096.96875,0.02001953125,0.93212890625,-0.450439453125,-4.516601085662842,11.718749046325684,19.989011764526367,100.0,30654.0,1.0
560190.922942,308315.59375,296384.40625,461518.40625,495811.6875,315297.65625,297613.59375,291778.625,296020.53125,0.0205078125,0.932861328125,-0.445556640625,-4.699706554412842,12.115477561950684,19.775388717651367,100.0,30655.0,1.0
560190.9401677,307790.59375,296602.9375,461673.5,496277.5,318327.84375,298684.84375,292969.78125,296495.375,0.021728515625,0.934326171875,-0.4462890625,-4.852294445037842,12.542723655700684,19.653318405151367,100.0,30656.0,1.0
560190.9401774,307836.03125,297124.53125,462214.0625,496648.625,322455.03125,299641.78125,294306.6875,296902.96875,0.0234375,0.932861328125,-0.443359375,-5.096435070037842,13.031004905700684,19.531248092651367,100.0,30657.0,1.0
560190.9425845,308488.25,297274.8125,462455.03125,496456.6875,321823.125,299128.40625,293867.25,296666.75,0.022216796875,0.93408203125,-0.44091796875,-5.645751476287842,13.427733421325684,19.348142623901367,100.0,30658.0,1.0
560190.9489777,308770.5,296845.75,462055.5625,495954.5625,317467.75,297903.71875,292306.65625,296146.15625,0.02392578125,0.932373046875,-0.436767578125,-6.225585460662842,13.916014671325684,19.226072311401367,100.0,30659.0,1.0
560190.9577701,308321.21875,296384.25,461558.28125,495813.21875,315324.46875,297620.90625,291727.21875,296053.59375,0.025146484375,0.92724609375,-0.43603515625,-6.652831554412842,14.404295921325684,19.195554733276367,100.0,30660.0,1.0
560190.9603145,307847.375,296623.125,461735.75,496315.5,318365.46875,298709.25,292942.96875,296559.375,0.02685546875,0.92138671875,-0.43798828125,-7.049560070037842,14.801024436950684,19.195554733276367,100.0,30661.0,1.0
560190.9626623,307873.46875,297090.375,462246.875,496680.5625,322442.34375,299634.625,294271.0,296944.71875,0.03173828125,0.915283203125,-0.43798828125,-7.232665538787842,15.197752952575684,19.195554733276367,100.0,30662.0,1.0
560190.9651611,308517.9375,297247.28125,462490.0625,496471.78125,321819.0,299120.28125,293847.75,296704.75,0.036376953125,0.9091796875,-0.434814453125,-7.110595226287842,15.502928733825684,18.859861373901367,100.0,30663.0,1.0
560190.9701785,308759.9375,296818.03125,462078.625,495953.84375,317488.75,297891.1875,292301.03125,296167.4375,0.04296875,0.90673828125,-0.43359375,-6.652831554412842,15.747069358825684,18.524168014526367,100.0,30664.0,1.0
560190.9726283,308367.1875,296419.5625,461616.5625,495871.15625,315360.59375,297639.875,291760.71875,296090.53125,0.046142578125,0.906494140625,-0.430908203125,-5.981444835662842,15.808104515075684,18.127439498901367,100.0,30665.0,1.0
560190.9751455,307836.65625,296642.09375,461759.875,496331.15625,318387.65625,298721.78125,292986.5,296574.9375,0.051025390625,0.908935546875,-0.42919921875,-5.462646007537842,15.808104515075684,17.730710983276367,100.0,30666.0,1.0
560190.977722,307869.0,297122.75,462266.8125,496684.03125,322450.21875,299649.5625,294324.3125,296967.15625,0.05517578125,0.908935546875,-0.4248046875,-4.913329601287842,15.655516624450684,17.364500045776367,100.0,30667.0,1.0
560190.9802128,308541.625,297321.3125,462522.4375,496477.0625,321821.15625,299135.8125,293896.9375,296723.90625,0.05908203125,0.9072265625,-0.423828125,-4.272460460662842,15.289305686950684,17.120359420776367,100.0,30668.0,1.0
560190.9828452,308903.0,296930.78125,462197.96875,496104.875,317580.125,297958.25,292408.5625,296244.9375,0.06103515625,0.9052734375,-0.41943359375,-3.540038824081421,14.953612327575684,16.723630905151367,100.0,30669.0,1.0
560190.9853646,308391.6875,296460.3125,461681.5625,495973.15625,315475.75,297682.4375,291862.03125,296145.25,0.0654296875,0.900634765625,-0.4208984375,-2.807616949081421,14.648436546325684,16.021726608276367,100.0,30670.0,1.0
560190.9853776,307811.6875,296628.3125,461755.5,496290.46875,318465.78125,298730.90625,293061.5,296595.9375,0.065673828125,0.896728515625,-0.425537109375,-1.9531248807907104,14.038084983825684,15.136717796325684,100.0,30671.0,1.0
560190.9877508,307870.34375,297106.65625,462259.65625,496660.78125,322510.9375,299657.78125,294400.03125,296979.25,0.06689453125,0.89453125,-0.428955078125,-1.1901854276657104,13.610838890075684,13.977049827575684,100.0,30672.0,1.0
560190.9901205,308527.5,297298.5,462526.1875,496483.125,321924.40625,299156.125,293996.4375,296749.71875,0.072998046875,0.891845703125,-0.430908203125,-0.6103515028953552,13.122557640075684,12.847899436950684,100.0,30673.0,1.0
560190.9928324,308828.25,296928.625,462171.6875,496004.1875,317693.6875,297965.9375,292485.28125,296241.4375,0.07958984375,0.890380859375,-0.431884765625,-0.0915527269244194,12.817381858825684,11.627196311950684,100.0,30674.0,1.0
560190.9928471,308440.40625,296541.40625,461716.78125,495929.34375,315620.59375,297721.59375,291950.375,296169.46875,0.084716796875,0.893310546875,-0.436767578125,0.2136230319738388,12.878417015075684,10.131834983825684,100.0,30675.0,1.0
560190.995314,307887.96875,296715.21875,461818.0,496374.15625,318637.625,298796.15625,293163.4375,296653.625,0.08935546875,0.89501953125,-0.4365234375,0.6408690810203552,13.031004905700684,8.605956077575684,100.0,30676.0,1.0
560190.9978093,307928.5625,297180.6875,462297.65625,496725.25,322650.40625,299709.625,294464.84375,297027.15625,0.094482421875,0.8974609375,-0.44287109375,0.6713866591453552,13.671874046325684,6.988524913787842,100.0,30677.0,1.0
560191.0002117,308555.9375,297332.65625,462532.8125,496493.78125,322048.96875,299180.625,294041.5,296760.28125,0.1005859375,0.899658203125,-0.446044921875,0.6103515028953552,14.465331077575684,5.432128429412842,100.0,30678.0,1.0
560191.0002284,308848.28125,296952.875,462188.15625,496020.375,317855.5,298000.53125,292565.46875,296261.46875,0.105224609375,0.89697265625,-0.449462890625,0.3967284858226776,15.624999046325684,3.753661870956421,100.0,30679.0,1.0
560191.0267414,308421.28125,296533.90625,461702.65625,495913.4375,315762.84375,297739.1875,292018.9375,296169.21875,0.105712890625,0.89404296875,-0.45361328125,0.2136230319738388,16.967771530151367,2.136230230331421,100.0,30680.0,1.0
560191.0267835,307902.34375,296740.78125,461810.75,496348.5,318749.84375,298813.6875,293231.65625,296655.75,0.10302734375,0.89453125,-0.459228515625,0.03051757626235485,18.554685592651367,0.3356933295726776,100.0,30681.0,1.0
560191.0267933,307957.96875,297239.59375,462319.75,496761.5625,322773.40625,299748.8125,294565.53125,297062.125,0.099853515625,0.89892578125,-0.46337890625,-0.2441406100988388,20.263669967651367,-1.3427733182907104,100.0,30682.0,1.0
560191.0291231,308525.15625,297335.0,462523.25,496481.53125,322160.53125,299206.0,294115.34375,296810.875,0.093994140625,0.9033203125,-0.463134765625,-0.4882812201976776,21.942136764526367,-2.746581792831421,100.0,30683.0,1.0
560191.0291647,308821.625,296920.0625,462151.75,495953.6875,317905.75,297980.59375,292552.0625,296286.34375,0.0869140625,0.913330078125,-0.4580078125,-0.7629393935203552,23.681638717651367,-3.692626714706421,100.0,30684.0,1.0
560191.0316032,308450.875,296556.625,461724.46875,495925.15625,315866.46875,297771.46875,292037.53125,296245.65625,0.077880859375,0.921630859375,-0.4541015625,-1.0986326932907104,25.299070358276367,-4.547118663787842,100.0,30685.0,1.0
560191.0339825,307876.4375,296713.25,461795.46875,496372.8125,318823.15625,298816.0,293213.875,296703.15625,0.067626953125,0.928955078125,-0.44580078125,-1.6174315214157104,26.733396530151367,-5.035399913787842,100.0,30686.0,1.0
560191.036627,307892.53125,297173.6875,462264.5,496686.0,322832.15625,299723.40625,294520.8125,297082.25,0.057861328125,0.92919921875,-0.443359375,-2.197265386581421,27.893064498901367,-5.279540538787842,100.0,30687.0,1.0
560191.0392992,308565.9375,297328.375,462545.21875,496514.25,322259.34375,299223.09375,294112.75,296869.4375,0.048583984375,0.92431640625,-0.439453125,-2.624511480331421,28.717039108276367,-5.615233898162842,100.0,30688.0,1.0
560191.0415145,308881.375,296917.09375,462204.6875,496057.75,318028.9375,298014.84375,292584.875,296365.1875,0.04052734375,0.916748046875,-0.437255859375,-3.204345464706421,28.991697311401367,-5.676269054412842,100.0,30689.0,1.0
560191.0464783,308461.25,296503.78125,461722.5,495972.1875,315905.625,297736.6875,292005.34375,296272.21875,0.034423828125,0.9091796875,-0.437744140625,-3.723144292831421,28.839109420776367,-5.645751476287842,100.0,30690.0,1.0
560191.0488963,307863.46875,296697.6875,461789.21875,496332.59375,318854.4375,298791.59375,293179.625,296730.96875,0.029296875,0.905029296875,-0.43310546875,-4.302978038787842,28.289793014526367,-5.462646007537842,100.0,30691.0,1.0
560191.051607,307846.9375,297112.90625,462237.9375,496663.84375,322854.78125,299696.40625,294495.34375,297102.0,0.0263671875,0.905517578125,-0.430419921875,-4.760741710662842,27.282712936401367,-5.157470226287842,100.0,30692.0,1.0
560191.0536163,308522.40625,297246.375,462501.6875,496478.125,322246.09375,299163.1875,294087.09375,296849.78125,0.025634765625,0.906005859375,-0.425048828125,-5.340575695037842,25.939939498901367,-4.577636241912842,100.0,30693.0,1.0
560191.0536273,308834.34375,296891.53125,462158.46875,495976.65625,317980.75,297932.0625,292563.0625,296310.28125,0.027587890625,0.906005859375,-0.421142578125,-5.645751476287842,24.353025436401367,-3.845214605331421,100.0,30694.0,1.0
560191.0602345,308394.375,296485.25,461674.21875,495858.1875,315896.25,297676.875,292030.75,296226.625,0.0283203125,0.904541015625,-0.422119140625,-5.920409679412842,22.735593795776367,-2.868652105331421,100.0,30695.0,1.0
560191.0627355,307825.8125,296642.625,461741.5625,496287.0625,318863.75,298747.625,293211.375,296679.46875,0.02880859375,0.904541015625,-0.42138671875,-5.767821788787842,20.965574264526367,-1.7700194120407104,100.0,30696.0,1.0
560191.0966291,307879.8125,297117.28125,462221.9375,496679.5625,322856.40625,299674.59375,294512.78125,297047.0,0.029052734375,0.902099609375,-0.4228515625,-5.126952648162842,19.226072311401367,-0.6713866591453552,100.0,30697.0,1.0
560191.0966572,308493.59375,297237.4375,462459.65625,496458.5625,322260.40625,299150.5625,294104.90625,296799.4375,0.02880859375,0.902587890625,-0.426025390625,-4.119872570037842,17.547605514526367,0.2746581733226776,100.0,30698.0,1.0
560191.1004371,308769.15625,296812.0625,462090.5,495924.78125,318027.875,297932.40625,292596.15625,296267.90625,0.02685546875,0.903076171875,-0.427490234375,-2.960204839706421,15.869139671325684,1.2207030057907104,100.0,30699.0,1.0
560191.1004624,308384.25,296419.625,461623.96875,495831.71875,315940.75,297682.4375,292048.25,296172.4375,0.02685546875,0.90283203125,-0.42724609375,-1.5563963651657104,14.343260765075684,2.044677495956421,100.0,30700.0,1.0
560191.100468,307882.6875,296660.6875,461729.03125,496306.28125,318880.1875,298770.0625,293231.375,296639.21875,0.02880859375,0.906005859375,-0.4248046875,-0.1831054538488388,13.000487327575684,2.716064214706421,100.0,30701.0,1.0
560191.1042653,307874.0,297112.625,462190.1875,496678.0625,322871.21875,299697.03125,294550.40625,297025.28125,0.02685546875,0.906982421875,-0.426513671875,1.1291502714157104,11.810301780700684,3.143310308456421,100.0,30702.0,1.0
560191.1042969,308474.46875,297207.9375,462410.5,496387.65625,322259.6875,299152.53125,294127.5,296766.1875,0.02685546875,0.904541015625,-0.423583984375,2.502441167831421,10.894774436950684,3.112792730331421,100.0,30703.0,1.0
560191.1043031,308785.6875,296776.09375,462063.59375,495902.625,318017.9375,297926.875,292601.15625,296240.28125,0.02685546875,0.907470703125,-0.421875,3.723144292831421,10.253905296325684,3.051757574081421,100.0,30704.0,1.0
560191.1043098,308388.5625,296367.96875,461593.84375,495815.71875,315897.40625,297668.375,292025.03125,296156.96875,0.024658203125,0.911376953125,-0.421875,4.302978038787842,9.765624046325684,3.112792730331421,100.0,30705.0,1.0
560191.106537,307841.125,296577.625,461677.0,496269.09375,318824.3125,298742.0,293181.84375,296634.5625,0.0244140625,0.9130859375,-0.419677734375,4.699706554412842,9.368895530700684,3.112792730331421,100.0,30706.0,1.0
560191.10657,307865.875,297035.75,462140.9375,496619.5,322793.34375,299660.8125,294491.84375,297004.28125,0.025146484375,0.913818359375,-0.4208984375,4.669188976287842,9.033202171325684,3.082275152206421,100.0,30707.0,1.0
560191.1090892,308515.15625,297186.84375,462398.6875,496416.25,322152.9375,299119.65625,294063.21875,296747.75,0.02490234375,0.91455078125,-0.421142578125,4.577636241912842,9.094237327575684,2.868652105331421,100.0,30708.0,1.0
560191.1128777,308829.40625,296779.25,462058.15625,495924.875,317884.375,297884.3125,292524.8125,296214.4375,0.025634765625,0.912841796875,-0.4208984375,4.211425304412842,9.002684593200684,2.380370855331421,100.0,30709.0,1.0
560191.1466965,308391.3125,296375.46875,461574.4375,495810.09375,315771.875,297628.34375,291968.15625,296126.03125,0.026611328125,0.909912109375,-0.418701171875,3.814697027206421,9.185790061950684,1.8310545682907104,100.0,30710.0,1.0
560191.1467349,307864.375,296573.78125,461660.28125,496289.03125,318685.90625,298709.1875,293146.4375,296602.65625,0.025390625,0.90869140625,-0.419189453125,3.173827886581421,9.368895530700684,1.3732908964157104,100.0,30711.0,1.0
560191.1490898,307828.59375,297010.25,462085.6875,496564.21875,322595.40625,299602.25,294404.59375,296961.96875,0.026123046875,0.90966796875,-0.41650390625,2.471923589706421,9.490965843200684,1.0070799589157104,100.0,30712.0,1.0
560191.1491257,308448.375,297123.1875,462326.71875,496270.25,321970.53125,299064.03125,293972.75,296732.21875,0.023681640625,0.908447265625,-0.4150390625,1.6784666776657104,9.765624046325684,0.7324218153953552,100.0,30713.0,1.0
560191.1516777,308804.03125,296745.0,462027.65625,495880.28125,317742.84375,297859.0,292458.09375,296235.09375,0.0244140625,0.907470703125,-0.413330078125,1.0375975370407104,9.948729515075684,0.2441406100988388,100.0,30714.0,1.0
560191.1541626,308330.53125,296315.5625,461522.5,495745.25,315627.46875,297587.46875,291875.875,296123.34375,0.024658203125,0.902587890625,-0.412353515625,0.4272460639476776,9.979247093200684,-0.0915527269244194,100.0,30715.0,1.0
560191.1564858,307799.71875,296540.875,461609.78125,496204.1875,318550.0,298669.46875,293048.1875,296604.09375,0.024169921875,0.90185546875,-0.4091796875,-0.03051757626235485,10.284422874450684,-0.6103515028953552,100.0,30716.0,1.0
560191.1590845,307803.90625,296982.1875,462056.09375,496532.84375,322488.65625,299576.96875,294337.09375,296990.59375,0.0224609375,0.904052734375,-0.40869140625,-0.2441406100988388,10.162352561950684,-1.1596678495407104,100.0,30717.0,1.0
560191.1607086,308461.59375,297109.9375,462310.375,496314.15625,321845.375,299033.375,293889.6875,296756.625,0.02294921875,0.9033203125,-0.41064453125,-0.4577636420726776,9.887694358825684,-1.4953612089157104,100.0,30718.0,1.0
560191.1678677,308784.71875,296703.25,461995.65625,495899.40625,317625.46875,297818.40625,292364.125,296256.21875,0.022216796875,0.903564453125,-0.40966796875,-0.5798339247703552,9.613036155700684,-1.8920897245407104,100.0,30719.0,1.0
560191.1703869,308374.875,296339.25,461534.5,495753.125,315541.65625,297578.96875,291812.5,296163.9375,0.023193359375,0.904541015625,-0.41162109375,-0.5187987685203552,9.338377952575684,-2.380370855331421,100.0,30720.0,1.0
560191.1779111,307787.125,296521.28125,461575.875,496152.34375,318438.4375,298626.21875,292964.59375,296602.375,0.023193359375,0.904541015625,-0.409423828125,-0.2441406100988388,8.728026390075684,-2.716064214706421,100.0,30721.0,1.0
560191.1779529,307827.15625,297003.28125,462041.25,496525.34375,322361.96875,299535.84375,294259.3125,296967.25,0.0244140625,0.904296875,-0.407470703125,-0.03051757626235485,8.117674827575684,-2.990722417831421,100.0,30722.0,1.0
560191.1805185,308460.4375,297152.5,462303.9375,496309.875,321741.84375,298999.84375,293853.03125,296724.53125,0.02587890625,0.90283203125,-0.406005859375,0.3967284858226776,7.415771007537842,-3.234863042831421,100.0,30723.0,1.0
560191.1827784,308776.59375,296754.46875,461986.09375,495835.9375,317526.03125,297797.59375,292355.28125,296233.59375,0.026123046875,0.905029296875,-0.408935546875,0.9460448622703552,6.805419445037842,-3.509521245956421,100.0,30724.0,1.0
560191.1853366,308387.21875,296366.96875,461531.34375,495773.875,315443.375,297556.1875,291803.28125,296152.9375,0.02392578125,0.905517578125,-0.41015625,1.4343260526657104,6.042479991912842,-3.845214605331421,100.0,30725.0,1.0
560191.1853762,307808.40625,296564.46875,461594.84375,496217.15625,318369.21875,298627.46875,292967.90625,296612.3125,0.023681640625,0.9091796875,-0.41015625,1.9836424589157104,5.249022960662842,-4.180907726287842,100.0,30726.0,1.0
560191.1877799,307757.78125,296983.53125,462007.71875,496448.625,322311.8125,299523.03125,294247.0625,296958.5,0.02197265625,0.91064453125,-0.408935546875,2.624511480331421,4.455565929412842,-4.364013195037842,100.0,30727.0,1.0
560191.1902327,308454.34375,297111.375,462278.4375,496289.75,321672.71875,298978.375,293822.46875,296706.28125,0.02001953125,0.914306640625,-0.40966796875,3.112792730331421,3.601073980331421,-4.577636241912842,100.0,30728.0,1.0
560191.2216712,308770.15625,296702.0625,461960.59375,495875.53125,317429.3125,297765.40625,292313.28125,296201.84375,0.01904296875,0.916015625,-0.410400390625,3.417968511581421,2.868652105331421,-4.669188976287842,100.0,30729.0,1.0
560191.2217197,308264.1875,296265.78125,461434.0,495648.25,315323.5,297491.375,291727.90625,296080.6875,0.0166015625,0.917724609375,-0.412841796875,3.692626714706421,2.166747808456421,-4.730224132537842,100.0,30730.0,1.0
560191.2241396,307736.59375,296499.75,461523.59375,496065.15625,318287.15625,298596.0,292888.6875,296565.71875,0.0146484375,0.917724609375,-0.412841796875,3.601073980331421,1.4343260526657104,-4.699706554412842,100.0,30731.0,1.0
560191.2241745,307821.25,297002.3125,462025.40625,496466.40625,322278.5625,299565.96875,294200.28125,296980.3125,0.013916015625,0.917236328125,-0.412353515625,3.540038824081421,0.7934569716453552,-4.821776866912842,100.0,30732.0,1.0
560191.2265314,308464.28125,297111.75,462257.78125,496235.125,321600.59375,298998.40625,293737.15625,296698.21875,0.00830078125,0.9140625,-0.4130859375,3.479003667831421,0.2441406100988388,-4.943847179412842,100.0,30733.0,1.0
560191.2309086,308754.125,296681.78125,461915.09375,495776.1875,317356.25,297772.28125,292197.3125,296188.34375,0.005126953125,0.90576171875,-0.412841796875,3.173827886581421,-0.2441406100988388,-5.035399913787842,100.0,30734.0,1.0
560191.2564768,308318.1875,296274.71875,461444.90625,495708.59375,315275.9375,297530.875,291628.21875,296120.5625,0.003662109375,0.900634765625,-0.41259765625,2.838134527206421,-0.6408690810203552,-5.249022960662842,100.0,30735.0,1.0
560191.2618402,307760.125,296490.625,461517.6875,496105.125,318228.78125,298617.0,292788.90625,296588.1875,0.002685546875,0.889892578125,-0.418701171875,2.349853277206421,-0.9460448622703552,-5.645751476287842,100.0,30736.0,1.0
560191.3019354,307834.3125,296992.65625,462002.90625,496469.71875,322172.15625,299541.8125,294077.8125,296964.9375,0.002197265625,0.88232421875,-0.41748046875,1.9531248807907104,-1.0986326932907104,-6.225585460662842,100.0,30737.0,1.0
560191.3068792,308426.375,297085.0,462228.65625,496222.0625,321501.25,298980.625,293632.90625,296699.5625,0.00244140625,0.87646484375,-0.418212890625,1.5563963651657104,-1.1291502714157104,-6.835937023162842,100.0,30738.0,1.0
560191.317904,308712.84375,296642.0,461877.28125,495743.5625,317236.625,297748.125,292101.0,296181.46875,0.004150390625,0.876953125,-0.417236328125,1.2207030057907104,-1.0681151151657104,-7.202147960662842,100.0,30739.0,1.0
560191.3202398,308355.5625,296286.96875,461448.46875,495675.25,315164.4375,297532.03125,291558.125,296130.9375,0.0048828125,0.8759765625,-0.419677734375,0.8239745497703552,-0.8544921278953552,-7.659911632537842,100.0,30740.0,1.0
560191.3231596,307827.15625,296524.15625,461553.96875,496167.90625,318127.375,298637.5625,292729.90625,296625.46875,0.00537109375,0.88037109375,-0.418212890625,0.4577636420726776,-0.7019042372703552,-7.812499523162842,100.0,30741.0,1.0
560191.3253657,307793.46875,296959.375,461974.8125,496439.34375,322037.0625,299525.46875,293976.6875,296975.40625,0.00341796875,0.88916015625,-0.419921875,0.1525878757238388,-0.5493163466453552,-8.026122093200684,100.0,30742.0,1.0
560191.3277554,308406.625,297064.4375,462192.34375,496151.09375,321344.4375,298953.34375,293516.15625,296703.34375,0.002197265625,0.896240234375,-0.418701171875,-0.1220703050494194,-0.2136230319738388,-8.026122093200684,100.0,30743.0,1.0
560191.3303298,308734.46875,296663.4375,461870.46875,495720.9375,317094.46875,297741.96875,292002.65625,296203.71875,0.00048828125,0.901611328125,-0.418701171875,-0.4272460639476776,-0.2136230319738388,-7.995604991912842,100.0,30744.0,1.0
560191.3329103,308316.3125,296277.65625,461404.21875,495624.75,315014.40625,297505.9375,291454.96875,296124.875,-0.000244140625,0.903076171875,-0.414306640625,-0.4272460639476776,-0.2136230319738388,-7.812499523162842,100.0,30745.0,1.0
560191.3329523,307745.8125,296483.65625,461477.8125,496035.21875,317987.65625,298600.625,292638.53125,296587.375,0.001953125,0.904296875,-0.416259765625,-0.3051757514476776,-0.3356933295726776,-7.598876476287842,100.0,30746.0,1.0
560191.3378733,307794.1875,296980.125,461956.125,496401.6875,321945.25,299528.0625,293944.5,296958.84375,0.001708984375,0.902587890625,-0.41552734375,-0.2136230319738388,-0.6408690810203552,-7.263183116912842,100.0,30747.0,1.0
560191.3402698,308430.03125,297092.53125,462198.6875,496194.53125,321277.03125,298968.625,293530.09375,296704.9375,0.0009765625,0.900146484375,-0.414306640625,-0.0915527269244194,-1.0070799589157104,-6.805419445037842,100.0,30748.0,1.0
560191.3428771,308729.09375,296666.84375,461848.5625,495710.21875,317002.65625,297731.34375,292017.34375,296188.34375,0.0029296875,0.902099609375,-0.412353515625,0.2441406100988388,-1.5563963651657104,-6.256103038787842,100.0,30749.0,1.0
560191.3453876,308308.90625,296291.0625,461381.5,495599.71875,314921.53125,297495.65625,291472.84375,296108.9375,0.002685546875,0.903564453125,-0.412353515625,0.6103515028953552,-2.227782964706421,-5.859374523162842,100.0,30750.0,1.0
560191.3477339,307752.59375,296518.875,461477.1875,496034.21875,317931.59375,298609.75,292675.71875,296589.15625,0.0029296875,0.905029296875,-0.413818359375,1.0375975370407104,-2.929687261581421,-5.218505382537842,100.0,30751.0,1.0
560191.3502579,307773.34375,296984.78125,461934.59375,496372.90625,321890.71875,299531.28125,293974.34375,296957.15625,0.004150390625,0.908447265625,-0.412841796875,1.4038084745407104,-3.601073980331421,-4.486083507537842,100.0,30752.0,1.0
560191.3529098,308407.96875,297090.46875,462163.375,496162.09375,321192.15625,298971.0625,293539.03125,296700.28125,0.001953125,0.909423828125,-0.414794921875,1.9226073026657104,-4.364013195037842,-3.906249761581421,100.0,30753.0,1.0
560191.3552981,308711.125,296664.78125,461817.46875,495696.8125,316937.03125,297763.0625,292047.5625,296199.875,0.00048828125,0.912841796875,-0.413818359375,2.258300542831421,-5.096435070037842,-3.326415777206421,100.0,30754.0,1.0
560191.3577339,308301.90625,296288.3125,461356.46875,495600.6875,314870.03125,297528.90625,291514.59375,296112.71875,0.000732421875,0.915771484375,-0.414794921875,2.716064214706421,-5.676269054412842,-2.746581792831421,100.0,30755.0,1.0
560191.3603498,307733.90625,296502.96875,461439.53125,496012.40625,317872.9375,298618.0625,292702.53125,296571.375,-0.002197265625,0.915283203125,-0.4150390625,3.173827886581421,-6.225585460662842,-2.319335699081421,100.0,30756.0,1.0
560191.3627299,307765.65625,296956.25,461898.8125,496348.40625,321827.40625,299528.21875,293991.25,296936.21875,-0.00341796875,0.916748046875,-0.415283203125,3.387450933456421,-6.744384288787842,-1.9226073026657104,100.0,30757.0,1.0
560191.3653002,308400.09375,297067.46875,462129.59375,496131.59375,321136.125,298961.84375,293557.53125,296672.75,-0.00439453125,0.9169921875,-0.415771484375,3.509521245956421,-7.080077648162842,-1.4953612089157104,100.0,30758.0,1.0
560191.3677653,308718.65625,296649.15625,461783.84375,495677.6875,316864.0625,297739.90625,292057.84375,296158.125,-0.00439453125,0.915771484375,-0.419189453125,3.387450933456421,-7.568358898162842,-1.0681151151657104,100.0,30759.0,1.0
560191.3703204,308303.0,296273.8125,461322.875,495580.5625,314807.25,297514.59375,291534.25,296075.34375,-0.00732421875,0.91259765625,-0.416748046875,3.173827886581421,-7.965087413787842,-0.9155272841453552,100.0,30760.0,1.0
560191.3719788,307733.5625,296501.90625,461413.625,495988.625,317841.1875,298615.21875,292736.34375,296537.84375,-0.009033203125,0.91015625,-0.421142578125,2.990722417831421,-8.270262718200684,-0.7019042372703552,100.0,30761.0,1.0
560191.3791367,307769.15625,296972.4375,461886.84375,496339.65625,321821.40625,299530.75,294032.65625,296906.0,-0.008544921875,0.909423828125,-0.421142578125,2.593993902206421,-8.636473655700684,-0.4882812201976776,100.0,30762.0,1.0
560191.381502,308409.46875,297081.96875,462118.125,496123.8125,321115.28125,298972.21875,293585.09375,296656.46875,-0.008056640625,0.90771484375,-0.42529296875,2.197265386581421,-9.033202171325684,-0.2746581733226776,100.0,30763.0,1.0
560191.3854406,308718.5625,296674.90625,461773.46875,495660.59375,316859.0625,297765.75,292070.96875,296171.8125,-0.0087890625,0.90380859375,-0.42822265625,1.9226073026657104,-9.246825218200684,-0.03051757626235485,100.0,30764.0,1.0
560191.3854755,308314.53125,296308.25,461321.96875,495569.21875,314846.0625,297548.3125,291528.90625,296115.65625,-0.005126953125,0.900390625,-0.42724609375,1.5869139432907104,-9.399413108825684,0.0,100.0,30765.0,1.0
560191.3854845,307767.71875,296554.1875,461429.0625,496001.40625,317912.8125,298656.6875,292716.5,296590.6875,-0.001220703125,0.894287109375,-0.425537109375,1.2512205839157104,-9.429930686950684,0.1220703050494194,100.0,30766.0,1.0
560191.3854938,307816.25,297044.15625,461914.65625,496353.40625,321921.0,299582.59375,294023.4375,296959.3125,0.00146484375,0.892578125,-0.427734375,0.9460448622703552,-9.399413108825684,0.3662109076976776,100.0,30767.0,1.0
560191.3880025,308425.9375,297136.40625,462123.5,496126.0625,321207.28125,299005.75,293573.375,296695.1875,0.004150390625,0.890380859375,-0.42919921875,0.8850097060203552,-9.368895530700684,0.4272460639476776,100.0,30768.0,1.0
560191.3880425,308694.875,296684.65625,461748.53125,495642.1875,316959.28125,297790.875,292069.46875,296187.71875,0.0029296875,0.89013671875,-0.433349609375,0.6408690810203552,-9.246825218200684,0.7629393935203552,100.0,30769.0,1.0
560191.3955873,308281.34375,296323.34375,461296.84375,495540.34375,314963.8125,297572.1875,291538.1875,296103.9375,0.003662109375,0.888671875,-0.43603515625,0.5798339247703552,-9.185790061950684,1.0375975370407104,100.0,30770.0,1.0
560191.3956248,307734.8125,296566.1875,461413.25,495957.78125,318068.75,298684.5,292746.8125,296580.75,0.00439453125,0.89453125,-0.43994140625,0.4882812201976776,-9.094237327575684,1.1901854276657104,100.0,30771.0,1.0
560191.3956335,307775.125,297038.15625,461890.40625,496314.25,322073.8125,299602.875,294038.03125,296961.90625,0.004638671875,0.90380859375,-0.437255859375,0.4577636420726776,-9.033202171325684,1.2512205839157104,100.0,30772.0,1.0
560191.3956425,308398.75,297139.46875,462108.125,496083.84375,321383.0625,299044.53125,293576.59375,296718.15625,0.005615234375,0.9140625,-0.434814453125,0.4882812201976776,-8.941649436950684,1.4343260526657104,100.0,30773.0,1.0
560191.4005263,308693.15625,296714.0625,461744.40625,495611.5,317134.6875,297826.28125,292045.75,296213.28125,0.005615234375,0.921142578125,-0.436279296875,0.6713866591453552,-8.880614280700684,1.4648436307907104,100.0,30774.0,1.0
560191.4005644,308286.375,296355.71875,461301.5,495530.0625,315174.8125,297620.28125,291533.90625,296150.0,0.0078125,0.926513671875,-0.434814453125,0.5493163466453552,-9.033202171325684,1.3427733182907104,100.0,30775.0,1.0
560191.4215099,307728.09375,296592.28125,461409.5,495946.6875,318300.5625,298726.96875,292749.46875,296603.90625,0.01171875,0.927490234375,-0.432861328125,0.6103515028953552,-9.094237327575684,1.1901854276657104,100.0,30776.0,1.0
560191.4240142,307755.28125,297054.34375,461875.9375,496286.1875,322329.15625,299645.09375,294064.125,296950.375,0.017578125,0.92431640625,-0.43603515625,0.3662109076976776,-9.185790061950684,1.1901854276657104,100.0,30777.0,1.0
560191.4266681,308391.875,297152.6875,462084.53125,496070.875,321626.0625,299082.8125,293637.84375,296691.96875,0.02099609375,0.91845703125,-0.439453125,0.0915527269244194,-9.155272483825684,1.2207030057907104,100.0,30778.0,1.0
560191.4267083,308694.25,296739.8125,461714.28125,495605.96875,317367.96875,297868.03125,292136.34375,296178.0625,0.023193359375,0.9150390625,-0.442138671875,-0.3662109076976776,-9.277342796325684,1.3732908964157104,100.0,30779.0,1.0
560191.4291437,308269.1875,296374.21875,461246.5,495506.8125,315392.15625,297652.125,291619.125,296090.25,0.025390625,0.911865234375,-0.444580078125,-0.7934569716453552,-9.399413108825684,1.8005369901657104,100.0,30780.0,1.0
560191.4316526,307692.25,296587.1875,461332.875,495912.1875,318500.21875,298746.53125,292830.5,296543.5625,0.024658203125,0.91162109375,-0.447265625,-1.1291502714157104,-9.307860374450684,2.136230230331421,100.0,30781.0,1.0
560191.4341189,307715.9375,297015.09375,461779.1875,496233.6875,322470.15625,299636.0625,294122.875,296904.125,0.02587890625,0.912109375,-0.44775390625,-1.1901854276657104,-9.094237327575684,2.441406011581421,100.0,30782.0,1.0
560191.4365345,308359.84375,297113.625,461991.4375,496011.78125,321728.6875,299067.78125,293674.03125,296645.125,0.022705078125,0.9072265625,-0.4541015625,-1.0986326932907104,-8.880614280700684,2.593993902206421,100.0,30783.0,1.0
560191.4365698,308677.78125,296717.28125,461635.0625,495552.15625,317473.8125,297851.21875,292168.875,296115.65625,0.01904296875,0.903564453125,-0.455810546875,-0.5798339247703552,-8.575438499450684,2.502441167831421,100.0,30784.0,1.0
560191.4391008,308259.90625,296349.46875,461175.96875,495463.0,315507.75,297634.875,291656.125,296035.28125,0.014892578125,0.894775390625,-0.4609375,0.1525878757238388,-8.056639671325684,2.258300542831421,100.0,30785.0,1.0
560191.441508,307728.375,296564.5625,461290.9375,495914.0625,318610.8125,298741.375,292873.40625,296512.53125,0.01171875,0.88623046875,-0.462646484375,1.1596678495407104,-7.720946788787842,1.7395018339157104,100.0,30786.0,1.0
560191.4440924,307753.5,297008.28125,461757.8125,496262.40625,322601.40625,299646.53125,294170.25,296883.75,0.010986328125,0.8828125,-0.46533203125,2.166747808456421,-7.263183116912842,1.2512205839157104,100.0,30787.0,1.0
560191.4464934,308364.15625,297104.40625,461954.6875,495997.84375,321871.21875,299071.53125,293691.75,296614.90625,0.01025390625,0.8828125,-0.463134765625,2.807616949081421,-6.835937023162842,0.5798339247703552,100.0,30788.0,1.0
560191.4489978,308647.28125,296678.28125,461581.34375,495512.8125,317629.65625,297864.625,292162.875,296101.1875,0.010986328125,0.883544921875,-0.461669921875,3.204345464706421,-6.286620616912842,0.0915527269244194,100.0,30789.0,1.0
560191.4515177,308235.3125,296308.40625,461124.90625,495424.90625,315670.21875,297658.28125,291647.375,296030.1875,0.010498046875,0.88818359375,-0.457763671875,3.356933355331421,-5.645751476287842,-0.4577636420726776,100.0,30790.0,1.0
560191.4542004,307736.6875,296560.1875,461261.15625,495903.0625,318766.8125,298771.21875,292873.9375,296522.46875,0.01220703125,0.89501953125,-0.45458984375,3.173827886581421,-5.004882335662842,-1.0986326932907104,100.0,30791.0,1.0
560191.4542398,307777.53125,297021.53125,461727.59375,496242.375,322714.21875,299652.78125,294152.5625,296884.65625,0.012939453125,0.906494140625,-0.451416015625,2.624511480331421,-4.455565929412842,-1.4648436307907104,100.0,30792.0,1.0
560191.4567921,308352.96875,297090.1875,461908.75,495980.21875,321966.96875,299062.0625,293673.6875,296604.34375,0.010498046875,0.91162109375,-0.452880859375,1.7089842557907104,-3.723144292831421,-1.8005369901657104,100.0,30793.0,1.0
560191.4568305,308650.15625,296685.34375,461548.78125,495497.34375,317711.71875,297861.5,292157.53125,296098.125,0.011474609375,0.916259765625,-0.4541015625,0.8544921278953552,-3.051757574081421,-2.044677495956421,100.0,30794.0,1.0
560191.4592132,308245.21875,296328.8125,461097.1875,495415.4375,315736.8125,297646.84375,291643.6875,296027.6875,0.0087890625,0.917724609375,-0.4521484375,0.0915527269244194,-2.136230230331421,-2.441406011581421,100.0,30795.0,1.0
560191.4715438,307713.71875,296558.21875,461213.25,495869.53125,318820.8125,298741.4375,292865.4375,296509.21875,0.008056640625,0.9189453125,-0.455810546875,-0.5798339247703552,-1.4038084745407104,-2.624511480331421,100.0,30796.0,1.0
560191.4715847,307779.15625,297015.4375,461694.96875,496230.375,322762.6875,299639.53125,294155.78125,296885.8125,0.00537109375,0.9189453125,-0.453369140625,-1.2207030057907104,-0.5798339247703552,-2.716064214706421,100.0,30797.0,1.0
560191.4737067,308399.90625,297126.75,461909.625,495990.15625,322017.40625,299077.8125,293693.71875,296630.0,0.0009765625,0.914306640625,-0.4541015625,-1.5258787870407104,0.2746581733226776,-2.960204839706421,100.0,30798.0,1.0
560191.4737385,308654.90625,296696.09375,461527.875,495492.6875,317772.875,297864.8125,292171.5625,296119.3125,0.001220703125,0.91015625,-0.45458984375,-1.8005369901657104,1.0681151151657104,-3.021239995956421,100.0,30799.0,1.0
560191.4804525,308240.0625,296326.375,461073.25,495401.0625,315814.4375,297657.03125,291664.1875,296053.78125,0.001953125,0.9072265625,-0.451416015625,-1.9836424589157104,1.5869139432907104,-3.021239995956421,100.0,30800.0,1.0
560191.4804966,307740.875,296576.625,461216.5625,495878.125,318920.78125,298782.125,292919.1875,296560.09375,-0.000244140625,0.902587890625,-0.45068359375,-2.044677495956421,2.075195074081421,-2.929687261581421,100.0,30801.0,1.0
560191.4966386,307792.9375,297040.03125,461696.125,496236.375,322868.09375,299680.84375,294216.375,296929.4375,-0.00146484375,0.90185546875,-0.4501953125,-2.136230230331421,2.471923589706421,-2.807616949081421,100.0,30802.0,1.0
560191.499075,308386.0625,297112.1875,461880.3125,495965.03125,322100.90625,299077.8125,293727.6875,296635.1875,-0.005859375,0.8984375,-0.44970703125,-2.014159917831421,2.716064214706421,-2.563476324081421,100.0,30803.0,1.0
560191.4991108,308666.25,296699.9375,461512.40625,495484.1875,317855.40625,297877.40625,292219.03125,296128.8125,-0.00830078125,0.89794921875,-0.446044921875,-1.8310545682907104,2.716064214706421,-2.288818120956421,100.0,30804.0,1.0
560191.5015088,308250.59375,296330.78125,461058.84375,495402.5625,315898.375,297670.625,291710.40625,296063.09375,-0.01220703125,0.8935546875,-0.4453125,-1.7089842557907104,2.532958745956421,-2.014159917831421,100.0,30805.0,1.0
560191.5039904,307733.8125,296582.8125,461191.25,495868.03125,319001.0625,298777.3125,292943.40625,296558.65625,-0.01171875,0.89306640625,-0.4423828125,-1.5563963651657104,2.441406011581421,-1.7395018339157104,100.0,30806.0,1.0
560191.5066312,307773.78125,297038.25,461663.3125,496212.25,322947.75,299668.96875,294236.6875,296927.125,-0.012451171875,0.888916015625,-0.443115234375,-1.3427733182907104,2.197265386581421,-1.4343260526657104,100.0,30807.0,1.0
560191.5101959,308368.09375,297112.71875,461849.90625,495944.90625,322176.28125,299078.6875,293756.46875,296635.46875,-0.01416015625,0.88818359375,-0.4423828125,-1.0986326932907104,1.8310545682907104,-1.2207030057907104,100.0,30808.0,1.0
560191.5216498,308662.6875,296713.96875,461494.53125,495475.53125,317944.46875,297893.4375,292262.40625,296136.03125,-0.016845703125,0.884765625,-0.44482421875,-0.8850097060203552,1.4953612089157104,-1.0375975370407104,100.0,30809.0,1.0
560191.5240601,308254.71875,296339.625,461034.53125,495396.125,315967.40625,297670.34375,291745.53125,296050.375,-0.01708984375,0.88623046875,-0.45166015625,-0.7324218153953552,1.1596678495407104,-0.8544921278953552,100.0,30810.0,1.0
560191.5240986,307711.28125,296555.28125,461138.59375,495830.90625,319029.9375,298758.4375,292959.78125,296510.5625,-0.018310546875,0.886474609375,-0.45458984375,-0.6713866591453552,0.8850097060203552,-0.4577636420726776,100.0,30811.0,1.0
560191.5264523,307745.09375,297003.65625,461600.46875,496164.125,322966.90625,299643.75,294244.0,296870.4375,-0.0205078125,0.8837890625,-0.451171875,-0.4882812201976776,0.6103515028953552,-0.0915527269244194,100.0,30812.0,1.0
560191.5289858,308378.0,297107.53125,461814.6875,495935.0625,322201.9375,299066.8125,293769.625,296607.3125,-0.0224609375,0.884033203125,-0.448486328125,-0.3662109076976776,0.3967284858226776,0.1525878757238388,100.0,30813.0,1.0
560191.5464724,308663.75,296702.0625,461452.59375,495457.71875,317956.0,297870.0,292250.40625,296101.09375,-0.021240234375,0.88134765625,-0.450439453125,-0.1220703050494194,0.3356933295726776,0.3051757514476776,100.0,30814.0,1.0
560191.5491402,308255.0625,296331.5,461004.40625,495377.90625,316002.09375,297672.40625,291744.625,296039.125,-0.01806640625,0.882568359375,-0.4501953125,-0.03051757626235485,0.2441406100988388,0.3967284858226776,100.0,30815.0,1.0
560191.5491813,307701.09375,296535.0625,461101.9375,495807.84375,319074.46875,298757.09375,292954.21875,296505.125,-0.01416015625,0.884521484375,-0.448486328125,-0.0915527269244194,0.1220703050494194,0.4577636420726776,100.0,30816.0,1.0
560191.5517327,307743.84375,296983.71875,461569.71875,496149.125,323003.09375,299646.59375,294238.8125,296863.0,-0.011962890625,0.883544921875,-0.4462890625,-0.2441406100988388,0.2441406100988388,0.7934569716453552,100.0,30817.0,1.0
560191.5541567,308374.0625,297080.4375,461783.5625,495916.125,322228.65625,299075.21875,293770.34375,296602.125,-0.01123046875,0.88623046875,-0.4453125,-0.4577636420726776,0.4272460639476776,1.1291502714157104,100.0,30818.0,1.0
560191.5564773,308671.875,296686.59375,461437.9375,495452.28125,317995.96875,297883.15625,292268.375,296109.3125,-0.007568359375,0.8876953125,-0.446044921875,-0.6713866591453552,0.6713866591453552,1.3122557401657104,100.0,30819.0,1.0
560191.5591887,308262.59375,296326.3125,460990.4375,495371.71875,316043.3125,297677.6875,291762.96875,296042.96875,-0.004150390625,0.88818359375,-0.447998046875,-0.8850097060203552,0.8544921278953552,1.5869139432907104,100.0,30820.0,1.0
560191.559227,307718.53125,296529.78125,461086.28125,495801.40625,319090.9375,298756.90625,292967.8125,296507.25,-0.00244140625,0.89013671875,-0.448974609375,-1.1596678495407104,1.1291502714157104,1.8615721464157104,100.0,30821.0,1.0
560191.5716476,307732.75,296944.1875,461524.46875,496116.40625,322963.6875,299616.03125,294225.25,296852.90625,-0.001708984375,0.896728515625,-0.447265625,-1.5258787870407104,1.4343260526657104,2.136230230331421,100.0,30822.0,1.0
560191.5736935,308361.90625,297057.1875,461742.28125,495882.40625,322183.0625,299048.5625,293756.84375,296591.65625,-0.002197265625,0.900634765625,-0.447021484375,-1.8005369901657104,1.6479490995407104,2.288818120956421,100.0,30823.0,1.0
560191.5737297,308647.21875,296656.75,461386.59375,495412.03125,317936.6875,297852.375,292242.1875,296089.5625,-0.002685546875,0.900390625,-0.449462890625,-1.9531248807907104,1.9836424589157104,2.563476324081421,100.0,30824.0,1.0
560191.5803449,308204.375,296266.3125,460904.71875,495307.15625,315939.15625,297608.3125,291698.9375,295993.34375,-0.001953125,0.898681640625,-0.448974609375,-2.105712652206421,2.258300542831421,2.807616949081421,100.0,30825.0,1.0
560191.5853836,307671.25,296492.40625,461014.75,495748.21875,319002.0625,298709.875,292929.625,296475.96875,-0.00146484375,0.896728515625,-0.449462890625,-2.105712652206421,2.502441167831421,2.899169683456421,100.0,30826.0,1.0
560191.5879057,307745.4375,296960.90625,461504.625,496117.03125,322911.03125,299620.59375,294238.75,296869.53125,0.000732421875,0.8974609375,-0.4501953125,-1.9836424589157104,2.655029058456421,3.021239995956421,100.0,30827.0,1.0
560191.5916447,308380.59375,297062.65625,461724.3125,495887.96875,322111.09375,299044.53125,293758.625,296600.96875,0.0009765625,0.905029296875,-0.447265625,-1.9531248807907104,3.021239995956421,3.173827886581421,100.0,30828.0,1.0
560191.5916861,308647.46875,296650.03125,461360.9375,495400.59375,317867.9375,297838.53125,292234.40625,296081.6875,-0.001220703125,0.909912109375,-0.44580078125,-1.8310545682907104,3.143310308456421,3.387450933456421,100.0,30829.0,1.0
560191.6216816,308219.46875,296277.9375,460905.15625,495311.71875,315931.0,297635.75,291740.0,296026.53125,-0.00146484375,0.908935546875,-0.443359375,-1.8310545682907104,3.204345464706421,3.509521245956421,100.0,30830.0,1.0
560191.6240555,307672.84375,296478.8125,460994.75,495739.90625,318978.0,298715.6875,292943.75,296489.90625,-0.00341796875,0.910400390625,-0.442138671875,-1.7700194120407104,3.326415777206421,3.540038824081421,100.0,30831.0,1.0
560191.6240952,307741.875,296937.5,461470.65625,496096.625,322863.90625,299606.65625,294228.8125,296853.25,-0.004150390625,0.911376953125,-0.4365234375,-1.8310545682907104,3.326415777206421,3.509521245956421,100.0,30832.0,1.0
560191.6292168,308366.28125,297041.65625,461684.5,495858.1875,322059.5,299022.8125,293744.21875,296576.625,-0.004638671875,0.9150390625,-0.4365234375,-1.9836424589157104,3.417968511581421,3.387450933456421,100.0,30833.0,1.0
560191.6305552,308635.40625,296643.875,461331.0,495380.03125,317843.625,297830.40625,292245.6875,296070.59375,-0.00439453125,0.9111328125,-0.436279296875,-2.105712652206421,3.387450933456421,3.387450933456421,100.0,30834.0,1.0
560191.640604,308222.25,296283.375,460882.625,495305.5625,315909.28125,297631.09375,291756.96875,296008.0,-0.0078125,0.90966796875,-0.4365234375,-2.197265386581421,3.356933355331421,3.326415777206421,100.0,30835.0,1.0
560191.6657501,307683.5,296500.46875,460982.03125,495734.96875,318978.8125,298726.34375,292994.0,296490.375,-0.00732421875,0.909912109375,-0.4375,-2.319335699081421,3.112792730331421,3.082275152206421,100.0,30836.0,1.0
560191.6828425,307719.96875,296928.90625,461428.8125,496062.84375,322836.53125,299594.21875,294267.53125,296837.71875,-0.007568359375,0.9052734375,-0.434326171875,-2.441406011581421,2.777099370956421,2.807616949081421,100.0,30837.0,1.0
560191.685248,308354.59375,297040.46875,461651.53125,495829.84375,322041.8125,299004.65625,293783.65625,296560.09375,-0.006591796875,0.901611328125,-0.43603515625,-2.563476324081421,2.593993902206421,2.593993902206421,100.0,30838.0,1.0
560191.687938,308658.5625,296666.59375,461327.34375,495374.84375,317856.84375,297830.3125,292288.78125,296070.15625,-0.0048828125,0.898681640625,-0.437255859375,-2.593993902206421,2.380370855331421,2.227782964706421,100.0,30839.0,1.0
560191.6879784,308228.6875,296291.34375,460866.96875,495280.15625,315917.15625,297625.90625,291772.25,296000.84375,-0.0029296875,0.897216796875,-0.439453125,-2.624511480331421,2.227782964706421,1.9226073026657104,100.0,30840.0,1.0
560191.690408,307685.71875,296494.125,460955.40625,495713.4375,318966.84375,298714.90625,292983.90625,296480.09375,-0.000732421875,0.896728515625,-0.4404296875,-2.655029058456421,2.166747808456421,1.6174315214157104,100.0,30841.0,1.0
560191.6926978,307734.53125,296928.46875,461407.4375,496050.40625,322816.96875,299582.21875,294238.28125,296838.6875,0.00244140625,0.896728515625,-0.441650390625,-2.532958745956421,2.227782964706421,1.3732908964157104,100.0,30842.0,1.0
560191.6954002,308357.625,297039.3125,461624.15625,495803.90625,322015.0625,299001.53125,293739.21875,296566.4375,0.003173828125,0.89892578125,-0.441162109375,-2.380370855331421,2.380370855331421,1.2817381620407104,100.0,30843.0,1.0
560191.6977931,308651.59375,296664.875,461298.0,495341.78125,317835.65625,297836.5625,292245.21875,296083.65625,0.004638671875,0.89892578125,-0.439208984375,-2.197265386581421,2.593993902206421,1.1291502714157104,100.0,30844.0,1.0
560191.7002282,308233.34375,296300.09375,460848.5625,495260.40625,315910.1875,297637.28125,291742.03125,296021.78125,0.003173828125,0.8994140625,-0.435302734375,-1.9226073026657104,2.838134527206421,0.9765624403953552,100.0,30845.0,1.0
560191.702891,307671.25,296482.84375,460919.46875,495680.8125,318935.71875,298708.46875,292942.6875,296481.25,0.003173828125,0.901123046875,-0.4345703125,-1.7089842557907104,2.929687261581421,0.8850097060203552,100.0,30846.0,1.0
560191.7052586,307720.5,296910.125,461371.59375,496018.9375,322771.8125,299573.125,294204.75,296839.3125,0.000732421875,0.903564453125,-0.435791015625,-1.5563963651657104,2.929687261581421,0.8850097060203552,100.0,30847.0,1.0
560191.7077469,308351.8125,297025.90625,461598.6875,495781.5625,321973.21875,298995.375,293721.34375,296573.34375,-0.00048828125,0.906005859375,-0.437744140625,-1.3427733182907104,2.929687261581421,0.8239745497703552,100.0,30848.0,1.0
560191.7103659,308637.71875,296648.6875,461264.84375,495311.46875,317780.03125,297815.1875,292218.40625,296077.03125,-0.00048828125,0.908935546875,-0.438232421875,-1.2512205839157104,2.838134527206421,0.8239745497703552,100.0,30849.0,1.0
560191.7127293,308236.46875,296307.625,460833.53125,495246.46875,315878.625,297633.25,291740.53125,296032.59375,-0.001708984375,0.905029296875,-0.437255859375,-1.0986326932907104,2.777099370956421,0.6103515028953552,100.0,30850.0,1.0
560191.7154051,307681.15625,296491.78125,460908.0,495672.65625,318899.59375,298703.4375,292946.71875,296501.0,-0.001220703125,0.906982421875,-0.434814453125,-0.9460448622703552,2.563476324081421,0.6408690810203552,100.0,30851.0,1.0
560191.7178914,307722.5625,296915.5,461349.9375,496004.8125,322715.9375,299564.8125,294203.34375,296855.15625,0.000244140625,0.91064453125,-0.43603515625,-0.7019042372703552,2.349853277206421,0.5493163466453552,100.0,30852.0,1.0
560191.7202552,308358.34375,297034.40625,461576.5,495767.875,321901.15625,298982.59375,293713.65625,296583.78125,0.000732421875,0.91064453125,-0.436279296875,-0.5493163466453552,2.136230230331421,0.5798339247703552,100.0,30853.0,1.0
560191.7228408,308653.28125,296668.5625,461254.90625,495305.125,317724.59375,297813.75,292219.75,296091.25,0.003662109375,0.91064453125,-0.43701171875,-0.5187987685203552,1.8310545682907104,0.5798339247703552,100.0,30854.0,1.0
560191.7268121,308238.25,296316.28125,460816.375,495233.15625,315826.84375,297631.5625,291737.5625,296036.34375,0.004150390625,0.90771484375,-0.438720703125,-0.3662109076976776,1.5258787870407104,0.7019042372703552,100.0,30855.0,1.0
560191.7268523,307680.1875,296494.75,460890.65625,495662.28125,318852.5625,298705.25,292946.8125,296502.875,0.00634765625,0.90576171875,-0.435791015625,-0.3051757514476776,1.4648436307907104,0.7324218153953552,100.0,30856.0,1.0
560191.7268615,307715.125,296903.40625,461326.0,495988.0,322658.09375,299557.65625,294194.46875,296845.125,0.007080078125,0.90234375,-0.43798828125,-0.1525878757238388,1.4038084745407104,0.8850097060203552,100.0,30857.0,1.0
560191.7268706,308358.0625,297032.625,461563.0,495759.3125,321863.4375,298991.34375,293720.1875,296579.84375,0.0087890625,0.901611328125,-0.439697265625,0.0915527269244194,1.4343260526657104,0.9155272841453552,100.0,30858.0,1.0
560191.7317008,308652.65625,296667.65625,461242.84375,495297.0625,317700.5625,297822.78125,292229.9375,296084.71875,0.010498046875,0.8984375,-0.439453125,0.2746581733226776,1.4648436307907104,1.0070799589157104,100.0,30859.0,1.0
560191.7317359,308233.25,296314.9375,460802.25,495219.375,315822.46875,297639.59375,291751.78125,296024.09375,0.01123046875,0.89794921875,-0.438720703125,0.3967284858226776,1.4648436307907104,1.0375975370407104,100.0,30860.0,1.0
560191.7340368,307672.9375,296484.625,460867.875,495639.84375,318842.8125,298704.0625,292951.625,296482.59375,0.0126953125,0.89697265625,-0.435302734375,0.5493163466453552,1.5258787870407104,1.0681151151657104,100.0,30861.0,1.0
560191.7366623,307718.1875,296903.59375,461312.21875,495969.9375,322652.0,299560.25,294206.5625,296839.0625,0.013427734375,0.896240234375,-0.4365234375,0.6713866591453552,1.7089842557907104,0.9765624403953552,100.0,30862.0,1.0
560191.7367046,308366.125,297037.34375,461554.34375,495744.46875,321854.40625,298996.4375,293732.875,296579.78125,0.013671875,0.893798828125,-0.436279296875,0.8544921278953552,1.8615721464157104,1.0070799589157104,100.0,30863.0,1.0
560191.7390098,308654.71875,296671.9375,461230.9375,495279.71875,317693.6875,297822.15625,292239.15625,296079.34375,0.01220703125,0.893310546875,-0.4404296875,0.8850097060203552,1.9836424589157104,1.0375975370407104,100.0,30864.0,1.0
560191.741594,308231.46875,296316.28125,460786.59375,495200.875,315817.65625,297631.71875,291757.15625,296018.75,0.0107421875,0.894287109375,-0.43994140625,0.9765624403953552,2.166747808456421,0.9460448622703552,100.0,30865.0,1.0
560191.7440055,307672.03125,296488.84375,460855.4375,495628.3125,318844.78125,298696.125,292961.5625,296485.09375,0.01318359375,0.89404296875,-0.43896484375,1.0681151151657104,2.288818120956421,0.8239745497703552,100.0,30866.0,1.0
560191.7716364,307726.6875,296912.8125,461308.09375,495970.5625,322645.125,299552.5625,294216.125,296847.09375,0.011962890625,0.890869140625,-0.44140625,1.0375975370407104,2.410888433456421,0.7934569716453552,100.0,30867.0,1.0
560191.7716778,308377.90625,297055.9375,461559.4375,495749.5625,321845.71875,298988.125,293739.84375,296590.6875,0.012939453125,0.887451171875,-0.442626953125,1.0986326932907104,2.502441167831421,0.7934569716453552,100.0,30868.0,1.0
560191.7741079,308665.90625,296700.75,461242.9375,495286.78125,317699.03125,297827.09375,292253.1875,296097.78125,0.013671875,0.887939453125,-0.442138671875,1.0070799589157104,2.655029058456421,0.7934569716453552,100.0,30869.0,1.0
560191.7741477,308230.46875,296329.59375,460786.96875,495201.125,315809.0625,297627.09375,291757.78125,296032.25,0.013427734375,0.8896484375,-0.440673828125,1.0375975370407104,2.899169683456421,0.6713866591453552,100.0,30870.0,1.0
560191.7766462,307686.0,296515.21875,460870.28125,495637.09375,318853.28125,298704.34375,292971.03125,296510.03125,0.01123046875,0.891357421875,-0.438232421875,0.9460448622703552,2.929687261581421,0.6713866591453552,100.0,30871.0,1.0
560191.7789837,307725.0625,296924.4375,461306.78125,495959.3125,322641.90625,299549.6875,294212.53125,296858.28125,0.01171875,0.89306640625,-0.441162109375,1.0375975370407104,3.112792730331421,0.6713866591453552,100.0,30872.0,1.0
560191.7841188,308365.9375,297055.78125,461546.375,495726.9375,321834.5625,298977.21875,293726.6875,296593.34375,0.013427734375,0.896240234375,-0.44140625,1.0986326932907104,3.234863042831421,0.7324218153953552,100.0,30873.0,1.0
560191.7857021,308663.84375,296704.125,461235.34375,495273.03125,317702.0,297819.5,292242.8125,296110.28125,0.0126953125,0.90087890625,-0.43896484375,1.0681151151657104,3.387450933456421,0.8239745497703552,100.0,30874.0,1.0
560191.7929112,308228.4375,296332.375,460779.625,495183.53125,315832.21875,297622.25,291745.8125,296039.46875,0.013671875,0.903564453125,-0.440185546875,0.8544921278953552,3.417968511581421,0.9765624403953552,100.0,30875.0,1.0
560191.7978644,307668.03125,296499.5625,460847.21875,495605.0,318864.0,298688.0625,292943.40625,296493.84375,0.015380859375,0.906982421875,-0.4404296875,0.7324218153953552,3.509521245956421,1.1901854276657104,100.0,30876.0,1.0
560191.8004098,307716.84375,296914.34375,461294.4375,495937.75,322654.0625,299540.125,294191.96875,296849.25,0.0166015625,0.90625,-0.442626953125,0.5798339247703552,3.540038824081421,1.4648436307907104,100.0,30877.0,1.0
560191.8004517,308376.21875,297061.21875,461550.5,495721.9375,321865.40625,298982.125,293725.71875,296597.90625,0.01806640625,0.90478515625,-0.439453125,0.4577636420726776,3.509521245956421,1.7395018339157104,100.0,30878.0,1.0
560191.8027897,308666.96875,296710.9375,461235.34375,495259.15625,317738.90625,297823.59375,292243.34375,296098.125,0.019287109375,0.906494140625,-0.437744140625,0.2746581733226776,3.570556402206421,1.9531248807907104,100.0,30879.0,1.0
560191.8052685,308246.65625,296363.21875,460798.5,495185.9375,315900.4375,297648.4375,291777.28125,296039.125,0.017578125,0.90673828125,-0.438232421875,0.2136230319738388,3.601073980331421,2.166747808456421,100.0,30880.0,1.0
560191.8078099,307684.28125,296529.25,460862.40625,495606.6875,318932.21875,298709.875,292981.59375,296499.5625,0.01953125,0.9072265625,-0.4365234375,-0.03051757626235485,3.570556402206421,2.532958745956421,100.0,30881.0,1.0
560191.807849,307717.90625,296925.40625,461288.09375,495919.875,322699.75,299537.625,294206.90625,296828.125,0.019287109375,0.904052734375,-0.436279296875,-0.2441406100988388,3.479003667831421,2.685546636581421,100.0,30882.0,1.0
560191.8104876,308369.40625,297063.1875,461532.96875,495698.78125,321891.78125,298968.53125,293730.46875,296561.25,0.0166015625,0.906982421875,-0.435302734375,-0.3967284858226776,3.479003667831421,2.838134527206421,100.0,30883.0,1.0
560191.8166603,308671.71875,296732.03125,461237.46875,495256.9375,317797.84375,297829.21875,292277.25,296082.125,0.01611328125,0.906494140625,-0.434326171875,-0.6103515028953552,3.417968511581421,2.990722417831421,100.0,30884.0,1.0
560191.8167014,308248.71875,296384.40625,460804.375,495185.125,315979.21875,297652.125,291811.96875,296027.0625,0.01416015625,0.906494140625,-0.43505859375,-0.7629393935203552,3.265380620956421,2.990722417831421,100.0,30885.0,1.0
560191.8466212,307682.3125,296539.53125,460861.78125,495599.53125,319005.375,298704.0,293001.53125,296478.125,0.0146484375,0.907470703125,-0.43505859375,-0.8239745497703552,3.326415777206421,2.990722417831421,100.0,30886.0,1.0
560191.8466613,307727.75,296940.875,461292.90625,495919.6875,322774.40625,299545.9375,294230.0625,296813.375,0.015625,0.907470703125,-0.4365234375,-1.0070799589157104,3.265380620956421,3.051757574081421,100.0,30887.0,1.0
560191.8491839,308397.84375,297101.28125,461557.65625,495709.6875,321999.15625,299000.71875,293767.65625,296567.6875,0.0166015625,0.90576171875,-0.435791015625,-1.1291502714157104,3.204345464706421,2.960204839706421,100.0,30888.0,1.0
560191.8492207,308702.46875,296767.78125,461263.40625,495263.375,317925.6875,297866.25,292311.46875,296090.71875,0.0166015625,0.903564453125,-0.435546875,-1.1596678495407104,3.204345464706421,2.960204839706421,100.0,30889.0,1.0
560191.8517358,308274.8125,296417.21875,460822.625,495185.84375,316114.5625,297691.0,291845.84375,296035.8125,0.01708984375,0.903076171875,-0.434326171875,-1.3122557401657104,3.204345464706421,2.838134527206421,100.0,30890.0,1.0
560191.8590279,307709.40625,296579.78125,460883.5,495605.875,319157.09375,298756.5625,293053.75,296501.625,0.0166015625,0.90380859375,-0.435302734375,-1.4648436307907104,3.234863042831421,2.685546636581421,100.0,30891.0,1.0
560191.8614934,307753.0625,296981.84375,461314.53125,495927.375,322924.6875,299598.59375,294292.375,296847.375,0.017333984375,0.90087890625,-0.435791015625,-1.6174315214157104,3.387450933456421,2.471923589706421,100.0,30892.0,1.0
560191.8641143,308407.40625,297136.15625,461572.84375,495706.8125,322147.84375,299042.46875,293825.6875,296593.09375,0.020751953125,0.89892578125,-0.43603515625,-1.7700194120407104,3.570556402206421,2.197265386581421,100.0,30893.0,1.0
560191.8665053,308690.9375,296788.1875,461261.625,495243.6875,318067.40625,297885.65625,292347.40625,296095.625,0.0224609375,0.90087890625,-0.43408203125,-1.9836424589157104,3.692626714706421,2.014159917831421,100.0,30894.0,1.0
560191.8689988,308260.0,296424.8125,460817.1875,495163.9375,316250.28125,297703.15625,291873.75,296036.1875,0.0224609375,0.89892578125,-0.436767578125,-2.166747808456421,3.967284917831421,1.8920897245407104,100.0,30895.0,1.0
560191.870763,307700.5625,296576.71875,460877.53125,495587.90625,319269.90625,298759.6875,293071.625,296501.28125,0.02197265625,0.9013671875,-0.435302734375,-2.349853277206421,4.241942882537842,1.7700194120407104,100.0,30896.0,1.0
560191.9004339,307747.78125,296973.4375,461308.8125,495911.03125,323017.0625,299589.9375,294293.09375,296844.40625,0.023193359375,0.9013671875,-0.433837890625,-2.502441167831421,4.486083507537842,1.5869139432907104,100.0,30897.0,1.0
560191.9004737,308406.15625,297127.84375,461566.59375,495687.6875,322229.375,299026.46875,293808.15625,296587.53125,0.0224609375,0.90380859375,-0.4306640625,-2.716064214706421,4.760741710662842,1.5563963651657104,100.0,30898.0,1.0
560191.9027461,308705.84375,296798.0,461275.03125,495240.46875,318169.5,297887.0625,292343.40625,296105.5625,0.022216796875,0.9052734375,-0.430419921875,-2.838134527206421,5.157470226287842,1.5563963651657104,100.0,30899.0,1.0
560191.9054125,308272.5,296436.34375,460829.15625,495159.28125,316359.09375,297704.6875,291870.6875,296043.0625,0.021240234375,0.906494140625,-0.430419921875,-2.899169683456421,5.340575695037842,1.5258787870407104,100.0,30900.0,1.0
560191.9102897,307708.25,296589.15625,460880.5625,495575.84375,319376.3125,298759.34375,293067.875,296502.78125,0.01953125,0.907470703125,-0.430908203125,-3.051757574081421,5.523681163787842,1.4953612089157104,100.0,30901.0,1.0
