Time,FZ,C3,CZ,C4,PZ,PO7,OZ,PO8,AccX,AccY,AccZ,Gyro1,Gyro2,Gyro3,Battery,Counter,Validation
515725.3231588,284398.5,310617.46875,321509.90625,297492.15625,302058.28125,306208.53125,272970.78125,306018.71875,0.046875,0.95361328125,-0.30078125,-0.3967284858226776,1.9531248807907104,0.8544921278953552,80.0,1014838.0,1.0
515725.3231715,287666.96875,311344.875,321464.25,297298.875,300072.4375,305374.03125,272668.40625,305529.6875,0.04638671875,0.95654296875,-0.299072265625,-0.5187987685203552,1.9226073026657104,0.7324218153953552,80.0,1014839.0,1.0
515725.3254655,290423.03125,311423.46875,320674.9375,294318.75,296297.34375,303971.21875,272120.78125,304083.96875,0.046875,0.9560546875,-0.30029296875,-0.4272460639476776,1.9226073026657104,0.7324218153953552,80.0,1014840.0,1.0
515725.3280157,289018.0,310790.21875,320225.5,292548.84375,295824.0,303905.40625,272068.84375,303630.125,0.04736328125,0.95654296875,-0.301513671875,-0.4882812201976776,1.9836424589157104,0.6713866591453552,80.0,1014841.0,1.0
515725.3297235,285415.53125,310338.0625,320757.65625,294497.75,299350.40625,305280.59375,272586.78125,304809.9375,0.047119140625,0.95703125,-0.299560546875,-0.5493163466453552,2.014159917831421,0.7019042372703552,80.0,1014842.0,1.0
515725.3369005,284403.875,310624.09375,321509.46875,297483.59375,302050.84375,306203.34375,272957.8125,306011.40625,0.046630859375,0.955810546875,-0.300048828125,-0.5493163466453552,1.9836424589157104,0.6103515028953552,80.0,1014843.0,1.0
515725.3419007,287681.1875,311355.34375,321466.1875,297304.40625,300075.3125,305375.53125,272656.6875,305525.46875,0.04541015625,0.953857421875,-0.30126953125,-0.6103515028953552,1.8920897245407104,0.5493163466453552,80.0,1014844.0,1.0
515725.3444336,290445.1875,311439.84375,320678.53125,294338.59375,296302.4375,303974.09375,272105.15625,304076.53125,0.047119140625,0.95361328125,-0.304931640625,-0.6408690810203552,1.9531248807907104,0.4577636420726776,80.0,1014845.0,1.0
515725.3469164,289036.78125,310800.65625,320229.15625,292579.875,295828.5625,303904.25,272050.0625,303621.28125,0.04443359375,0.952392578125,-0.300537109375,-0.6408690810203552,1.9226073026657104,0.4577636420726776,80.0,1014846.0,1.0
515725.3494099,285426.78125,310345.65625,320758.8125,294530.5625,299352.90625,305275.03125,272574.53125,304805.46875,0.04443359375,0.952392578125,-0.2978515625,-0.7629393935203552,2.014159917831421,0.4272460639476776,80.0,1014847.0,1.0
515725.3517278,284395.65625,310620.0625,321499.375,297498.875,302036.375,306187.4375,272944.59375,305998.78125,0.04541015625,0.953125,-0.300048828125,-0.7629393935203552,1.9836424589157104,0.4577636420726776,80.0,1014848.0,1.0
515725.3542922,287661.40625,311336.46875,321448.21875,297307.53125,300044.75,305347.46875,272632.1875,305500.09375,0.046142578125,0.952880859375,-0.299072265625,-0.8239745497703552,2.014159917831421,0.5187987685203552,80.0,1014849.0,1.0
515725.3568809,290441.09375,311429.03125,320672.96875,294362.75,296291.53125,303959.0625,272092.625,304062.5,0.046630859375,0.95263671875,-0.29833984375,-0.9155272841453552,1.8920897245407104,0.5187987685203552,80.0,1014850.0,1.0
515725.3594214,289037.21875,310792.25,320231.59375,292611.0,295829.90625,303901.125,272053.1875,303616.0,0.046630859375,0.950439453125,-0.2978515625,-0.7324218153953552,1.9226073026657104,0.5493163466453552,80.0,1014851.0,1.0
515725.3618863,285421.875,310336.8125,320760.4375,294550.21875,299353.09375,305278.25,272577.03125,304799.21875,0.047607421875,0.951171875,-0.29833984375,-0.7629393935203552,1.9531248807907104,0.5798339247703552,80.0,1014852.0,1.0
515725.3643886,284385.09375,310616.40625,321502.40625,297512.375,302044.40625,306199.34375,272947.8125,305998.625,0.047119140625,0.951171875,-0.298828125,-0.7019042372703552,1.9226073026657104,0.5798339247703552,80.0,1014853.0,1.0
515725.3669283,287643.09375,311331.5625,321448.5,297315.40625,300055.03125,305358.0,272620.5,305501.34375,0.046142578125,0.952392578125,-0.298828125,-0.6713866591453552,2.044677495956421,0.5187987685203552,80.0,1014854.0,1.0
515725.3669482,290415.15625,311414.71875,320664.59375,294357.28125,296288.75,303954.0625,272059.8125,304053.9375,0.04541015625,0.950927734375,-0.29833984375,-0.7629393935203552,1.9836424589157104,0.7324218153953552,80.0,1014855.0,1.0
515725.371912,289025.59375,310794.21875,320223.34375,292608.5625,295827.5,303898.1875,272022.1875,303611.625,0.04443359375,0.952392578125,-0.2998046875,-0.7629393935203552,1.9531248807907104,0.6713866591453552,80.0,1014856.0,1.0
515725.3744358,285400.5,310329.5,320742.0,294531.0,299337.78125,305266.0,272545.65625,304787.34375,0.042724609375,0.9501953125,-0.300537109375,-0.7324218153953552,2.044677495956421,0.7629393935203552,80.0,1014857.0,1.0
515725.3768547,284358.09375,310600.125,321483.46875,297480.90625,302019.75,306179.5,272918.75,305981.0,0.045166015625,0.95166015625,-0.299560546875,-0.7324218153953552,1.9531248807907104,0.8239745497703552,80.0,1014858.0,1.0
515725.3768776,287624.9375,311321.375,321436.53125,297289.84375,300032.84375,305343.0,272609.5625,305490.34375,0.044189453125,0.95361328125,-0.2998046875,-0.7019042372703552,1.9531248807907104,0.8544921278953552,80.0,1014859.0,1.0
515725.3794217,290401.46875,311410.59375,320650.625,294336.1875,296270.78125,303941.0,272052.5625,304044.34375,0.0439453125,0.953369140625,-0.298583984375,-0.6408690810203552,1.9836424589157104,0.7324218153953552,80.0,1014860.0,1.0
515725.379452,288999.5,310776.25,320203.59375,292580.25,295804.0625,303876.1875,272005.90625,303594.5625,0.046630859375,0.95361328125,-0.298583984375,-0.6408690810203552,1.9836424589157104,0.7629393935203552,80.0,1014861.0,1.0
515725.3819391,285384.75,310322.0625,320737.53125,294514.09375,299327.78125,305261.0,272549.125,304786.6875,0.04541015625,0.9541015625,-0.299560546875,-0.6408690810203552,1.8310545682907104,0.8239745497703552,80.0,1014862.0,1.0
515725.4181737,284338.0625,310588.59375,321474.59375,297452.90625,302007.5,306174.46875,272925.1875,305979.84375,0.043212890625,0.95654296875,-0.297607421875,-0.6103515028953552,1.8310545682907104,0.8544921278953552,80.0,1014863.0,1.0
515725.4208086,287616.0,311319.21875,321435.90625,297269.90625,300036.96875,305348.1875,272620.21875,305497.5625,0.044677734375,0.954345703125,-0.2998046875,-0.6408690810203552,1.9226073026657104,0.8239745497703552,80.0,1014864.0,1.0
515725.4208616,290412.125,311420.0625,320664.84375,294332.0625,296287.40625,303957.8125,272076.4375,304067.4375,0.04638671875,0.955322265625,-0.300537109375,-0.7019042372703552,1.8310545682907104,0.8850097060203552,80.0,1014865.0,1.0
515725.4230891,289010.46875,310784.3125,320213.875,292572.1875,295812.46875,303889.3125,272024.6875,303612.34375,0.047119140625,0.95458984375,-0.29931640625,-0.7019042372703552,1.8310545682907104,0.9155272841453552,80.0,1014866.0,1.0
515725.4257328,285390.5625,310326.375,320737.09375,294498.28125,299326.25,305260.5625,272555.03125,304796.53125,0.046875,0.95556640625,-0.296630859375,-0.7324218153953552,1.8005369901657104,0.8850097060203552,80.0,1014867.0,1.0
515725.4280744,284339.15625,310584.46875,321472.0,297435.9375,302002.84375,306167.875,272925.8125,305984.5,0.046630859375,0.954345703125,-0.2978515625,-0.8239745497703552,1.8310545682907104,0.8239745497703552,80.0,1014868.0,1.0
515725.429791,287606.4375,311298.9375,321423.46875,297246.65625,300020.15625,305329.21875,272615.5625,305488.46875,0.046630859375,0.955810546875,-0.29833984375,-0.8850097060203552,1.8615721464157104,0.7629393935203552,80.0,1014869.0,1.0
515725.436833,290404.78125,311399.4375,320651.0,294312.9375,296272.46875,303936.53125,272067.6875,304050.71875,0.0458984375,0.953857421875,-0.299560546875,-0.9460448622703552,1.8920897245407104,0.8544921278953552,80.0,1014870.0,1.0
515725.4394187,288996.1875,310756.84375,320192.59375,292548.84375,295791.8125,303855.71875,272005.625,303590.0,0.04833984375,0.955322265625,-0.296630859375,-0.9460448622703552,1.9836424589157104,0.8239745497703552,80.0,1014871.0,1.0
515725.4419578,285357.9375,310284.25,320711.25,294461.1875,299293.53125,305222.125,272533.40625,304767.65625,0.0458984375,0.952880859375,-0.298095703125,-1.0070799589157104,1.9836424589157104,0.8544921278953552,80.0,1014872.0,1.0
515725.4443688,284319.5625,310565.53125,321467.09375,297423.84375,301991.40625,306155.78125,272927.25,305981.09375,0.045166015625,0.951171875,-0.301025390625,-1.0070799589157104,2.075195074081421,0.7629393935203552,80.0,1014873.0,1.0
515725.44698,287593.28125,311287.03125,321421.59375,297243.875,300013.71875,305322.875,272609.65625,305490.15625,0.044677734375,0.9521484375,-0.30029296875,-0.9460448622703552,2.044677495956421,0.7019042372703552,80.0,1014874.0,1.0
515725.4470198,290398.25,311391.46875,320648.5625,294317.875,296266.9375,303931.625,272059.8125,304054.90625,0.044189453125,0.95263671875,-0.300537109375,-1.0681151151657104,2.075195074081421,0.7324218153953552,80.0,1014875.0,1.0
515725.4493149,289009.3125,310764.28125,320206.0,292571.03125,295803.53125,303868.84375,272016.28125,303605.1875,0.043701171875,0.95166015625,-0.298583984375,-0.9460448622703552,2.136230230331421,0.8239745497703552,80.0,1014876.0,1.0
515725.4519316,285378.40625,310301.15625,320730.375,294487.71875,299311.40625,305243.125,272555.75,304788.59375,0.044189453125,0.953857421875,-0.301025390625,-0.8239745497703552,2.075195074081421,0.7934569716453552,80.0,1014877.0,1.0
515725.4543828,284318.9375,310564.375,321468.875,297422.25,301983.53125,306156.15625,272942.0,305984.03125,0.046875,0.9521484375,-0.298583984375,-0.8239745497703552,2.014159917831421,0.8850097060203552,80.0,1014878.0,1.0
515725.4544212,287601.96875,311300.4375,321439.125,297256.125,300025.15625,305338.53125,272644.1875,305505.96875,0.045654296875,0.952392578125,-0.29931640625,-0.7934569716453552,2.075195074081421,0.7934569716453552,80.0,1014879.0,1.0
515725.4570555,290419.8125,311413.09375,320674.25,294344.6875,296292.875,303953.96875,272095.3125,304074.125,0.046142578125,0.952880859375,-0.297119140625,-0.6713866591453552,2.105712652206421,0.7629393935203552,80.0,1014880.0,1.0
515725.4906526,289022.09375,310774.65625,320214.15625,292585.15625,295812.5625,303878.875,272037.0,303610.5625,0.0458984375,0.95361328125,-0.298095703125,-0.6408690810203552,2.105712652206421,0.7019042372703552,80.0,1014881.0,1.0
515725.4944804,285360.0,310282.625,320712.5,294468.96875,299289.875,305231.3125,272552.34375,304767.03125,0.04638671875,0.953125,-0.296630859375,-0.7019042372703552,1.9836424589157104,0.6713866591453552,80.0,1014882.0,1.0
515725.4945017,284291.9375,310540.125,321449.3125,297397.40625,301963.84375,306148.8125,272935.1875,305962.40625,0.045654296875,0.955078125,-0.294677734375,-0.7019042372703552,2.014159917831421,0.6713866591453552,80.0,1014883.0,1.0
515725.4945053,287577.5625,311275.9375,321420.25,297234.21875,300008.34375,305333.875,272638.46875,305489.4375,0.04638671875,0.955078125,-0.296630859375,-0.6713866591453552,1.9836424589157104,0.6103515028953552,80.0,1014884.0,1.0
515725.4969667,290401.3125,311396.90625,320658.21875,294323.84375,296276.59375,303951.375,272087.34375,304057.21875,0.047119140625,0.955810546875,-0.296630859375,-0.6408690810203552,2.105712652206421,0.6713866591453552,80.0,1014885.0,1.0
515725.5019426,289005.65625,310764.375,320202.25,292567.53125,295796.46875,303873.40625,272028.875,303596.53125,0.049072265625,0.955078125,-0.294921875,-0.5187987685203552,2.075195074081421,0.6713866591453552,80.0,1014886.0,1.0
515725.5019636,285340.40625,310270.40625,320698.1875,294446.6875,299273.96875,305222.03125,272545.375,304752.46875,0.049072265625,0.95556640625,-0.29736328125,-0.5187987685203552,2.166747808456421,0.6103515028953552,80.0,1014887.0,1.0
515725.5044182,284269.15625,310523.59375,321437.875,297372.625,301947.3125,306137.09375,272929.75,305947.84375,0.04833984375,0.9560546875,-0.298828125,-0.4882812201976776,2.227782964706421,0.6408690810203552,80.0,1014888.0,1.0
515725.5069414,287563.6875,311266.5625,321416.75,297222.5,300003.875,305325.5625,272637.75,305480.21875,0.048095703125,0.9560546875,-0.296142578125,-0.4882812201976776,2.166747808456421,0.6408690810203552,80.0,1014889.0,1.0
515725.5143018,290403.4375,311395.5625,320660.90625,294332.625,296283.84375,303946.09375,272094.40625,304057.6875,0.0458984375,0.95361328125,-0.298095703125,-0.4577636420726776,2.197265386581421,0.7019042372703552,80.0,1014890.0,1.0
515725.516776,289015.75,310762.21875,320201.53125,292578.8125,295799.5,303865.09375,272027.34375,303595.625,0.043212890625,0.95361328125,-0.296630859375,-0.5493163466453552,2.258300542831421,0.5798339247703552,80.0,1014891.0,1.0
515725.519316,285352.3125,310267.96875,320700.15625,294451.6875,299271.90625,305214.875,272540.46875,304752.09375,0.043212890625,0.9521484375,-0.297607421875,-0.4882812201976776,2.197265386581421,0.6713866591453552,80.0,1014892.0,1.0
515725.521792,284279.4375,310521.96875,321447.78125,297383.96875,301958.125,306140.875,272930.28125,305953.71875,0.04443359375,0.951904296875,-0.29931640625,-0.4882812201976776,2.166747808456421,0.7934569716453552,80.0,1014893.0,1.0
515725.5245221,287569.15625,311261.125,321427.84375,297231.625,300013.25,305330.75,272634.6875,305481.5625,0.041015625,0.9501953125,-0.29736328125,-0.4882812201976776,2.075195074081421,0.7324218153953552,80.0,1014894.0,1.0
515725.5268633,290408.28125,311388.96875,320671.65625,294335.21875,296290.53125,303953.875,272093.96875,304056.25,0.042236328125,0.94873046875,-0.301513671875,-0.2746581733226776,1.9836424589157104,0.7934569716453552,80.0,1014895.0,1.0
515725.5316238,289020.84375,310757.21875,320213.53125,292571.28125,295809.15625,303878.6875,272037.09375,303595.1875,0.04296875,0.953125,-0.298828125,-0.2136230319738388,1.9836424589157104,0.7934569716453552,80.0,1014896.0,1.0
515725.5316649,285361.96875,310272.4375,320713.75,294445.09375,299288.625,305233.8125,272554.78125,304759.34375,0.0439453125,0.950927734375,-0.298095703125,-0.2136230319738388,1.8615721464157104,0.8544921278953552,80.0,1014897.0,1.0
515725.5383142,284279.25,310521.90625,321446.0,297360.125,301954.28125,306141.5,272928.3125,305951.0625,0.044189453125,0.951171875,-0.2978515625,-0.1525878757238388,1.7089842557907104,0.9460448622703552,80.0,1014898.0,1.0
515725.5406198,287554.65625,311246.34375,321412.8125,297192.75,299997.25,305314.90625,272616.5625,305464.6875,0.043701171875,0.95458984375,-0.29541015625,-0.1220703050494194,1.6784666776657104,1.0986326932907104,80.0,1014899.0,1.0
515725.5457462,290402.28125,311378.15625,320662.96875,294306.6875,296280.0625,303941.90625,272075.5625,304045.96875,0.045654296875,0.95458984375,-0.2958984375,-0.1525878757238388,1.5258787870407104,1.0986326932907104,80.0,1014900.0,1.0
515725.5458031,289033.46875,310762.03125,320221.03125,292562.0,295807.65625,303880.375,272027.625,303598.75,0.0458984375,0.95458984375,-0.296875,-0.2441406100988388,1.5563963651657104,1.0986326932907104,80.0,1014901.0,1.0
515725.5480631,285373.5,310276.5625,320720.1875,294439.90625,299282.625,305235.78125,272547.25,304762.375,0.045654296875,0.95361328125,-0.2978515625,-0.3051757514476776,1.4953612089157104,1.1291502714157104,80.0,1014902.0,1.0
515725.5557253,284276.75,310517.875,321446.71875,297352.34375,301952.3125,306148.625,272925.4375,305944.4375,0.046630859375,0.95263671875,-0.298583984375,-0.3051757514476776,1.4953612089157104,1.1291502714157104,80.0,1014903.0,1.0
515725.5659426,287558.875,311253.5,321415.59375,297194.71875,300003.25,305326.71875,272618.78125,305460.84375,0.047119140625,0.954833984375,-0.296630859375,-0.1220703050494194,1.5258787870407104,1.0986326932907104,80.0,1014904.0,1.0
515725.5682382,290409.625,311388.78125,320663.3125,294316.59375,296286.15625,303945.375,272070.90625,304043.1875,0.04638671875,0.955078125,-0.296142578125,-0.1831054538488388,1.4648436307907104,1.0070799589157104,80.0,1014905.0,1.0
515725.5682785,289039.4375,310766.0625,320214.25,292572.09375,295808.375,303876.90625,272015.65625,303587.3125,0.049072265625,0.95458984375,-0.295654296875,-0.2746581733226776,1.4953612089157104,0.8850097060203552,80.0,1014906.0,1.0
515725.5706001,285396.21875,310297.3125,320727.78125,294464.40625,299296.5625,305243.5625,272548.59375,304760.40625,0.047119140625,0.956787109375,-0.299560546875,-0.3356933295726776,1.5869139432907104,0.9155272841453552,80.0,1014907.0,1.0
515725.5756984,284312.5,310550.0625,321461.90625,297386.75,301970.75,306154.53125,272930.5625,305953.1875,0.048828125,0.953857421875,-0.297607421875,-0.3356933295726776,1.4953612089157104,1.0986326932907104,80.0,1014908.0,1.0
515725.5782093,287607.59375,311301.6875,321444.84375,297253.71875,300039.625,305347.90625,272637.75,305489.4375,0.046875,0.95263671875,-0.29833984375,-0.4882812201976776,1.6479490995407104,0.9460448622703552,80.0,1014909.0,1.0
515725.5805904,290447.6875,311429.65625,320677.90625,294366.5,296308.96875,303955.40625,272075.8125,304057.40625,0.047607421875,0.951416015625,-0.299072265625,-0.5798339247703552,1.6784666776657104,0.8544921278953552,80.0,1014910.0,1.0
515725.5855893,289062.34375,310798.25,320216.125,292604.8125,295812.65625,303869.65625,272010.5625,303588.75,0.047607421875,0.9521484375,-0.29638671875,-0.4272460639476776,1.5563963651657104,0.7324218153953552,80.0,1014911.0,1.0
515725.5881545,285397.71875,310312.3125,320714.375,294475.84375,299281.5625,305226.3125,272535.71875,304751.46875,0.04638671875,0.950439453125,-0.298583984375,-0.4272460639476776,1.5563963651657104,0.6408690810203552,80.0,1014912.0,1.0
515725.5907575,284301.5,310561.5,321440.375,297389.625,301953.40625,306139.6875,272915.4375,305945.59375,0.046875,0.951416015625,-0.299072265625,-0.4272460639476776,1.6479490995407104,0.6103515028953552,80.0,1014913.0,1.0
515725.5907984,287584.34375,311299.03125,321420.0625,297245.40625,300015.21875,305327.34375,272618.15625,305475.59375,0.0458984375,0.949951171875,-0.300537109375,-0.2136230319738388,1.6479490995407104,0.6103515028953552,80.0,1014914.0,1.0
515725.6157432,290436.875,311435.1875,320672.96875,294368.46875,296301.96875,303954.0625,272078.9375,304057.40625,0.046142578125,0.9501953125,-0.30224609375,-0.2746581733226776,1.6174315214157104,0.4882812201976776,80.0,1014915.0,1.0
515725.6232908,289051.875,310802.90625,320210.46875,292602.0625,295805.9375,303869.65625,272014.9375,303590.25,0.04736328125,0.952392578125,-0.301513671875,-0.2441406100988388,1.6174315214157104,0.3356933295726776,80.0,1014916.0,1.0
515725.6233254,285381.625,310310.90625,320701.40625,294464.3125,299268.6875,305215.59375,272530.625,304745.65625,0.047119140625,0.9541015625,-0.300537109375,-0.2441406100988388,1.6479490995407104,0.3662109076976776,80.0,1014917.0,1.0
515725.6233338,284287.8125,310557.125,321433.5625,297380.6875,301942.5625,306130.3125,272914.90625,305942.46875,0.04638671875,0.955078125,-0.298095703125,-0.1831054538488388,1.5869139432907104,0.3662109076976776,80.0,1014918.0,1.0
515725.6233427,287564.5,311292.59375,321407.5625,297232.4375,300007.28125,305321.53125,272615.5625,305470.5625,0.0478515625,0.954833984375,-0.296630859375,-0.1525878757238388,1.7395018339157104,0.4272460639476776,80.0,1014919.0,1.0
515725.6271824,290392.53125,311406.40625,320633.5625,294333.78125,296271.21875,303928.75,272053.5625,304031.9375,0.04736328125,0.955810546875,-0.299072265625,-0.03051757626235485,1.7089842557907104,0.5187987685203552,80.0,1014920.0,1.0
515725.6272181,289017.28125,310780.8125,320177.84375,292579.34375,295780.90625,303854.375,271995.1875,303576.84375,0.047119140625,0.95556640625,-0.298828125,-0.1220703050494194,1.7700194120407104,0.5493163466453552,80.0,1014921.0,1.0
515725.627228,285356.34375,310294.875,320680.75,294451.25,299251.96875,305214.25,272520.71875,304746.65625,0.04345703125,0.955078125,-0.300537109375,-0.2441406100988388,1.8310545682907104,0.5493163466453552,80.0,1014922.0,1.0
515725.6293605,284254.375,310536.71875,321414.15625,297365.375,301926.65625,306128.875,272906.125,305942.125,0.044189453125,0.95654296875,-0.300048828125,-0.2441406100988388,1.8920897245407104,0.5798339247703552,80.0,1014923.0,1.0
515725.6319067,287524.1875,311265.3125,321390.46875,297217.5,299988.5,305313.3125,272611.375,305471.75,0.045654296875,0.95751953125,-0.30126953125,-0.2441406100988388,1.8310545682907104,0.7019042372703552,80.0,1014924.0,1.0
515725.6344763,290365.34375,311387.625,320640.25,294336.0,296271.125,303934.375,272069.65625,304049.28125,0.044189453125,0.955078125,-0.299560546875,-0.3051757514476776,1.8005369901657104,0.7324218153953552,80.0,1014925.0,1.0
515725.6431737,288988.5,310757.5625,320184.90625,292577.5625,295776.625,303854.90625,272008.21875,303584.0,0.043212890625,0.955078125,-0.30078125,-0.3356933295726776,1.7700194120407104,0.7934569716453552,80.0,1014926.0,1.0
515725.6890987,285322.34375,310266.28125,320676.90625,294436.9375,299234.53125,305200.5625,272522.125,304738.78125,0.04296875,0.954833984375,-0.30029296875,-0.3356933295726776,1.5563963651657104,0.8544921278953552,80.0,1014927.0,1.0
515725.6891413,284216.75,310510.28125,321402.09375,297347.875,301909.3125,306112.34375,272901.03125,305931.8125,0.041259765625,0.950927734375,-0.299072265625,-0.3967284858226776,1.6174315214157104,0.7324218153953552,80.0,1014928.0,1.0
515725.6958356,287490.65625,311247.875,321379.75,297208.84375,299982.875,305304.46875,272603.5,305464.6875,0.042724609375,0.949462890625,-0.300048828125,-0.3662109076976776,1.5563963651657104,0.7324218153953552,80.0,1014929.0,1.0
515725.6958726,290331.65625,311369.03125,320618.71875,294321.09375,296252.8125,303918.28125,272050.875,304032.09375,0.0439453125,0.94921875,-0.298828125,-0.3662109076976776,1.5258787870407104,0.7019042372703552,80.0,1014930.0,1.0
515725.6958826,288946.28125,310729.59375,320150.65625,292547.78125,295747.125,303831.375,271986.78125,303558.34375,0.04541015625,0.951171875,-0.30224609375,-0.3662109076976776,1.4953612089157104,0.7019042372703552,80.0,1014931.0,1.0
515725.6982838,285284.1875,310244.8125,320652.78125,294408.0625,299215.3125,305188.40625,272513.28125,304721.0,0.047119140625,0.951904296875,-0.30126953125,-0.3051757514476776,1.5869139432907104,0.6713866591453552,80.0,1014932.0,1.0
515725.6983191,284183.65625,310488.90625,321390.84375,297318.53125,301894.21875,306107.875,272898.53125,305919.40625,0.049560546875,0.953369140625,-0.29736328125,-0.1831054538488388,1.4953612089157104,0.6408690810203552,80.0,1014933.0,1.0
515725.7008757,287458.375,311218.1875,321367.6875,297173.0625,299960.78125,305294.34375,272597.0625,305447.875,0.050537109375,0.953125,-0.299560546875,-0.03051757626235485,1.5869139432907104,0.7324218153953552,80.0,1014934.0,1.0
515725.7009147,290306.78125,311341.84375,320608.4375,294286.65625,296237.34375,303907.21875,272044.625,304018.34375,0.052978515625,0.95361328125,-0.299072265625,-0.0915527269244194,1.5869139432907104,0.8544921278953552,80.0,1014935.0,1.0
515725.7032468,288937.4375,310714.46875,320149.25,292520.96875,295742.28125,303827.1875,271990.0,303557.1875,0.0546875,0.953125,-0.298095703125,-0.1220703050494194,1.8005369901657104,0.8239745497703552,80.0,1014936.0,1.0
515725.7081078,285268.4375,310218.8125,320639.625,294371.40625,299199.03125,305175.71875,272512.46875,304715.90625,0.052001953125,0.95263671875,-0.29541015625,-0.1525878757238388,2.044677495956421,0.8850097060203552,80.0,1014937.0,1.0
515725.7106732,284157.375,310456.1875,321368.46875,297276.59375,301873.375,306088.28125,272892.375,305909.03125,0.051025390625,0.952880859375,-0.297607421875,-0.1220703050494194,2.044677495956421,0.9155272841453552,80.0,1014938.0,1.0
515725.7131583,287437.53125,311195.3125,321353.46875,297142.59375,299953.09375,305283.625,272597.5,305442.78125,0.04931640625,0.949462890625,-0.298583984375,-0.1220703050494194,2.105712652206421,0.9765624403953552,80.0,1014939.0,1.0
515725.7157212,290302.3125,311331.5625,320609.0625,294275.5625,296244.5,303910.4375,272053.65625,304022.0,0.045166015625,0.94921875,-0.297607421875,-0.1220703050494194,2.136230230331421,0.8850097060203552,80.0,1014940.0,1.0
515725.7181789,288950.9375,310720.90625,320163.4375,292529.28125,295763.46875,303845.15625,272007.78125,303571.65625,0.043212890625,0.950927734375,-0.296875,-0.1220703050494194,2.075195074081421,0.8544921278953552,80.0,1014941.0,1.0
515725.7205635,285277.21875,310221.125,320656.71875,294374.625,299218.71875,305193.15625,272529.375,304725.1875,0.04443359375,0.95166015625,-0.298828125,-0.1525878757238388,2.075195074081421,0.7934569716453552,80.0,1014942.0,1.0
515725.7257266,284152.46875,310437.125,321374.8125,297263.65625,301874.4375,306089.53125,272897.5625,305900.96875,0.045166015625,0.9521484375,-0.301025390625,-0.1525878757238388,2.075195074081421,0.6713866591453552,80.0,1014943.0,1.0
515725.7280846,287419.75,311161.875,321346.40625,297120.21875,299942.28125,305271.46875,272588.84375,305425.25,0.04443359375,0.950927734375,-0.300048828125,-0.1831054538488388,2.014159917831421,0.6103515028953552,80.0,1014944.0,1.0
515725.7307436,290288.28125,311303.21875,320603.96875,294256.34375,296234.46875,303900.59375,272048.90625,304012.15625,0.045166015625,0.9521484375,-0.298828125,-0.1831054538488388,1.9836424589157104,0.5493163466453552,80.0,1014945.0,1.0
515725.7307826,288933.9375,310685.96875,320156.21875,292497.8125,295741.40625,303828.09375,272001.4375,303556.90625,0.045166015625,0.95361328125,-0.298095703125,-0.1831054538488388,1.9836424589157104,0.5493163466453552,80.0,1014946.0,1.0
515725.7357067,285261.28125,310187.6875,320645.28125,294337.96875,299190.8125,305172.3125,272519.28125,304708.03125,0.04443359375,0.952392578125,-0.30078125,-0.2441406100988388,1.9531248807907104,0.4882812201976776,80.0,1014947.0,1.0
515725.7377403,284150.6875,310424.53125,321375.46875,297245.40625,301867.21875,306085.34375,272895.78125,305897.40625,0.044921875,0.953369140625,-0.301513671875,-0.1831054538488388,1.8615721464157104,0.4577636420726776,80.0,1014948.0,1.0
515725.7377756,287434.15625,311168.125,321363.90625,297122.8125,299953.09375,305284.53125,272601.96875,305436.59375,0.044677734375,0.955078125,-0.302001953125,-0.3662109076976776,1.9531248807907104,0.3967284858226776,80.0,1014949.0,1.0
515725.7444238,290294.71875,311302.9375,320612.53125,294254.125,296241.4375,303909.09375,272057.03125,304016.46875,0.04150390625,0.954833984375,-0.301025390625,-0.3967284858226776,1.8615721464157104,0.2746581733226776,80.0,1014950.0,1.0
515725.7469869,288940.21875,310679.78125,320159.875,292492.4375,295742.75,303830.0625,272003.03125,303554.9375,0.04248046875,0.954345703125,-0.301513671875,-0.4272460639476776,1.8005369901657104,0.2441406100988388,80.0,1014951.0,1.0
515725.7470278,285266.125,310176.96875,320649.1875,294329.65625,299186.0625,305168.28125,272515.53125,304702.65625,0.04296875,0.952392578125,-0.302001953125,-0.4272460639476776,1.8615721464157104,0.2136230319738388,80.0,1014952.0,1.0
515725.7493509,284136.09375,310398.59375,321370.34375,297226.53125,301857.0,306076.9375,272888.78125,305886.0625,0.041259765625,0.9541015625,-0.302001953125,-0.4882812201976776,1.7089842557907104,0.0610351525247097,80.0,1014953.0,1.0
515725.7557181,287418.40625,311143.53125,321361.40625,297112.625,299954.25,305282.09375,272599.21875,305432.21875,0.04248046875,0.955322265625,-0.30078125,-0.5187987685203552,1.6174315214157104,-0.03051757626235485,80.0,1014954.0,1.0
515725.7582204,290285.15625,311277.90625,320610.3125,294244.8125,296235.09375,303899.15625,272046.9375,304008.15625,0.042724609375,0.956787109375,-0.302001953125,-0.5798339247703552,1.5258787870407104,-0.0610351525247097,80.0,1014955.0,1.0
515725.7582585,288929.9375,310654.3125,320154.875,292479.84375,295731.5625,303816.46875,271991.15625,303544.21875,0.044189453125,0.95654296875,-0.298828125,-0.5187987685203552,1.6174315214157104,-0.03051757626235485,80.0,1014956.0,1.0
515725.760599,285252.0,310150.40625,320646.34375,294315.0,299178.84375,305161.3125,272508.625,304693.90625,0.044189453125,0.955322265625,-0.29833984375,-0.6408690810203552,1.5869139432907104,-0.03051757626235485,80.0,1014957.0,1.0
515725.7905776,284116.25,310371.96875,321357.84375,297204.46875,301840.65625,306062.09375,272873.3125,305872.71875,0.04296875,0.954833984375,-0.29833984375,-0.6103515028953552,1.5563963651657104,0.1220703050494194,80.0,1014958.0,1.0
515725.7956285,287375.0625,311095.15625,321330.75,297069.8125,299917.34375,305245.0,272566.21875,305400.75,0.044921875,0.955810546875,-0.30224609375,-0.6408690810203552,1.4953612089157104,0.3051757514476776,80.0,1014959.0,1.0
515725.7956859,290244.03125,311234.09375,320595.5625,294213.15625,296216.78125,303877.4375,272034.78125,303989.1875,0.04345703125,0.955810546875,-0.3017578125,-0.5493163466453552,1.5869139432907104,0.3051757514476776,80.0,1014960.0,1.0
515725.7981201,288891.75,310617.375,320141.1875,292449.96875,295714.84375,303800.09375,271986.21875,303530.8125,0.045166015625,0.956298828125,-0.298583984375,-0.6103515028953552,1.7700194120407104,0.3662109076976776,80.0,1014961.0,1.0
515725.8005733,285226.6875,310128.3125,320635.0625,294286.75,299163.90625,305150.40625,272509.8125,304690.6875,0.04296875,0.955810546875,-0.297607421875,-0.7019042372703552,1.7395018339157104,0.4272460639476776,80.0,1014962.0,1.0
515725.8057084,284114.375,310369.46875,321371.0625,297196.21875,301850.9375,306074.34375,272895.5,305895.4375,0.04296875,0.954833984375,-0.297119140625,-0.7019042372703552,1.8005369901657104,0.6103515028953552,80.0,1014963.0,1.0
515725.8130633,287399.46875,311117.15625,321367.40625,297087.875,299955.34375,305286.9375,272615.125,305451.53125,0.04248046875,0.95458984375,-0.30078125,-0.6408690810203552,1.8310545682907104,0.7934569716453552,80.0,1014964.0,1.0
515725.8155207,290257.875,311240.53125,320608.4375,294214.59375,296229.75,303899.875,272058.75,304021.75,0.0419921875,0.955810546875,-0.299560546875,-0.6713866591453552,1.9226073026657104,0.9155272841453552,80.0,1014965.0,1.0
515725.8180342,288906.875,310617.65625,320151.28125,292449.4375,295722.96875,303821.09375,272001.96875,303559.40625,0.04296875,0.955322265625,-0.29931640625,-0.7934569716453552,1.8310545682907104,1.1291502714157104,80.0,1014966.0,1.0
515725.8230366,285235.1875,310122.4375,320641.875,294282.53125,299168.625,305171.40625,272519.90625,304711.25,0.044677734375,0.9541015625,-0.30029296875,-0.6713866591453552,1.8615721464157104,1.3427733182907104,80.0,1014967.0,1.0
515725.8255391,284104.1875,310344.5,321365.71875,297177.28125,301842.96875,306084.53125,272896.3125,305897.40625,0.044189453125,0.950927734375,-0.29931640625,-0.7629393935203552,1.8920897245407104,1.5258787870407104,80.0,1014968.0,1.0
515725.8280627,287381.5625,311081.84375,321348.625,297063.0,299936.71875,305279.78125,272600.09375,305438.3125,0.04541015625,0.948486328125,-0.2998046875,-0.7324218153953552,1.9226073026657104,1.4953612089157104,80.0,1014969.0,1.0
515725.8329329,290266.28125,311235.28125,320605.21875,294219.0625,296235.0,303909.625,272059.0,304025.40625,0.046630859375,0.9462890625,-0.298095703125,-0.7019042372703552,1.8615721464157104,1.6174315214157104,80.0,1014970.0,1.0
515725.8354356,288915.0,310611.375,320145.84375,292447.46875,295724.21875,303825.84375,271998.40625,303555.125,0.046630859375,0.94677734375,-0.29931640625,-0.5187987685203552,1.9836424589157104,1.5869139432907104,80.0,1014971.0,1.0
515725.8379337,285227.59375,310094.78125,320623.0,294256.875,299149.25,305156.40625,272504.53125,304691.65625,0.046875,0.94580078125,-0.297607421875,-0.5187987685203552,2.014159917831421,1.6174315214157104,80.0,1014972.0,1.0
515725.8492341,284089.4375,310319.75,321341.75,297146.875,301820.53125,306063.875,272874.5,305878.53125,0.047119140625,0.947509765625,-0.301513671875,-0.4882812201976776,2.075195074081421,1.6479490995407104,80.0,1014973.0,1.0
515725.8492423,287371.75,311065.125,321331.375,297038.25,299920.71875,305267.09375,272581.9375,305424.96875,0.0498046875,0.94970703125,-0.3017578125,-0.3051757514476776,2.166747808456421,1.6174315214157104,80.0,1014974.0,1.0
515725.8516884,290261.46875,311214.875,320594.125,294194.46875,296222.21875,303897.09375,272040.3125,304010.65625,0.05126953125,0.9501953125,-0.29931640625,-0.3356933295726776,2.258300542831421,1.4648436307907104,80.0,1014975.0,1.0
515725.8541837,288918.5625,310599.9375,320143.0625,292432.71875,295719.6875,303819.0625,271986.84375,303547.0625,0.051025390625,0.94873046875,-0.300537109375,-0.3967284858226776,2.410888433456421,1.2207030057907104,80.0,1014976.0,1.0
515725.8569007,285236.34375,310092.28125,320626.3125,294249.28125,299155.9375,305162.46875,272507.125,304691.3125,0.05224609375,0.9482421875,-0.29833984375,-0.3356933295726776,2.502441167831421,1.0375975370407104,80.0,1014977.0,1.0
515725.8569143,284101.5,310310.53125,321348.625,297136.6875,301826.15625,306073.71875,272889.6875,305877.1875,0.05322265625,0.9501953125,-0.29931640625,-0.3662109076976776,2.593993902206421,0.8544921278953552,80.0,1014978.0,1.0
515725.8594381,287376.3125,311046.1875,321334.78125,297020.09375,299924.3125,305270.46875,272589.71875,305413.28125,0.052978515625,0.950439453125,-0.298828125,-0.3662109076976776,2.716064214706421,0.8544921278953552,80.0,1014979.0,1.0
515725.8619176,290265.75,311199.25,320596.1875,294177.40625,296227.6875,303899.4375,272038.4375,303995.8125,0.052978515625,0.950927734375,-0.298095703125,-0.4577636420726776,2.838134527206421,0.7934569716453552,80.0,1014980.0,1.0
515725.8643993,288933.0625,310599.6875,320144.84375,292421.1875,295724.15625,303818.6875,271976.75,303536.34375,0.051513671875,0.950927734375,-0.298583984375,-0.6713866591453552,2.929687261581421,0.5798339247703552,80.0,1014981.0,1.0
515725.8667483,285246.8125,310093.28125,320622.90625,294238.8125,299151.8125,305149.96875,272486.1875,304676.03125,0.05224609375,0.951416015625,-0.299072265625,-0.6103515028953552,3.051757574081421,0.4882812201976776,80.0,1014982.0,1.0
515725.8667606,284110.0,310320.8125,321345.9375,297134.375,301828.21875,306064.15625,272864.84375,305862.4375,0.04931640625,0.951416015625,-0.296630859375,-0.6713866591453552,3.051757574081421,0.4577636420726776,80.0,1014983.0,1.0
515725.8906683,287389.625,311061.28125,321331.46875,297019.21875,299922.96875,305260.65625,272565.78125,305399.78125,0.047119140625,0.950927734375,-0.296875,-0.8239745497703552,3.112792730331421,0.3662109076976776,80.0,1014984.0,1.0
515725.9019669,290275.6875,311209.625,320590.5625,294171.15625,296218.5625,303882.09375,272018.6875,303978.46875,0.04833984375,0.951416015625,-0.298828125,-0.7934569716453552,3.112792730331421,0.2136230319738388,80.0,1014985.0,1.0
515725.9019849,288930.65625,310596.375,320134.75,292404.0,295705.28125,303796.0625,271962.53125,303512.84375,0.045166015625,0.951904296875,-0.29931640625,-0.6713866591453552,3.143310308456421,0.1220703050494194,80.0,1014986.0,1.0
515725.9019887,285248.875,310094.96875,320617.625,294217.0,299135.03125,305132.96875,272473.59375,304654.125,0.044921875,0.9541015625,-0.298828125,-0.6103515028953552,3.143310308456421,0.1220703050494194,80.0,1014987.0,1.0
515725.9043845,284128.3125,310342.625,321356.0625,297133.03125,301832.25,306062.53125,272863.6875,305857.09375,0.044677734375,0.9580078125,-0.297119140625,-0.6713866591453552,3.021239995956421,0.0610351525247097,80.0,1014988.0,1.0
515725.906916,287425.375,311106.875,321358.375,297058.1875,299955.78125,305276.90625,272580.53125,305416.5,0.0439453125,0.958984375,-0.298583984375,-0.7934569716453552,3.082275152206421,0.0915527269244194,80.0,1014989.0,1.0
515725.9119331,290310.1875,311250.65625,320613.96875,294222.8125,296248.15625,303897.90625,272030.40625,303996.34375,0.04248046875,0.959716796875,-0.296630859375,-0.8850097060203552,3.051757574081421,0.0,80.0,1014990.0,1.0
515725.9119579,288974.28125,310635.09375,320160.9375,292465.71875,295734.78125,303817.96875,271973.71875,303529.1875,0.0419921875,0.95947265625,-0.29931640625,-0.9460448622703552,3.082275152206421,0.03051757626235485,80.0,1014991.0,1.0
515725.9143609,285305.09375,310144.0625,320651.71875,294302.125,299176.59375,305169.53125,272496.21875,304681.1875,0.041015625,0.958984375,-0.297607421875,-0.9765624403953552,2.990722417831421,0.0915527269244194,80.0,1014992.0,1.0
515725.9167712,284165.25,310375.8125,321377.5,297215.8125,301864.625,306089.09375,272875.46875,305874.53125,0.041748046875,0.958251953125,-0.2998046875,-1.0070799589157104,2.868652105331421,0.1525878757238388,80.0,1014993.0,1.0
515725.9194347,287449.09375,311125.21875,321370.71875,297133.1875,299974.09375,305293.28125,272579.4375,305427.9375,0.041015625,0.959228515625,-0.298095703125,-1.2207030057907104,2.838134527206421,0.2746581733226776,80.0,1014994.0,1.0
515725.9218406,290337.375,311270.40625,320628.8125,294303.5625,296263.28125,303910.25,272027.8125,304014.5,0.040771484375,0.957275390625,-0.296875,-1.2207030057907104,2.746581792831421,0.3356933295726776,80.0,1014995.0,1.0
515725.9243082,288972.84375,310632.84375,320157.375,292519.71875,295726.90625,303805.90625,271950.90625,303530.71875,0.041259765625,0.957763671875,-0.29443359375,-1.2817381620407104,2.624511480331421,0.5798339247703552,80.0,1014996.0,1.0
515725.9269997,285300.90625,310141.09375,320643.3125,294346.28125,299168.46875,305157.03125,272468.21875,304680.9375,0.0419921875,0.955078125,-0.2958984375,-1.3122557401657104,2.563476324081421,0.5798339247703552,80.0,1014997.0,1.0
515725.9270411,284185.375,310392.96875,321384.46875,297276.96875,301877.65625,306094.28125,272859.03125,305888.1875,0.041748046875,0.953857421875,-0.29443359375,-1.3427733182907104,2.410888433456421,0.6408690810203552,80.0,1014998.0,1.0
515725.9294485,287474.65625,311149.8125,321379.75,297199.8125,299992.0,305299.09375,272572.75,305441.78125,0.042724609375,0.953125,-0.298095703125,-1.3427733182907104,2.410888433456421,0.7324218153953552,80.0,1014999.0,1.0
515725.9656423,290363.75,311301.875,320637.84375,294371.59375,296282.40625,303920.875,272034.6875,304032.46875,0.04248046875,0.952880859375,-0.299072265625,-1.3122557401657104,2.288818120956421,0.7629393935203552,80.0,1015000.0,1.0
515725.9656816,288985.1875,310655.375,320151.5625,292566.28125,295732.71875,303809.9375,271958.59375,303538.59375,0.042236328125,0.953125,-0.29736328125,-1.1901854276657104,2.197265386581421,0.8239745497703552,80.0,1015001.0,1.0
515725.9682459,285301.15625,310157.75,320632.3125,294371.15625,299169.96875,305156.84375,272477.0,304679.40625,0.043701171875,0.952392578125,-0.29736328125,-1.1901854276657104,2.197265386581421,0.8544921278953552,80.0,1015002.0,1.0
515725.9682817,284193.78125,310416.125,321378.5,297295.125,301882.9375,306094.90625,272866.625,305884.25,0.043701171875,0.95263671875,-0.298095703125,-1.1291502714157104,2.197265386581421,0.8544921278953552,80.0,1015003.0,1.0
515725.998113,287497.4375,311181.8125,321380.5625,297224.65625,300007.1875,305301.59375,272578.46875,305444.90625,0.04345703125,0.953125,-0.296142578125,-1.1291502714157104,2.105712652206421,0.7934569716453552,80.0,1015004.0,1.0
515725.9981486,290364.28125,311308.3125,320615.59375,294357.125,296265.15625,303894.0625,272010.5625,304011.28125,0.042236328125,0.951171875,-0.29345703125,-1.0375975370407104,2.136230230331421,0.7019042372703552,80.0,1015005.0,1.0
515725.9981572,289001.375,310676.84375,320147.0,292553.3125,295725.3125,303798.9375,271949.65625,303535.1875,0.044921875,0.948974609375,-0.2939453125,-1.0375975370407104,2.105712652206421,0.6713866591453552,80.0,1015006.0,1.0
515725.9981654,285321.90625,310180.34375,320633.03125,294350.6875,299164.15625,305150.6875,272471.875,304676.375,0.0458984375,0.947509765625,-0.292724609375,-1.1291502714157104,2.105712652206421,0.6103515028953552,80.0,1015007.0,1.0
515725.9981732,284210.40625,310442.78125,321379.5625,297275.625,301885.625,306094.09375,272865.8125,305883.09375,0.047119140625,0.945068359375,-0.29541015625,-1.0375975370407104,2.197265386581421,0.6408690810203552,80.0,1015008.0,1.0
515725.9981821,287504.34375,311202.90625,321377.0625,297199.1875,300006.5625,305297.125,272571.75,305436.96875,0.048583984375,0.945556640625,-0.298583984375,-0.8544921278953552,2.166747808456421,0.6408690810203552,80.0,1015009.0,1.0
515726.002137,290376.8125,311335.59375,320618.28125,294337.8125,296277.3125,303900.21875,272015.65625,304011.53125,0.048095703125,0.947509765625,-0.298828125,-0.7019042372703552,2.258300542831421,0.6103515028953552,80.0,1015010.0,1.0
515726.0021741,289012.1875,310697.5,320149.78125,292530.875,295737.375,303802.6875,271951.375,303531.4375,0.04736328125,0.950927734375,-0.29736328125,-0.4577636420726776,2.288818120956421,0.5493163466453552,80.0,1015011.0,1.0
515726.0021838,285332.625,310200.125,320641.59375,294340.75,299179.375,305154.78125,272476.28125,304680.75,0.04833984375,0.951416015625,-0.29638671875,-0.4272460639476776,2.349853277206421,0.6408690810203552,80.0,1015012.0,1.0
515726.0044935,284211.65625,310449.84375,321376.4375,297263.28125,301891.625,306084.96875,272856.875,305879.34375,0.050048828125,0.9541015625,-0.29638671875,-0.4272460639476776,2.380370855331421,0.6103515028953552,80.0,1015013.0,1.0
515726.0070437,287501.21875,311206.03125,321372.25,297186.40625,300012.5625,305288.1875,272556.1875,305429.90625,0.05126953125,0.9560546875,-0.295166015625,-0.3967284858226776,2.471923589706421,0.5493163466453552,80.0,1015014.0,1.0
515726.0093651,290385.90625,311345.15625,320621.03125,294333.5,296281.15625,303892.46875,272001.875,304007.6875,0.049072265625,0.954833984375,-0.293212890625,-0.4272460639476776,2.624511480331421,0.5798339247703552,80.0,1015015.0,1.0
515726.0171833,289030.6875,310713.9375,320155.40625,292539.09375,295740.25,303798.5,271944.84375,303532.15625,0.050537109375,0.954833984375,-0.2939453125,-0.4577636420726776,2.716064214706421,0.5798339247703552,80.0,1015016.0,1.0
515726.0843142,285347.5625,310214.96875,320639.53125,294348.625,299177.3125,305151.125,272465.1875,304675.21875,0.05029296875,0.953857421875,-0.294677734375,-0.3967284858226776,2.685546636581421,0.6408690810203552,80.0,1015017.0,1.0
515726.0868276,284212.625,310453.9375,321372.0625,297275.0,301886.59375,306088.1875,272851.5,305875.84375,0.044677734375,0.954345703125,-0.29638671875,-0.3356933295726776,2.777099370956421,0.7019042372703552,80.0,1015018.0,1.0
515726.089325,287498.96875,311202.8125,321366.5,297202.5,300006.5625,305293.28125,272565.78125,305430.53125,0.04248046875,0.9541015625,-0.29736328125,-0.3051757514476776,2.777099370956421,0.6713866591453552,80.0,1015019.0,1.0
515726.0943245,290394.59375,311348.1875,320620.40625,294364.8125,296287.21875,303903.53125,272020.375,304016.65625,0.04248046875,0.952880859375,-0.296875,-0.2746581733226776,2.777099370956421,0.6408690810203552,80.0,1015020.0,1.0
515726.0969803,289045.8125,310721.4375,320152.625,292576.21875,295744.53125,303805.5625,271955.65625,303540.71875,0.043701171875,0.952392578125,-0.297119140625,-0.1831054538488388,2.746581792831421,0.3967284858226776,80.0,1015021.0,1.0
515726.0993159,285362.84375,310224.25,320637.03125,294380.09375,299174.90625,305149.875,272473.78125,304679.6875,0.04248046875,0.95458984375,-0.296875,-0.2441406100988388,2.624511480331421,0.4577636420726776,80.0,1015022.0,1.0
515726.101947,284229.53125,310470.03125,321374.65625,297301.09375,301884.71875,306080.25,272859.28125,305878.90625,0.041748046875,0.954833984375,-0.29638671875,-0.3967284858226776,2.593993902206421,0.3356933295726776,80.0,1015023.0,1.0
515726.1043153,287500.84375,311207.90625,321365.71875,297223.9375,300001.90625,305277.8125,272565.0625,305426.40625,0.0419921875,0.95458984375,-0.295166015625,-0.3051757514476776,2.563476324081421,0.3051757514476776,80.0,1015024.0,1.0
515726.106956,290403.4375,311361.875,320631.125,294402.96875,296295.09375,303901.40625,272030.9375,304018.53125,0.041748046875,0.951904296875,-0.298095703125,-0.2746581733226776,2.532958745956421,0.3051757514476776,80.0,1015025.0,1.0
515726.1093179,289067.78125,310745.6875,320174.71875,292627.25,295763.75,303815.65625,271978.90625,303551.625,0.0419921875,0.95263671875,-0.300537109375,-0.2441406100988388,2.502441167831421,0.3051757514476776,80.0,1015026.0,1.0
515726.1118314,285368.65625,310235.0625,320646.15625,294417.46875,299185.53125,305152.65625,272488.15625,304683.71875,0.041748046875,0.94970703125,-0.30029296875,-0.1220703050494194,2.441406011581421,0.2746581733226776,80.0,1015027.0,1.0
515726.1144348,284235.4375,310481.65625,321383.21875,297338.9375,301897.78125,306089.8125,272879.59375,305892.03125,0.042236328125,0.951904296875,-0.297607421875,-0.1220703050494194,2.410888433456421,0.2441406100988388,80.0,1015028.0,1.0
515726.1193279,287523.46875,311238.9375,321387.34375,297282.6875,300030.875,305304.09375,272597.5,305460.21875,0.04296875,0.952392578125,-0.29833984375,-0.0915527269244194,2.288818120956421,0.2136230319738388,80.0,1015029.0,1.0
515726.1219619,290414.0,311379.03125,320639.8125,294452.25,296311.8125,303914.09375,272048.0,304040.4375,0.044189453125,0.951904296875,-0.29736328125,0.0,2.319335699081421,0.3967284858226776,80.0,1015030.0,1.0
515726.1243339,289053.5,310737.4375,320159.875,292651.125,295756.5,303806.09375,271970.59375,303548.40625,0.04541015625,0.954833984375,-0.297607421875,0.0915527269244194,2.319335699081421,0.4577636420726776,80.0,1015031.0,1.0
515726.1269137,285362.21875,310231.40625,320631.78125,294436.78125,299177.125,305149.53125,272484.21875,304681.375,0.044189453125,0.955078125,-0.296630859375,0.03051757626235485,2.258300542831421,0.4577636420726776,80.0,1015032.0,1.0
515726.1294687,284210.84375,310462.96875,321359.53125,297332.40625,301876.25,306072.5625,272863.5,305874.15625,0.04443359375,0.9560546875,-0.29833984375,0.0610351525247097,2.319335699081421,0.5187987685203552,80.0,1015033.0,1.0
515726.1319664,287493.59375,311211.84375,321366.25,297258.625,300003.78125,305285.3125,272579.0,305432.59375,0.045166015625,0.958984375,-0.296142578125,0.0,2.349853277206421,0.5493163466453552,80.0,1015034.0,1.0
515726.1368163,290391.71875,311354.53125,320622.65625,294431.3125,296290.4375,303897.28125,272031.125,304020.21875,0.04541015625,0.95703125,-0.297607421875,-0.0610351525247097,2.288818120956421,0.6713866591453552,80.0,1015035.0,1.0
515726.1394667,289047.9375,310729.6875,320157.375,292639.59375,295752.65625,303803.40625,271968.15625,303543.9375,0.045166015625,0.956787109375,-0.299072265625,-0.0610351525247097,2.258300542831421,0.8544921278953552,80.0,1015036.0,1.0
515726.1518784,285344.96875,310214.78125,320624.53125,294407.0,299167.125,305141.375,272476.4375,304670.03125,0.046875,0.957763671875,-0.298583984375,-0.0610351525247097,2.258300542831421,0.8850097060203552,80.0,1015037.0,1.0
515726.1560278,284194.75,310448.84375,321353.625,297298.40625,301867.9375,306066.03125,272856.15625,305863.78125,0.046630859375,0.956787109375,-0.2978515625,-0.1220703050494194,2.349853277206421,0.9765624403953552,80.0,1015038.0,1.0
515726.1632134,287487.4375,311209.78125,321367.0625,297234.125,300007.1875,305289.09375,272576.125,305432.75,0.046630859375,0.95703125,-0.298095703125,-0.0915527269244194,2.258300542831421,0.9765624403953552,80.0,1015039.0,1.0
515726.1632551,290395.75,311365.0,320634.28125,294410.03125,296300.375,303913.90625,272036.5625,304025.40625,0.04833984375,0.955322265625,-0.300048828125,-0.1525878757238388,2.319335699081421,1.1291502714157104,80.0,1015040.0,1.0
515726.1658045,289045.71875,310731.09375,320162.8125,292611.71875,295754.28125,303812.4375,271968.25,303541.53125,0.04833984375,0.95263671875,-0.29931640625,-0.2746581733226776,2.349853277206421,1.0070799589157104,80.0,1015041.0,1.0
515726.1680945,285353.5625,310224.875,320641.6875,294390.71875,299179.28125,305154.96875,272484.75,304678.625,0.047607421875,0.953369140625,-0.301513671875,-0.3967284858226776,2.380370855331421,1.0375975370407104,80.0,1015042.0,1.0
515726.172056,284189.9375,310450.0,321358.90625,297268.8125,301869.09375,306076.75,272861.25,305865.5625,0.047607421875,0.9521484375,-0.296875,-0.3967284858226776,2.319335699081421,1.0070799589157104,80.0,1015043.0,1.0
515726.1720963,287460.0625,311187.34375,321349.25,297180.75,299985.8125,305281.03125,272568.90625,305416.75,0.046142578125,0.9521484375,-0.29833984375,-0.3051757514476776,2.502441167831421,1.0375975370407104,80.0,1015044.0,1.0
515726.1721062,290362.21875,311335.6875,320605.03125,294350.84375,296275.59375,303893.53125,272017.875,304002.0625,0.04736328125,0.952880859375,-0.297119140625,-0.3051757514476776,2.532958745956421,0.8850097060203552,80.0,1015045.0,1.0
515726.1757332,289019.0625,310711.15625,320135.28125,292559.125,295738.90625,303795.34375,271946.1875,303519.625,0.050537109375,0.953369140625,-0.295654296875,-0.3356933295726776,2.441406011581421,0.7934569716453552,80.0,1015046.0,1.0
515726.1757693,285328.78125,310210.5,320612.375,294350.6875,299164.625,305140.03125,272463.9375,304660.375,0.049072265625,0.9521484375,-0.29541015625,-0.2746581733226776,2.471923589706421,0.7934569716453552,80.0,1015047.0,1.0
515726.1757792,284166.25,310430.0625,321331.28125,297235.125,301845.65625,306056.09375,272845.53125,305850.03125,0.047607421875,0.951171875,-0.295166015625,-0.3051757514476776,2.502441167831421,0.8850097060203552,80.0,1015048.0,1.0
515726.1783477,287444.875,311175.90625,321331.65625,297159.75,299969.90625,305264.21875,272560.21875,305409.875,0.046875,0.9521484375,-0.295654296875,-0.3051757514476776,2.532958745956421,0.7019042372703552,80.0,1015049.0,1.0
515726.1783856,290353.03125,311329.15625,320598.15625,294339.84375,296268.71875,303886.28125,272018.78125,304003.21875,0.047607421875,0.951904296875,-0.295654296875,-0.2441406100988388,2.532958745956421,0.7324218153953552,80.0,1015050.0,1.0
515726.1832382,289012.4375,310706.0625,320134.9375,292551.34375,295735.40625,303793.84375,271953.34375,303524.53125,0.046875,0.9541015625,-0.296630859375,-0.3051757514476776,2.563476324081421,0.7019042372703552,80.0,1015051.0,1.0
515726.1832744,285316.625,310196.09375,320608.625,294334.84375,299154.78125,305137.28125,272468.03125,304658.75,0.045654296875,0.953125,-0.2978515625,-0.3051757514476776,2.593993902206421,0.7629393935203552,80.0,1015052.0,1.0
515726.1932056,284152.71875,310418.4375,321334.40625,297223.84375,301846.28125,306064.25,272852.125,305852.53125,0.04541015625,0.952392578125,-0.30029296875,-0.2136230319738388,2.532958745956421,0.6103515028953552,80.0,1015053.0,1.0
515726.2007023,287429.0625,311159.53125,321334.59375,297147.59375,299968.84375,305268.34375,272559.875,305409.78125,0.043212890625,0.950927734375,-0.2998046875,-0.1831054538488388,2.502441167831421,0.6408690810203552,80.0,1015054.0,1.0
515726.2007387,290327.09375,311300.1875,320588.6875,294317.59375,296256.21875,303878.5,272001.0625,303989.90625,0.0439453125,0.95068359375,-0.298095703125,-0.1831054538488388,2.502441167831421,0.6103515028953552,80.0,1015055.0,1.0
515726.2031862,288997.4375,310688.375,320136.53125,292546.25,295735.0625,303797.78125,271944.75,303522.75,0.044677734375,0.9521484375,-0.295166015625,-0.2746581733226776,2.471923589706421,0.5798339247703552,80.0,1015056.0,1.0
515726.2056391,285298.75,310182.5,320614.5,294330.28125,299154.5,305138.78125,272456.96875,304658.5,0.046875,0.95068359375,-0.2958984375,-0.3051757514476776,2.319335699081421,0.7324218153953552,80.0,1015057.0,1.0
515726.2080735,284130.375,310405.65625,321338.875,297216.53125,301844.78125,306062.375,272842.46875,305854.21875,0.046142578125,0.950439453125,-0.295654296875,-0.2441406100988388,2.380370855331421,0.6408690810203552,80.0,1015058.0,1.0
515726.2132486,287392.21875,311138.875,321328.875,297131.9375,299965.25,305260.84375,272544.9375,305406.28125,0.04541015625,0.948974609375,-0.296875,-0.1525878757238388,2.319335699081421,0.5798339247703552,80.0,1015059.0,1.0
515726.2132901,290293.28125,311279.78125,320582.40625,294302.21875,296247.1875,303871.0,271990.53125,303988.46875,0.04638671875,0.950927734375,-0.29833984375,-0.1220703050494194,2.319335699081421,0.5798339247703552,80.0,1015060.0,1.0
515726.215799,288945.65625,310644.75,320110.875,292509.59375,295701.78125,303776.5,271923.75,303504.34375,0.04443359375,0.954833984375,-0.297607421875,-0.0915527269244194,2.349853277206421,0.6103515028953552,80.0,1015061.0,1.0
515726.2182015,285247.25,310135.5625,320586.96875,294291.9375,299119.65625,305124.46875,272441.3125,304640.625,0.045166015625,0.9541015625,-0.30078125,-0.1831054538488388,2.166747808456421,0.6103515028953552,80.0,1015062.0,1.0
515726.2207149,284078.53125,310355.78125,321311.09375,297176.65625,301812.3125,306049.9375,272823.875,305834.09375,0.047119140625,0.95556640625,-0.299072265625,-0.3356933295726776,2.105712652206421,0.6713866591453552,80.0,1015063.0,1.0
515726.2318945,287358.875,311100.4375,321311.15625,297104.125,299939.78125,305256.8125,272531.96875,305393.25,0.04541015625,0.954833984375,-0.2939453125,-0.3051757514476776,2.136230230331421,0.7019042372703552,80.0,1015064.0,1.0
515726.2319329,290272.5625,311249.21875,320579.28125,294286.5625,296238.0625,303878.78125,271985.78125,303980.53125,0.046630859375,0.953857421875,-0.29736328125,-0.3356933295726776,2.075195074081421,0.7019042372703552,80.0,1015065.0,1.0
515726.2343171,288939.0625,310628.28125,320118.9375,292503.625,295704.03125,303789.375,271924.09375,303502.28125,0.0458984375,0.95361328125,-0.296142578125,-0.5187987685203552,2.105712652206421,0.7629393935203552,80.0,1015066.0,1.0
515726.2369856,285242.53125,310123.21875,320592.34375,294280.5625,299122.3125,305130.90625,272441.21875,304638.03125,0.044677734375,0.955810546875,-0.298828125,-0.5187987685203552,2.014159917831421,0.7324218153953552,80.0,1015067.0,1.0
515726.2393131,284078.0,310347.1875,321319.9375,297165.46875,301820.0,306056.46875,272827.0,305833.40625,0.045166015625,0.95458984375,-0.296875,-0.4882812201976776,2.075195074081421,0.7629393935203552,80.0,1015068.0,1.0
515726.2444573,287353.5,311083.90625,321317.4375,297085.8125,299944.34375,305259.65625,272533.59375,305387.0625,0.0478515625,0.955078125,-0.29638671875,-0.5187987685203552,2.044677495956421,0.7934569716453552,80.0,1015069.0,1.0
515726.2495081,290264.5,311232.15625,320583.3125,294264.21875,296239.5625,303879.75,271986.5,303973.28125,0.0478515625,0.954345703125,-0.296142578125,-0.5493163466453552,2.136230230331421,0.6713866591453552,80.0,1015070.0,1.0
515726.2495476,288936.09375,310620.15625,320123.84375,292481.4375,295711.0,303791.6875,271927.40625,303502.5625,0.048828125,0.95458984375,-0.295654296875,-0.5187987685203552,2.105712652206421,0.6408690810203552,80.0,1015071.0,1.0
515726.2519992,285229.0,310107.3125,320589.03125,294248.03125,299122.3125,305124.84375,272438.625,304634.25,0.047607421875,0.953369140625,-0.298095703125,-0.6103515028953552,2.075195074081421,0.6103515028953552,80.0,1015072.0,1.0
515726.2543534,284056.8125,310319.5625,321307.875,297121.5625,301803.1875,306040.375,272818.4375,305825.34375,0.05029296875,0.9521484375,-0.29833984375,-0.5493163466453552,2.136230230331421,0.5493163466453552,80.0,1015073.0,1.0
515726.2543952,287329.53125,311056.09375,321305.09375,297035.375,299924.125,305245.375,272526.875,305379.46875,0.050537109375,0.953125,-0.29736328125,-0.4882812201976776,2.044677495956421,0.6103515028953552,80.0,1015074.0,1.0
515726.256972,290236.4375,311205.0625,320566.5,294203.34375,296214.625,303866.25,271980.25,303962.1875,0.049072265625,0.953125,-0.29833984375,-0.4577636420726776,2.044677495956421,0.5493163466453552,80.0,1015075.0,1.0
515726.2595711,288888.96875,310568.75,320095.5,292399.375,295668.625,303765.84375,271910.40625,303475.375,0.048583984375,0.953125,-0.299072265625,-0.5493163466453552,2.044677495956421,0.5798339247703552,80.0,1015076.0,1.0
515726.2719591,285188.0625,310058.21875,320574.625,294174.71875,299090.125,305112.3125,272433.90625,304617.28125,0.049560546875,0.952880859375,-0.298095703125,-0.5798339247703552,2.014159917831421,0.4272460639476776,80.0,1015077.0,1.0
515726.2743543,284020.40625,310285.5,321309.28125,297061.21875,301791.3125,306043.5,272822.8125,305823.09375,0.046875,0.953369140625,-0.297607421875,-0.5187987685203552,1.9531248807907104,0.5798339247703552,80.0,1015078.0,1.0
515726.2743994,287300.84375,311028.21875,321310.53125,296977.90625,299919.03125,305249.65625,272534.21875,305378.3125,0.046875,0.955322265625,-0.297119140625,-0.5493163466453552,2.014159917831421,0.5187987685203552,80.0,1015079.0,1.0
515726.2769743,290222.75,311183.9375,320577.5,294159.625,296217.59375,303871.625,271992.21875,303968.53125,0.046875,0.953125,-0.2978515625,-0.4882812201976776,2.136230230331421,0.5798339247703552,80.0,1015080.0,1.0
515726.2795728,288891.46875,310564.90625,320111.3125,292378.53125,295681.9375,303776.125,271926.25,303492.71875,0.0478515625,0.95361328125,-0.2978515625,-0.5493163466453552,2.075195074081421,0.6103515028953552,80.0,1015081.0,1.0
515726.282005,285185.46875,310048.40625,320580.8125,294152.8125,299096.5,305113.40625,272438.8125,304623.53125,0.046875,0.95361328125,-0.294921875,-0.6713866591453552,2.105712652206421,0.5798339247703552,80.0,1015082.0,1.0
515726.2843747,284012.90625,310263.78125,321298.375,297038.15625,301791.84375,306036.78125,272820.5,305815.875,0.048095703125,0.955078125,-0.296875,-0.6713866591453552,2.105712652206421,0.7019042372703552,80.0,1015083.0,1.0
515726.2844146,287300.21875,311014.09375,321299.46875,296972.25,299927.96875,305248.75,272529.5625,305374.09375,0.0478515625,0.953125,-0.2958984375,-0.7019042372703552,2.136230230331421,0.7934569716453552,80.0,1015084.0,1.0
515726.2893545,290246.09375,311185.75,320574.1875,294170.78125,296229.375,303879.40625,271988.5625,303967.28125,0.04638671875,0.954833984375,-0.294677734375,-0.7629393935203552,2.105712652206421,0.7324218153953552,80.0,1015085.0,1.0
515726.2944629,288941.71875,310585.8125,320120.625,292409.8125,295699.09375,303796.53125,271930.625,303500.59375,0.045166015625,0.95556640625,-0.293212890625,-0.7629393935203552,2.136230230331421,0.7629393935203552,80.0,1015086.0,1.0
515726.2969965,285249.9375,310083.875,320596.375,294199.5625,299119.8125,305143.71875,272448.65625,304640.15625,0.043212890625,0.955810546875,-0.295166015625,-0.7934569716453552,2.166747808456421,0.9460448622703552,80.0,1015087.0,1.0
515726.2993716,284069.75,310294.0,321315.375,297083.84375,301810.0,306068.1875,272831.125,305831.4375,0.042724609375,0.955078125,-0.294921875,-0.8850097060203552,2.105712652206421,0.8544921278953552,80.0,1015088.0,1.0
515726.2994053,287348.3125,311033.75,321316.90625,297008.5625,299936.90625,305275.3125,272540.375,305385.375,0.043212890625,0.953857421875,-0.294921875,-0.8850097060203552,2.105712652206421,0.9155272841453552,80.0,1015089.0,1.0
515726.301915,290294.0,311212.28125,320595.8125,294211.46875,296247.96875,303905.25,271997.21875,303980.96875,0.04443359375,0.952392578125,-0.295654296875,-0.7934569716453552,2.075195074081421,0.8544921278953552,80.0,1015090.0,1.0
515726.3081845,288976.59375,310604.9375,320137.78125,292440.9375,295715.84375,303808.3125,271934.8125,303505.78125,0.045166015625,0.953369140625,-0.29541015625,-0.7324218153953552,1.9836424589157104,0.8544921278953552,80.0,1015091.0,1.0
515726.3180742,285275.875,310095.15625,320614.5,294223.8125,299132.4375,305145.6875,272451.6875,304637.40625,0.0458984375,0.95263671875,-0.29638671875,-0.7629393935203552,1.8920897245407104,1.0070799589157104,80.0,1015092.0,1.0
515726.320746,284108.84375,310323.59375,321342.71875,297121.5,301832.875,306072.65625,272838.09375,305836.15625,0.044189453125,0.95361328125,-0.292724609375,-0.8239745497703552,1.8920897245407104,0.9155272841453552,80.0,1015093.0,1.0
515726.3207856,287401.34375,311081.3125,321350.0625,297067.125,299975.0,305286.5,272552.625,305400.65625,0.04345703125,0.95263671875,-0.2939453125,-0.7324218153953552,1.9531248807907104,0.9155272841453552,80.0,1015094.0,1.0
515726.3231773,290341.84375,311252.34375,320620.40625,294268.25,296278.65625,303912.46875,272012.25,303997.40625,0.04541015625,0.94970703125,-0.29638671875,-0.6713866591453552,1.9531248807907104,0.9765624403953552,80.0,1015095.0,1.0
515726.3257009,289031.125,310648.75,320155.125,292500.9375,295740.875,303816.625,271945.65625,303523.84375,0.046875,0.9501953125,-0.29248046875,-0.6103515028953552,1.8615721464157104,1.0070799589157104,80.0,1015096.0,1.0
515726.3282394,285331.125,310142.0,320624.78125,294284.15625,299153.875,305152.90625,272456.4375,304653.75,0.049072265625,0.94970703125,-0.292724609375,-0.5798339247703552,1.8920897245407104,1.0070799589157104,80.0,1015097.0,1.0
515726.335645,284170.4375,310375.0,321358.5625,297185.5,301859.96875,306088.46875,272850.0,305858.4375,0.048828125,0.9541015625,-0.2939453125,-0.5493163466453552,1.8920897245407104,1.0375975370407104,80.0,1015098.0,1.0
515726.3356846,287461.59375,311133.25,321365.15625,297124.78125,299996.90625,305301.875,272564.4375,305421.3125,0.048095703125,0.95361328125,-0.295654296875,-0.3967284858226776,1.8920897245407104,0.9765624403953552,80.0,1015099.0,1.0
515726.3381807,290395.5625,311302.78125,320634.71875,294322.6875,296300.28125,303925.09375,272017.0625,304010.84375,0.0498046875,0.955078125,-0.297119140625,-0.3967284858226776,1.9836424589157104,0.8850097060203552,80.0,1015100.0,1.0
515726.3407026,289082.71875,310696.5,320177.3125,292555.8125,295770.46875,303834.34375,271958.0625,303538.84375,0.050537109375,0.952880859375,-0.298095703125,-0.4577636420726776,2.014159917831421,0.8544921278953552,80.0,1015101.0,1.0
515726.3444052,285367.78125,310175.09375,320640.96875,294326.71875,299172.5625,305156.5,272463.03125,304663.40625,0.051025390625,0.95263671875,-0.296630859375,-0.3356933295726776,2.075195074081421,0.8239745497703552,80.0,1015102.0,1.0
515726.3657166,284195.375,310400.46875,321371.53125,297223.78125,301873.8125,306084.625,272851.5,305869.25,0.052001953125,0.953125,-0.296142578125,-0.2746581733226776,2.075195074081421,0.7934569716453552,80.0,1015103.0,1.0
515726.36836,287501.65625,311178.0625,321393.34375,297183.25,300028.09375,305315.28125,272582.9375,305450.8125,0.0517578125,0.95458984375,-0.295166015625,-0.2746581733226776,2.197265386581421,0.7629393935203552,80.0,1015104.0,1.0
515726.3683992,290439.125,311352.03125,320656.96875,294379.8125,296328.90625,303931.96875,272031.5625,304033.71875,0.0517578125,0.955078125,-0.294921875,-0.3662109076976776,2.319335699081421,0.6713866591453552,80.0,1015105.0,1.0
515726.3684096,289123.125,310748.1875,320194.46875,292607.0625,295795.59375,303836.5,271965.125,303552.15625,0.05126953125,0.9560546875,-0.295166015625,-0.3662109076976776,2.319335699081421,0.7324218153953552,80.0,1015106.0,1.0
515726.3771321,285411.6875,310237.3125,320656.71875,294385.28125,299204.59375,305167.5625,272478.6875,304683.96875,0.051025390625,0.954345703125,-0.29638671875,-0.4272460639476776,2.380370855331421,0.6713866591453552,80.0,1015107.0,1.0
515726.3771672,284219.25,310441.6875,321368.21875,297255.0625,301878.46875,306078.53125,272860.09375,305870.5,0.049560546875,0.9541015625,-0.29638671875,-0.2746581733226776,2.502441167831421,0.7019042372703552,80.0,1015108.0,1.0
515726.3771781,287515.59375,311207.03125,321386.53125,297196.9375,300023.53125,305305.96875,272585.78125,305446.96875,0.048583984375,0.955078125,-0.29833984375,-0.1831054538488388,2.410888433456421,0.6713866591453552,80.0,1015109.0,1.0
515726.3793771,290458.34375,311383.5,320660.46875,294399.75,296334.15625,303937.0625,272042.5625,304043.71875,0.048828125,0.95263671875,-0.298828125,-0.2441406100988388,2.532958745956421,0.6103515028953552,80.0,1015110.0,1.0
515726.3820023,289142.71875,310779.375,320203.25,292635.75,295806.9375,303850.875,271985.25,303575.96875,0.0478515625,0.952392578125,-0.297119140625,-0.3051757514476776,2.563476324081421,0.5187987685203552,80.0,1015111.0,1.0
515726.382045,285407.5625,310244.28125,320653.9375,294399.59375,299200.8125,305171.78125,272488.25,304697.9375,0.04833984375,0.950927734375,-0.29541015625,-0.2136230319738388,2.624511480331421,0.5798339247703552,80.0,1015112.0,1.0
515726.4048375,284204.59375,310444.46875,321368.375,297267.3125,301878.46875,306090.15625,272870.1875,305881.5,0.04833984375,0.950927734375,-0.295166015625,-0.1831054538488388,2.502441167831421,0.6713866591453552,80.0,1015113.0,1.0
515726.4295813,287492.96875,311201.84375,321382.96875,297204.53125,300015.9375,305312.5,272586.25,305449.5625,0.047607421875,0.951904296875,-0.297119140625,-0.2441406100988388,2.532958745956421,0.6103515028953552,80.0,1015114.0,1.0
515726.4296259,290447.25,311386.0,320661.28125,294413.875,296330.59375,303947.4375,272042.03125,304048.28125,0.047119140625,0.95263671875,-0.2978515625,-0.1831054538488388,2.441406011581421,0.6103515028953552,80.0,1015115.0,1.0
515726.4296363,289144.0625,310789.03125,320207.34375,292654.8125,295809.25,303866.0,271988.75,303584.625,0.045166015625,0.952392578125,-0.2958984375,0.0,2.471923589706421,0.6713866591453552,80.0,1015116.0,1.0
515726.4320091,285433.125,310274.15625,320673.34375,294428.46875,299214.15625,305194.5625,272500.9375,304715.53125,0.04443359375,0.95166015625,-0.2939453125,0.0610351525247097,2.502441167831421,0.6408690810203552,80.0,1015117.0,1.0
515726.4320466,284246.78125,310485.25,321394.125,297308.875,301902.78125,306115.90625,272887.8125,305908.40625,0.044189453125,0.952392578125,-0.295654296875,0.03051757626235485,2.380370855331421,0.6103515028953552,80.0,1015118.0,1.0
515726.4370412,287535.28125,311240.09375,321405.40625,297246.125,300043.3125,305333.53125,272606.4375,305474.40625,0.043701171875,0.951904296875,-0.2978515625,0.1220703050494194,2.288818120956421,0.7324218153953552,80.0,1015119.0,1.0
515726.4395071,290469.53125,311403.90625,320668.34375,294438.46875,296341.78125,303949.0625,272050.78125,304055.4375,0.044677734375,0.954345703125,-0.29736328125,0.0915527269244194,2.197265386581421,0.7019042372703552,80.0,1015120.0,1.0
515726.4419346,289165.875,310806.46875,320215.5,292681.53125,295819.1875,303865.1875,271995.09375,303588.1875,0.045654296875,0.9541015625,-0.2939453125,0.2136230319738388,2.197265386581421,0.7629393935203552,80.0,1015121.0,1.0
515726.4469203,285456.90625,310290.15625,320680.59375,294462.25,299229.0625,305200.03125,272509.25,304722.0625,0.044189453125,0.9541015625,-0.2939453125,0.1831054538488388,2.105712652206421,0.7934569716453552,80.0,1015122.0,1.0
515726.4518164,284276.5625,310511.6875,321404.34375,297351.0,301923.34375,306125.3125,272899.0,305921.53125,0.044189453125,0.95556640625,-0.29541015625,0.2441406100988388,2.014159917831421,0.8239745497703552,80.0,1015123.0,1.0
515726.4569438,287550.65625,311258.78125,321404.15625,297278.5625,300050.625,305331.0,272606.0,305479.25,0.04541015625,0.95654296875,-0.296630859375,0.0915527269244194,2.044677495956421,0.9155272841453552,80.0,1015124.0,1.0
515726.4618135,290494.46875,311435.53125,320684.6875,294483.34375,296363.75,303964.34375,272065.34375,304077.25,0.04345703125,0.958251953125,-0.29833984375,0.1220703050494194,1.8920897245407104,0.8544921278953552,80.0,1015125.0,1.0
515726.4644529,289185.90625,310832.03125,320233.28125,292719.0,295836.15625,303877.15625,272004.5625,303604.46875,0.04296875,0.95703125,-0.30126953125,-0.0610351525247097,1.8920897245407104,1.0375975370407104,80.0,1015126.0,1.0
515726.4669391,285473.0,310309.8125,320697.9375,294498.375,299242.75,305208.15625,272515.15625,304733.9375,0.04248046875,0.9560546875,-0.298828125,-0.03051757626235485,1.7700194120407104,0.9155272841453552,80.0,1015127.0,1.0
515726.4694406,284276.125,310508.65625,321414.34375,297372.09375,301927.90625,306124.84375,272896.03125,305919.75,0.04541015625,0.954345703125,-0.299560546875,-0.0915527269244194,1.7700194120407104,0.8850097060203552,80.0,1015128.0,1.0
515726.4694793,287549.65625,311250.75,321414.96875,297294.5625,300056.625,305333.4375,272607.96875,305477.28125,0.047119140625,0.954345703125,-0.297607421875,-0.0610351525247097,1.7395018339157104,0.8850097060203552,80.0,1015129.0,1.0
515726.4719331,290488.03125,311423.21875,320686.5625,294489.875,296361.625,303960.75,272059.71875,304068.0625,0.048583984375,0.952880859375,-0.296142578125,0.03051757626235485,1.6784666776657104,0.8544921278953552,80.0,1015130.0,1.0
515726.4745234,289179.03125,310818.09375,320227.90625,292722.46875,295832.15625,303869.65625,271991.78125,303592.40625,0.049072265625,0.952392578125,-0.299560546875,-0.1220703050494194,1.6784666776657104,0.7629393935203552,80.0,1015131.0,1.0
515726.4745649,285468.53125,310296.6875,320696.125,294497.21875,299241.40625,305201.5625,272501.65625,304720.28125,0.050048828125,0.951904296875,-0.299560546875,-0.1525878757238388,1.7089842557907104,0.8239745497703552,80.0,1015132.0,1.0
515726.4770218,284282.03125,310512.5,321421.125,297383.71875,301936.125,306126.03125,272891.375,305920.46875,0.04931640625,0.953125,-0.302001953125,-0.0915527269244194,1.7700194120407104,0.7629393935203552,80.0,1015133.0,1.0
515726.4784124,287563.0625,311270.6875,321434.5625,297322.5625,300080.5,305351.40625,272616.1875,305491.84375,0.048095703125,0.951904296875,-0.299560546875,-0.1220703050494194,1.8615721464157104,0.8239745497703552,80.0,1015134.0,1.0
515726.4856903,290499.90625,311439.03125,320703.75,294510.34375,296381.5625,303974.96875,272068.3125,304084.9375,0.048095703125,0.952392578125,-0.29931640625,-0.1525878757238388,1.8920897245407104,0.7629393935203552,80.0,1015135.0,1.0
515726.4881544,289185.4375,310829.0,320240.0,292731.78125,295843.5,303881.0,272001.0625,303609.75,0.047119140625,0.95263671875,-0.29833984375,0.0,1.9531248807907104,0.6713866591453552,80.0,1015136.0,1.0
515726.4881937,285479.90625,310314.28125,320708.9375,294512.3125,299253.46875,305214.6875,272510.5,304743.15625,0.0478515625,0.952880859375,-0.29736328125,-0.0610351525247097,1.8615721464157104,0.5798339247703552,80.0,1015137.0,1.0
515726.4906063,284291.84375,310524.84375,321426.5,297395.6875,301942.65625,306137.28125,272894.53125,305940.15625,0.0498046875,0.953857421875,-0.296142578125,-0.1220703050494194,1.9836424589157104,0.4882812201976776,80.0,1015138.0,1.0
515726.4930713,287564.875,311274.6875,321429.53125,297313.625,300073.4375,305356.59375,272609.9375,305499.28125,0.0478515625,0.9541015625,-0.29736328125,-0.1525878757238388,2.044677495956421,0.4882812201976776,80.0,1015139.0,1.0
515726.4931148,290520.46875,311472.375,320719.65625,294518.59375,296398.0,304004.65625,272082.78125,304110.4375,0.04736328125,0.953857421875,-0.29638671875,-0.2441406100988388,2.105712652206421,0.5798339247703552,80.0,1015140.0,1.0
515726.4955448,289207.96875,310869.96875,320257.40625,292745.625,295866.125,303909.25,272016.375,303637.65625,0.0458984375,0.955078125,-0.29638671875,-0.3356933295726776,2.166747808456421,0.6408690810203552,80.0,1015141.0,1.0
515726.515609,285472.8125,310321.09375,320702.75,294503.28125,299253.46875,305218.28125,272504.53125,304750.9375,0.0458984375,0.9560546875,-0.29736328125,-0.3051757514476776,2.105712652206421,0.5798339247703552,80.0,1015142.0,1.0
515726.5206593,284272.0,310519.375,321412.375,297375.3125,301934.1875,306132.09375,272878.6875,305935.84375,0.044921875,0.95654296875,-0.29736328125,-0.3356933295726776,2.105712652206421,0.4272460639476776,80.0,1015143.0,1.0
515726.520674,287556.46875,311285.15625,321428.375,297307.8125,300081.46875,305361.3125,272604.75,305506.4375,0.044677734375,0.95654296875,-0.300048828125,-0.4577636420726776,2.136230230331421,0.5187987685203552,80.0,1015144.0,1.0
515726.5231137,290513.3125,311477.46875,320715.28125,294507.59375,296399.15625,304002.25,272077.875,304111.21875,0.04345703125,0.956787109375,-0.297607421875,-0.4577636420726776,2.136230230331421,0.5187987685203552,80.0,1015145.0,1.0
515726.5256673,289217.375,310881.21875,320268.0625,292746.53125,295877.3125,303920.53125,272030.03125,303648.8125,0.042236328125,0.95556640625,-0.298095703125,-0.5187987685203552,2.044677495956421,0.5187987685203552,80.0,1015146.0,1.0
515726.5280847,285515.5625,310369.375,320736.28125,294537.25,299291.3125,305254.125,272546.0,304788.75,0.04345703125,0.9580078125,-0.29736328125,-0.4882812201976776,2.105712652206421,0.6103515028953552,80.0,1015147.0,1.0
515726.5305868,284318.5,310571.4375,321446.1875,297416.25,301970.21875,306166.0,272921.875,305977.96875,0.041748046875,0.955810546875,-0.297119140625,-0.5187987685203552,1.9836424589157104,0.6408690810203552,80.0,1015148.0,1.0
515726.5331585,287583.90625,311308.59375,321439.90625,297334.8125,300091.3125,305372.5,272627.46875,305531.90625,0.04345703125,0.9560546875,-0.29736328125,-0.6713866591453552,1.9226073026657104,0.7629393935203552,80.0,1015149.0,1.0
515726.5331754,290532.71875,311489.71875,320722.875,294540.84375,296410.0625,304014.6875,272095.3125,304134.5625,0.043701171875,0.95361328125,-0.298583984375,-0.6713866591453552,1.8005369901657104,0.6713866591453552,80.0,1015150.0,1.0
515726.5418098,289236.3125,310896.96875,320277.34375,292787.125,295892.75,303936.875,272045.875,303672.25,0.04296875,0.95556640625,-0.29736328125,-0.7019042372703552,1.7395018339157104,0.8239745497703552,80.0,1015151.0,1.0
515726.544394,285508.9375,310358.28125,320727.34375,294559.0,299282.8125,305250.0,272542.53125,304787.34375,0.04296875,0.9560546875,-0.298095703125,-0.7324218153953552,1.6174315214157104,0.9155272841453552,80.0,1015152.0,1.0
515726.546912,284301.875,310549.53125,321429.625,297435.03125,301954.5625,306154.1875,272913.28125,305970.0,0.0419921875,0.9541015625,-0.296630859375,-0.6408690810203552,1.5563963651657104,0.9155272841453552,80.0,1015153.0,1.0
515726.5504951,287567.625,311292.5,321429.46875,297354.03125,300085.3125,305368.46875,272624.59375,305524.65625,0.04345703125,0.952880859375,-0.296875,-0.6103515028953552,1.4648436307907104,0.8850097060203552,80.0,1015154.0,1.0
515726.5656265,290511.53125,311471.03125,320708.5625,294544.875,296390.9375,304001.34375,272084.59375,304115.71875,0.0439453125,0.95263671875,-0.296630859375,-0.6713866591453552,1.4343260526657104,0.8544921278953552,80.0,1015155.0,1.0
515726.5656652,289215.6875,310875.0625,320261.53125,292787.9375,295865.6875,303917.5625,272029.78125,303653.28125,0.04541015625,0.95166015625,-0.294921875,-0.7019042372703552,1.4343260526657104,0.9460448622703552,80.0,1015156.0,1.0
515726.5681213,285497.3125,310345.65625,320721.25,294563.71875,299265.8125,305237.9375,272534.75,304781.59375,0.046875,0.949951171875,-0.29833984375,-0.7019042372703552,1.4953612089157104,0.8850097060203552,80.0,1015157.0,1.0
515726.5706949,284294.8125,310539.875,321436.34375,297430.9375,301947.125,306154.1875,272911.15625,305965.34375,0.0478515625,0.949462890625,-0.298583984375,-0.7019042372703552,1.5563963651657104,1.0070799589157104,80.0,1015158.0,1.0
515726.5731677,287585.4375,311303.3125,321453.78125,297362.15625,300092.03125,305381.0,272635.6875,305535.9375,0.048828125,0.951416015625,-0.29833984375,-0.7324218153953552,1.5258787870407104,1.1596678495407104,80.0,1015159.0,1.0
515726.5769863,290535.59375,311489.8125,320731.28125,294555.59375,296404.0,304014.3125,272094.875,304126.0625,0.050048828125,0.949951171875,-0.298583984375,-0.7019042372703552,1.4648436307907104,1.2207030057907104,80.0,1015160.0,1.0
515726.5770285,289233.90625,310890.875,320277.8125,292791.5,295879.625,303928.40625,272031.5625,303654.625,0.047607421875,0.949462890625,-0.296630859375,-0.6103515028953552,1.5258787870407104,1.0681151151657104,80.0,1015161.0,1.0
515726.5944968,285525.40625,310369.90625,320747.09375,294578.5625,299291.5625,305262.0,272544.21875,304793.21875,0.0478515625,0.951904296875,-0.29931640625,-0.5493163466453552,1.5869139432907104,1.0986326932907104,80.0,1015162.0,1.0
515726.5970018,284311.875,310556.59375,321444.21875,297439.15625,301958.75,306161.25,272908.03125,305969.03125,0.04833984375,0.951416015625,-0.2958984375,-0.4882812201976776,1.6174315214157104,1.0986326932907104,80.0,1015163.0,1.0
515726.5970412,287590.0625,311309.125,321450.1875,297357.4375,300095.78125,305383.5,272624.59375,305527.25,0.049072265625,0.9521484375,-0.296875,-0.4272460639476776,1.7395018339157104,1.0375975370407104,80.0,1015164.0,1.0
515726.599365,290546.40625,311494.09375,320731.53125,294548.71875,296408.09375,304019.5,272089.0625,304122.40625,0.04833984375,0.953125,-0.29638671875,-0.5493163466453552,1.9226073026657104,0.9765624403953552,80.0,1015165.0,1.0
515726.6018133,289262.53125,310910.46875,320293.28125,292793.90625,295895.625,303943.40625,272043.09375,303665.28125,0.048828125,0.95068359375,-0.296875,-0.5798339247703552,2.044677495956421,1.0070799589157104,80.0,1015166.0,1.0
515726.6069409,285544.71875,310383.5,320758.28125,294569.0,299300.0625,305265.75,272546.28125,304792.25,0.0458984375,0.951904296875,-0.29736328125,-0.4882812201976776,1.9836424589157104,0.8850097060203552,80.0,1015167.0,1.0
515726.6119848,284329.21875,310565.15625,321459.9375,297429.125,301969.03125,306165.28125,272914.0,305970.625,0.044921875,0.954345703125,-0.298095703125,-0.3662109076976776,2.044677495956421,0.9155272841453552,80.0,1015168.0,1.0
515726.6120258,287604.75,311311.4375,321460.9375,297346.4375,300103.3125,305381.53125,272629.6875,305533.0625,0.0458984375,0.955322265625,-0.299072265625,-0.2441406100988388,1.9836424589157104,0.7324218153953552,80.0,1015169.0,1.0
515726.6144725,290568.65625,311511.4375,320754.625,294547.5625,296431.0,304031.125,272103.1875,304143.59375,0.04736328125,0.9580078125,-0.29638671875,-0.3662109076976776,2.044677495956421,0.6713866591453552,80.0,1015170.0,1.0
515726.6169544,289271.5625,310918.9375,320306.3125,292783.625,295908.3125,303947.0,272048.8125,303677.875,0.048095703125,0.959716796875,-0.29345703125,-0.3662109076976776,2.014159917831421,0.6408690810203552,80.0,1015171.0,1.0
515726.6407257,285550.96875,310384.125,320763.8125,294561.40625,299305.59375,305266.375,272551.65625,304802.625,0.051025390625,0.957275390625,-0.293701171875,-0.3662109076976776,1.9836424589157104,0.6408690810203552,80.0,1015172.0,1.0
515726.6456215,284357.65625,310590.03125,321485.6875,297454.78125,301998.625,306190.40625,272943.96875,306003.96875,0.052734375,0.954345703125,-0.295166015625,-0.5493163466453552,2.166747808456421,0.6713866591453552,80.0,1015173.0,1.0
515726.6456629,287642.03125,311354.53125,321494.375,297378.1875,300138.96875,305416.75,272667.96875,305569.5625,0.053955078125,0.95458984375,-0.297119140625,-0.5187987685203552,2.319335699081421,0.6713866591453552,80.0,1015174.0,1.0
515726.6480899,290579.40625,311528.53125,320758.8125,294547.0,296432.5,304041.21875,272118.46875,304150.40625,0.05322265625,0.9521484375,-0.297607421875,-0.5187987685203552,2.380370855331421,0.7934569716453552,80.0,1015175.0,1.0
515726.6507115,289264.40625,310914.03125,320295.59375,292766.84375,295890.4375,303939.5625,272049.25,303668.21875,0.0517578125,0.9501953125,-0.299072265625,-0.4882812201976776,2.471923589706421,0.9155272841453552,80.0,1015176.0,1.0
515726.6531995,285570.1875,310406.28125,320774.625,294580.71875,299314.8125,305277.625,272568.375,304817.5625,0.04931640625,0.951416015625,-0.297119140625,-0.4882812201976776,2.532958745956421,0.9460448622703552,80.0,1015177.0,1.0
515726.6580601,284376.0625,310608.625,321491.3125,297477.9375,302003.375,306191.46875,272946.1875,306012.03125,0.047607421875,0.951904296875,-0.295166015625,-0.4272460639476776,2.593993902206421,0.9155272841453552,80.0,1015178.0,1.0
515726.6631851,287643.625,311350.0625,321486.3125,297391.3125,300123.6875,305402.09375,272656.0625,305563.03125,0.04541015625,0.95068359375,-0.296142578125,-0.5187987685203552,2.532958745956421,0.8544921278953552,80.0,1015179.0,1.0
515726.701889,290583.5,311529.25,320765.78125,294576.4375,296432.0625,304041.3125,272124.0,304156.65625,0.04345703125,0.94970703125,-0.294677734375,-0.4577636420726776,2.410888433456421,0.8850097060203552,80.0,1015180.0,1.0
515726.7019297,289282.375,310937.09375,320321.15625,292822.96875,295916.625,303966.84375,272079.21875,303701.21875,0.04296875,0.9521484375,-0.296630859375,-0.4577636420726776,2.410888433456421,0.8239745497703552,80.0,1015181.0,1.0
515726.704487,285569.3125,310408.25,320784.65625,294611.5625,299323.75,305288.53125,272582.84375,304831.5,0.044677734375,0.953125,-0.29736328125,-0.3662109076976776,2.288818120956421,0.7934569716453552,80.0,1015182.0,1.0
515726.7069394,284371.25,310611.03125,321496.25,297498.0625,302009.09375,306198.71875,272955.59375,306019.90625,0.04541015625,0.953857421875,-0.29736328125,-0.2746581733226776,2.197265386581421,0.7934569716453552,80.0,1015183.0,1.0
515726.7094855,287642.03125,311360.25,321497.125,297414.21875,300140.21875,305418.0,272669.75,305575.09375,0.046630859375,0.9521484375,-0.29541015625,-0.3356933295726776,2.166747808456421,0.7019042372703552,80.0,1015184.0,1.0
515726.7118073,290581.375,311534.53125,320769.375,294586.0,296439.40625,304050.625,272129.1875,304159.5,0.0458984375,0.951904296875,-0.29541015625,-0.2441406100988388,2.136230230331421,0.6713866591453552,80.0,1015185.0,1.0
515726.7144705,289295.25,310945.40625,320333.0625,292830.75,295928.09375,303980.4375,272088.15625,303701.75,0.046630859375,0.954345703125,-0.29736328125,-0.2136230319738388,2.044677495956421,0.7629393935203552,80.0,1015186.0,1.0
515726.7169607,285598.1875,310423.28125,320806.65625,294631.3125,299346.375,305314.65625,272601.8125,304841.6875,0.045654296875,0.956298828125,-0.295166015625,-0.1525878757238388,1.9836424589157104,0.7324218153953552,80.0,1015187.0,1.0
515726.7219802,284389.84375,310604.40625,321504.8125,297503.78125,302016.25,306212.21875,272966.125,306020.53125,0.046142578125,0.9580078125,-0.2978515625,-0.2441406100988388,1.9836424589157104,0.5493163466453552,80.0,1015188.0,1.0
515726.726945,287657.9375,311345.96875,321493.03125,297408.03125,300131.90625,305413.28125,272667.34375,305567.84375,0.044921875,0.958740234375,-0.299560546875,-0.1525878757238388,1.8310545682907104,0.4577636420726776,80.0,1015189.0,1.0
515726.7293615,290610.40625,311535.15625,320770.96875,294592.96875,296442.96875,304050.96875,272129.09375,304162.03125,0.043701171875,0.959228515625,-0.298583984375,-0.3051757514476776,1.8310545682907104,0.4882812201976776,80.0,1015190.0,1.0
515726.73182,289315.8125,310940.59375,320322.96875,292835.21875,295923.625,303970.15625,272078.78125,303699.96875,0.041748046875,0.959716796875,-0.298095703125,-0.2441406100988388,1.7700194120407104,0.3662109076976776,80.0,1015191.0,1.0
515726.7368204,285615.25,310420.25,320795.03125,294634.71875,299341.8125,305302.3125,272598.59375,304842.59375,0.040771484375,0.960205078125,-0.2958984375,-0.2441406100988388,1.7395018339157104,0.3051757514476776,80.0,1015192.0,1.0
515726.7419532,284423.09375,310625.15625,321513.6875,297531.25,302034.65625,306222.40625,272987.6875,306047.625,0.043701171875,0.957763671875,-0.299560546875,-0.4577636420726776,1.6174315214157104,0.3051757514476776,80.0,1015193.0,1.0
515726.749463,287688.5,311368.40625,321509.84375,297442.0,300156.0625,305434.1875,272697.8125,305603.15625,0.0439453125,0.957275390625,-0.298095703125,-0.4882812201976776,1.5258787870407104,0.3356933295726776,80.0,1015194.0,1.0
515726.7516901,290626.4375,311546.125,320785.46875,294616.9375,296458.25,304064.84375,272156.28125,304193.21875,0.043212890625,0.95556640625,-0.298583984375,-0.3051757514476776,1.4648436307907104,0.4272460639476776,80.0,1015195.0,1.0
515726.7517268,289333.59375,310952.65625,320347.0,292859.375,295947.46875,303995.4375,272112.65625,303736.15625,0.04541015625,0.95556640625,-0.296875,-0.3051757514476776,1.4343260526657104,0.3051757514476776,80.0,1015196.0,1.0
515726.7932409,285631.25,310430.96875,320819.875,294655.625,299367.5625,305328.78125,272625.03125,304870.46875,0.046630859375,0.955322265625,-0.2958984375,-0.2746581733226776,1.4038084745407104,0.3967284858226776,80.0,1015197.0,1.0
515726.7932824,284429.09375,310619.15625,321524.59375,297531.3125,302040.375,306230.1875,272994.90625,306053.34375,0.047607421875,0.9541015625,-0.296142578125,-0.3967284858226776,1.4343260526657104,0.5187987685203552,80.0,1015198.0,1.0
515726.7948834,287690.75,311355.625,321515.46875,297432.09375,300157.46875,305435.34375,272702.84375,305603.875,0.046875,0.9541015625,-0.297607421875,-0.2746581733226776,1.4343260526657104,0.4882812201976776,80.0,1015199.0,1.0
515726.8044506,290618.03125,311522.34375,320782.6875,294589.5625,296452.90625,304062.25,272153.4375,304181.15625,0.047607421875,0.955322265625,-0.297119140625,-0.3967284858226776,1.4953612089157104,0.6103515028953552,80.0,1015200.0,1.0
515726.806978,289326.4375,310936.375,320341.8125,292833.4375,295940.6875,303988.5625,272108.375,303727.78125,0.047607421875,0.95556640625,-0.296142578125,-0.4272460639476776,1.4953612089157104,0.8239745497703552,80.0,1015201.0,1.0
515726.8070211,285629.65625,310426.21875,320816.3125,294643.65625,299364.78125,305328.0625,272630.40625,304879.96875,0.0498046875,0.953857421875,-0.29638671875,-0.4272460639476776,1.5869139432907104,0.8544921278953552,80.0,1015202.0,1.0
515726.8093528,284416.03125,310613.0,321515.03125,297520.40625,302039.0625,306231.34375,272999.65625,306064.59375,0.047119140625,0.953369140625,-0.296142578125,-0.4272460639476776,1.7089842557907104,0.9765624403953552,80.0,1015203.0,1.0
515726.8118291,287680.65625,311360.09375,321515.375,297425.5625,300165.0625,305452.0625,272717.125,305622.03125,0.0478515625,0.954345703125,-0.295654296875,-0.5187987685203552,1.8310545682907104,1.0070799589157104,80.0,1015204.0,1.0
515726.8144322,290611.5,311536.5625,320784.65625,294589.5625,296466.9375,304085.9375,272172.5625,304207.34375,0.048828125,0.955322265625,-0.294189453125,-0.5493163466453552,1.8310545682907104,1.0986326932907104,80.0,1015205.0,1.0
515726.8168073,289306.59375,310931.09375,320337.15625,292818.40625,295943.0,304002.15625,272118.03125,303737.78125,0.048095703125,0.953857421875,-0.294677734375,-0.5187987685203552,1.8005369901657104,1.1901854276657104,80.0,1015206.0,1.0
515726.8208443,285605.25,310408.4375,320811.375,294623.625,299359.6875,305336.65625,272637.03125,304881.90625,0.048583984375,0.953125,-0.298095703125,-0.5798339247703552,1.8920897245407104,1.2207030057907104,80.0,1015207.0,1.0
515726.820885,284386.53125,310581.71875,321505.375,297488.6875,302016.96875,306232.15625,272999.21875,306053.875,0.049072265625,0.9521484375,-0.297119140625,-0.5187987685203552,2.014159917831421,1.2512205839157104,80.0,1015208.0,1.0
515726.8208943,287645.15625,311321.46875,321496.96875,297383.71875,300130.5625,305438.9375,272705.6875,305597.1875,0.049072265625,0.953125,-0.296630859375,-0.5187987685203552,2.044677495956421,1.2207030057907104,80.0,1015209.0,1.0
515726.8209034,290599.15625,311518.15625,320783.59375,294568.28125,296450.21875,304088.4375,272176.40625,304196.4375,0.047607421875,0.94970703125,-0.2978515625,-0.6103515028953552,1.9836424589157104,1.2207030057907104,80.0,1015210.0,1.0
515726.8283562,289295.34375,310918.78125,320328.6875,292800.53125,295929.6875,304001.625,272117.84375,303724.90625,0.048095703125,0.94775390625,-0.29248046875,-0.5187987685203552,2.105712652206421,1.2512205839157104,80.0,1015211.0,1.0
515726.8283921,285592.46875,310397.4375,320804.6875,294602.25,299347.90625,305335.5625,272638.375,304868.5,0.049072265625,0.948486328125,-0.291015625,-0.5493163466453552,2.136230230331421,1.1901854276657104,80.0,1015212.0,1.0
515726.8284023,284394.40625,310593.15625,321523.6875,297490.90625,302033.3125,306252.1875,273023.25,306069.0625,0.04833984375,0.94677734375,-0.2919921875,-0.4882812201976776,2.227782964706421,1.1901854276657104,80.0,1015213.0,1.0
515726.8306732,287641.84375,311322.25,321508.21875,297378.4375,300144.4375,305451.71875,272720.625,305609.875,0.04736328125,0.94775390625,-0.292236328125,-0.4272460639476776,2.288818120956421,1.1291502714157104,80.0,1015214.0,1.0
515726.8307062,290584.75,311503.9375,320787.875,294547.8125,296449.9375,304086.375,272180.25,304197.78125,0.0478515625,0.950927734375,-0.292236328125,-0.4272460639476776,2.197265386581421,1.0986326932907104,80.0,1015215.0,1.0
515726.8332055,289301.25,310914.84375,320352.28125,292791.6875,295937.03125,304010.375,272131.96875,303736.15625,0.04736328125,0.950927734375,-0.292724609375,-0.3662109076976776,2.197265386581421,1.0375975370407104,80.0,1015216.0,1.0
515726.8356047,285607.28125,310396.8125,320829.8125,294600.9375,299357.90625,305346.46875,272654.625,304881.21875,0.0478515625,0.948486328125,-0.29296875,-0.3967284858226776,2.075195074081421,1.0681151151657104,80.0,1015217.0,1.0
515726.8431901,284378.84375,310561.6875,321521.1875,297462.46875,302016.4375,306238.03125,273023.4375,306056.0,0.0478515625,0.95166015625,-0.29248046875,-0.4272460639476776,2.166747808456421,1.1901854276657104,80.0,1015218.0,1.0
515726.8481582,287628.875,311286.59375,321513.59375,297355.65625,300130.375,305448.125,272738.21875,305605.84375,0.049560546875,0.95263671875,-0.296142578125,-0.3967284858226776,2.227782964706421,1.0681151151657104,80.0,1015219.0,1.0
515726.8532363,290590.65625,311488.5625,320806.75,294544.0625,296454.15625,304100.40625,272206.96875,304207.0625,0.049072265625,0.9541015625,-0.295654296875,-0.2746581733226776,2.166747808456421,0.8850097060203552,80.0,1015220.0,1.0
515726.8532775,289287.75,310883.28125,320347.8125,292774.4375,295928.71875,304008.59375,272134.65625,303730.625,0.04736328125,0.955322265625,-0.291259765625,-0.2746581733226776,2.105712652206421,0.9155272841453552,80.0,1015221.0,1.0
515726.8594927,285588.53125,310356.75,320823.375,294576.6875,299347.375,305341.90625,272652.21875,304870.84375,0.045166015625,0.95556640625,-0.29541015625,-0.3051757514476776,2.044677495956421,0.9155272841453552,80.0,1015222.0,1.0
515726.8619381,284372.21875,310534.40625,321525.46875,297451.84375,302017.59375,306243.78125,273023.96875,306054.5,0.046142578125,0.954833984375,-0.296142578125,-0.3967284858226776,1.9531248807907104,0.8239745497703552,80.0,1015223.0,1.0
515726.8643545,287638.90625,311280.34375,321528.59375,297360.03125,300145.0625,305461.09375,272741.625,305614.78125,0.046875,0.953369140625,-0.294677734375,-0.5187987685203552,1.9226073026657104,0.9460448622703552,80.0,1015224.0,1.0
515726.8668899,290574.75,311456.46875,320804.59375,294524.5625,296449.78125,304098.0,272195.90625,304198.75,0.046630859375,0.95166015625,-0.293212890625,-0.4577636420726776,1.8615721464157104,0.9155272841453552,80.0,1015225.0,1.0
515726.8757259,289279.6875,310860.5625,320356.9375,292758.25,295929.6875,304015.75,272138.84375,303732.25,0.04736328125,0.949462890625,-0.296875,-0.5493163466453552,1.7700194120407104,0.8239745497703552,80.0,1015226.0,1.0
515726.8807299,285586.90625,310347.0,320830.59375,294573.46875,299350.125,305345.6875,272651.34375,304880.40625,0.04736328125,0.95068359375,-0.296142578125,-0.5187987685203552,1.7700194120407104,0.8239745497703552,80.0,1015227.0,1.0
515726.8807722,284387.96875,310542.28125,321543.625,297470.53125,302033.59375,306258.0625,273026.75,306073.8125,0.0458984375,0.952392578125,-0.29736328125,-0.4577636420726776,1.7089842557907104,0.8544921278953552,80.0,1015228.0,1.0
515726.883262,287637.8125,311272.09375,321536.03125,297361.625,300144.6875,305467.09375,272728.84375,305615.3125,0.04736328125,0.951416015625,-0.296630859375,-0.3967284858226776,1.7089842557907104,0.8544921278953552,80.0,1015229.0,1.0
515726.885584,290560.8125,311437.0625,320803.6875,294505.625,296434.03125,304096.75,272184.90625,304191.78125,0.04833984375,0.954345703125,-0.2978515625,-0.3662109076976776,1.5563963651657104,0.8544921278953552,80.0,1015230.0,1.0
515726.8882344,289262.34375,310837.0625,320349.78125,292728.84375,295904.375,304006.8125,272126.96875,303719.625,0.048828125,0.955810546875,-0.296142578125,-0.4272460639476776,1.6479490995407104,0.8850097060203552,80.0,1015231.0,1.0
515726.8882759,285584.84375,310331.625,320835.0,294557.125,299338.6875,305344.34375,272644.28125,304872.0,0.048583984375,0.955078125,-0.2978515625,-0.5187987685203552,1.4648436307907104,0.8850097060203552,80.0,1015232.0,1.0
515726.8908006,284399.75,310535.21875,321555.4375,297470.09375,302038.34375,306262.90625,273022.09375,306072.1875,0.050048828125,0.955810546875,-0.29736328125,-0.4882812201976776,1.4648436307907104,0.8850097060203552,80.0,1015233.0,1.0
515726.8932243,287679.5625,311301.34375,321571.96875,297395.78125,300175.8125,305494.0,272755.59375,305647.6875,0.048583984375,0.95458984375,-0.29833984375,-0.5493163466453552,1.4648436307907104,0.9460448622703552,80.0,1015234.0,1.0
515726.8956773,290591.5625,311464.25,320832.75,294533.78125,296454.6875,304112.65625,272206.8125,304217.1875,0.04833984375,0.955078125,-0.297607421875,-0.5493163466453552,1.5258787870407104,0.9460448622703552,80.0,1015235.0,1.0
515726.8981331,289258.0625,310826.875,320352.28125,292717.3125,295894.03125,303993.9375,272121.15625,303710.78125,0.048095703125,0.955810546875,-0.294677734375,-0.5187987685203552,1.5869139432907104,1.0070799589157104,80.0,1015236.0,1.0
515726.8981724,285581.90625,310321.71875,320844.375,294546.65625,299331.96875,305342.625,272647.65625,304862.6875,0.049560546875,0.956298828125,-0.298095703125,-0.4577636420726776,1.6174315214157104,0.9460448622703552,80.0,1015237.0,1.0
515726.9006986,284412.90625,310544.5,321577.59375,297483.59375,302045.5,306274.625,273040.15625,306081.125,0.04736328125,0.957275390625,-0.2978515625,-0.3967284858226776,1.6174315214157104,0.9765624403953552,80.0,1015238.0,1.0
515726.9118118,287679.46875,311296.875,321576.25,297397.21875,300172.21875,305492.40625,272758.15625,305647.5,0.047119140625,0.957763671875,-0.29541015625,-0.3662109076976776,1.6479490995407104,0.8850097060203552,80.0,1015239.0,1.0
515726.9144496,290590.75,311460.65625,320833.90625,294525.28125,296451.375,304117.3125,272211.0,304220.5,0.047607421875,0.9580078125,-0.294921875,-0.4882812201976776,1.6784666776657104,0.8850097060203552,80.0,1015240.0,1.0
515726.9169621,289280.5,310854.03125,320378.3125,292729.53125,295917.71875,304029.875,272150.5625,303742.96875,0.04833984375,0.9599609375,-0.297119140625,-0.5798339247703552,1.6479490995407104,0.9155272841453552,80.0,1015241.0,1.0
515726.9170037,285609.8125,310355.6875,320869.40625,294562.75,299362.125,305379.03125,272676.375,304900.15625,0.046142578125,0.9560546875,-0.296142578125,-0.6103515028953552,1.5563963651657104,0.8850097060203552,80.0,1015242.0,1.0
515726.9194421,284431.15625,310563.5625,321593.53125,297484.84375,302068.375,306298.40625,273055.53125,306097.84375,0.04638671875,0.9560546875,-0.295166015625,-0.7629393935203552,1.4343260526657104,0.7934569716453552,80.0,1015243.0,1.0
515726.9243146,287696.8125,311315.90625,321596.8125,297393.46875,300190.90625,305515.28125,272776.5,305655.28125,0.046630859375,0.953857421875,-0.29638671875,-0.6713866591453552,1.3732908964157104,0.6713866591453552,80.0,1015244.0,1.0
515726.9268159,290607.84375,311477.90625,320856.0,294520.375,296466.5,304134.375,272231.65625,304232.5625,0.048828125,0.950927734375,-0.296875,-0.5187987685203552,1.4953612089157104,0.6408690810203552,80.0,1015245.0,1.0
515726.9294389,289294.09375,310867.8125,320398.40625,292719.0,295929.34375,304039.875,272172.5625,303751.09375,0.049560546875,0.9501953125,-0.297119140625,-0.4577636420726776,1.4343260526657104,0.5798339247703552,80.0,1015246.0,1.0
515726.9318238,285627.3125,310370.625,320894.8125,294551.65625,299378.125,305390.75,272702.75,304908.375,0.0498046875,0.9521484375,-0.296875,-0.3662109076976776,1.4343260526657104,0.5798339247703552,80.0,1015247.0,1.0
515726.9356161,284452.4375,310586.53125,321619.0,297487.0625,302090.375,306319.59375,273086.28125,306116.28125,0.0517578125,0.953369140625,-0.300048828125,-0.3051757514476776,1.5258787870407104,0.6103515028953552,80.0,1015248.0,1.0
515726.9356562,287697.71875,311324.59375,321599.875,297385.59375,300200.21875,305523.875,272790.8125,305664.21875,0.05078125,0.951904296875,-0.2978515625,-0.2746581733226776,1.5258787870407104,0.7324218153953552,80.0,1015249.0,1.0
515726.9657569,290606.125,311489.09375,320856.4375,294506.0625,296474.53125,304146.90625,272245.4375,304238.71875,0.051513671875,0.95361328125,-0.29736328125,-0.1831054538488388,1.6479490995407104,0.7324218153953552,80.0,1015250.0,1.0
515726.9707329,289298.90625,310882.90625,320399.65625,292706.21875,295937.90625,304053.5625,272184.0,303757.0,0.052001953125,0.952392578125,-0.297607421875,-0.0915527269244194,1.7089842557907104,0.6713866591453552,80.0,1015251.0,1.0
515726.9707737,285629.1875,310382.25,320894.0,294545.125,299384.5625,305397.4375,272708.1875,304910.71875,0.05322265625,0.951171875,-0.294189453125,-0.1220703050494194,1.8310545682907104,0.7324218153953552,80.0,1015252.0,1.0
515726.9759225,284445.375,310588.84375,321618.28125,297474.46875,302091.34375,306318.4375,273090.3125,306111.71875,0.053955078125,0.950927734375,-0.297607421875,-0.0915527269244194,1.8920897245407104,0.6408690810203552,80.0,1015253.0,1.0
515726.9759583,287698.0,311330.03125,321610.25,297379.96875,300210.125,305536.375,272809.75,305666.90625,0.054443359375,0.94677734375,-0.296142578125,-0.03051757626235485,2.014159917831421,0.6713866591453552,80.0,1015254.0,1.0
515726.9781162,290600.75,311485.53125,320856.4375,294493.625,296473.90625,304150.125,272257.5,304230.3125,0.054443359375,0.947998046875,-0.2958984375,0.1525878757238388,2.136230230331421,0.6713866591453552,80.0,1015255.0,1.0
515726.9831689,289296.5,310881.3125,320399.125,292687.875,295934.59375,304055.96875,272191.5,303743.3125,0.052490234375,0.947509765625,-0.295654296875,0.1831054538488388,2.136230230331421,0.5798339247703552,80.0,1015256.0,1.0
515726.9880925,285618.5625,310376.34375,320885.3125,294514.5625,299375.25,305398.15625,272712.75,304890.15625,0.048828125,0.953369140625,-0.298828125,0.2136230319738388,2.166747808456421,0.6103515028953552,80.0,1015257.0,1.0
515726.9906712,284437.125,310589.5,321613.09375,297446.21875,302084.8125,306323.78125,273103.09375,306101.6875,0.047119140625,0.953857421875,-0.300537109375,0.3051757514476776,2.227782964706421,0.5493163466453552,80.0,1015258.0,1.0
515726.9932185,287672.15625,311320.84375,321596.5625,297337.5,300195.3125,305527.15625,272807.96875,305651.1875,0.0458984375,0.9541015625,-0.297119140625,0.2441406100988388,2.105712652206421,0.4272460639476776,80.0,1015259.0,1.0
515726.9956865,290574.65625,311476.65625,320854.46875,294450.1875,296466.125,304147.71875,272258.375,304221.21875,0.04443359375,0.952392578125,-0.296875,0.2441406100988388,2.105712652206421,0.4272460639476776,80.0,1015260.0,1.0
515726.9981751,289261.375,310860.9375,320395.375,292635.65625,295921.46875,304051.96875,272196.78125,303738.5,0.044677734375,0.951416015625,-0.298583984375,0.2746581733226776,2.044677495956421,0.3662109076976776,80.0,1015261.0,1.0
515727.0007173,285575.03125,310337.53125,320883.71875,294453.21875,299357.71875,305398.59375,272723.75,304891.9375,0.0439453125,0.951904296875,-0.298583984375,0.3662109076976776,2.014159917831421,0.3051757514476776,80.0,1015262.0,1.0
515727.003093,284383.125,310535.3125,321616.125,297380.9375,302074.625,306334.34375,273122.6875,306103.84375,0.043701171875,0.951416015625,-0.298583984375,0.2746581733226776,2.075195074081421,0.3967284858226776,80.0,1015263.0,1.0
515727.0078701,287612.78125,311262.28125,321600.84375,297270.875,300189.125,305542.375,272837.65625,305659.0625,0.04345703125,0.952392578125,-0.29833984375,0.3662109076976776,2.044677495956421,0.4577636420726776,80.0,1015264.0,1.0
515727.0079097,290503.5,311412.21875,320848.9375,294371.40625,296454.15625,304157.90625,272284.84375,304228.1875,0.041015625,0.95361328125,-0.29736328125,0.3356933295726776,1.9531248807907104,0.4272460639476776,80.0,1015265.0,1.0
515727.0144014,289193.84375,310810.0625,320401.625,292563.59375,295920.65625,304078.15625,272239.0,303761.03125,0.0419921875,0.955810546875,-0.297119140625,0.3356933295726776,1.8615721464157104,0.5493163466453552,80.0,1015266.0,1.0
515727.0193229,285484.375,310276.375,320872.1875,294358.71875,299340.84375,305409.96875,272753.15625,304899.53125,0.04150390625,0.955322265625,-0.2978515625,0.2441406100988388,1.8005369901657104,0.6103515028953552,80.0,1015267.0,1.0
515727.0218365,284280.84375,310460.125,321589.6875,297270.71875,302035.46875,306323.96875,273134.65625,306100.90625,0.045654296875,0.9541015625,-0.296875,0.0610351525247097,1.6784666776657104,0.7019042372703552,80.0,1015268.0,1.0
515727.0243596,287520.0625,311187.625,321579.03125,297165.90625,300148.0,305533.78125,272845.25,305653.0625,0.046630859375,0.9541015625,-0.301513671875,0.0915527269244194,1.7700194120407104,0.8850097060203552,80.0,1015269.0,1.0
515727.0243997,290441.625,311353.125,320846.0625,294291.21875,296430.0,304165.40625,272304.6875,304228.96875,0.046875,0.9560546875,-0.300048828125,0.0915527269244194,1.6784666776657104,0.9155272841453552,80.0,1015270.0,1.0
515727.0268649,289165.25,310759.4375,320409.21875,292507.1875,295906.34375,304092.8125,272259.375,303761.46875,0.048095703125,0.95654296875,-0.302490234375,0.03051757626235485,1.5869139432907104,1.0375975370407104,80.0,1015271.0,1.0
515727.0294014,285499.65625,310244.1875,320896.3125,294335.90625,299343.59375,305433.125,272779.28125,304907.5,0.048095703125,0.956298828125,-0.2998046875,0.1220703050494194,1.6784666776657104,1.1291502714157104,80.0,1015272.0,1.0
515727.0319721,284307.59375,310433.8125,321605.78125,297256.65625,302038.78125,306335.0625,273137.34375,306091.59375,0.048828125,0.9580078125,-0.300048828125,0.0610351525247097,1.6174315214157104,1.3122557401657104,80.0,1015273.0,1.0
515727.0368748,287567.09375,311178.40625,321608.34375,297177.53125,300169.90625,305553.625,272853.46875,305653.25,0.048828125,0.9580078125,-0.300048828125,-0.0610351525247097,1.6479490995407104,1.4038084745407104,80.0,1015274.0,1.0
515727.036913,290503.84375,311362.84375,320885.9375,294323.5,296466.75,304198.59375,272324.625,304241.5,0.04931640625,0.957275390625,-0.30029296875,-0.0610351525247097,1.6784666776657104,1.4953612089157104,80.0,1015275.0,1.0
515727.0395007,289219.875,310766.78125,320439.375,292530.09375,295935.15625,304112.5,272260.1875,303761.75,0.05029296875,0.956787109375,-0.29931640625,-0.1525878757238388,1.5563963651657104,1.4648436307907104,80.0,1015276.0,1.0
515727.043087,285557.59375,310262.25,320931.09375,294359.34375,299377.21875,305453.84375,272775.78125,304910.25,0.0498046875,0.95654296875,-0.29931640625,-0.2441406100988388,1.6174315214157104,1.5258787870407104,80.0,1015277.0,1.0
515727.0657597,284396.1875,310486.21875,321673.625,297312.09375,302105.21875,306393.78125,273173.46875,306130.65625,0.049072265625,0.955810546875,-0.300048828125,-0.2441406100988388,1.7700194120407104,1.4648436307907104,80.0,1015278.0,1.0
515727.0658013,287647.21875,311228.75,321665.59375,297223.9375,300228.65625,305604.15625,272880.03125,305684.4375,0.052001953125,0.95654296875,-0.298828125,-0.3662109076976776,1.8615721464157104,1.4648436307907104,80.0,1015279.0,1.0
515727.0694712,290582.625,311417.9375,320935.40625,294363.375,296517.90625,304236.125,272337.875,304264.375,0.052978515625,0.954345703125,-0.301513671875,-0.3967284858226776,1.8005369901657104,1.3732908964157104,80.0,1015280.0,1.0
515727.069507,289304.8125,310834.625,320491.3125,292574.25,295990.5,304150.125,272283.40625,303789.28125,0.052490234375,0.952880859375,-0.300537109375,-0.3356933295726776,1.8920897245407104,1.3427733182907104,80.0,1015281.0,1.0
515727.0695164,285620.25,310314.03125,320964.28125,294384.1875,299413.0625,305473.15625,272785.53125,304919.75,0.05224609375,0.953369140625,-0.299072265625,-0.3967284858226776,2.044677495956421,1.1901854276657104,80.0,1015282.0,1.0
515727.0769695,284455.375,310537.71875,321703.9375,297333.75,302135.25,306407.46875,273184.28125,306144.625,0.053955078125,0.951416015625,-0.2978515625,-0.4882812201976776,2.105712652206421,1.0986326932907104,80.0,1015283.0,1.0
515727.0770045,287725.875,311300.28125,321708.21875,297260.4375,300273.71875,305632.75,272909.1875,305715.1875,0.05517578125,0.949951171875,-0.30078125,-0.4577636420726776,2.105712652206421,0.8239745497703552,80.0,1015284.0,1.0
515727.077014,290659.59375,311479.875,320970.25,294389.84375,296556.0625,304258.9375,272360.9375,304284.78125,0.053466796875,0.948974609375,-0.300048828125,-0.4577636420726776,2.197265386581421,0.7324218153953552,80.0,1015285.0,1.0
515727.0794375,289379.5625,310891.9375,320524.84375,292594.4375,296025.96875,304176.21875,272305.78125,303809.21875,0.052490234375,0.9482421875,-0.30029296875,-0.2746581733226776,2.227782964706421,0.6103515028953552,80.0,1015286.0,1.0
515727.0842831,285715.46875,310389.40625,321019.15625,294430.0625,299467.15625,305521.53125,272832.03125,304968.5625,0.05126953125,0.948974609375,-0.3017578125,-0.3356933295726776,2.319335699081421,0.4882812201976776,80.0,1015287.0,1.0
515727.0869034,284531.5625,310597.875,321748.28125,297369.78125,302178.875,306447.625,273227.90625,306184.3125,0.051025390625,0.948974609375,-0.30224609375,-0.2441406100988388,2.258300542831421,0.3967284858226776,80.0,1015288.0,1.0
515727.0894419,287778.625,311338.0,321739.4375,297275.34375,300303.375,305664.5,272942.34375,305739.25,0.048583984375,0.9501953125,-0.299072265625,-0.2136230319738388,2.319335699081421,0.2136230319738388,80.0,1015289.0,1.0
515727.0930653,290717.0,311524.6875,321007.46875,294410.5625,296597.125,304301.21875,272395.0,304316.0625,0.049560546875,0.94873046875,-0.301025390625,-0.2441406100988388,2.319335699081421,0.1831054538488388,80.0,1015290.0,1.0
515727.1192042,289448.5625,310947.5625,320565.5,292626.1875,296074.34375,304222.53125,272340.90625,303844.875,0.047119140625,0.9501953125,-0.302490234375,-0.2441406100988388,2.319335699081421,0.0610351525247097,80.0,1015291.0,1.0
515727.1192442,285777.34375,310443.65625,321057.25,294456.25,299510.53125,305563.90625,272868.6875,304999.3125,0.046630859375,0.950927734375,-0.299560546875,-0.1525878757238388,2.349853277206421,0.03051757626235485,80.0,1015292.0,1.0
515727.1397764,284581.1875,310646.875,321783.96875,297391.40625,302215.90625,306488.125,273262.53125,306213.46875,0.045166015625,0.95068359375,-0.29736328125,-0.1831054538488388,2.380370855331421,0.03051757626235485,80.0,1015293.0,1.0
515727.1398108,287818.875,311387.96875,321777.15625,297302.4375,300344.53125,305709.125,272976.78125,305770.1875,0.04541015625,0.95068359375,-0.301025390625,-0.1831054538488388,2.349853277206421,-0.0610351525247097,80.0,1015294.0,1.0
515727.139821,290748.71875,311570.625,321046.34375,294439.71875,296637.53125,304346.375,272432.90625,304347.625,0.04541015625,0.95361328125,-0.30029296875,-0.2746581733226776,2.288818120956421,-0.03051757626235485,80.0,1015295.0,1.0
515727.1657182,289472.0,310987.71875,320601.46875,292651.9375,296106.34375,304266.25,272374.09375,303869.46875,0.04638671875,0.955078125,-0.2978515625,-0.2441406100988388,2.105712652206421,0.0610351525247097,80.0,1015296.0,1.0
515727.1657526,285802.5625,310482.1875,321093.71875,294488.375,299541.46875,305610.78125,272903.90625,305025.875,0.043212890625,0.95703125,-0.299072265625,-0.2441406100988388,1.9836424589157104,0.1220703050494194,80.0,1015297.0,1.0
515727.1657623,284598.96875,310674.0625,321812.21875,297426.0,302244.25,306530.84375,273291.21875,306237.0625,0.0439453125,0.958740234375,-0.29833984375,-0.2441406100988388,1.9836424589157104,0.2746581733226776,80.0,1015298.0,1.0
515727.1681857,287824.9375,311395.21875,321785.90625,297326.125,300353.0,305731.09375,272988.9375,305780.09375,0.045166015625,0.957275390625,-0.30029296875,-0.3356933295726776,1.8920897245407104,0.3051757514476776,80.0,1015299.0,1.0
515727.1707335,290767.25,311585.5625,321062.875,294474.9375,296657.09375,304375.625,272452.9375,304364.25,0.044189453125,0.9580078125,-0.2998046875,-0.5187987685203552,1.8615721464157104,0.1831054538488388,80.0,1015300.0,1.0
515727.1756998,289504.53125,311015.96875,320628.46875,292699.25,296139.78125,304302.375,272405.09375,303896.03125,0.04248046875,0.955322265625,-0.301513671875,-0.5493163466453552,1.7395018339157104,0.3967284858226776,80.0,1015301.0,1.0
515727.178192,285823.65625,310503.5625,321110.53125,294521.625,299560.875,305627.3125,272916.34375,305037.3125,0.04150390625,0.9541015625,-0.2978515625,-0.6103515028953552,1.6784666776657104,0.3662109076976776,80.0,1015302.0,1.0
515727.1806787,284621.84375,310698.75,321833.75,297457.84375,302262.3125,306543.28125,273306.0625,306251.8125,0.041748046875,0.954833984375,-0.297119140625,-0.7629393935203552,1.6174315214157104,0.4882812201976776,80.0,1015303.0,1.0
515727.1905611,287861.5,311436.53125,321824.53125,297372.375,300390.28125,305758.375,273019.15625,305806.5625,0.043701171875,0.955322265625,-0.300048828125,-0.8850097060203552,1.5869139432907104,0.6713866591453552,80.0,1015304.0,1.0
515727.1931808,290812.84375,311634.84375,321104.71875,294536.5625,296698.6875,304407.625,272486.8125,304396.71875,0.044189453125,0.954345703125,-0.298095703125,-1.0070799589157104,1.5258787870407104,0.7934569716453552,80.0,1015305.0,1.0
515727.1981975,289550.59375,311060.5625,320661.625,292760.84375,296171.8125,304324.75,272429.5,303923.75,0.043212890625,0.951171875,-0.3017578125,-0.9460448622703552,1.5563963651657104,0.7324218153953552,80.0,1015306.0,1.0
515727.2005602,285875.96875,310552.125,321143.8125,294580.71875,299593.40625,305657.4375,272949.0625,305073.4375,0.043212890625,0.949951171875,-0.299072265625,-0.9155272841453552,1.4038084745407104,0.8239745497703552,80.0,1015307.0,1.0
515727.2056691,284667.0,310741.65625,321866.5625,297510.5,302296.53125,306577.96875,273340.65625,306285.96875,0.0439453125,0.950927734375,-0.298095703125,-0.8850097060203552,1.4038084745407104,0.8850097060203552,80.0,1015308.0,1.0
515727.2106978,287914.09375,311485.6875,321867.28125,297434.5,300432.59375,305799.6875,273058.59375,305849.03125,0.044921875,0.950927734375,-0.301025390625,-0.9765624403953552,1.4038084745407104,0.8850097060203552,80.0,1015309.0,1.0
515727.2131705,290866.40625,311683.5625,321145.0625,294585.46875,296734.4375,304446.25,272521.0625,304431.125,0.046875,0.953125,-0.297607421875,-0.9155272841453552,1.3427733182907104,0.9155272841453552,80.0,1015310.0,1.0
515727.2180925,289595.90625,311094.375,320702.125,292787.84375,296204.625,304364.0625,272467.15625,303950.9375,0.044677734375,0.954833984375,-0.2978515625,-0.9155272841453552,1.2512205839157104,0.9155272841453552,80.0,1015311.0,1.0
515727.2196389,285903.78125,310563.75,321177.875,294587.78125,299622.28125,305686.9375,272982.21875,305092.84375,0.0458984375,0.956298828125,-0.298095703125,-0.9155272841453552,1.1596678495407104,0.8850097060203552,80.0,1015312.0,1.0
515727.2269834,284689.71875,310748.375,321895.4375,297504.6875,302319.25,306602.5625,273373.5625,306304.125,0.045166015625,0.956298828125,-0.2958984375,-0.8850097060203552,1.1596678495407104,0.9155272841453552,80.0,1015313.0,1.0
515727.2270235,287948.34375,311505.0,321907.0625,297434.84375,300469.5,305839.65625,273103.375,305880.875,0.045654296875,0.955322265625,-0.297119140625,-0.8850097060203552,1.1596678495407104,0.9155272841453552,80.0,1015314.0,1.0
515727.2293434,290919.3125,311722.90625,321201.5625,294597.96875,296791.65625,304502.21875,272582.125,304481.03125,0.046875,0.955078125,-0.296142578125,-0.9155272841453552,1.2817381620407104,0.9155272841453552,80.0,1015315.0,1.0
515727.2344633,289624.34375,311118.3125,320737.96875,292774.25,296239.21875,304401.53125,272511.6875,303986.25,0.046142578125,0.955078125,-0.296142578125,-0.9155272841453552,1.2817381620407104,0.9765624403953552,80.0,1015316.0,1.0
515727.23684,285913.4375,310571.6875,321201.5625,294559.34375,299638.8125,305716.1875,273023.4375,305119.46875,0.047119140625,0.95458984375,-0.2958984375,-1.0070799589157104,1.3427733182907104,0.9765624403953552,80.0,1015317.0,1.0
515727.2394079,284688.625,310748.375,321919.3125,297480.1875,302339.53125,306636.8125,273421.84375,306335.6875,0.050048828125,0.955078125,-0.294677734375,-1.0070799589157104,1.2817381620407104,0.8850097060203552,80.0,1015318.0,1.0
515727.241994,287936.71875,311495.96875,321929.6875,297401.15625,300483.09375,305873.96875,273150.75,305911.96875,0.048828125,0.95556640625,-0.294921875,-1.0070799589157104,1.3122557401657104,0.9155272841453552,80.0,1015319.0,1.0
515727.2420354,290891.875,311696.6875,321213.09375,294542.8125,296785.9375,304521.53125,272609.75,304496.5,0.049560546875,0.95556640625,-0.297607421875,-1.0986326932907104,1.4038084745407104,0.8239745497703552,80.0,1015320.0,1.0
515727.2445875,289601.65625,311091.40625,320755.9375,292720.78125,296233.125,304421.84375,272544.5,304004.125,0.05029296875,0.954345703125,-0.29443359375,-1.0375975370407104,1.4038084745407104,0.8544921278953552,80.0,1015321.0,1.0
515727.2492903,285892.59375,310543.71875,321229.8125,294515.4375,299637.40625,305742.03125,273066.28125,305143.96875,0.04833984375,0.9541015625,-0.296875,-1.0986326932907104,1.4343260526657104,0.8239745497703552,80.0,1015322.0,1.0
515727.251955,284634.09375,310679.96875,321922.625,297414.46875,302307.4375,306628.75,273435.25,306331.9375,0.049560546875,0.9541015625,-0.297607421875,-1.1291502714157104,1.5563963651657104,0.8544921278953552,80.0,1015323.0,1.0
515727.2569525,287888.875,311426.5,321933.1875,297348.84375,300457.875,305865.125,273165.96875,305912.15625,0.050048828125,0.9541015625,-0.29443359375,-1.1291502714157104,1.6784666776657104,0.8239745497703552,80.0,1015324.0,1.0
515727.2595015,290842.34375,311618.125,321212.375,294488.8125,296757.0625,304510.25,272624.0625,304493.71875,0.0498046875,0.953125,-0.297607421875,-1.2512205839157104,1.6784666776657104,0.7019042372703552,80.0,1015325.0,1.0
515727.2595457,289540.3125,310997.8125,320750.15625,292660.25,296195.40625,304406.0,272556.28125,303999.28125,0.048583984375,0.951416015625,-0.299560546875,-1.2512205839157104,1.7700194120407104,0.7629393935203552,80.0,1015326.0,1.0
515727.26202,285807.65625,310424.875,321211.65625,294447.78125,299584.5625,305710.46875,273068.5,305136.90625,0.05029296875,0.951416015625,-0.294677734375,-1.1901854276657104,1.8310545682907104,0.7019042372703552,80.0,1015327.0,1.0
515727.2643459,284549.875,310560.15625,321916.46875,297364.03125,302264.71875,306608.09375,273449.65625,306343.5625,0.050048828125,0.95166015625,-0.294921875,-1.2207030057907104,1.9531248807907104,0.7934569716453552,80.0,1015328.0,1.0
515727.2643845,287779.71875,311278.8125,321916.625,297281.875,300396.90625,305829.28125,273167.3125,305906.09375,0.049560546875,0.950927734375,-0.29443359375,-1.0375975370407104,2.044677495956421,0.8239745497703552,80.0,1015329.0,1.0
515727.2697129,290729.0625,311462.0,321201.90625,294425.15625,296698.15625,304476.90625,272632.1875,304490.3125,0.049560546875,0.95166015625,-0.29296875,-1.0070799589157104,2.105712652206421,0.7629393935203552,80.0,1015330.0,1.0
515727.2718062,289419.15625,310827.125,320736.71875,292592.40625,296130.78125,304370.5,272567.8125,303995.0,0.047119140625,0.951416015625,-0.292724609375,-1.0070799589157104,2.136230230331421,0.7324218153953552,80.0,1015331.0,1.0
515727.2745155,285675.0625,310237.125,321193.34375,294364.34375,299511.6875,305673.625,273084.59375,305127.25,0.047119140625,0.950927734375,-0.293701171875,-0.8544921278953552,2.136230230331421,0.7629393935203552,80.0,1015332.0,1.0
515727.2745584,284443.9375,310391.4375,321924.6875,297301.90625,302218.5625,306602.75,273502.3125,306369.9375,0.047607421875,0.95166015625,-0.293701171875,-0.7629393935203552,2.319335699081421,0.7324218153953552,80.0,1015333.0,1.0
515727.2768763,287676.0,311101.59375,321922.71875,297216.15625,300353.28125,305825.875,273215.84375,305932.46875,0.0458984375,0.952392578125,-0.295166015625,-0.6713866591453552,2.227782964706421,0.8239745497703552,80.0,1015334.0,1.0
515727.2794334,290628.125,311273.4375,321203.34375,294347.53125,296644.21875,304466.71875,272667.25,304503.46875,0.045654296875,0.953369140625,-0.290771484375,-0.5798339247703552,2.288818120956421,0.7019042372703552,80.0,1015335.0,1.0
515727.28322,289344.34375,310651.09375,320758.46875,292524.71875,296087.84375,304370.78125,272611.90625,304019.40625,0.0439453125,0.956298828125,-0.29150390625,-0.5493163466453552,2.197265386581421,0.6713866591453552,80.0,1015336.0,1.0
515727.2832637,285597.90625,310048.9375,321215.25,294286.84375,299467.4375,305672.46875,273124.84375,305147.8125,0.04541015625,0.956787109375,-0.290283203125,-0.4882812201976776,2.288818120956421,0.7324218153953552,80.0,1015337.0,1.0
515727.289534,284336.03125,310167.65625,321919.5,297184.78125,302151.625,306573.5,273505.4375,306343.375,0.047119140625,0.957275390625,-0.293212890625,-0.4882812201976776,2.380370855331421,0.7324218153953552,80.0,1015338.0,1.0
515727.2895698,287595.53125,310902.5,321931.375,297115.40625,300307.59375,305811.65625,273223.34375,305909.03125,0.046630859375,0.956298828125,-0.29150390625,-0.4577636420726776,2.227782964706421,0.7934569716453552,80.0,1015339.0,1.0
515727.344512,290619.71875,311150.25,321253.40625,294302.46875,296656.3125,304499.71875,272710.0625,304520.625,0.046875,0.956298828125,-0.292724609375,-0.4272460639476776,2.227782964706421,0.9460448622703552,80.0,1015340.0,1.0
515727.3468713,289361.75,310563.1875,320803.96875,292484.5625,296116.90625,304415.21875,272644.625,304028.8125,0.0478515625,0.95556640625,-0.29541015625,-0.4272460639476776,2.197265386581421,1.0070799589157104,80.0,1015341.0,1.0
515727.3469064,285654.25,310006.1875,321270.65625,294260.28125,299517.25,305731.75,273155.75,305156.40625,0.04931640625,0.956787109375,-0.295166015625,-0.3967284858226776,2.197265386581421,1.0681151151657104,80.0,1015342.0,1.0
515727.3494269,284440.53125,310183.75,321997.8125,297195.59375,302237.71875,306660.125,273552.65625,306373.5,0.049560546875,0.9560546875,-0.2939453125,-0.3967284858226776,2.227782964706421,1.0986326932907104,80.0,1015343.0,1.0
515727.3518719,287766.65625,310999.875,322043.875,297178.71875,300448.78125,305941.125,273298.46875,305969.5625,0.04833984375,0.95654296875,-0.293212890625,-0.3356933295726776,2.197265386581421,1.0681151151657104,80.0,1015344.0,1.0
515727.356788,290819.625,311294.625,321365.71875,294383.84375,296812.84375,304638.75,272786.78125,304580.8125,0.048828125,0.95556640625,-0.29541015625,-0.3967284858226776,2.197265386581421,1.0986326932907104,80.0,1015345.0,1.0
515727.3594509,289579.8125,310742.90625,320917.5,292581.84375,296274.09375,304554.875,272725.34375,304096.46875,0.049072265625,0.955810546875,-0.29443359375,-0.3662109076976776,2.197265386581421,1.1901854276657104,80.0,1015346.0,1.0
515727.3617809,285882.9375,310216.21875,321385.28125,294375.53125,299678.0,305869.96875,273236.59375,305237.9375,0.051025390625,0.955078125,-0.295654296875,-0.3356933295726776,2.197265386581421,1.2817381620407104,80.0,1015347.0,1.0
515727.3643444,284672.625,310413.8125,322114.5,297319.15625,302405.53125,306801.59375,273635.96875,306461.125,0.049560546875,0.954833984375,-0.29150390625,-0.3662109076976776,2.166747808456421,1.3122557401657104,80.0,1015348.0,1.0
515727.3767876,288003.21875,311245.71875,322164.90625,297315.125,300618.1875,306080.4375,273375.78125,306061.1875,0.05078125,0.954345703125,-0.291748046875,-0.3967284858226776,2.319335699081421,1.2512205839157104,80.0,1015349.0,1.0
515727.3819744,291070.59375,311564.1875,321497.84375,294540.5625,296995.0625,304784.5625,272855.625,304680.5625,0.052001953125,0.951416015625,-0.28955078125,-0.3967284858226776,2.258300542831421,1.1596678495407104,80.0,1015350.0,1.0
515727.3893348,289845.1875,311035.96875,321058.5,292748.6875,296466.9375,304706.5,272795.1875,304198.40625,0.05126953125,0.950927734375,-0.294189453125,-0.3662109076976776,2.258300542831421,1.2512205839157104,80.0,1015351.0,1.0
515727.3918385,286136.21875,310507.59375,321511.34375,294528.59375,299855.0,306006.9375,273299.625,305325.125,0.052001953125,0.951904296875,-0.295654296875,-0.3051757514476776,2.349853277206421,1.2817381620407104,80.0,1015352.0,1.0
515727.3942943,284912.25,310704.65625,322225.8125,297469.375,302571.75,306922.46875,273686.21875,306539.53125,0.052734375,0.949951171875,-0.295654296875,-0.1831054538488388,2.380370855331421,1.1596678495407104,80.0,1015353.0,1.0
515727.3969507,288241.9375,311548.5625,322273.8125,297472.9375,300791.1875,306202.1875,273426.5,306142.5625,0.051513671875,0.9501953125,-0.295166015625,-0.1220703050494194,2.319335699081421,1.0681151151657104,80.0,1015354.0,1.0
515727.4043203,291302.53125,311862.8125,321597.8125,294690.59375,297157.15625,304896.5,272911.5,304757.65625,0.051513671875,0.950927734375,-0.29541015625,-0.0610351525247097,2.410888433456421,0.9155272841453552,80.0,1015355.0,1.0
515727.4068985,290069.34375,311324.40625,321149.875,292895.3125,296613.5625,304808.15625,272854.8125,304277.25,0.05029296875,0.951904296875,-0.2939453125,0.0610351525247097,2.502441167831421,0.8544921278953552,80.0,1015356.0,1.0
515727.4069338,286370.375,310804.5,321620.875,294695.53125,300010.84375,306125.65625,273379.1875,305422.375,0.05029296875,0.952880859375,-0.292236328125,0.0610351525247097,2.502441167831421,0.8239745497703552,80.0,1015357.0,1.0
