Time,FZ,C3,CZ,C4,PZ,PO7,OZ,PO8,AccX,AccY,AccZ,Gyro1,Gyro2,Gyro3,Battery,Counter,Validation
84703.1930898,316381.1875,341905.96875,331224.0,316933.71875,316623.21875,305505.4375,306193.34375,276658.1875,0.021484375,0.866943359375,-0.50390625,-12.145995140075684,0.4577636420726776,-5.798339366912842,100.0,163687.0,1.0
84703.1931021,316393.4375,342933.09375,332285.78125,318016.96875,318393.5625,306603.90625,307115.65625,277516.15625,0.0244140625,0.866455078125,-0.503662109375,-11.993407249450684,0.1220703050494194,-6.103515148162842,100.0,163688.0,1.0
84703.1956024,316617.21875,344408.84375,333505.84375,319246.59375,320888.375,307527.84375,308154.65625,278328.59375,0.0263671875,0.865966796875,-0.50341796875,-11.749266624450684,-0.2441406100988388,-6.317138195037842,100.0,163689.0,1.0
84703.195615,316768.9375,344341.96875,333218.84375,318919.71875,320623.28125,306988.15625,307853.53125,277960.40625,0.02685546875,0.86669921875,-0.50390625,-11.688231468200684,-0.3967284858226776,-6.347655773162842,100.0,163690.0,1.0
84703.1980252,316621.0625,342845.5625,331849.5625,317535.6875,318062.9375,305762.3125,306669.625,276955.90625,0.031005859375,0.865478515625,-0.502197265625,-11.535643577575684,-0.5493163466453552,-6.408690929412842,100.0,163691.0,1.0
84703.2004129,316388.34375,341965.78125,331256.8125,316957.6875,316696.15625,305510.8125,306208.90625,276672.15625,0.0322265625,0.86474609375,-0.49951171875,-11.718749046325684,-0.5187987685203552,-6.317138195037842,100.0,163692.0,1.0
84703.203032,316384.5625,342914.59375,332261.125,317991.9375,318401.875,306580.21875,307106.53125,277507.28125,0.033935546875,0.864501953125,-0.4921875,-11.657713890075684,-0.5187987685203552,-6.378173351287842,100.0,163693.0,1.0
84703.2055256,316609.0,344374.40625,333478.65625,319221.375,320883.625,307516.9375,308151.96875,278331.0,0.034423828125,0.86474609375,-0.494140625,-11.505125999450684,-0.4577636420726776,-6.347655773162842,100.0,163694.0,1.0
84703.207879,316780.375,344389.53125,333255.21875,318948.5,320697.125,307025.71875,307904.40625,277999.5625,0.036865234375,0.864990234375,-0.49462890625,-11.413573265075684,-0.3662109076976776,-6.378173351287842,100.0,163695.0,1.0
84703.2101529,316635.8125,342935.9375,331912.96875,317579.6875,318181.03125,305813.0,306739.53125,276999.375,0.03759765625,0.868896484375,-0.493896484375,-11.260985374450684,-0.3662109076976776,-6.408690929412842,100.0,163696.0,1.0
84703.2101663,316383.875,341989.3125,331266.28125,316951.59375,316751.3125,305515.1875,306233.5,276677.5,0.038818359375,0.874755859375,-0.490478515625,-11.138915061950684,-0.3356933295726776,-6.469726085662842,100.0,163697.0,1.0
84703.2543501,316363.3125,342839.9375,332201.46875,317934.34375,318360.75,306539.53125,307082.84375,277478.6875,0.036865234375,0.881591796875,-0.48779296875,-11.138915061950684,-0.4272460639476776,-6.286620616912842,100.0,163698.0,1.0
84703.2543737,316588.0625,344279.65625,333416.15625,319168.4375,320825.6875,307481.4375,308132.5,278314.46875,0.037353515625,0.885498046875,-0.484619140625,-11.138915061950684,-0.2441406100988388,-6.134032726287842,100.0,163699.0,1.0
84703.2566366,316778.875,344370.65625,333255.21875,318947.0625,320701.5,307033.3125,307921.125,278019.5,0.037353515625,0.888916015625,-0.48193359375,-11.291502952575684,-0.0915527269244194,-5.889892101287842,100.0,163700.0,1.0
84703.2618009,316645.8125,342983.875,331955.15625,317612.125,318237.625,305838.84375,306774.65625,277031.65625,0.034912109375,0.890380859375,-0.4794921875,-11.444090843200684,0.0,-5.706786632537842,100.0,163701.0,1.0
84703.2643404,316385.375,342020.78125,331285.78125,316966.09375,316794.0625,305521.1875,306265.75,276695.9375,0.03369140625,0.89697265625,-0.478759765625,-11.627196311950684,0.3051757514476776,-5.584716320037842,100.0,163702.0,1.0
84703.2668008,316345.875,342787.875,332157.5625,317895.71875,318324.4375,306506.0,307074.625,277464.65625,0.0283203125,0.900146484375,-0.474853515625,-11.932372093200684,0.3967284858226776,-5.432128429412842,100.0,163703.0,1.0
84703.2693371,316566.6875,344192.84375,333353.5625,319116.3125,320750.15625,307435.5625,308095.21875,278279.78125,0.023193359375,0.903076171875,-0.46923828125,-12.145995140075684,0.6103515028953552,-5.401610851287842,100.0,163704.0,1.0
84703.2717388,316788.25,344365.28125,333262.375,318957.1875,320704.0,307035.5625,307926.21875,278018.875,0.02099609375,0.908203125,-0.471435546875,-12.603758811950684,0.6408690810203552,-5.462646007537842,100.0,163705.0,1.0
84703.2742328,316679.8125,343060.5,332019.09375,317668.1875,318316.65625,305877.28125,306820.90625,277063.375,0.014404296875,0.908935546875,-0.46630859375,-12.847899436950684,0.6103515028953552,-5.340575695037842,100.0,163706.0,1.0
84703.2767812,316404.34375,342067.1875,331317.96875,316989.875,316846.09375,305534.6875,306291.875,276706.46875,0.01025390625,0.908935546875,-0.461181640625,-13.244627952575684,0.5493163466453552,-5.218505382537842,100.0,163707.0,1.0
84703.2793375,316339.6875,342750.6875,332123.34375,317867.125,318302.8125,306477.3125,307067.21875,277443.46875,0.010009765625,0.9091796875,-0.456298828125,-13.702391624450684,0.4577636420726776,-5.310058116912842,100.0,163708.0,1.0
84703.281878,316557.75,344121.46875,333300.28125,319081.8125,320698.90625,307397.9375,308082.4375,278262.875,0.012939453125,0.907470703125,-0.453369140625,-14.068602561950684,0.1831054538488388,-5.432128429412842,100.0,163709.0,1.0
84703.2841453,316785.65625,344341.5,333249.875,318955.375,320688.71875,307016.6875,307922.90625,278025.125,0.013427734375,0.908203125,-0.4521484375,-14.495848655700684,0.0,-5.523681163787842,100.0,163710.0,1.0
84703.2917625,316678.28125,343085.96875,332040.375,317686.15625,318340.09375,305870.0625,306821.59375,277075.46875,0.017333984375,0.90869140625,-0.4541015625,-14.923094749450684,-0.0915527269244194,-5.645751476287842,100.0,163711.0,1.0
84703.293443,316392.1875,342065.40625,331308.125,316978.25,316837.875,305504.5625,306274.71875,276705.5,0.018310546875,0.913330078125,-0.453369140625,-15.136717796325684,-0.2441406100988388,-5.706786632537842,100.0,163712.0,1.0
84703.3004177,316312.4375,342666.5625,332054.3125,317808.21875,318216.875,306408.1875,307016.34375,277424.3125,0.01953125,0.9169921875,-0.448974609375,-15.502928733825684,-0.3662109076976776,-5.615233898162842,100.0,163713.0,1.0
84703.3081767,316533.15625,344025.1875,333233.9375,319029.15625,320605.125,307344.90625,308041.28125,278258.9375,0.01953125,0.921630859375,-0.447265625,-15.991209983825684,-0.3967284858226776,-5.401610851287842,100.0,163714.0,1.0
84703.3082168,316781.53125,344323.46875,333244.3125,318951.09375,320659.125,307007.75,307923.71875,278047.03125,0.016845703125,0.924560546875,-0.440673828125,-16.662595748901367,-0.3051757514476776,-5.096435070037842,100.0,163715.0,1.0
84703.3082272,316682.9375,343136.65625,332072.90625,317708.34375,318362.4375,305875.78125,306846.90625,277112.84375,0.013671875,0.92529296875,-0.431640625,-17.120359420776367,-0.03051757626235485,-4.943847179412842,100.0,163716.0,1.0
84703.3105905,316383.875,342080.84375,331306.34375,316969.125,316831.15625,305480.78125,306281.6875,276723.09375,0.010498046875,0.924560546875,-0.426513671875,-17.913816452026367,0.3967284858226776,-4.821776866912842,100.0,163717.0,1.0
84703.3157206,316283.90625,342594.21875,331984.5625,317746.78125,318133.75,306345.5,306987.53125,277402.96875,0.003662109375,0.92822265625,-0.4208984375,-18.585203170776367,0.6103515028953552,-4.730224132537842,100.0,163718.0,1.0
84703.3180607,316502.9375,343919.59375,333150.8125,318961.65625,320497.03125,307284.28125,308009.1875,278221.21875,-0.004638671875,0.9296875,-0.415771484375,-19.226072311401367,0.7324218153953552,-4.638671398162842,100.0,163719.0,1.0
84703.318101,316772.15625,344285.8125,333223.65625,318937.15625,320613.96875,307000.6875,307929.625,278035.875,-0.013671875,0.93115234375,-0.414794921875,-19.927976608276367,0.5493163466453552,-4.760741710662842,100.0,163720.0,1.0
84703.3231404,316698.84375,343175.03125,332110.8125,317738.375,318384.6875,305913.21875,306894.46875,277114.875,-0.021484375,0.93603515625,-0.415771484375,-20.690916061401367,0.0610351525247097,-4.730224132537842,100.0,163721.0,1.0
84703.3440949,316388.875,342092.65625,331313.9375,316969.3125,316819.53125,305497.40625,306305.28125,276692.09375,-0.029541015625,0.940185546875,-0.4150390625,-21.270750045776367,-0.5187987685203552,-4.791259288787842,100.0,163722.0,1.0
84703.3491342,316268.96875,342541.46875,331936.28125,317701.8125,318054.78125,306332.90625,306983.78125,277348.3125,-0.03515625,0.94287109375,-0.413330078125,-21.881101608276367,-1.1596678495407104,-4.974364757537842,100.0,163723.0,1.0
84703.3491457,316477.75,343837.0,333082.9375,318906.46875,320389.125,307257.71875,307995.96875,278170.96875,-0.03955078125,0.938720703125,-0.409423828125,-22.521970748901367,-1.9836424589157104,-5.249022960662842,100.0,163724.0,1.0
84703.3541722,316768.9375,344263.8125,333209.4375,318929.375,320564.34375,307004.09375,307946.4375,278019.875,-0.04150390625,0.9375,-0.39990234375,-23.010251998901367,-2.716064214706421,-5.401610851287842,100.0,163725.0,1.0
84703.356821,316705.375,343205.15625,332132.09375,317758.6875,318377.71875,305927.53125,306920.03125,277123.5625,-0.04248046875,0.9345703125,-0.399658203125,-23.315427780151367,-3.356933355331421,-5.584716320037842,100.0,163726.0,1.0
84703.3592001,316385.03125,342089.625,331308.46875,316966.09375,316787.1875,305486.03125,306315.65625,276696.71875,-0.046630859375,0.930908203125,-0.397705078125,-23.651121139526367,-3.875732183456421,-5.828856945037842,100.0,163727.0,1.0
84703.3615962,316250.375,342454.65625,331873.1875,317652.53125,317951.15625,306292.84375,306961.09375,277330.28125,-0.0478515625,0.926025390625,-0.396240234375,-23.773191452026367,-4.455565929412842,-5.920409679412842,100.0,163728.0,1.0
84703.3691711,316473.625,343741.59375,333025.71875,318868.9375,320281.75,307245.5,307986.75,278173.65625,-0.052001953125,0.922607421875,-0.3974609375,-23.956296920776367,-5.096435070037842,-6.042479991912842,100.0,163729.0,1.0
84703.369186,316771.0,344221.0,333194.96875,318921.3125,320499.90625,307012.40625,307957.53125,278033.625,-0.054931640625,0.920166015625,-0.395263671875,-24.047849655151367,-5.706786632537842,-6.195067882537842,100.0,163730.0,1.0
84703.3854779,316714.9375,343226.25,332155.15625,317768.15625,318356.90625,305948.71875,306948.65625,277128.21875,-0.054443359375,0.916259765625,-0.39306640625,-23.956296920776367,-6.500243663787842,-6.225585460662842,100.0,163731.0,1.0
84703.388099,316393.78125,342104.09375,331317.0625,316963.03125,316754.53125,305497.3125,306339.96875,276686.96875,-0.052490234375,0.913818359375,-0.395751953125,-23.895261764526367,-6.835937023162842,-6.286620616912842,100.0,163732.0,1.0
84703.39053,316239.125,342390.65625,331825.34375,317607.84375,317855.0625,306263.625,306949.71875,277299.59375,-0.04931640625,0.90673828125,-0.39501953125,-23.681638717651367,-7.629394054412842,-6.439208507537842,100.0,163733.0,1.0
84703.4041924,316432.15625,343592.46875,332923.78125,318780.6875,320094.15625,307162.875,307890.09375,278091.125,-0.04296875,0.901123046875,-0.39501953125,-23.132322311401367,-8.270262718200684,-6.683349132537842,100.0,163734.0,1.0
84703.4066687,316754.71875,344139.46875,333154.03125,318888.875,320357.28125,306975.03125,307875.8125,277986.34375,-0.03564453125,0.89453125,-0.401611328125,-22.369382858276367,-8.666991233825684,-6.835937023162842,100.0,163735.0,1.0
84703.4131208,316717.78125,343203.53125,332164.71875,317775.40625,318256.9375,305943.0,306884.1875,277121.40625,-0.02734375,0.88916015625,-0.406494140625,-21.514890670776367,-8.972167015075684,-7.049560070037842,100.0,163736.0,1.0
84703.4155164,316382.78125,342047.875,331292.21875,316939.4375,316613.625,305461.1875,306246.4375,276670.4375,-0.019775390625,0.8857421875,-0.4052734375,-20.263669967651367,-9.185790061950684,-7.080077648162842,100.0,163737.0,1.0
84703.4155574,316214.53125,342279.0,331749.0,317549.8125,317657.5625,306201.21875,306836.53125,277269.375,-0.01220703125,0.88330078125,-0.403564453125,-18.981931686401367,-8.972167015075684,-7.049560070037842,100.0,163738.0,1.0
84703.4268622,316422.9375,343524.78125,332881.40625,318756.375,319957.46875,307148.65625,307850.5,278115.34375,-0.00732421875,0.88330078125,-0.403076171875,-17.791746139526367,-8.697508811950684,-6.927489757537842,100.0,163739.0,1.0
84703.4293564,316760.53125,344130.5,333156.96875,318896.46875,320284.59375,306991.125,307875.0,278033.1875,-0.00439453125,0.885009765625,-0.40234375,-16.662595748901367,-8.300780296325684,-6.683349132537842,100.0,163740.0,1.0
84703.4318684,316729.6875,343231.15625,332188.0625,317795.96875,318214.90625,305955.875,306885.53125,277158.0625,-0.001708984375,0.8896484375,-0.399169921875,-15.594481468200684,-7.659911632537842,-6.408690929412842,100.0,163741.0,1.0
84703.4319106,316386.8125,342044.8125,331287.1875,316934.59375,316544.15625,305455.375,306222.5,276676.4375,-0.00048828125,0.895263671875,-0.396240234375,-14.587401390075684,-6.988524913787842,-6.042479991912842,100.0,163742.0,1.0
84703.4344281,316199.3125,342210.15625,331699.46875,317506.8125,317530.96875,306172.4375,306781.09375,277245.96875,0.00048828125,0.899658203125,-0.393310546875,-13.153075218200684,-6.011962413787842,-5.554198741912842,100.0,163743.0,1.0
84703.4367548,316395.84375,343418.3125,332812.125,318700.65625,319803.6875,307107.25,307778.0,278073.5,0.000732421875,0.90283203125,-0.393310546875,-12.298583030700684,-5.462646007537842,-5.249022960662842,100.0,163744.0,1.0
84703.4391314,316752.21875,344073.21875,333130.875,318876.78125,320179.46875,306980.9375,307832.8125,278007.53125,-0.001220703125,0.9052734375,-0.397216796875,-11.383055686950684,-4.791259288787842,-4.882812023162842,100.0,163745.0,1.0
84703.4419055,316734.59375,343226.0625,332195.9375,317798.8125,318152.25,305968.3125,306863.53125,277140.0,-0.00341796875,0.906982421875,-0.3955078125,-10.650633811950684,-4.211425304412842,-4.608153820037842,100.0,163746.0,1.0
84703.4419464,316380.09375,342023.625,331275.03125,316916.71875,316459.78125,305443.84375,306182.53125,276638.4375,-0.004638671875,0.912841796875,-0.394287109375,-9.887694358825684,-3.692626714706421,-4.241942882537842,100.0,163747.0,1.0
84703.4437504,316189.40625,342142.09375,331652.59375,317459.6875,317399.34375,306137.46875,306719.6875,277193.46875,-0.005615234375,0.916259765625,-0.387939453125,-9.368895530700684,-3.143310308456421,-3.936767339706421,100.0,163748.0,1.0
84703.4692891,316395.75,343344.625,332766.875,318661.9375,319668.0625,307088.21875,307726.84375,278035.6875,-0.010498046875,0.92041015625,-0.38916015625,-8.758543968200684,-2.532958745956421,-3.692626714706421,100.0,163749.0,1.0
84703.4755956,316752.3125,344024.3125,333107.78125,318856.6875,320070.28125,306973.40625,307789.71875,277980.96875,-0.011962890625,0.9248046875,-0.38916015625,-8.117674827575684,-2.044677495956421,-3.448486089706421,100.0,163750.0,1.0
84703.4781139,316747.5625,343217.03125,332203.0,317800.875,318081.15625,305973.125,306835.90625,277127.9375,-0.017333984375,0.92822265625,-0.3857421875,-7.659911632537842,-1.4648436307907104,-3.295898199081421,100.0,163751.0,1.0
84703.4805197,316399.5,342011.9375,331274.59375,316913.59375,316380.375,305443.9375,306154.625,276627.71875,-0.023193359375,0.933837890625,-0.38330078125,-7.415771007537842,-1.0070799589157104,-3.143310308456421,100.0,163752.0,1.0
84703.4805601,316190.03125,342078.28125,331611.21875,317423.65625,317267.1875,306106.8125,306664.875,277158.15625,-0.025390625,0.936279296875,-0.378662109375,-7.019042491912842,-0.5798339247703552,-3.234863042831421,100.0,163753.0,1.0
84703.4830648,316389.5,343259.25,332712.53125,318618.59375,319517.3125,307051.84375,307666.78125,277998.3125,-0.027587890625,0.93798828125,-0.3818359375,-6.713866710662842,-0.0610351525247097,-3.295898199081421,100.0,163754.0,1.0
84703.4830963,316755.875,343978.34375,333082.5,318841.03125,319954.78125,306963.3125,307754.375,277966.21875,-0.029296875,0.93994140625,-0.384033203125,-6.408690929412842,0.0610351525247097,-3.234863042831421,100.0,163755.0,1.0
84703.4919005,316752.21875,343182.96875,332187.0,317788.4375,317956.34375,305957.5625,306779.75,277103.875,-0.03173828125,0.939697265625,-0.384033203125,-6.195067882537842,0.2746581733226776,-3.326415777206421,100.0,163756.0,1.0
84703.4919381,316396.1875,341966.15625,331247.59375,316885.78125,316224.53125,305405.59375,306075.59375,276594.625,-0.03369140625,0.939697265625,-0.384033203125,-5.950927257537842,0.4272460639476776,-3.356933355331421,100.0,163757.0,1.0
84703.4943759,316175.625,342004.3125,331558.8125,317377.09375,317076.9375,306052.09375,306572.53125,277125.53125,-0.03564453125,0.938720703125,-0.38330078125,-5.767821788787842,0.5493163466453552,-3.387450933456421,100.0,163758.0,1.0
84703.4992626,316363.125,343166.875,332650.84375,318569.78125,319313.5625,306989.5,307566.53125,277968.8125,-0.040283203125,0.9345703125,-0.3857421875,-5.432128429412842,0.4882812201976776,-3.356933355331421,100.0,163759.0,1.0
84703.499303,316739.15625,343911.8125,333052.375,318819.5625,319788.125,306923.8125,307672.59375,277962.46875,-0.042724609375,0.929931640625,-0.385986328125,-5.279540538787842,0.7324218153953552,-3.448486089706421,100.0,163760.0,1.0
84703.502627,316759.71875,343182.34375,332202.71875,317806.0625,317860.875,305955.4375,306751.6875,277143.21875,-0.04638671875,0.9228515625,-0.38720703125,-4.852294445037842,0.8544921278953552,-3.448486089706421,100.0,163761.0,1.0
84703.5026688,316406.125,341964.71875,331255.1875,316898.3125,316127.96875,305394.03125,306052.25,276633.875,-0.04833984375,0.916259765625,-0.38916015625,-4.394530773162842,1.0681151151657104,-3.631591558456421,100.0,163762.0,1.0
84703.502679,316171.78125,341961.78125,331533.6875,317360.1875,316937.75,306019.625,306528.25,277142.15625,-0.04736328125,0.912109375,-0.38818359375,-3.967284917831421,1.0681151151657104,-3.692626714706421,100.0,163763.0,1.0
84703.5026882,316356.0625,343110.125,332617.75,318544.03125,319169.15625,306964.3125,307521.3125,277978.1875,-0.048583984375,0.905517578125,-0.389892578125,-3.540038824081421,1.1596678495407104,-3.723144292831421,100.0,163764.0,1.0
84703.510457,316732.5625,343869.1875,333032.25,318804.46875,319667.34375,306911.09375,307631.625,277971.03125,-0.049560546875,0.89990234375,-0.39111328125,-2.929687261581421,1.0070799589157104,-3.814697027206421,100.0,163765.0,1.0
84703.5131365,316749.625,343150.625,332189.125,317797.46875,317752.25,305937.09375,306708.25,277148.3125,-0.048583984375,0.895263671875,-0.393310546875,-2.471923589706421,0.9765624403953552,-3.784179449081421,100.0,163766.0,1.0
84703.5156753,316391.90625,341915.8125,331225.25,316872.84375,315997.625,305366.96875,305995.21875,276619.65625,-0.0458984375,0.889892578125,-0.392333984375,-1.9226073026657104,1.1596678495407104,-3.723144292831421,100.0,163767.0,1.0
84703.5157118,316162.21875,341895.59375,331488.71875,317321.125,316780.125,305989.75,306461.28125,277116.84375,-0.046142578125,0.886962890625,-0.396728515625,-1.4343260526657104,1.1291502714157104,-3.723144292831421,100.0,163768.0,1.0
84703.5267232,316344.78125,343034.28125,332571.0,318504.40625,319004.8125,306932.75,307451.03125,277954.59375,-0.04248046875,0.88330078125,-0.401123046875,-0.8850097060203552,1.1291502714157104,-3.692626714706421,100.0,163769.0,1.0
84703.529259,316731.5625,343819.375,333013.5625,318792.125,319539.03125,306894.46875,307574.3125,277962.90625,-0.0380859375,0.87890625,-0.404296875,-0.4272460639476776,1.1901854276657104,-3.540038824081421,100.0,163770.0,1.0
84703.5292992,316760.8125,343136.03125,332195.5,317804.09375,317665.40625,305936.9375,306672.125,277146.28125,-0.03466796875,0.875,-0.408935546875,0.1831054538488388,1.2512205839157104,-3.570556402206421,100.0,163771.0,1.0
84703.5317871,316406.03125,341906.5,331227.65625,316870.6875,315906.59375,305365.53125,305956.15625,276613.84375,-0.0302734375,0.8720703125,-0.411865234375,0.6408690810203552,1.4648436307907104,-3.570556402206421,100.0,163772.0,1.0
84703.5318285,316163.46875,341843.9375,331453.21875,317282.21875,316616.78125,305951.6875,306365.625,277086.625,-0.02392578125,0.871826171875,-0.408447265625,1.2512205839157104,1.8615721464157104,-3.692626714706421,100.0,163773.0,1.0
84703.5344748,316345.875,342987.4375,332538.4375,318473.46875,318834.0625,306902.96875,307354.21875,277934.84375,-0.0185546875,0.874267578125,-0.40966796875,1.7700194120407104,2.563476324081421,-3.784179449081421,100.0,163774.0,1.0
84703.5369136,316727.375,343792.09375,332993.09375,318778.625,319405.0,306881.34375,307507.34375,277953.0625,-0.014404296875,0.876220703125,-0.410400390625,2.166747808456421,3.265380620956421,-3.784179449081421,100.0,163775.0,1.0
84703.5419011,316745.5,343102.6875,332168.65625,317785.21875,317521.65625,305907.15625,306587.375,277124.0,-0.01220703125,0.878173828125,-0.410400390625,2.471923589706421,4.028319835662842,-3.814697027206421,100.0,163776.0,1.0
84703.541943,316398.71875,341877.375,331202.625,316852.34375,315756.75,305331.0,305868.96875,276585.875,-0.01025390625,0.883056640625,-0.41064453125,2.655029058456421,4.913329601287842,-3.753661870956421,100.0,163777.0,1.0
84703.5441933,316162.84375,341833.125,331441.25,317271.59375,316500.625,305944.78125,306324.15625,277067.15625,-0.01123046875,0.88525390625,-0.41455078125,2.838134527206421,5.645751476287842,-3.723144292831421,100.0,163778.0,1.0
84703.5469794,316338.1875,342971.34375,332524.9375,318456.9375,318732.21875,306906.375,307327.375,277909.34375,-0.010986328125,0.884765625,-0.416015625,3.051757574081421,6.530761241912842,-3.753661870956421,100.0,163779.0,1.0
84703.5517326,316731.03125,343790.3125,332999.25,318784.25,319332.9375,306903.59375,307492.53125,277944.59375,-0.00927734375,0.88671875,-0.4189453125,3.417968511581421,7.263183116912842,-3.845214605331421,100.0,163780.0,1.0
84703.55686,316764.125,343123.96875,332197.28125,317815.53125,317490.625,305950.78125,306600.0625,277134.90625,-0.010498046875,0.887451171875,-0.419921875,3.692626714706421,8.026122093200684,-4.028319835662842,100.0,163781.0,1.0
84703.5592942,316423.1875,341894.71875,331231.0625,316880.15625,315724.3125,305373.03125,305886.15625,276601.15625,-0.0107421875,0.890625,-0.41845703125,3.997802495956421,8.789061546325684,-4.211425304412842,100.0,163782.0,1.0
84703.5593353,316181.96875,341844.375,331456.625,317280.4375,316442.4375,305967.5,306324.9375,277075.09375,-0.010986328125,0.894287109375,-0.417236328125,4.211425304412842,9.521483421325684,-4.394530773162842,100.0,163783.0,1.0
84703.5645012,316355.0625,342988.25,332537.46875,318465.4375,318675.1875,306923.71875,307328.09375,277920.96875,-0.011474609375,0.898681640625,-0.4140625,4.333495616912842,10.223387718200684,-4.516601085662842,100.0,163784.0,1.0
84703.566863,316741.84375,343805.78125,333014.8125,318804.90625,319297.8125,306923.53125,307505.84375,277970.25,-0.010009765625,0.904296875,-0.412353515625,4.364013195037842,10.833739280700684,-4.577636241912842,100.0,163785.0,1.0
84703.5692156,316781.375,343147.3125,332223.84375,317853.4375,317482.0625,305971.0625,306625.96875,277169.34375,-0.00732421875,0.908203125,-0.413818359375,4.394530773162842,11.535643577575684,-4.760741710662842,100.0,163786.0,1.0
84703.571935,316426.34375,341908.21875,331239.90625,316897.3125,315701.15625,305369.375,305894.46875,276607.21875,-0.00537109375,0.91259765625,-0.4150390625,4.302978038787842,11.962889671325684,-4.608153820037842,100.0,163787.0,1.0
84703.6256063,316183.6875,341859.75,331458.40625,317280.6875,316408.34375,305965.90625,306329.6875,277071.4375,-0.003662109375,0.913818359375,-0.417236328125,4.089354991912842,12.359618186950684,-4.455565929412842,100.0,163788.0,1.0
84703.6256479,316350.78125,342982.4375,332529.25,318448.1875,318616.09375,306917.71875,307296.1875,277897.09375,-0.000244140625,0.913330078125,-0.417236328125,3.875732183456421,12.756346702575684,-4.364013195037842,100.0,163789.0,1.0
84703.630586,316730.75,343786.375,333002.90625,318793.8125,319239.78125,306909.40625,307450.40625,277941.28125,0.005859375,0.914306640625,-0.419189453125,3.692626714706421,13.183592796325684,-4.302978038787842,100.0,163790.0,1.0
84703.6331221,316770.09375,343128.34375,332213.1875,317853.71875,317431.34375,305957.75,306565.53125,277153.6875,0.012939453125,0.916015625,-0.42138671875,3.540038824081421,13.610838890075684,-4.180907726287842,100.0,163791.0,1.0
84703.6354497,316420.96875,341906.34375,331241.25,316904.9375,315652.5,305364.90625,305845.09375,276612.5,0.02294921875,0.919189453125,-0.418212890625,3.295898199081421,14.099120140075684,-4.058837413787842,100.0,163792.0,1.0
84703.6381,316182.78125,341884.96875,331472.625,317284.90625,316360.34375,305966.34375,306288.84375,277084.5625,0.0322265625,0.925048828125,-0.421875,2.990722417831421,14.709471702575684,-3.875732183456421,100.0,163793.0,1.0
84703.6404922,316346.3125,343048.40625,332560.8125,318464.625,318615.71875,306936.6875,307301.09375,277943.78125,0.0400390625,0.925537109375,-0.42529296875,2.563476324081421,15.563963890075684,-3.662109136581421,100.0,163794.0,1.0
84703.6430646,316725.125,343868.0,333041.8125,318823.25,319288.78125,306940.53125,307489.03125,278007.0625,0.04248046875,0.924072265625,-0.421142578125,2.136230230331421,16.540525436401367,-3.204345464706421,100.0,163795.0,1.0
84703.6455977,316773.5,343200.875,332254.0625,317894.9375,317505.28125,305986.8125,306619.09375,277224.125,0.04248046875,0.921142578125,-0.423583984375,1.6479490995407104,17.700193405151367,-2.929687261581421,100.0,163796.0,1.0
84703.6481116,316430.875,341965.78125,331272.90625,316936.125,315716.25,305382.40625,305887.5625,276667.5,0.04345703125,0.91796875,-0.4267578125,1.2207030057907104,18.829343795776367,-2.563476324081421,100.0,163797.0,1.0
84703.650452,316187.25,341939.5,331493.46875,317290.90625,316405.5,305973.3125,306319.75,277109.4375,0.04345703125,0.9189453125,-0.427978515625,0.8239745497703552,19.836423873901367,-2.319335699081421,100.0,163798.0,1.0
84703.6530354,316360.25,343123.25,332601.46875,318481.4375,318690.90625,306972.0,307359.375,277975.96875,0.043212890625,0.918701171875,-0.4326171875,0.5187987685203552,20.721433639526367,-2.227782964706421,100.0,163799.0,1.0
84703.6554919,316738.8125,343934.34375,333087.78125,318854.53125,319390.4375,306986.125,307561.53125,278043.5625,0.04345703125,0.916259765625,-0.4326171875,0.4577636420726776,21.362302780151367,-2.075195074081421,100.0,163800.0,1.0
84703.660603,316774.40625,343226.34375,332278.28125,317913.0,317585.5,305997.53125,306651.5625,277217.34375,0.0439453125,0.91650390625,-0.433837890625,0.3051757514476776,22.064207077026367,-1.9226073026657104,100.0,163801.0,1.0
84703.6631332,316439.75,341990.46875,331297.9375,316953.46875,315780.53125,305381.78125,305900.71875,276650.15625,0.04443359375,0.914306640625,-0.429443359375,0.0610351525247097,22.552488327026367,-1.7395018339157104,100.0,163802.0,1.0
84703.6691824,316209.78125,342012.65625,331541.5625,317322.1875,316496.5,306007.8125,306368.125,277129.5625,0.04345703125,0.912353515625,-0.422119140625,-0.1831054538488388,23.193357467651367,-1.4648436307907104,100.0,163803.0,1.0
84703.6717177,316361.6875,343180.46875,332623.5625,318484.75,318753.25,306985.75,307372.34375,277973.28125,0.041748046875,0.909423828125,-0.42041015625,-0.4272460639476776,23.742673873901367,-1.4648436307907104,100.0,163804.0,1.0
84703.6743212,316731.03125,343945.875,333092.3125,318855.34375,319426.375,306973.78125,307530.34375,278029.78125,0.038330078125,0.90673828125,-0.418212890625,-0.6103515028953552,24.322507858276367,-1.7089842557907104,100.0,163805.0,1.0
84703.6769293,316786.625,343257.90625,332313.40625,317958.40625,317663.8125,306009.78125,306659.5,277261.78125,0.036376953125,0.905029296875,-0.41943359375,-0.7019042372703552,24.597166061401367,-1.8615721464157104,100.0,163806.0,1.0
84703.6769723,316452.71875,342032.84375,331334.59375,316995.75,315865.375,305392.25,305920.5625,276705.125,0.02978515625,0.90283203125,-0.418701171875,-0.9155272841453552,25.115964889526367,-2.227782964706421,100.0,163807.0,1.0
84703.6818849,316220.0625,342072.90625,331578.59375,317348.125,316567.15625,306015.59375,306374.75,277172.90625,0.026123046875,0.9033203125,-0.413330078125,-0.9460448622703552,25.543210983276367,-2.593993902206421,100.0,163808.0,1.0
84703.6819226,316378.9375,343294.125,332689.5625,318532.3125,318885.90625,307029.84375,307437.625,278056.15625,0.0234375,0.906005859375,-0.40673828125,-1.1596678495407104,25.909421920776367,-2.899169683456421,100.0,163809.0,1.0
84703.6855779,316749.625,344083.21875,333175.03125,318929.375,319638.53125,307039.9375,307655.5,278146.71875,0.023681640625,0.908203125,-0.402099609375,-1.3427733182907104,26.092527389526367,-3.356933355331421,100.0,163810.0,1.0
84703.6856205,316801.9375,343368.5,332384.40625,318034.59375,317889.46875,306053.34375,306779.3125,277360.9375,0.02294921875,0.912353515625,-0.397216796875,-1.5869139432907104,26.123044967651367,-3.753661870956421,100.0,163811.0,1.0
84703.6856313,316468.4375,342130.65625,331398.59375,317065.5,316074.875,305423.71875,306024.90625,276778.90625,0.019287109375,0.916748046875,-0.389404296875,-2.075195074081421,26.214597702026367,-4.180907726287842,100.0,163812.0,1.0
84703.68817,316228.75,342168.375,331630.96875,317390.5,316746.5,306048.25,306459.96875,277216.90625,0.014892578125,0.92333984375,-0.385498046875,-2.716064214706421,26.367185592651367,-4.638671398162842,100.0,163813.0,1.0
84703.6967256,316371.6875,343389.96875,332726.84375,318551.96875,319059.71875,307066.75,307508.6875,278070.09375,0.009765625,0.9287109375,-0.384521484375,-3.387450933456421,26.336668014526367,-5.004882335662842,100.0,163814.0,1.0
84703.7018431,316741.59375,344171.1875,333212.125,318960.65625,319842.84375,307087.875,307737.75,278159.25,0.00537109375,0.932373046875,-0.384521484375,-3.967284917831421,26.214597702026367,-5.401610851287842,100.0,163815.0,1.0
84703.7042429,316802.09375,343434.03125,332421.78125,318079.03125,318103.875,306104.84375,306863.71875,277378.375,0.0009765625,0.932861328125,-0.388427734375,-4.547118663787842,26.031492233276367,-5.889892101287842,100.0,163816.0,1.0
84703.7042824,316463.53125,342172.6875,331417.5625,317088.21875,316258.0625,305450.09375,306086.21875,276779.59375,-0.001220703125,0.934326171875,-0.38720703125,-5.157470226287842,25.756834030151367,-6.591796398162842,100.0,163817.0,1.0
84703.7131849,316226.875,342221.40625,331643.84375,317392.71875,316906.96875,306070.5,306511.625,277208.3125,-0.00390625,0.93505859375,-0.390380859375,-5.493163585662842,25.329587936401367,-7.202147960662842,100.0,163818.0,1.0
84703.7180521,316376.625,343468.09375,332756.25,318562.25,319228.4375,307111.65625,307569.6875,278077.4375,-0.007568359375,0.933349609375,-0.396484375,-5.615233898162842,25.177000045776367,-7.781981945037842,100.0,163819.0,1.0
84703.7205901,316740.9375,344239.15625,333245.5625,318985.5,320023.0,307133.8125,307798.75,278170.96875,-0.00732421875,0.932373046875,-0.400390625,-5.493163585662842,24.841306686401367,-8.483885765075684,100.0,163820.0,1.0
84703.7206306,316801.21875,343469.09375,332448.6875,318111.21875,318271.40625,306132.53125,306909.5,277387.9375,-0.00390625,0.93212890625,-0.403564453125,-5.340575695037842,24.536130905151367,-9.094237327575684,100.0,163821.0,1.0
84703.7306082,316470.0625,342204.6875,331441.96875,317117.90625,316408.8125,305469.5,306124.40625,276796.25,0.00244140625,0.93017578125,-0.408935546875,-5.096435070037842,24.414060592651367,-9.582518577575684,100.0,163822.0,1.0
84703.7331902,316225.78125,342266.5625,331661.09375,317402.46875,317036.4375,306086.40625,306541.59375,277222.25,0.00830078125,0.928466796875,-0.407958984375,-4.608153820037842,24.353025436401367,-10.009764671325684,100.0,163823.0,1.0
84703.7355498,316368.5625,343535.59375,332775.8125,318563.875,319366.46875,307143.5625,307606.25,278099.875,0.0126953125,0.9267578125,-0.411376953125,-4.150390148162842,24.322507858276367,-10.253905296325684,100.0,163824.0,1.0
84703.7379894,316731.84375,344295.375,333260.78125,318995.53125,320173.71875,307162.25,307844.5,278206.0,0.017333984375,0.9208984375,-0.415771484375,-3.631591558456421,24.444578170776367,-10.559081077575684,100.0,163825.0,1.0
84703.7380243,316779.5625,343473.8125,332437.875,318115.0625,318396.5,306116.8125,306927.71875,277409.65625,0.022216796875,0.914794921875,-0.419921875,-2.960204839706421,24.902341842651367,-10.742186546325684,100.0,163826.0,1.0
84703.7429326,316449.5625,342172.84375,331413.875,317107.0,316491.96875,305434.625,306113.0625,276799.46875,0.027587890625,0.907958984375,-0.42236328125,-2.349853277206421,25.238035202026367,-10.864256858825684,100.0,163827.0,1.0
84703.7568519,316200.84375,342239.8125,331624.25,317369.21875,317087.3125,306050.375,306510.90625,277212.875,0.0322265625,0.901611328125,-0.4287109375,-1.4038084745407104,25.787351608276367,-10.864256858825684,100.0,163828.0,1.0
84703.756895,316346.75,343534.96875,332753.5625,318531.96875,319426.65625,307124.53125,307581.46875,278087.90625,0.034423828125,0.895751953125,-0.4267578125,-0.7019042372703552,26.214597702026367,-10.864256858825684,100.0,163829.0,1.0
84703.7593802,316737.5625,344317.8125,333275.78125,319005.09375,320288.09375,307176.5625,307849.15625,278218.96875,0.037109375,0.888427734375,-0.4306640625,0.2746581733226776,26.916501998901367,-10.803221702575684,100.0,163830.0,1.0
84703.7617024,316802.71875,343493.21875,332468.28125,318152.78125,318539.46875,306141.75,306949.90625,277436.40625,0.037841796875,0.880126953125,-0.433349609375,1.3732908964157104,27.679441452026367,-10.589598655700684,100.0,163831.0,1.0
84703.7729846,316465.3125,342182.6875,331434.71875,317130.59375,316612.84375,305450.0,306126.28125,276809.46875,0.041015625,0.875,-0.43408203125,2.563476324081421,28.381345748901367,-10.498045921325684,100.0,163832.0,1.0
84703.7730294,316239.1875,342297.65625,331670.84375,317395.40625,317210.875,306095.34375,306548.28125,277236.03125,0.04541015625,0.86962890625,-0.437255859375,3.814697027206421,29.205320358276367,-10.375975608825684,100.0,163833.0,1.0
84703.7757238,316389.6875,343640.75,332819.5625,318564.9375,319572.28125,307199.25,307648.625,278126.625,0.044677734375,0.867431640625,-0.438232421875,5.035399913787842,29.907224655151367,-10.223387718200684,100.0,163834.0,1.0
84703.7757632,316739.34375,344385.0625,333305.5625,319019.59375,320422.03125,307221.0,307892.53125,278236.0625,0.04638671875,0.869873046875,-0.439697265625,6.317138195037842,30.548093795776367,-9.948729515075684,100.0,163835.0,1.0
84703.7781104,316793.0,343509.65625,332473.09375,318165.375,318657.125,306156.96875,306975.9375,277450.25,0.046142578125,0.87353515625,-0.436767578125,7.568358898162842,31.280515670776367,-9.613036155700684,100.0,163836.0,1.0
84703.7805537,316444.84375,342165.09375,331413.4375,317117.96875,316684.34375,305432.75,306123.875,276800.34375,0.047119140625,0.8779296875,-0.435302734375,8.575438499450684,31.951902389526367,-9.216307640075684,100.0,163837.0,1.0
84703.7830591,316177.78125,342260.21875,331610.3125,317323.15625,317220.25,306041.71875,306494.03125,277157.71875,0.050537109375,0.885498046875,-0.432861328125,9.338377952575684,32.684322357177734,-8.636473655700684,100.0,163838.0,1.0
84703.7880045,316314.75,343618.65625,332760.28125,318478.40625,319578.46875,307148.21875,307584.53125,278032.28125,0.04931640625,0.891845703125,-0.429443359375,9.948729515075684,33.416744232177734,-7.965087413787842,100.0,163839.0,1.0
84703.7880458,316725.40625,344415.46875,333307.0,319008.5,320507.75,307235.90625,307902.625,278220.5,0.0478515625,0.89501953125,-0.427490234375,10.345458030700684,34.027095794677734,-7.141112804412842,100.0,163840.0,1.0
84703.7943359,316829.65625,343552.3125,332510.03125,318212.78125,318787.5625,306208.71875,307034.84375,277475.90625,0.046630859375,0.8955078125,-0.427490234375,10.620116233825684,34.790035247802734,-6.500243663787842,100.0,163841.0,1.0
84703.7966831,316486.59375,342190.84375,331444.90625,317158.84375,316786.46875,305470.3125,306167.25,276811.71875,0.040283203125,0.896484375,-0.426025390625,11.016844749450684,35.430904388427734,-6.011962413787842,100.0,163842.0,1.0
84703.7993549,316253.0625,342337.28125,331680.21875,317380.125,317328.96875,306117.0,306565.53125,277205.28125,0.03759765625,0.896240234375,-0.426513671875,11.383055686950684,36.010738372802734,-5.645751476287842,100.0,163843.0,1.0
84703.7994015,316393.78125,343739.53125,332847.8125,318538.9375,319705.96875,307249.59375,307678.40625,278099.4375,0.033447265625,0.897705078125,-0.42919921875,11.871336936950684,36.437984466552734,-5.218505382537842,100.0,163844.0,1.0
84703.8018916,316741.3125,344461.78125,333331.03125,319021.8125,320597.875,307276.78125,307947.0625,278234.78125,0.034423828125,0.90283203125,-0.431640625,12.298583030700684,36.743160247802734,-4.669188976287842,100.0,163845.0,1.0
84703.8093256,316790.5,343493.03125,332461.03125,318184.0625,318815.28125,306177.875,307016.96875,277437.5625,0.033447265625,0.908935546875,-0.42822265625,12.756346702575684,36.926265716552734,-4.150390148162842,100.0,163846.0,1.0
84703.8265425,316474.15625,342139.15625,331413.09375,317150.34375,316812.5625,305454.65625,306164.03125,276795.34375,0.031494140625,0.910888671875,-0.42236328125,13.092040061950684,37.170406341552734,-3.723144292831421,100.0,163847.0,1.0
84703.8291189,316252.0625,342335.40625,331675.40625,317371.28125,317353.03125,306116.0,306573.9375,277193.90625,0.030517578125,0.916259765625,-0.421630859375,13.153075218200684,37.353511810302734,-3.082275152206421,100.0,163848.0,1.0
84703.8353931,316397.0,343786.9375,332869.15625,318536.78125,319752.53125,307270.4375,307702.625,278095.5,0.029296875,0.91748046875,-0.41845703125,13.275145530700684,37.628170013427734,-2.532958745956421,100.0,163849.0,1.0
84703.8379177,316740.78125,344509.5,333356.96875,319036.21875,320672.96875,307307.0,307989.53125,278251.875,0.026123046875,0.91552734375,-0.420166015625,13.214110374450684,37.841793060302734,-1.9226073026657104,100.0,163850.0,1.0
84703.8379272,316793.625,343510.03125,332480.53125,318213.9375,318900.40625,306200.59375,307068.8125,277467.6875,0.02734375,0.912109375,-0.421630859375,13.122557640075684,37.994380950927734,-1.3732908964157104,100.0,163851.0,1.0
84703.8430578,316476.125,342128.59375,331416.5625,317161.78125,316862.1875,305452.59375,306195.3125,276796.78125,0.027587890625,0.90966796875,-0.41796875,13.183592796325684,37.994380950927734,-0.8239745497703552,100.0,163852.0,1.0
84703.8430711,316254.21875,342335.03125,331675.84375,317356.25,317358.84375,306106.09375,306570.28125,277159.21875,0.026611328125,0.90576171875,-0.419921875,13.122557640075684,38.055416107177734,-0.4272460639476776,100.0,163853.0,1.0
84703.8480225,316401.84375,343839.59375,332896.78125,318533.03125,319789.5625,307291.25,307725.34375,278081.90625,0.02587890625,0.904296875,-0.423583984375,13.275145530700684,37.933345794677734,-0.0915527269244194,100.0,163854.0,1.0
84703.8480382,316736.40625,344543.03125,333376.375,319041.5625,320727.625,307328.8125,308013.59375,278252.21875,0.02587890625,0.905517578125,-0.427001953125,13.336180686950684,37.780757904052734,0.3662109076976776,100.0,163855.0,1.0
84703.8504896,316772.15625,343475.0625,332460.21875,318207.6875,318924.90625,306188.59375,307064.53125,277467.9375,0.019775390625,0.904541015625,-0.427978515625,13.519286155700684,37.689205169677734,0.7324218153953552,100.0,163856.0,1.0
84703.8530354,316454.3125,342083.375,331382.78125,317145.25,316871.9375,305422.46875,306182.0,276783.375,0.013427734375,0.905029296875,-0.42431640625,13.854979515075684,37.719722747802734,0.7629393935203552,100.0,163857.0,1.0
84703.8555046,316252.0625,342346.75,331673.4375,317348.375,317392.71875,306099.03125,306583.15625,277157.34375,0.009033203125,0.905029296875,-0.422119140625,13.793944358825684,37.536617279052734,0.9765624403953552,100.0,163858.0,1.0
84703.8555226,316405.21875,343883.40625,332912.34375,318528.09375,319833.375,307298.59375,307738.65625,278074.5,0.005615234375,0.906494140625,-0.423828125,13.671874046325684,37.475582122802734,1.1596678495407104,100.0,163859.0,1.0
84703.8579651,316732.09375,344579.78125,333392.28125,319053.46875,320801.5625,307347.78125,308045.59375,278243.5625,0.0,0.904052734375,-0.42236328125,13.580321311950684,37.261959075927734,1.2512205839157104,100.0,163860.0,1.0
84703.8605114,316771.71875,343480.4375,332469.15625,318232.625,319018.15625,306201.3125,307107.1875,277453.1875,-0.008544921875,0.8994140625,-0.420166015625,13.671874046325684,36.956783294677734,1.1291502714157104,100.0,163861.0,1.0
84703.8667975,316472.8125,342074.96875,331399.125,317175.75,316951.59375,305436.5,306220.0625,276791.15625,-0.015869140625,0.89404296875,-0.422607421875,13.793944358825684,36.224361419677734,0.7629393935203552,100.0,163862.0,1.0
84703.8668196,316273.96875,342366.96875,331701.0625,317368.0625,317453.78125,306122.4375,306622.40625,277170.84375,-0.021728515625,0.888916015625,-0.42578125,14.190672874450684,35.461421966552734,0.4272460639476776,100.0,163863.0,1.0
84703.896817,316421.59375,343940.15625,332950.71875,318542.59375,319907.46875,307332.03125,307783.34375,278084.6875,-0.025146484375,0.88671875,-0.429443359375,14.617918968200684,34.606929779052734,-0.03051757626235485,100.0,163864.0,1.0
84703.896857,316738.09375,344628.96875,333417.15625,319066.15625,320891.75,307371.625,308089.5625,278256.0625,-0.02490234375,0.88525390625,-0.430908203125,15.228270530700684,33.538814544677734,-0.3967284858226776,100.0,163865.0,1.0
84703.9067566,316768.75,343479.71875,332463.4375,318239.9375,319093.34375,306202.375,307138.1875,277465.53125,-0.021728515625,0.883056640625,-0.434814453125,16.021726608276367,32.531734466552734,-0.7629393935203552,100.0,163866.0,1.0
84703.906796,316471.75,342054.9375,331383.21875,317178.34375,316993.625,305428.1875,306240.71875,276795.15625,-0.01904296875,0.883544921875,-0.43359375,16.723630905151367,31.494138717651367,-1.1596678495407104,100.0,163867.0,1.0
84703.9166906,316281.03125,342381.8125,331701.25,317368.0625,317486.25,306117.09375,306640.5625,277171.125,-0.01611328125,0.885009765625,-0.43359375,17.242429733276367,30.670164108276367,-1.4343260526657104,100.0,163868.0,1.0
84703.9403302,316431.4375,344000.34375,332975.125,318545.46875,319956.65625,307343.125,307808.125,278085.5,-0.010009765625,0.889404296875,-0.43310546875,17.730710983276367,29.998777389526367,-1.6784666776657104,100.0,163869.0,1.0
84703.9429852,316738.71875,344675.625,333436.28125,319078.0625,320957.5625,307378.625,308116.84375,278257.40625,-0.0078125,0.889892578125,-0.434326171875,17.883298873901367,29.296873092651367,-1.8310545682907104,100.0,163870.0,1.0
84703.9745988,316763.21875,343474.90625,332455.3125,318255.5,319143.9375,306187.34375,307150.4375,277463.40625,-0.004150390625,0.891357421875,-0.43603515625,18.188474655151367,28.564451217651367,-1.9836424589157104,100.0,163871.0,1.0
84704.0041656,316476.125,342030.96875,331368.75,317191.9375,317022.59375,305407.46875,306246.625,276794.28125,-0.0009765625,0.890625,-0.435546875,18.432615280151367,27.893064498901367,-2.075195074081421,100.0,163872.0,1.0
84704.0191801,316294.46875,342378.6875,331704.90625,317373.59375,317501.1875,306110.1875,306642.96875,277166.03125,0.0009765625,0.8935546875,-0.43603515625,18.859861373901367,27.435300827026367,-2.136230230331421,100.0,163873.0,1.0
84704.0208566,316440.625,344033.96875,332997.5625,318554.21875,319993.21875,307346.34375,307818.125,278085.21875,0.00390625,0.896240234375,-0.439453125,19.226072311401367,26.733396530151367,-2.227782964706421,100.0,163874.0,1.0
84704.043033,316742.21875,344708.71875,333454.4375,319093.78125,321025.25,307391.125,308145.1875,278272.71875,0.002197265625,0.898193359375,-0.443115234375,19.531248092651367,26.153562545776367,-2.105712652206421,100.0,163875.0,1.0
84704.0480332,316762.78125,343469.625,332446.09375,318267.125,319213.3125,306184.9375,307181.65625,277474.75,0.001953125,0.898193359375,-0.4443359375,19.775388717651367,25.604246139526367,-1.8920897245407104,100.0,163876.0,1.0
84704.0653638,316481.75,342016.5625,331350.59375,317196.84375,317074.09375,305382.78125,306273.53125,276794.90625,0.003662109375,0.8955078125,-0.44140625,19.927976608276367,25.115964889526367,-1.8615721464157104,100.0,163877.0,1.0
84704.0653744,316317.34375,342402.8125,331707.9375,317384.3125,317553.65625,306092.5,306675.5,277173.53125,0.006591796875,0.89208984375,-0.44482421875,20.111082077026367,24.566648483276367,-1.6174315214157104,100.0,163878.0,1.0
84704.0829669,316470.3125,344064.53125,333007.3125,318558.34375,320021.03125,307340.4375,307827.0625,278094.6875,0.00732421875,0.888916015625,-0.44677734375,20.416257858276367,24.169919967651367,-1.2817381620407104,100.0,163879.0,1.0
84704.0847559,316755.78125,344692.78125,333437.34375,319081.375,321001.65625,307372.09375,308090.28125,278268.875,0.0087890625,0.88232421875,-0.452392578125,20.843503952026367,23.620603561401367,-1.0986326932907104,100.0,163880.0,1.0
84704.1165605,316774.3125,343431.875,332425.09375,318268.5625,319193.46875,306174.75,307137.65625,277495.40625,0.00830078125,0.875244140625,-0.45556640625,21.484373092651367,23.132322311401367,-0.8544921278953552,100.0,163881.0,1.0
84704.1216895,316493.90625,341960.53125,331318.5,317191.125,317030.375,305365.625,306224.1875,276803.3125,0.008056640625,0.869140625,-0.458740234375,22.094724655151367,22.766111373901367,-0.6713866591453552,100.0,163882.0,1.0
84704.1258511,316337.90625,342361.59375,331684.78125,317371.09375,317476.875,306068.0,306611.78125,277160.3125,0.01171875,0.865966796875,-0.4619140625,22.949216842651367,22.338865280151367,-0.4882812201976776,100.0,163883.0,1.0
84704.1328897,316507.96875,344121.03125,333047.1875,318589.1875,320019.6875,307368.34375,307835.3125,278126.78125,0.012939453125,0.865966796875,-0.461181640625,23.864744186401367,21.911619186401367,-0.2136230319738388,100.0,163884.0,1.0
84704.1354585,316791.8125,344784.875,333499.75,319136.0625,321089.53125,307431.0,308176.21875,278333.3125,0.013427734375,0.864990234375,-0.462646484375,24.597166061401367,21.545408248901367,0.1831054538488388,100.0,163885.0,1.0
84704.1429844,316787.96875,343433.9375,332428.9375,318281.0625,319230.125,306186.8125,307179.15625,277522.5,0.015625,0.86328125,-0.459716796875,25.177000045776367,21.118162155151367,0.6103515028953552,100.0,163886.0,1.0
84704.1453887,316500.53125,341919.3125,331297.9375,317181.46875,317010.6875,305354.4375,306228.3125,276817.59375,0.014892578125,0.86376953125,-0.45703125,25.726316452026367,20.782468795776367,1.1596678495407104,100.0,163887.0,1.0
84704.1530227,316356.59375,342355.34375,331691.3125,317370.5625,317458.625,306073.4375,306622.75,277183.375,0.01513671875,0.861328125,-0.45849609375,26.184080123901367,20.507810592651367,1.5258787870407104,100.0,163888.0,1.0
84704.1555513,316525.9375,344137.125,333064.96875,318588.46875,320004.9375,307377.53125,307838.25,278128.9375,0.017578125,0.861083984375,-0.460205078125,26.580808639526367,20.294187545776367,2.044677495956421,100.0,163889.0,1.0
84704.157936,316791.5625,344782.28125,333499.75,319130.8125,321081.3125,307430.46875,308174.15625,278322.25,0.0185546875,0.8583984375,-0.4638671875,26.885984420776367,19.958494186401367,2.532958745956421,100.0,163890.0,1.0
84704.1604267,316775.71875,343397.09375,332404.15625,318268.375,319220.375,306173.125,307174.9375,277511.3125,0.016845703125,0.85595703125,-0.471923828125,27.526853561401367,19.531248092651367,3.082275152206421,100.0,163891.0,1.0
84704.1705744,316497.125,341864.5,331263.0625,317158.5625,316984.9375,305330.125,306215.25,276804.90625,0.015625,0.853515625,-0.472900390625,28.045652389526367,19.134519577026367,3.570556402206421,100.0,163892.0,1.0
84704.1706137,316371.875,342340.59375,331684.625,317358.75,317438.3125,306063.625,306615.34375,277189.0,0.01708984375,0.853759765625,-0.47412109375,28.594968795776367,18.798826217651367,4.211425304412842,100.0,163893.0,1.0
84704.1729441,316543.375,344172.53125,333090.09375,318592.75,320021.84375,307390.25,307847.5625,278154.6875,0.01611328125,0.853271484375,-0.479736328125,29.205320358276367,18.493650436401367,4.791259288787842,100.0,163894.0,1.0
84704.1755791,316792.53125,344815.09375,333514.0625,319132.6875,321113.3125,307441.90625,308184.34375,278344.78125,0.017333984375,0.853515625,-0.48193359375,29.663084030151367,18.035886764526367,5.096435070037842,100.0,163895.0,1.0
84704.1805365,316764.125,343388.71875,332385.03125,318259.25,319231.84375,306169.84375,307171.90625,277520.34375,0.01953125,0.855712890625,-0.486572265625,30.456541061401367,17.761228561401367,5.340575695037842,100.0,163896.0,1.0
84704.1855716,316480.5,341838.125,331235.34375,317146.5,316972.15625,305315.46875,306204.53125,276808.3125,0.020751953125,0.8564453125,-0.488037109375,30.883787155151367,17.608640670776367,5.554198741912842,100.0,163897.0,1.0
84704.1904348,316356.40625,342325.3125,331670.65625,317346.3125,317414.46875,306041.71875,306598.53125,277174.78125,0.02294921875,0.85888671875,-0.48974609375,31.188962936401367,17.486570358276367,5.828856945037842,100.0,163898.0,1.0
84704.2005104,316536.375,344193.09375,333101.53125,318599.375,320019.0625,307381.46875,307844.5,278137.4375,0.022705078125,0.861572265625,-0.4912109375,31.219480514526367,17.333982467651367,6.256103038787842,100.0,163899.0,1.0
84704.2030264,316778.875,344827.4375,333522.03125,319149.75,321134.15625,307442.71875,308187.5625,278338.78125,0.02587890625,0.862060546875,-0.4921875,31.280515670776367,17.120359420776367,6.866454601287842,100.0,163900.0,1.0
84704.2054283,316741.59375,343358.21875,332366.6875,318264.0,319251.15625,306164.71875,307171.0,277514.53125,0.0234375,0.8583984375,-0.49609375,31.280515670776367,17.028806686401367,7.293700695037842,100.0,163901.0,1.0
84704.2192739,316462.1875,341781.34375,331200.125,317137.65625,316966.625,305299.90625,306186.5625,276784.25,0.0234375,0.85595703125,-0.500244140625,31.494138717651367,16.815183639526367,7.141112804412842,100.0,163902.0,1.0
84704.2241993,316347.375,342299.0,331656.1875,317344.71875,317411.25,306036.15625,306585.3125,277150.65625,0.0263671875,0.855224609375,-0.503662109375,31.707761764526367,16.510007858276367,7.110595226287842,100.0,163903.0,1.0
84704.2242388,316533.8125,344204.375,333117.28125,318604.90625,320037.125,307384.0625,307833.59375,278126.625,0.02734375,0.85498046875,-0.505859375,31.921384811401367,16.326902389526367,7.202147960662842,100.0,163904.0,1.0
84704.2267932,316765.8125,344835.65625,333538.46875,319155.3125,321172.0625,307447.625,308185.34375,278341.09375,0.02880859375,0.857666015625,-0.511962890625,32.043453216552734,16.113279342651367,7.141112804412842,100.0,163905.0,1.0
84704.2268316,316708.5,343319.6875,332344.09375,318248.90625,319271.15625,306143.1875,307159.03125,277509.71875,0.031494140625,0.8564453125,-0.51025390625,32.073970794677734,16.021726608276367,7.080077648162842,100.0,163906.0,1.0
84704.2293689,316437.9375,341726.4375,331168.28125,317113.875,316960.71875,305267.0,306166.6875,276772.09375,0.033447265625,0.85595703125,-0.515625,32.073970794677734,15.991209983825684,6.988524913787842,100.0,163907.0,1.0
84704.2294063,316345.40625,342272.0,331652.15625,317335.40625,317401.40625,306013.8125,306564.84375,277138.5625,0.035400390625,0.8564453125,-0.519287109375,31.860349655151367,15.991209983825684,7.110595226287842,100.0,163908.0,1.0
84704.2319039,316528.53125,344205.875,333131.5,318606.34375,320040.6875,307371.625,307812.5,278113.5625,0.031982421875,0.8525390625,-0.5244140625,31.402585983276367,15.960692405700684,6.988524913787842,100.0,163909.0,1.0
84704.233307,316755.4375,344832.625,333548.65625,319156.0,321193.59375,307441.5625,308168.0,278333.6875,0.030517578125,0.8505859375,-0.521240234375,31.402585983276367,15.899657249450684,6.652831554412842,100.0,163910.0,1.0
84704.2467622,316694.375,343274.875,332327.28125,318239.15625,319282.96875,306133.8125,307137.65625,277495.84375,0.026611328125,0.847412109375,-0.527099609375,31.066892623901367,15.716551780700684,6.713866710662842,100.0,163911.0,1.0
84704.2554961,316430.71875,341669.125,331144.59375,317107.15625,316961.4375,305257.25,306145.875,276759.84375,0.02294921875,0.845947265625,-0.52734375,31.066892623901367,15.533446311950684,6.408690929412842,100.0,163912.0,1.0
84704.2555354,316349.25,342245.625,331649.21875,317336.5,317391.5625,306007.09375,306541.6875,277129.09375,0.020263671875,0.843505859375,-0.52978515625,31.005857467651367,15.258788108825684,5.920409679412842,100.0,163913.0,1.0
84704.2581456,316541.9375,344229.21875,333160.46875,318623.15625,320049.90625,307383.53125,307806.6875,278108.28125,0.01416015625,0.841552734375,-0.53271484375,30.914304733276367,15.014647483825684,5.493163585662842,100.0,163914.0,1.0
84704.2919655,316756.25,344859.28125,333570.125,319171.125,321216.40625,307456.125,308172.28125,278321.0625,0.0107421875,0.8388671875,-0.535888671875,30.853269577026367,14.739989280700684,4.974364757537842,100.0,163915.0,1.0
84704.2920071,316682.65625,343266.3125,332320.21875,318236.65625,319289.21875,306134.4375,307136.21875,277481.375,0.006591796875,0.83447265625,-0.5390625,30.609128952026367,14.099120140075684,4.547118663787842,100.0,163916.0,1.0
84704.2920158,316421.6875,341643.125,331125.71875,317092.6875,316947.3125,305249.125,306145.0625,276750.90625,0.01123046875,0.828369140625,-0.543701171875,30.364988327026367,13.488768577575684,4.028319835662842,100.0,163917.0,1.0
84704.2920236,316347.90625,342238.125,331645.625,317326.3125,317377.53125,306003.0,306548.28125,277127.84375,0.01025390625,0.82470703125,-0.551025390625,30.120847702026367,12.817381858825684,3.784179449081421,100.0,163918.0,1.0
84704.2920313,316541.40625,344245.40625,333177.0,318624.84375,320048.03125,307391.84375,307814.03125,278113.1875,0.0126953125,0.822509765625,-0.553955078125,30.395505905151367,12.207030296325684,3.143310308456421,100.0,163919.0,1.0
84704.292039,316743.09375,344871.59375,333578.0,319173.4375,321233.65625,307468.5625,308182.375,278338.0625,0.018798828125,0.822998046875,-0.55908203125,30.761716842651367,11.383055686950684,2.532958745956421,100.0,163920.0,1.0
84704.2920469,316655.65625,343207.75,332262.625,318205.625,319244.0,306100.0,307086.25,277464.5625,0.025390625,0.821533203125,-0.5625,30.975339889526367,10.894774436950684,2.380370855331421,100.0,163921.0,1.0
84704.2920549,316392.8125,341559.34375,331037.9375,317057.71875,316857.0,305195.28125,306062.8125,276716.3125,0.03271484375,0.817626953125,-0.56396484375,31.158445358276367,10.559081077575684,2.288818120956421,100.0,163922.0,1.0
84704.2920627,316328.96875,342191.1875,331577.9375,317302.875,317296.875,305959.46875,306478.65625,277096.90625,0.037841796875,0.81591796875,-0.568359375,31.127927780151367,10.467528343200684,2.197265386581421,100.0,163923.0,1.0
84704.2920705,316528.96875,344244.5,333147.21875,318616.25,320006.625,307365.5625,307772.28125,278096.9375,0.040771484375,0.815185546875,-0.567138671875,31.066892623901367,10.314940452575684,2.105712652206421,100.0,163924.0,1.0
84704.2920783,316724.5,344866.25,333552.15625,319166.375,321214.53125,307448.25,308143.9375,278324.46875,0.04248046875,0.815185546875,-0.569580078125,30.853269577026367,10.345458030700684,1.9531248807907104,100.0,163925.0,1.0
84704.2920861,316634.28125,343211.0625,332250.84375,318209.1875,319281.4375,306108.6875,307102.625,277485.46875,0.046875,0.818603515625,-0.569091796875,30.487058639526367,10.467528343200684,1.9531248807907104,100.0,163926.0,1.0
84704.2920937,316369.28125,341539.21875,331020.78125,317035.625,316888.375,305188.40625,306108.5,276726.3125,0.048095703125,0.82080078125,-0.5703125,30.029294967651367,10.498045921325684,2.319335699081421,100.0,163927.0,1.0
84704.2921028,316322.625,342171.0625,331577.9375,317281.96875,317307.0,305945.40625,306534.96875,277091.5625,0.042724609375,0.819091796875,-0.576904296875,29.541013717651367,10.467528343200684,2.655029058456421,100.0,163928.0,1.0
84704.2994046,316542.65625,344267.75,333178.59375,318621.8125,320044.71875,307372.71875,307827.0,278101.5,0.042236328125,0.81494140625,-0.580078125,29.510496139526367,10.589598655700684,2.502441167831421,100.0,163929.0,1.0
84704.2994422,316739.34375,344907.1875,333591.84375,319180.59375,321286.6875,307466.40625,308208.125,278340.125,0.04638671875,0.813232421875,-0.5830078125,29.357908248901367,10.406493186950684,2.227782964706421,100.0,163930.0,1.0
84704.3016823,316639.75,343219.90625,332260.40625,318211.34375,319335.90625,306109.84375,307154.1875,277490.5625,0.0517578125,0.810791015625,-0.585205078125,29.388425827026367,10.437010765075684,2.319335699081421,100.0,163931.0,1.0
84704.3069569,316381.625,341526.09375,331005.9375,317032.59375,316900.71875,305175.4375,306108.3125,276729.28125,0.05419921875,0.812255859375,-0.5849609375,29.205320358276367,10.559081077575684,2.532958745956421,100.0,163932.0,1.0
84704.3568619,316343.71875,342181.34375,331570.25,317287.78125,317305.03125,305935.125,306502.96875,277106.46875,0.05615234375,0.810791015625,-0.58837890625,28.930662155151367,10.681151390075684,2.655029058456421,100.0,163933.0,1.0
84704.3568996,316562.21875,344304.59375,333190.5,318634.875,320050.96875,307365.90625,307803.21875,278125.53125,0.05859375,0.808349609375,-0.58837890625,28.686521530151367,10.986327171325684,2.807616949081421,100.0,163934.0,1.0
84704.3592236,316741.3125,344929.71875,333591.21875,319187.125,321295.4375,307459.78125,308185.5,278359.875,0.05859375,0.811767578125,-0.58984375,28.350828170776367,11.413573265075684,2.868652105331421,100.0,163935.0,1.0
84704.364182,316627.75,343204.71875,332231.53125,318205.875,319336.71875,306100.1875,307125.3125,277506.5,0.05908203125,0.811767578125,-0.59033203125,27.923582077026367,11.657713890075684,3.051757574081421,100.0,163936.0,1.0
84704.3668276,316370.0,341498.09375,330968.8125,317028.3125,316902.875,305172.21875,306090.0,276741.875,0.05859375,0.809326171875,-0.593505859375,27.648923873901367,12.054442405700684,3.173827886581421,100.0,163937.0,1.0
84704.36687,316343.0,342165.625,331543.875,317286.5,317304.125,305935.75,306489.90625,277111.9375,0.059326171875,0.811279296875,-0.598388671875,27.435300827026367,12.359618186950684,3.112792730331421,100.0,163938.0,1.0
84704.3741764,316568.5625,344329.90625,333194.0625,318651.21875,320072.0,307388.90625,307810.96875,278144.3125,0.058837890625,0.80859375,-0.599365234375,27.160642623901367,12.542723655700684,3.234863042831421,100.0,163939.0,1.0
84704.3792103,316729.875,344952.34375,333586.3125,319198.5625,321325.9375,307477.6875,308192.03125,278387.3125,0.059814453125,0.80810546875,-0.60205078125,26.855466842651367,12.786864280700684,3.295898199081421,100.0,163940.0,1.0
84704.3817469,316605.3125,343185.65625,332199.78125,318197.75,319346.53125,306095.09375,307108.15625,277522.5,0.060546875,0.80712890625,-0.603515625,26.458738327026367,13.092040061950684,3.326415777206421,100.0,163941.0,1.0
84704.3842619,316351.3125,341458.59375,330932.6875,317007.9375,316889.09375,305151.9375,306065.75,276749.03125,0.06201171875,0.8037109375,-0.60205078125,26.336668014526367,13.275145530700684,3.448486089706421,100.0,163942.0,1.0
84704.389296,316327.0,342139.78125,331523.6875,317264.625,317272.125,305910.8125,306457.71875,277107.65625,0.0634765625,0.801025390625,-0.6044921875,25.909421920776367,13.519286155700684,3.540038824081421,100.0,163943.0,1.0
84704.3893353,316548.71875,344321.3125,333182.375,318631.03125,320041.5,307364.3125,307772.71875,278127.59375,0.06884765625,0.798583984375,-0.605712890625,25.726316452026367,13.854979515075684,3.845214605331421,100.0,163944.0,1.0
84704.391827,316717.625,344974.53125,333592.90625,319198.46875,321310.53125,307484.5625,308191.78125,278386.34375,0.07177734375,0.800048828125,-0.607421875,25.299070358276367,14.160155296325684,4.150390148162842,100.0,163945.0,1.0
84704.3943058,316589.3125,343207.21875,332198.625,318201.5,319289.21875,306118.6875,307145.09375,277532.9375,0.071533203125,0.80029296875,-0.61181640625,24.993894577026367,14.434813499450684,4.486083507537842,100.0,163946.0,1.0
84704.4041939,316329.40625,341453.59375,330917.9375,316998.34375,316808.0,305163.5625,306095.4375,276742.15625,0.07177734375,0.80078125,-0.613037109375,24.536130905151367,14.739989280700684,4.699706554412842,100.0,163947.0,1.0
84704.40927,316317.6875,342117.96875,331513.59375,317240.03125,317264.0625,305905.8125,306453.34375,277079.46875,0.074951171875,0.802734375,-0.6181640625,24.291990280151367,15.167235374450684,4.882812023162842,100.0,163948.0,1.0
84704.4167811,316551.3125,344320.6875,333198.1875,318611.0,320034.25,307368.15625,307754.21875,278096.3125,0.073486328125,0.800537109375,-0.62060546875,23.986814498901367,15.533446311950684,5.126952648162842,100.0,163949.0,1.0
84704.4192854,316716.28125,344968.09375,333609.46875,319177.75,321159.71875,307483.9375,308158.15625,278348.0,0.071533203125,0.800537109375,-0.620361328125,23.864744186401367,15.838622093200684,5.126952648162842,100.0,163950.0,1.0
84704.4318263,316582.4375,343179.125,332196.375,318182.8125,319074.125,306111.4375,307108.78125,277491.8125,0.072021484375,0.80224609375,-0.62158203125,23.803709030151367,16.204832077026367,5.096435070037842,100.0,163951.0,1.0
84704.4342746,316321.8125,341413.96875,330901.15625,316972.6875,316644.03125,305145.03125,306053.15625,276704.59375,0.0751953125,0.803466796875,-0.619873046875,23.529050827026367,16.479490280151367,5.157470226287842,100.0,163952.0,1.0
84704.4343143,316315.46875,342097.40625,331510.0,317223.84375,317058.0,305896.96875,306424.46875,277055.78125,0.074951171875,0.80615234375,-0.620361328125,23.223875045776367,16.815183639526367,5.340575695037842,100.0,163953.0,1.0
84704.4393368,316553.5625,344330.96875,333222.0625,318617.25,319847.9375,307382.625,307755.0,278090.6875,0.0771484375,0.805419921875,-0.62255859375,22.705076217651367,17.120359420776367,5.340575695037842,100.0,163954.0,1.0
84704.4580311,316709.75,344972.46875,333633.15625,319189.1875,321127.78125,307503.6875,308165.125,278344.6875,0.080810546875,0.8056640625,-0.623046875,22.216794967651367,17.456052780151367,5.401610851287842,100.0,163955.0,1.0
84704.4580675,316581.53125,343158.65625,332212.5625,318194.625,319128.46875,306129.15625,307109.3125,277494.3125,0.07861328125,0.807861328125,-0.625,21.545408248901367,17.852781295776367,5.371093273162842,100.0,163956.0,1.0
84704.4606696,316332.0,341381.25,330907.59375,316984.0625,316575.28125,305159.8125,306056.28125,276711.9375,0.07861328125,0.806396484375,-0.627685546875,20.812986373901367,18.066404342651367,5.371093273162842,100.0,163957.0,1.0
84704.4643738,316322.53125,342075.84375,331510.53125,317228.84375,316869.875,305901.25,306426.0625,277060.78125,0.08056640625,0.806640625,-0.625244140625,20.080564498901367,18.310544967651367,5.554198741912842,100.0,163958.0,1.0
84704.4644139,316561.34375,344337.03125,333228.59375,318619.21875,319665.625,307386.03125,307757.96875,278095.3125,0.0751953125,0.80419921875,-0.627685546875,19.439695358276367,18.676755905151367,5.584716320037842,100.0,163959.0,1.0
84704.4644231,316720.375,345001.25,333650.0625,319203.40625,321000.21875,307527.375,308187.03125,278361.03125,0.073486328125,0.802490234375,-0.626708984375,18.890378952026367,18.859861373901367,5.310058116912842,100.0,163960.0,1.0
84704.4644322,316576.8125,343163.5625,332210.6875,318202.5,319037.625,306147.46875,307133.46875,277506.3125,0.075927734375,0.799560546875,-0.623779296875,18.524168014526367,18.859861373901367,4.974364757537842,100.0,163961.0,1.0
84704.4667948,316317.96875,341340.9375,330878.96875,316972.15625,316503.40625,305154.0,306053.34375,276701.65625,0.079833984375,0.79541015625,-0.626708984375,17.913816452026367,18.829343795776367,4.913329601287842,100.0,163962.0,1.0
84704.4692306,316315.28125,342019.875,331482.90625,317206.75,316790.125,305892.3125,306401.84375,277035.21875,0.07958984375,0.7939453125,-0.62841796875,17.272947311401367,18.859861373901367,5.035399913787842,100.0,163963.0,1.0
84704.4716733,316548.46875,344295.8125,333217.125,318599.375,319583.8125,307386.3125,307733.5625,278070.75,0.078369140625,0.787109375,-0.634521484375,16.784666061401367,18.798826217651367,4.669188976287842,100.0,163964.0,1.0
84704.4741665,316705.46875,344984.8125,333649.25,319194.625,320996.09375,307540.09375,308181.5,278357.09375,0.0859375,0.783935546875,-0.635498046875,16.510007858276367,18.615720748901367,4.241942882537842,100.0,163965.0,1.0
84704.4791841,316566.34375,343144.8125,332201.75,318197.3125,319030.84375,306156.5,307132.75,277514.34375,0.093017578125,0.781494140625,-0.633056640625,16.113279342651367,18.493650436401367,4.272460460662842,100.0,163966.0,1.0
84704.4817902,316309.65625,341324.03125,330869.21875,316968.21875,316438.40625,305158.46875,306056.90625,276713.625,0.08642578125,0.779296875,-0.642333984375,15.838622093200684,18.615720748901367,4.180907726287842,100.0,163967.0,1.0
84704.4841904,316311.34375,342020.25,331479.34375,317200.6875,316736.75,305893.75,306413.90625,277045.5,0.087890625,0.7783203125,-0.645751953125,15.991209983825684,18.615720748901367,3.479003667831421,100.0,163968.0,1.0
84704.5031503,316560.0,344330.34375,333238.875,318608.75,319574.09375,307406.40625,307759.84375,278092.625,0.09033203125,0.77734375,-0.6494140625,16.021726608276367,18.493650436401367,2.868652105331421,100.0,163969.0,1.0
84704.5031896,316714.3125,345039.5,333691.96875,319222.1875,320972.9375,307577.71875,308240.40625,278395.0,0.093505859375,0.780029296875,-0.64892578125,16.174314498901367,18.432615280151367,2.563476324081421,100.0,163970.0,1.0
84704.5031984,316552.125,343152.40625,332218.1875,318209.90625,318978.53125,306170.46875,307177.4375,277533.5,0.09375,0.786376953125,-0.649169921875,15.991209983825684,18.432615280151367,2.258300542831421,100.0,163971.0,1.0
84704.5032062,316293.65625,341256.25,330845.0,316951.59375,316324.21875,305129.84375,306033.5625,276695.65625,0.095947265625,0.789794921875,-0.6474609375,15.594481468200684,18.127439498901367,2.014159917831421,100.0,163972.0,1.0
84704.5032138,316317.0,341966.6875,331467.90625,317192.0,316605.6875,305876.125,306394.96875,277045.875,0.10009765625,0.79052734375,-0.6484375,14.923094749450684,17.822263717651367,1.8005369901657104,100.0,163973.0,1.0
84704.503222,316563.40625,344278.9375,333223.40625,318582.8125,319404.125,307383.8125,307717.03125,278083.25,0.100830078125,0.7880859375,-0.646728515625,14.556883811950684,17.517087936401367,1.4343260526657104,100.0,163974.0,1.0
84704.5032298,316705.625,344973.8125,333661.75,319187.40625,320803.78125,307547.3125,308162.25,278379.46875,0.100830078125,0.78759765625,-0.649658203125,13.946532249450684,17.059324264526367,0.9155272841453552,100.0,163975.0,1.0
84704.5032376,316548.375,343107.59375,332186.375,318193.09375,318865.96875,306150.78125,307121.84375,277546.375,0.103759765625,0.78564453125,-0.64697265625,13.458250999450684,16.357419967651367,0.2441406100988388,100.0,163976.0,1.0
84704.5032466,316293.375,341243.28125,330814.59375,316947.125,316269.25,305123.15625,306029.0,276742.0625,0.111572265625,0.787841796875,-0.646240234375,12.786864280700684,15.869139671325684,-0.1220703050494194,100.0,163977.0,1.0
84704.505472,316310.28125,341941.03125,331417.28125,317170.46875,316514.40625,305852.78125,306375.03125,277064.71875,0.11328125,0.78662109375,-0.64794921875,12.145995140075684,15.563963890075684,-0.3051757514476776,100.0,163978.0,1.0
84704.5079601,316564.71875,344288.21875,333188.25,318574.5,319302.1875,307374.15625,307714.5,278107.21875,0.112060546875,0.7890625,-0.64794921875,11.596678733825684,14.923094749450684,-0.8850097060203552,100.0,163979.0,1.0
84704.5105339,316719.9375,345033.15625,333664.1875,319211.09375,320769.28125,307575.9375,308219.5625,278442.84375,0.11083984375,0.787841796875,-0.646728515625,10.681151390075684,14.190672874450684,-1.6479490995407104,100.0,163980.0,1.0
84704.5231025,316562.6875,343184.84375,332207.75,318235.3125,318913.71875,306199.5,307231.8125,277639.875,0.109130859375,0.785888671875,-0.64794921875,9.918211936950684,13.702391624450684,-2.471923589706421,100.0,163981.0,1.0
84704.5231436,316292.40625,341229.34375,330782.0625,316935.875,316243.40625,305116.625,306069.15625,276780.59375,0.10986328125,0.786865234375,-0.64697265625,9.155272483825684,13.031004905700684,-3.540038824081421,100.0,163982.0,1.0
84704.5231523,316283.71875,341792.53125,331311.0625,317078.90625,316295.0,305759.71875,306248.15625,277022.25,0.1103515625,0.7861328125,-0.6552734375,8.392333030700684,12.145995140075684,-4.486083507537842,100.0,163983.0,1.0
84704.5231601,316551.9375,344182.625,333130.9375,318519.0,319114.71875,307322.90625,307621.96875,278109.8125,0.1181640625,0.788330078125,-0.65625,7.781981945037842,11.322020530700684,-5.432128429412842,100.0,163984.0,1.0
84704.5231678,316697.5,344925.34375,333604.8125,319147.625,320576.25,307521.84375,308122.46875,278429.78125,0.11328125,0.7880859375,-0.6650390625,6.988524913787842,10.498045921325684,-5.981444835662842,100.0,163985.0,1.0
84704.5231755,316541.65625,343038.40625,332123.15625,318157.4375,318661.25,306123.875,307099.84375,277596.0625,0.10546875,0.787353515625,-0.671875,6.744384288787842,9.490965843200684,-7.049560070037842,100.0,163986.0,1.0
84704.5231833,316273.90625,341107.9375,330707.75,316878.5625,316003.0625,305053.6875,305974.9375,276765.46875,0.10888671875,0.789794921875,-0.67236328125,6.622313976287842,8.544920921325684,-8.544920921325684,100.0,163987.0,1.0
84704.523191,316289.8125,341768.125,331281.9375,317066.65625,316166.59375,305748.90625,306278.46875,277083.5,0.111083984375,0.7978515625,-0.6708984375,6.134032726287842,7.659911632537842,-9.613036155700684,100.0,163988.0,1.0
84704.5231994,316550.4375,344162.25,333074.1875,318471.15625,318980.875,307300.375,307652.03125,278157.71875,0.10791015625,0.802734375,-0.671875,5.432128429412842,6.927489757537842,-10.375975608825684,100.0,163989.0,1.0
84704.5232072,316695.09375,344921.9375,333565.46875,319105.21875,320483.0,307515.6875,308153.9375,278479.15625,0.103759765625,0.815673828125,-0.667236328125,4.638671398162842,6.072997570037842,-11.322020530700684,100.0,163990.0,1.0
84704.523215,316544.0,343033.65625,332109.03125,318135.0,318619.03125,306120.65625,307120.84375,277637.03125,0.100341796875,0.823974609375,-0.669189453125,3.295898199081421,5.157470226287842,-12.054442405700684,100.0,163991.0,1.0
84704.5232241,316280.875,341098.09375,330694.4375,316860.9375,315988.875,305052.0625,305996.90625,276786.75,0.100830078125,0.82861328125,-0.66455078125,1.7089842557907104,4.302978038787842,-12.542723655700684,100.0,163992.0,1.0
84704.5254354,316285.59375,341750.9375,331246.4375,317016.5,316162.40625,305740.84375,306297.875,277075.625,0.09765625,0.829833984375,-0.66357421875,-0.03051757626235485,3.326415777206421,-12.847899436950684,100.0,163993.0,1.0
84704.5280338,316530.03125,344118.8125,333020.34375,318386.65625,318947.34375,307271.15625,307623.0625,278113.75,0.09521484375,0.82421875,-0.662353515625,-1.7700194120407104,2.349853277206421,-13.275145530700684,100.0,163994.0,1.0
84704.5280701,316680.25,344901.375,333524.875,319042.1875,320446.34375,307494.46875,308111.65625,278434.4375,0.094482421875,0.813720703125,-0.664794921875,-3.204345464706421,1.1901854276657104,-13.793944358825684,100.0,163995.0,1.0
84704.5307048,316531.75,343042.78125,332080.15625,318088.5,318590.0625,306110.375,307100.375,277607.25,0.095947265625,0.808349609375,-0.66650390625,-4.455565929412842,0.3051757514476776,-14.282225608825684,100.0,163996.0,1.0
84704.5307942,316271.75,341083.4375,330661.1875,316816.59375,315914.28125,305024.09375,305948.0,276743.3125,0.095947265625,0.79931640625,-0.670166015625,-5.645751476287842,-0.7934569716453552,-14.556883811950684,100.0,163997.0,1.0
84704.5329869,316287.125,341749.34375,331237.3125,317003.4375,316068.78125,305727.34375,306259.5,277038.625,0.101806640625,0.793701171875,-0.673583984375,-6.469726085662842,-1.6174315214157104,-14.923094749450684,100.0,163998.0,1.0
84704.5355896,316531.375,344141.875,333034.9375,318398.65625,318850.6875,307275.625,307587.03125,278078.5,0.107666015625,0.7900390625,-0.672119140625,-7.080077648162842,-2.227782964706421,-15.258788108825684,100.0,163999.0,1.0
84704.5380955,316681.6875,344962.09375,333565.03125,319071.4375,320388.125,307521.125,308092.625,278415.03125,0.113525390625,0.789306640625,-0.669921875,-7.537841320037842,-2.655029058456421,-15.502928733825684,100.0,164000.0,1.0
84704.540655,316534.6875,343116.09375,332121.625,318130.34375,318562.53125,306134.59375,307082.5,277607.0625,0.1142578125,0.787353515625,-0.667724609375,-7.812499523162842,-3.021239995956421,-15.930174827575684,100.0,164001.0,1.0
84704.5429542,316267.625,341155.5,330684.40625,316846.09375,315889.875,305031.5,305932.90625,276760.5625,0.11962890625,0.79052734375,-0.666015625,-8.331297874450684,-3.265380620956421,-16.235349655151367,100.0,164002.0,1.0
84704.5454302,316278.53125,341785.5625,331231.59375,317003.1875,316002.1875,305718.875,306219.8125,277049.25,0.12548828125,0.7958984375,-0.660400390625,-9.124754905700684,-3.448486089706421,-16.113279342651367,100.0,164003.0,1.0
84704.5480175,316546.65625,344215.625,333055.9375,318414.65625,318831.65625,307309.9375,307596.6875,278124.90625,0.131103515625,0.801025390625,-0.65771484375,-10.009764671325684,-3.417968511581421,-15.747069358825684,100.0,164004.0,1.0
84704.550567,316706.1875,345069.71875,333611.5,319095.9375,320432.125,307566.53125,308130.78125,278479.0625,0.13037109375,0.807861328125,-0.652099609375,-11.291502952575684,-3.356933355331421,-15.197752952575684,100.0,164005.0,1.0
84704.5544585,316538.34375,343221.25,332173.03125,318156.1875,318628.15625,306162.84375,307111.5625,277664.46875,0.13232421875,0.81396484375,-0.641357421875,-12.695311546325684,-3.204345464706421,-14.648436546325684,100.0,164006.0,1.0
84704.5544972,316275.6875,341237.46875,330731.1875,316873.09375,315966.6875,305052.59375,305962.75,276815.375,0.129638671875,0.818359375,-0.63232421875,-14.343260765075684,-2.960204839706421,-13.916014671325684,100.0,164007.0,1.0
84704.5545082,316279.78125,341842.21875,331257.15625,317011.15625,316071.03125,305725.3125,306242.6875,277095.46875,0.128662109375,0.820068359375,-0.629150390625,-16.204832077026367,-2.593993902206421,-13.244627952575684,100.0,164008.0,1.0
84704.5558268,316526.5625,344262.46875,333068.625,318410.0,318931.0625,307314.15625,307614.90625,278152.28125,0.12353515625,0.814697265625,-0.630615234375,-17.913816452026367,-2.227782964706421,-12.725829124450684,100.0,164009.0,1.0
84704.5631048,316682.125,345127.75,333636.46875,319108.375,320621.46875,307595.59375,308163.59375,278504.34375,0.118896484375,0.804443359375,-0.634033203125,-19.348142623901367,-1.9531248807907104,-11.993407249450684,100.0,164010.0,1.0
84704.5680268,316530.5,343258.96875,332203.34375,318172.71875,318845.0625,306196.375,307125.84375,277668.125,0.110595703125,0.795166015625,-0.64208984375,-20.385740280151367,-1.5869139432907104,-11.383055686950684,100.0,164011.0,1.0
84704.5793116,316277.03125,341254.28125,330760.59375,316891.96875,316168.40625,305080.6875,305971.0625,276813.6875,0.109130859375,0.78271484375,-0.649169921875,-20.874021530151367,-1.5563963651657104,-11.077879905700684,100.0,164012.0,1.0
84704.5793522,316288.28125,341847.25,331277.46875,317027.15625,316293.75,305754.53125,306273.28125,277095.84375,0.1044921875,0.777587890625,-0.652587890625,-20.812986373901367,-1.5869139432907104,-10.955809593200684,100.0,164013.0,1.0
84704.5793607,316537.1875,344252.71875,333076.59375,318414.5625,319157.4375,307336.3125,307640.5625,278139.75,0.09912109375,0.77197265625,-0.658203125,-20.629880905151367,-1.5563963651657104,-10.681151390075684,100.0,164014.0,1.0
84704.5793684,316695.96875,345134.03125,333664.4375,319122.65625,320818.0,307626.1875,308183.53125,278495.5,0.102294921875,0.768310546875,-0.66259765625,-20.263669967651367,-1.5869139432907104,-10.406493186950684,100.0,164015.0,1.0
84704.5793761,316550.4375,343310.28125,332268.34375,318219.21875,319066.34375,306247.15625,307180.03125,277694.96875,0.09521484375,0.763671875,-0.66064453125,-19.348142623901367,-1.5563963651657104,-10.070799827575684,100.0,164016.0,1.0
84704.5793838,316295.875,341301.6875,330814.15625,316934.6875,316408.4375,305112.875,306016.5,276841.5625,0.0869140625,0.763671875,-0.65625,-18.707273483276367,-1.4953612089157104,-10.101317405700684,100.0,164017.0,1.0
84704.5793915,316286.0625,341844.90625,331281.84375,317029.46875,316453.875,305752.03125,306266.65625,277105.5,0.086669921875,0.76513671875,-0.652587890625,-17.852781295776367,-1.3427733182907104,-10.223387718200684,100.0,164018.0,1.0
84704.5794008,316537.28125,344263.1875,333080.78125,318416.96875,319263.3125,307345.875,307641.65625,278178.90625,0.090087890625,0.7685546875,-0.648681640625,-17.242429733276367,-1.2512205839157104,-9.948729515075684,100.0,164019.0,1.0
84704.5817145,316691.25,345201.0625,333698.15625,319151.09375,320962.21875,307670.53125,308233.53125,278570.15625,0.087646484375,0.769287109375,-0.64208984375,-16.876218795776367,-1.0681151151657104,-9.460448265075684,100.0,164020.0,1.0
84704.5843668,316562.21875,343398.375,332320.03125,318262.125,319236.40625,306292.6875,307238.40625,277767.03125,0.08154296875,0.771484375,-0.637939453125,-16.632078170776367,-0.9765624403953552,-9.185790061950684,100.0,164021.0,1.0
84704.5868388,316302.5,341362.28125,330846.15625,316963.3125,316525.03125,305133.34375,306050.1875,276881.1875,0.078125,0.77197265625,-0.63623046875,-16.265867233276367,-0.9765624403953552,-9.033202171325684,100.0,164022.0,1.0
84704.5930757,316271.65625,341862.625,331278.625,317030.8125,316509.65625,305749.875,306274.71875,277110.0625,0.076904296875,0.772705078125,-0.635986328125,-16.021726608276367,-0.9765624403953552,-8.758543968200684,100.0,164023.0,1.0
84704.5955285,316510.1875,344267.84375,333066.03125,318406.34375,319315.78125,307349.09375,307648.34375,278170.15625,0.07421875,0.769287109375,-0.632080078125,-15.716551780700684,-0.9460448622703552,-8.422850608825684,100.0,164024.0,1.0
84704.5981134,316690.34375,345233.4375,333716.5625,319164.40625,321059.9375,307696.0,308265.09375,278570.0625,0.0732421875,0.7646484375,-0.638671875,-15.075682640075684,-1.0986326932907104,-7.904052257537842,100.0,164025.0,1.0
84704.5981552,316564.1875,343457.90625,332361.0625,318295.03125,319373.1875,306328.96875,307292.34375,277776.40625,0.068359375,0.76416015625,-0.640625,-14.617918968200684,-1.0681151151657104,-7.446288585662842,100.0,164026.0,1.0
84704.6006856,316306.0625,341400.84375,330872.34375,316982.71875,316638.125,305150.15625,306090.53125,276879.21875,0.06640625,0.76220703125,-0.640869140625,-14.007567405700684,-1.0681151151657104,-7.141112804412842,100.0,164027.0,1.0
84704.6029541,316290.875,341873.15625,331287.75,317033.5,316581.28125,305752.375,306304.5625,277086.625,0.06591796875,0.760498046875,-0.637451171875,-13.336180686950684,-0.9460448622703552,-6.988524913787842,100.0,164028.0,1.0
84704.605416,316522.0,344279.09375,333073.90625,318407.21875,319378.1875,307357.4375,307684.375,278135.375,0.0625,0.7646484375,-0.638916015625,-12.725829124450684,-1.0681151151657104,-6.713866710662842,100.0,164029.0,1.0
84704.6079408,316679.875,345270.4375,333736.25,319174.34375,321152.21875,307719.0625,308315.25,278537.0,0.060302734375,0.765869140625,-0.634521484375,-11.993407249450684,-0.9765624403953552,-6.408690929412842,100.0,164030.0,1.0
84704.6156581,316561.34375,343497.0625,332388.4375,318309.34375,319471.875,306347.46875,307332.65625,277731.4375,0.0576171875,0.76806640625,-0.63427734375,-11.474608421325684,-1.0070799589157104,-6.195067882537842,100.0,164031.0,1.0
84704.6156987,316288.5625,341389.75,330867.78125,316971.8125,316684.53125,305131.625,306077.75,276802.0625,0.05615234375,0.769775390625,-0.631103515625,-10.894774436950684,-1.0070799589157104,-5.981444835662842,100.0,164032.0,1.0
84704.615709,316253.40625,341793.78125,331233.28125,316982.4375,316544.25,305693.125,306222.75,276985.875,0.05859375,0.77392578125,-0.62841796875,-10.162352561950684,-0.9155272841453552,-5.737304210662842,100.0,164033.0,1.0
84704.6243421,316506.78125,344214.75,333030.8125,318365.125,319343.40625,307321.03125,307625.1875,278079.5,0.060546875,0.778076171875,-0.6279296875,-9.613036155700684,-0.8544921278953552,-5.615233898162842,100.0,164034.0,1.0
84704.6243789,316672.1875,345246.9375,333724.96875,319157.09375,321155.5,307713.8125,308291.375,278531.28125,0.06201171875,0.78466796875,-0.62744140625,-9.124754905700684,-0.9155272841453552,-5.279540538787842,100.0,164035.0,1.0
84704.6243885,316553.28125,343506.4375,332399.4375,318312.8125,319507.90625,306353.75,307333.5625,277756.125,0.062744140625,0.792724609375,-0.626220703125,-8.880614280700684,-0.7934569716453552,-4.791259288787842,100.0,164036.0,1.0
84704.6366226,316301.4375,341410.3125,330888.34375,316985.125,316738.1875,305139.40625,306103.84375,276836.5625,0.06005859375,0.796142578125,-0.623291015625,-8.636473655700684,-0.7324218153953552,-4.211425304412842,100.0,164037.0,1.0
84704.6393479,316278.1875,341810.40625,331250.09375,316993.625,316605.15625,305699.5625,306272.8125,277003.65625,0.06103515625,0.80029296875,-0.621337890625,-8.605956077575684,-0.5798339247703552,-3.692626714706421,100.0,164038.0,1.0
84704.641702,316478.1875,344194.625,333010.0625,318344.65625,319378.0,307304.59375,307647.28125,278043.65625,0.060791015625,0.805419921875,-0.622314453125,-8.514403343200684,-0.5187987685203552,-3.143310308456421,100.0,164039.0,1.0
84704.6417424,316661.65625,345244.71875,333716.84375,319146.34375,321212.28125,307706.8125,308309.0625,278491.03125,0.05908203125,0.80517578125,-0.623291015625,-8.605956077575684,-0.2441406100988388,-2.655029058456421,100.0,164040.0,1.0
84704.6443514,316560.875,343533.90625,332420.625,318328.46875,319622.53125,306364.28125,307362.6875,277748.25,0.054931640625,0.804931640625,-0.619873046875,-8.575438499450684,-0.0915527269244194,-2.166747808456421,100.0,164041.0,1.0
84704.650638,316297.84375,341444.0,330913.125,317007.28125,316902.34375,305156.59375,306147.03125,276845.9375,0.052978515625,0.8046875,-0.621826171875,-8.422850608825684,0.0,-1.8005369901657104,100.0,164042.0,1.0
84704.6530331,316245.0,341788.40625,331232.125,316977.34375,316755.0,305687.46875,306290.25,277002.40625,0.0517578125,0.80810546875,-0.6240234375,-8.270262718200684,0.1220703050494194,-1.4038084745407104,100.0,164043.0,1.0
84704.6556112,316471.125,344145.4375,332982.4375,318318.1875,319502.03125,307281.4375,307641.03125,278055.625,0.0498046875,0.81298828125,-0.623779296875,-8.056639671325684,0.0915527269244194,-1.0375975370407104,100.0,164044.0,1.0
84704.6556529,316654.40625,345222.4375,333713.25,319139.75,321358.03125,307711.46875,308323.8125,278523.40625,0.048583984375,0.815185546875,-0.621826171875,-8.026122093200684,0.0,-0.5798339247703552,100.0,164045.0,1.0
84704.6606199,316566.6875,343535.0625,332435.1875,318334.1875,319772.03125,306378.59375,307385.75,277771.125,0.048583984375,0.818359375,-0.61865234375,-7.965087413787842,-0.1220703050494194,-0.2136230319738388,100.0,164046.0,1.0
84704.6606573,316309.9375,341426.59375,330914.5625,317004.15625,316992.09375,305147.71875,306142.03125,276852.28125,0.04736328125,0.821044921875,-0.62255859375,-8.148192405700684,-0.3662109076976776,0.0915527269244194,100.0,164047.0,1.0
84704.6626589,316250.03125,341756.9375,331216.03125,316966.15625,316773.5,305671.90625,306275.15625,277014.03125,0.048095703125,0.82421875,-0.616943359375,-8.300780296325684,-0.5493163466453552,0.3356933295726776,100.0,164048.0,1.0
84704.6626898,316470.125,344114.59375,332961.09375,318303.59375,319489.6875,307274.375,307635.3125,278069.84375,0.04833984375,0.82421875,-0.615234375,-8.544920921325684,-0.6713866591453552,0.5493163466453552,100.0,164049.0,1.0
84704.6693898,316652.1875,345207.875,333704.125,319131.4375,321353.625,307709.875,308318.8125,278541.09375,0.048583984375,0.82421875,-0.615966796875,-8.850096702575684,-0.7934569716453552,0.8850097060203552,100.0,164050.0,1.0
84704.6694277,316573.40625,343566.0,332458.25,318351.0,319808.78125,306397.09375,307404.0,277810.5625,0.050048828125,0.8232421875,-0.613037109375,-9.155272483825684,-0.7629393935203552,1.1291502714157104,100.0,164051.0,1.0
84704.6719381,316301.25,341446.0625,330926.90625,317012.9375,317028.3125,305154.625,306164.03125,276886.1875,0.049560546875,0.8212890625,-0.613525390625,-9.368895530700684,-0.7934569716453552,1.3732908964157104,100.0,164052.0,1.0
84704.6743189,316252.4375,341744.6875,331208.53125,316964.375,316783.25,305658.5,306281.84375,277019.125,0.05078125,0.8154296875,-0.616943359375,-9.429930686950684,-0.8850097060203552,1.4648436307907104,100.0,164053.0,1.0
84704.6767365,316467.0,344081.6875,332943.09375,318297.625,319487.1875,307255.40625,307633.78125,278036.40625,0.052001953125,0.809814453125,-0.621337890625,-9.460448265075684,-0.9460448622703552,1.6784666776657104,100.0,164054.0,1.0
84704.7009092,316662.625,345189.28125,333703.6875,319136.34375,321366.875,307704.5,308314.53125,278483.875,0.054443359375,0.804931640625,-0.62158203125,-9.460448265075684,-1.0986326932907104,1.7700194120407104,100.0,164055.0,1.0
84704.721851,316574.84375,343560.09375,332464.15625,318359.125,319833.4375,306395.40625,307389.53125,277724.5625,0.056396484375,0.80224609375,-0.621337890625,-9.338377952575684,-1.0986326932907104,1.8920897245407104,100.0,164056.0,1.0
84704.7234932,316297.75,341447.40625,330929.9375,317024.5625,317050.9375,305149.53125,306150.25,276802.21875,0.059326171875,0.801513671875,-0.623779296875,-9.033202171325684,-1.2207030057907104,2.044677495956421,100.0,164057.0,1.0
84704.7555154,316248.84375,341721.0,331190.1875,316960.96875,316773.5,305641.96875,306263.34375,276969.25,0.05810546875,0.80078125,-0.62158203125,-8.697508811950684,-1.3122557401657104,2.197265386581421,100.0,164058.0,1.0
84704.7580219,316479.09375,344062.75,332929.4375,318297.09375,319474.9375,307249.15625,307632.78125,278044.1875,0.060791015625,0.80078125,-0.619140625,-8.392333030700684,-1.2512205839157104,2.258300542831421,100.0,164059.0,1.0
84704.7580624,316676.03125,345219.03125,333723.28125,319159.40625,321401.28125,307730.4375,308357.625,278534.03125,0.0595703125,0.8017578125,-0.6171875,-8.239745140075684,-1.2207030057907104,2.380370855331421,100.0,164060.0,1.0
84704.7606688,316583.78125,343617.75,332499.90625,318391.125,319897.09375,306432.40625,307449.5,277776.21875,0.058349609375,0.8017578125,-0.60986328125,-8.178709983825684,-1.0681151151657104,2.593993902206421,100.0,164061.0,1.0
84704.7627357,316308.125,341453.75,330931.1875,317023.84375,317046.0,305146.03125,306142.125,276788.0,0.05810546875,0.8017578125,-0.609130859375,-8.117674827575684,-1.0681151151657104,2.655029058456421,100.0,164062.0,1.0
84704.7627752,316232.59375,341693.0,331167.40625,316941.9375,316736.5625,305628.1875,306237.40625,276915.15625,0.057861328125,0.80078125,-0.607421875,-8.026122093200684,-0.9765624403953552,2.716064214706421,100.0,164063.0,1.0
84704.7767572,316449.65625,344009.28125,332888.65625,318263.375,319419.9375,307223.65625,307596.6875,277979.53125,0.056396484375,0.802734375,-0.606689453125,-7.965087413787842,-0.9155272841453552,2.807616949081421,100.0,164064.0,1.0
84704.7767978,316657.8125,345178.4375,333694.65625,319135.90625,321368.125,307714.15625,308337.0625,278497.65625,0.056396484375,0.8017578125,-0.603515625,-7.995604991912842,-0.9460448622703552,2.838134527206421,100.0,164065.0,1.0
84704.7792779,316576.8125,343614.8125,332502.59375,318394.71875,319909.28125,306438.0625,307459.78125,277761.375,0.05517578125,0.80029296875,-0.60498046875,-7.873534679412842,-1.2207030057907104,2.929687261581421,100.0,164066.0,1.0
84704.7793097,316320.28125,341481.375,330959.0,317049.0625,317102.34375,305167.125,306189.78125,276796.3125,0.0537109375,0.802490234375,-0.604736328125,-7.873534679412842,-1.3427733182907104,2.868652105331421,100.0,164067.0,1.0
84704.7819866,316237.21875,341658.3125,331151.84375,316925.65625,316724.59375,305601.03125,306228.84375,276895.5625,0.049560546875,0.801513671875,-0.60400390625,-7.781981945037842,-1.4648436307907104,2.838134527206421,100.0,164068.0,1.0
84704.7820244,316448.78125,343946.78125,332855.40625,318233.875,319362.09375,307189.78125,307558.15625,277939.03125,0.046142578125,0.801025390625,-0.603271484375,-7.690429210662842,-1.5869139432907104,2.716064214706421,100.0,164069.0,1.0
84704.8007044,316664.59375,345144.9375,333683.21875,319127.59375,321335.5625,307707.0,308314.25,278460.09375,0.04638671875,0.7978515625,-0.603515625,-7.446288585662842,-1.6784666776657104,2.563476324081421,100.0,164070.0,1.0
84704.8007403,316604.875,343630.09375,332526.125,318413.5,319919.1875,306456.46875,307460.15625,277757.375,0.04296875,0.802001953125,-0.60302734375,-7.202147960662842,-1.8920897245407104,2.441406011581421,100.0,164071.0,1.0
84704.8007495,316325.65625,341506.40625,330980.625,317068.53125,317125.5,305182.59375,306202.71875,276809.46875,0.0400390625,0.803466796875,-0.603271484375,-7.019042491912842,-2.044677495956421,2.319335699081421,100.0,164072.0,1.0
84704.8007586,316246.71875,341659.21875,331151.03125,316932.46875,316726.65625,305599.78125,306241.09375,276899.59375,0.037841796875,0.804931640625,-0.599853515625,-6.774901866912842,-2.471923589706421,2.075195074081421,100.0,164073.0,1.0
84704.8030387,316463.4375,343925.0625,332842.0,318229.03125,319343.9375,307182.625,307564.65625,277936.625,0.03662109375,0.8037109375,-0.595703125,-6.622313976287842,-2.655029058456421,1.8615721464157104,100.0,164074.0,1.0
84704.8030714,316652.53125,345139.90625,333684.375,319128.125,321336.90625,307718.09375,308330.53125,278452.0625,0.039794921875,0.803955078125,-0.591796875,-6.561278820037842,-2.990722417831421,1.5869139432907104,100.0,164075.0,1.0
84704.8056133,316589.6875,343646.375,332543.09375,318427.25,319954.25,306475.59375,307488.75,277742.34375,0.03955078125,0.80615234375,-0.5927734375,-6.561278820037842,-3.540038824081421,1.3122557401657104,100.0,164076.0,1.0
84704.8080467,316340.9375,341527.4375,331003.34375,317091.0625,317164.65625,305196.53125,306227.6875,276794.53125,0.041015625,0.807373046875,-0.592041015625,-6.652831554412842,-3.845214605331421,1.2512205839157104,100.0,164077.0,1.0
84704.8130479,316244.46875,341647.15625,331143.4375,316933.71875,316730.84375,305591.53125,306245.46875,276867.5,0.041015625,0.81005859375,-0.591552734375,-6.744384288787842,-4.211425304412842,1.0681151151657104,100.0,164078.0,1.0
84704.8155824,316436.78125,343878.46875,332807.375,318206.4375,319314.4375,307155.53125,307549.65625,277894.34375,0.0419921875,0.8125,-0.590087890625,-6.774901866912842,-4.516601085662842,1.0375975370407104,100.0,164079.0,1.0
84704.8179231,316651.1875,345106.40625,333666.40625,319123.5625,321326.09375,307703.0625,308319.1875,278446.78125,0.044921875,0.81298828125,-0.590576171875,-6.988524913787842,-4.669188976287842,0.9460448622703552,100.0,164080.0,1.0
84704.82057,316608.28125,343662.5625,332562.0625,318449.6875,319992.875,306487.59375,307498.875,277803.0625,0.0439453125,0.812744140625,-0.591064453125,-7.110595226287842,-4.821776866912842,0.8239745497703552,100.0,164081.0,1.0
84704.8280441,316332.28125,341547.0,331013.0,317101.96875,317219.1875,305206.375,306242.875,276872.21875,0.046142578125,0.8154296875,-0.591796875,-7.232665538787842,-5.035399913787842,0.7324218153953552,100.0,164082.0,1.0
84704.833067,316253.15625,341637.3125,331133.15625,316928.25,316770.09375,305582.6875,306245.1875,276914.25,0.04541015625,0.816162109375,-0.5908203125,-7.446288585662842,-5.126952648162842,0.7324218153953552,100.0,164083.0,1.0
84704.8353978,316436.875,343837.625,332775.125,318187.46875,319330.28125,307134.09375,307526.3125,277920.25,0.044677734375,0.815673828125,-0.588623046875,-7.568358898162842,-5.249022960662842,0.8544921278953552,100.0,164084.0,1.0
84704.8404447,316655.21875,345096.75,333657.65625,319120.4375,321372.875,307703.4375,308310.21875,278483.15625,0.043212890625,0.81591796875,-0.5869140625,-7.659911632537842,-5.401610851287842,0.8544921278953552,100.0,164085.0,1.0
84704.846807,316593.25,343673.71875,332560.09375,318449.875,320067.6875,306488.21875,307488.125,277817.53125,0.0419921875,0.815673828125,-0.584228515625,-7.751464366912842,-5.523681163787842,0.9155272841453552,100.0,164086.0,1.0
84704.8493012,316348.90625,341565.4375,331019.875,317114.21875,317297.25,305206.5625,306231.78125,276883.40625,0.04052734375,0.815185546875,-0.581298828125,-7.873534679412842,-5.950927257537842,0.8544921278953552,100.0,164087.0,1.0
84704.8630789,316249.5625,341638.03125,331123.6875,316934.6875,316827.9375,305584.40625,306242.0625,276941.71875,0.03564453125,0.816650390625,-0.58056640625,-8.056639671325684,-6.164550304412842,0.5493163466453552,100.0,164088.0,1.0
84704.867753,316433.5625,343823.9375,332763.03125,318191.40625,319397.0625,307144.8125,307547.78125,277933.59375,0.0341796875,0.81884765625,-0.5791015625,-8.056639671325684,-6.469726085662842,0.3051757514476776,100.0,164089.0,1.0
84704.8677934,316641.25,345099.25,333657.375,319128.5625,321476.75,307728.09375,308351.53125,278486.125,0.03369140625,0.820068359375,-0.580078125,-8.178709983825684,-6.622313976287842,0.1831054538488388,100.0,164090.0,1.0
84704.8741496,316604.96875,343721.9375,332591.46875,318475.90625,320209.125,306533.625,307549.125,277809.75,0.033203125,0.8232421875,-0.57666015625,-8.300780296325684,-6.927489757537842,0.03051757626235485,100.0,164091.0,1.0
84704.8765441,316342.65625,341601.71875,331033.8125,317122.375,317431.53125,305233.46875,306274.875,276836.28125,0.031982421875,0.824951171875,-0.573486328125,-8.331297874450684,-7.110595226287842,-0.1831054538488388,100.0,164092.0,1.0
84704.879093,316245.1875,341626.3125,331111.34375,316920.9375,316934.6875,305580.625,306257.90625,276892.96875,0.027099609375,0.82568359375,-0.57373046875,-8.422850608825684,-7.354735851287842,-0.4882812201976776,100.0,164093.0,1.0
84704.8817841,316412.03125,343784.40625,332730.40625,318162.96875,319473.6875,307129.34375,307543.3125,277916.6875,0.025146484375,0.82470703125,-0.5693359375,-8.453368186950684,-7.598876476287842,-0.7629393935203552,100.0,164094.0,1.0
84704.8817977,316643.9375,345077.5,333642.0,319112.03125,321552.125,307727.84375,308346.96875,278485.75,0.022705078125,0.82470703125,-0.5673828125,-8.483885765075684,-7.904052257537842,-1.1596678495407104,100.0,164095.0,1.0
84704.886795,316619.28125,343747.125,332615.25,318488.875,320325.46875,306564.65625,307570.65625,277844.0,0.021728515625,0.821533203125,-0.567138671875,-8.422850608825684,-8.270262718200684,-1.4953612089157104,100.0,164096.0,1.0
84704.8892886,316342.65625,341612.625,331053.65625,317135.875,317550.96875,305256.90625,306296.15625,276884.3125,0.020263671875,0.821533203125,-0.568115234375,-8.239745140075684,-8.666991233825684,-1.8005369901657104,100.0,164097.0,1.0
84704.8915817,316233.46875,341591.09375,331097.03125,316914.125,317000.59375,305578.59375,306255.3125,276918.46875,0.01708984375,0.822509765625,-0.570556640625,-7.995604991912842,-9.307860374450684,-2.166747808456421,100.0,164098.0,1.0
84704.8965851,316419.4375,343734.875,332709.5625,318151.96875,319498.625,307122.90625,307529.71875,277925.90625,0.01953125,0.825439453125,-0.567138671875,-7.598876476287842,-9.857176780700684,-2.410888433456421,100.0,164099.0,1.0
84704.8991981,316636.96875,345060.875,333638.59375,319112.75,321597.375,307737.40625,308348.84375,278508.84375,0.02099609375,0.828857421875,-0.570556640625,-7.537841320037842,-10.345458030700684,-2.777099370956421,100.0,164100.0,1.0
84704.8992129,316628.03125,343760.375,332627.0625,318500.40625,320362.375,306572.875,307569.0625,277843.1875,0.024169921875,0.833984375,-0.568359375,-7.537841320037842,-10.711668968200684,-2.990722417831421,100.0,164101.0,1.0
84704.904281,316346.5,341642.6875,331067.25,317150.34375,317578.59375,305263.25,306291.5,276847.28125,0.026611328125,0.839599609375,-0.563232421875,-7.537841320037842,-11.077879905700684,-3.204345464706421,100.0,164102.0,1.0
84704.9092663,316243.9375,341600.65625,331091.3125,316908.875,317010.5,305563.75,306232.40625,276848.53125,0.024169921875,0.841796875,-0.5595703125,-7.843017101287842,-11.169432640075684,-3.479003667831421,100.0,164103.0,1.0
84704.9092845,316414.53125,343722.5625,332690.1875,318135.15625,319488.53125,307096.25,307505.3125,277837.90625,0.022705078125,0.843505859375,-0.554443359375,-8.209227561950684,-11.169432640075684,-3.631591558456421,100.0,164104.0,1.0
84704.9117596,316632.0625,345064.5625,333638.15625,319109.0,321575.71875,307731.59375,308348.15625,278421.21875,0.0244140625,0.845947265625,-0.55810546875,-8.544920921325684,-11.322020530700684,-3.784179449081421,100.0,164105.0,1.0
84704.9142947,316624.0,343780.5625,332643.9375,318502.4375,320394.03125,306577.53125,307566.8125,277772.375,0.023193359375,0.84619140625,-0.557373046875,-8.758543968200684,-11.535643577575684,-3.845214605331421,100.0,164106.0,1.0
84704.9167871,316369.90625,341647.15625,331084.6875,317146.78125,317635.1875,305247.78125,306261.46875,276792.40625,0.0234375,0.84619140625,-0.556640625,-8.972167015075684,-11.688231468200684,-3.967284917831421,100.0,164107.0,1.0
84704.9241217,316246.96875,341581.96875,331095.34375,316900.71875,317054.40625,305548.0,306211.75,276831.375,0.023193359375,0.84375,-0.55712890625,-9.155272483825684,-11.871336936950684,-4.089354991912842,100.0,164108.0,1.0
84704.9268207,316416.84375,343682.9375,332679.09375,318116.21875,319485.84375,307080.71875,307485.625,277845.25,0.026123046875,0.843505859375,-0.557861328125,-9.124754905700684,-12.054442405700684,-4.119872570037842,100.0,164109.0,1.0
84704.9292731,316631.78125,345043.625,333636.5625,319097.0,321584.40625,307730.25,308334.625,278456.71875,0.02685546875,0.84423828125,-0.558837890625,-9.185790061950684,-12.023924827575684,-4.150390148162842,100.0,164110.0,1.0
84704.9293038,316612.75,343812.59375,332666.84375,318517.125,320429.625,306604.53125,307594.53125,277836.40625,0.0302734375,0.84423828125,-0.556884765625,-9.124754905700684,-12.145995140075684,-4.089354991912842,100.0,164111.0,1.0
84704.9341015,316359.71875,341666.90625,331089.15625,317148.375,317605.59375,305255.1875,306266.75,276844.53125,0.0302734375,0.8447265625,-0.553466796875,-9.246825218200684,-12.207030296325684,-4.058837413787842,100.0,164112.0,1.0
84704.9367654,316247.78125,341563.8125,331070.65625,316884.375,316971.625,305524.5,306174.125,276861.5,0.0322265625,0.847412109375,-0.55322265625,-9.277342796325684,-12.176512718200684,-3.906249761581421,100.0,164113.0,1.0
84704.9415715,316419.90625,343661.125,332653.78125,318101.90625,319443.09375,307058.1875,307449.34375,277874.5,0.031005859375,0.84814453125,-0.549072265625,-9.368895530700684,-12.023924827575684,-3.875732183456421,100.0,164114.0,1.0
84704.9442289,316612.28125,345018.78125,333614.375,319082.0,321536.5625,307711.21875,308297.28125,278472.1875,0.031494140625,0.8466796875,-0.54736328125,-9.521483421325684,-11.718749046325684,-3.906249761581421,100.0,164115.0,1.0
84704.9467826,316602.375,343824.28125,332674.96875,318519.25,320404.6875,306604.34375,307566.09375,277866.09375,0.02978515625,0.84912109375,-0.543212890625,-9.643553733825684,-11.535643577575684,-3.784179449081421,100.0,164116.0,1.0
84704.9493067,316367.3125,341733.5,331132.78125,317181.46875,317686.0,305290.5,306297.21875,276912.1875,0.0263671875,0.8486328125,-0.54150390625,-9.674071311950684,-11.413573265075684,-3.784179449081421,100.0,164117.0,1.0
84704.9493195,316240.8125,341585.71875,331081.28125,316884.53125,317033.03125,305531.5625,306194.9375,276891.90625,0.0234375,0.8466796875,-0.540771484375,-9.735106468200684,-11.260985374450684,-3.784179449081421,100.0,164118.0,1.0
84704.9643534,316391.90625,343607.9375,332620.875,318066.0625,319389.8125,307031.53125,307430.1875,277858.03125,0.01708984375,0.842529296875,-0.539794921875,-9.735106468200684,-11.108397483825684,-3.662109136581421,100.0,164119.0,1.0
84704.964369,316616.78125,345002.15625,333618.125,319073.59375,321530.9375,307715.59375,308297.1875,278467.53125,0.013916015625,0.840087890625,-0.540771484375,-9.796141624450684,-11.077879905700684,-3.723144292831421,100.0,164120.0,1.0
84704.9643722,316623.21875,343860.59375,332717.71875,318538.84375,320484.78125,306637.96875,307598.71875,277873.875,0.009521484375,0.83935546875,-0.546142578125,-9.674071311950684,-11.199950218200684,-3.723144292831421,100.0,164121.0,1.0
84704.9667069,316374.75,341767.40625,331162.46875,317192.5625,317725.875,305312.3125,306319.75,276899.9375,0.008056640625,0.83837890625,-0.545654296875,-9.490965843200684,-11.444090843200684,-3.936767339706421,100.0,164122.0,1.0
84704.9691537,316234.8125,341573.28125,331074.78125,316874.09375,317008.1875,305527.0,306190.46875,276843.53125,0.009521484375,0.841796875,-0.54443359375,-9.185790061950684,-11.566161155700684,-4.089354991912842,100.0,164123.0,1.0
84704.9691665,316362.21875,343572.0,332588.4375,318041.5625,319375.78125,307019.46875,307413.9375,277790.53125,0.008544921875,0.84228515625,-0.54248046875,-8.911131858825684,-11.627196311950684,-4.211425304412842,100.0,164124.0,1.0
84704.9733836,316611.84375,344987.21875,333601.6875,319060.53125,321527.0,307711.84375,308284.03125,278414.40625,0.00830078125,0.843994140625,-0.540771484375,-8.666991233825684,-11.566161155700684,-4.333495616912842,100.0,164125.0,1.0
84704.9804523,316639.65625,343889.28125,332732.71875,318547.6875,320462.4375,306639.9375,307589.4375,277846.21875,0.009521484375,0.8466796875,-0.539306640625,-8.575438499450684,-11.444090843200684,-4.516601085662842,100.0,164126.0,1.0
84704.9804789,316392.0,341802.625,331183.65625,317206.75,317711.8125,305312.15625,306312.0,276890.84375,0.011962890625,0.846923828125,-0.53271484375,-8.544920921325684,-11.352538108825684,-4.547118663787842,100.0,164127.0,1.0
84704.9830761,316223.65625,341571.25,331064.03125,316865.59375,316978.875,305506.25,306168.03125,276838.71875,0.015625,0.8486328125,-0.53271484375,-8.575438499450684,-11.199950218200684,-4.608153820037842,100.0,164128.0,1.0
84704.9831006,316358.03125,343540.875,332563.5,318024.21875,319281.28125,306985.65625,307378.625,277796.0,0.02099609375,0.853759765625,-0.531494140625,-8.636473655700684,-10.986327171325684,-4.577636241912842,100.0,164129.0,1.0
84704.9855037,316619.1875,344976.65625,333597.84375,319060.4375,321435.0,307697.78125,308266.59375,278448.375,0.0234375,0.858642578125,-0.53125,-8.575438499450684,-10.894774436950684,-4.547118663787842,100.0,164130.0,1.0
84704.9969235,316640.5625,343917.625,332753.75,318565.40625,320472.4375,306660.0625,307601.40625,277899.78125,0.02587890625,0.860595703125,-0.529296875,-8.728026390075684,-10.589598655700684,-4.333495616912842,100.0,164131.0,1.0
84704.9969697,316376.4375,341834.53125,331199.5,317220.34375,317750.0,305329.3125,306326.28125,276930.15625,0.02587890625,0.861328125,-0.530517578125,-8.941649436950684,-10.253905296325684,-4.180907726287842,100.0,164132.0,1.0
84704.9969799,316231.875,341578.21875,331063.875,316870.40625,316935.5,305508.9375,306170.90625,276864.46875,0.02294921875,0.860107421875,-0.531005859375,-9.185790061950684,-9.979247093200684,-3.906249761581421,100.0,164133.0,1.0
84704.9993461,316375.46875,343529.25,332553.375,318020.625,319237.65625,306985.03125,307377.1875,277822.625,0.020751953125,0.8603515625,-0.529052734375,-9.368895530700684,-9.643553733825684,-3.692626714706421,100.0,164134.0,1.0
84705.0017666,316606.5,344970.40625,333590.6875,319052.65625,321448.3125,307705.125,308266.25,278462.78125,0.0185546875,0.857666015625,-0.5244140625,-9.429930686950684,-9.216307640075684,-3.540038824081421,100.0,164135.0,1.0
84705.0018045,316643.84375,343944.8125,332776.0,318574.59375,320487.65625,306687.6875,307620.8125,277909.4375,0.014892578125,0.854736328125,-0.52197265625,-9.582518577575684,-8.789061546325684,-3.448486089706421,100.0,164136.0,1.0
84705.0043078,316406.3125,341861.71875,331227.9375,317236.4375,317732.84375,305350.59375,306343.28125,276928.84375,0.010009765625,0.852783203125,-0.521728515625,-9.704588890075684,-8.575438499450684,-3.570556402206421,100.0,164137.0,1.0
84705.0043444,316227.84375,341569.0,331059.46875,316864.6875,316917.09375,305503.75,306168.40625,276844.78125,0.005615234375,0.852783203125,-0.5234375,-9.765624046325684,-8.392333030700684,-3.540038824081421,100.0,164138.0,1.0
84705.006713,316376.875,343489.65625,332533.71875,318001.0625,319197.21875,306967.59375,307359.84375,277792.15625,0.0029296875,0.852294921875,-0.526123046875,-9.643553733825684,-8.361815452575684,-3.540038824081421,100.0,164139.0,1.0
84705.0091931,316607.65625,344950.5625,333588.4375,319045.25,321425.53125,307711.46875,308271.59375,278452.875,0.001953125,0.8515625,-0.52685546875,-9.704588890075684,-8.453368186950684,-3.509521245956421,100.0,164140.0,1.0
84705.011753,316643.40625,343942.21875,332785.9375,318575.84375,320485.84375,306696.15625,307628.25,277914.0,0.000732421875,0.851318359375,-0.524658203125,-9.643553733825684,-8.575438499450684,-3.479003667831421,100.0,164141.0,1.0
84705.0117951,316394.84375,341875.59375,331242.5,317242.15625,317735.25,305363.125,306358.46875,276954.84375,0.001220703125,0.852294921875,-0.526611328125,-9.460448265075684,-8.728026390075684,-3.479003667831421,100.0,164142.0,1.0
84705.014175,316225.6875,341548.625,331051.625,316853.25,316868.8125,305503.03125,306164.90625,276865.34375,0.000244140625,0.854736328125,-0.5244140625,-9.399413108825684,-8.697508811950684,-3.448486089706421,100.0,164143.0,1.0
84705.016806,316369.125,343446.46875,332509.75,317980.03125,319114.4375,306958.125,307341.34375,277795.28125,-0.0009765625,0.857177734375,-0.52099609375,-9.368895530700684,-8.728026390075684,-3.387450933456421,100.0,164144.0,1.0
84705.0218198,316623.75,344931.6875,333584.5,319039.6875,321354.4375,307710.65625,308259.53125,278449.65625,0.00048828125,0.856689453125,-0.522705078125,-9.307860374450684,-8.728026390075684,-3.234863042831421,100.0,164145.0,1.0
84705.0368247,316657.71875,343971.625,332813.125,318593.1875,320463.15625,306722.09375,307640.3125,277923.125,0.0009765625,0.8603515625,-0.523681640625,-9.063719749450684,-8.728026390075684,-3.204345464706421,100.0,164146.0,1.0
84705.0391421,316396.1875,341897.5625,331259.125,317253.25,317716.21875,305375.4375,306363.21875,276957.71875,0.0,0.860107421875,-0.52197265625,-9.094237327575684,-8.666991233825684,-3.112792730331421,100.0,164147.0,1.0
84705.0420312,316226.5,341547.90625,331051.34375,316852.8125,316833.59375,305498.5625,306166.625,276871.4375,0.000732421875,0.861572265625,-0.520751953125,-9.002684593200684,-8.666991233825684,-3.143310308456421,100.0,164148.0,1.0
84705.0443315,316351.5,343417.59375,332486.875,317962.875,319062.84375,306940.53125,307336.78125,277815.03125,-0.00048828125,0.861083984375,-0.515380859375,-8.941649436950684,-8.605956077575684,-2.960204839706421,100.0,164149.0,1.0
84705.044373,316604.34375,344915.0625,333571.90625,319033.875,321319.21875,307704.15625,308261.25,278492.03125,0.000244140625,0.861328125,-0.51611328125,-8.911131858825684,-8.544920921325684,-2.777099370956421,100.0,164150.0,1.0
84705.0459273,316648.15625,343982.375,332822.78125,318606.25,320453.03125,306725.75,307652.8125,277977.9375,-0.002685546875,0.861328125,-0.51318359375,-8.972167015075684,-8.514403343200684,-2.655029058456421,100.0,164151.0,1.0
84705.0755355,316403.1875,341913.9375,331275.3125,317269.25,317705.28125,305380.09375,306369.84375,277009.125,-0.0048828125,0.8603515625,-0.51318359375,-8.941649436950684,-8.514403343200684,-2.349853277206421,100.0,164152.0,1.0
84705.0755763,316231.5,341534.9375,331045.0,316851.71875,316786.71875,305483.625,306146.75,276903.4375,-0.0078125,0.85986328125,-0.513671875,-8.972167015075684,-8.422850608825684,-2.197265386581421,100.0,164153.0,1.0
84705.0940606,316360.625,343384.59375,332470.59375,317959.9375,318995.34375,306925.75,307310.75,277826.46875,-0.01025390625,0.859375,-0.5126953125,-8.911131858825684,-8.483885765075684,-2.044677495956421,100.0,164154.0,1.0
84705.0965505,316599.875,344899.40625,333570.5625,319038.96875,321278.96875,307714.59375,308256.5,278505.53125,-0.010986328125,0.860107421875,-0.516845703125,-8.880614280700684,-8.758543968200684,-1.9226073026657104,100.0,164155.0,1.0
84705.0990847,316644.03125,343998.46875,332842.4375,318619.03125,320440.78125,306754.375,307662.03125,277991.78125,-0.01123046875,0.857666015625,-0.513671875,-8.666991233825684,-9.033202171325684,-1.8005369901657104,100.0,164156.0,1.0
84705.1040538,316419.71875,341944.5,331306.4375,317289.71875,317698.875,305407.375,306381.625,277012.6875,-0.012451171875,0.860595703125,-0.513427734375,-8.270262718200684,-9.246825218200684,-1.7089842557907104,100.0,164157.0,1.0
84705.1066035,316236.53125,341533.34375,331046.96875,316852.0,316758.9375,305486.3125,306146.75,276884.40625,-0.011962890625,0.861572265625,-0.514404296875,-8.026122093200684,-9.429930686950684,-1.6479490995407104,100.0,164158.0,1.0
84705.1066101,316340.78125,343355.96875,332445.03125,317935.78125,318936.625,306904.5,307284.46875,277799.46875,-0.012451171875,0.861328125,-0.513671875,-7.843017101287842,-9.490965843200684,-1.6174315214157104,100.0,164159.0,1.0
84705.1090434,316575.71875,344882.59375,333550.4375,319021.28125,321227.5,307703.25,308229.9375,278483.78125,-0.010986328125,0.85888671875,-0.515869140625,-7.598876476287842,-9.521483421325684,-1.5258787870407104,100.0,164160.0,1.0
84705.1116114,316648.78125,344023.84375,332852.8125,318625.75,320422.28125,306760.53125,307654.15625,277980.0625,-0.0087890625,0.85693359375,-0.511962890625,-7.354735851287842,-9.674071311950684,-1.3122557401657104,100.0,164161.0,1.0
84705.1116173,316413.375,341979.65625,331320.09375,317296.15625,317692.34375,305412.375,306380.28125,276986.9375,-0.006591796875,0.85791015625,-0.507568359375,-7.049560070037842,-9.521483421325684,-1.0986326932907104,100.0,164162.0,1.0
84705.1215664,316232.5,341549.6875,331052.5,316851.46875,316730.3125,305484.0,306135.84375,276832.4375,-0.004150390625,0.855712890625,-0.505615234375,-6.866454601287842,-9.613036155700684,-0.7629393935203552,100.0,164163.0,1.0
84705.1215749,316341.84375,343362.0625,332451.0,317937.5,318905.40625,306912.09375,307292.59375,277757.375,-0.00537109375,0.853759765625,-0.50927734375,-6.652831554412842,-9.643553733825684,-0.5493163466453552,100.0,164164.0,1.0
84705.1215767,316588.15625,344895.65625,333565.1875,319024.5,321215.3125,307714.15625,308249.15625,278468.875,-0.005126953125,0.853759765625,-0.508544921875,-6.347655773162842,-9.582518577575684,-0.1220703050494194,100.0,164165.0,1.0
84705.1215783,316650.125,344067.46875,332882.125,318639.78125,320457.34375,306786.03125,307694.3125,277995.90625,-0.005859375,0.854248046875,-0.507080078125,-6.195067882537842,-9.521483421325684,0.1831054538488388,100.0,164166.0,1.0
84705.1215798,316434.5625,342024.71875,331345.5,317308.59375,317724.96875,305427.5625,306408.71875,277025.75,-0.0029296875,0.853515625,-0.5107421875,-6.011962413787842,-9.399413108825684,0.5798339247703552,100.0,164167.0,1.0
84705.1215814,316232.6875,341559.53125,331043.75,316844.84375,316724.0625,305475.3125,306142.375,276891.90625,-0.00390625,0.851806640625,-0.5107421875,-5.828856945037842,-9.368895530700684,0.8239745497703552,100.0,164168.0,1.0
84705.1215833,316337.625,343339.8125,332419.09375,317916.375,318861.40625,306888.03125,307272.03125,277810.5625,-0.004150390625,0.85107421875,-0.5087890625,-5.676269054412842,-9.155272483825684,1.2512205839157104,100.0,164169.0,1.0
84705.1241411,316552.5625,344862.21875,333525.25,318995.53125,321152.28125,307691.34375,308207.25,278492.65625,-0.001220703125,0.84765625,-0.510009765625,-5.157470226287842,-9.063719749450684,1.6174315214157104,100.0,164170.0,1.0
84705.1266458,316638.3125,344068.90625,332875.96875,318630.65625,320413.4375,306783.4375,307660.15625,278016.5625,0.00244140625,0.8427734375,-0.5087890625,-4.852294445037842,-8.819579124450684,2.075195074081421,100.0,164171.0,1.0
84705.12918,316408.53125,342039.375,331346.03125,317302.15625,317700.125,305426.5,306387.96875,277045.3125,0.0068359375,0.83935546875,-0.5087890625,-4.394530773162842,-8.636473655700684,2.410888433456421,100.0,164172.0,1.0
84705.1291829,316212.75,341549.25,331028.8125,316827.78125,316684.71875,305458.34375,306115.8125,276904.875,0.00830078125,0.839111328125,-0.510009765625,-3.875732183456421,-8.331297874450684,2.807616949081421,100.0,164173.0,1.0
84705.1316513,316327.28125,343310.03125,332398.53125,317899.125,318816.8125,306869.875,307246.375,277828.09375,0.00537109375,0.840576171875,-0.512451171875,-3.479003667831421,-8.117674827575684,3.051757574081421,100.0,164174.0,1.0
84705.1341692,316572.34375,344876.625,333540.4375,319011.53125,321158.65625,307707.4375,308222.4375,278539.75,0.004638671875,0.84228515625,-0.512451171875,-3.051757574081421,-7.781981945037842,3.265380620956421,100.0,164175.0,1.0
84705.1341752,316640.90625,344102.34375,332895.625,318646.65625,320446.78125,306810.0625,307687.0625,278061.96875,0.003173828125,0.8447265625,-0.51123046875,-2.716064214706421,-7.507323741912842,3.662109136581421,100.0,164176.0,1.0
84705.1367593,316412.75,342066.28125,331360.4375,317311.46875,317718.8125,305446.625,306402.8125,277076.34375,0.002197265625,0.846923828125,-0.5087890625,-2.502441167831421,-7.385253429412842,4.058837413787842,100.0,164177.0,1.0
84705.1392609,316216.5,341560.40625,331032.21875,316829.375,316673.8125,305466.03125,306118.96875,276920.6875,-0.0009765625,0.848388671875,-0.51318359375,-2.288818120956421,-7.080077648162842,4.333495616912842,100.0,164178.0,1.0
84705.1419288,316326.0,343301.0,332390.40625,317896.90625,318783.09375,306867.84375,307243.59375,277839.71875,-0.0009765625,0.8525390625,-0.51025390625,-2.105712652206421,-6.652831554412842,4.547118663787842,100.0,164179.0,1.0
84705.144138,316557.65625,344862.40625,333533.09375,319007.5,321133.15625,307706.8125,308220.90625,278553.25,0.00048828125,0.853759765625,-0.511962890625,-1.9226073026657104,-6.652831554412842,4.669188976287842,100.0,164180.0,1.0
84705.1467651,316639.5625,344109.3125,332907.34375,318654.4375,320447.6875,306817.03125,307693.0625,278081.28125,0.000244140625,0.8564453125,-0.5146484375,-1.8005369901657104,-6.469726085662842,4.913329601287842,100.0,164181.0,1.0
84705.1467805,316416.6875,342076.75,331372.75,317320.3125,317720.59375,305447.59375,306404.6875,277088.875,0.0,0.856689453125,-0.513916015625,-1.5869139432907104,-6.317138195037842,5.065917491912842,100.0,164182.0,1.0
84705.1492882,316216.03125,341538.59375,331022.09375,316824.8125,316645.8125,305450.625,306102.78125,276923.28125,-0.003662109375,0.853759765625,-0.51416015625,-1.4953612089157104,-6.103515148162842,5.218505382537842,100.0,164183.0,1.0
84705.1567712,316313.6875,343257.46875,332362.5,317876.0625,318729.90625,306843.78125,307210.875,277830.6875,-0.0048828125,0.85302734375,-0.51904296875,-1.4038084745407104,-6.042479991912842,5.187987804412842,100.0,164184.0,1.0
84705.1567883,316563.75,344845.40625,333525.6875,319002.6875,321101.15625,307704.5,308205.1875,278555.84375,-0.005859375,0.856201171875,-0.520751953125,-1.2512205839157104,-5.950927257537842,5.279540538787842,100.0,164185.0,1.0
84705.1692437,316649.9375,344122.5625,332919.0625,318663.375,320443.375,306834.5625,307694.84375,278098.53125,-0.008056640625,0.858642578125,-0.52392578125,-1.2207030057907104,-5.767821788787842,5.340575695037842,100.0,164186.0,1.0
84705.1717537,316413.46875,342091.3125,331378.75,317321.75,317719.59375,305456.625,306403.1875,277105.75,-0.009521484375,0.857421875,-0.52392578125,-1.0681151151657104,-5.615233898162842,5.432128429412842,100.0,164187.0,1.0
84705.1742946,316216.125,341531.0,331009.40625,316807.75,316621.0625,305433.125,306083.28125,276921.40625,-0.010986328125,0.858642578125,-0.524658203125,-0.9155272841453552,-5.523681163787842,5.401610851287842,100.0,164188.0,1.0
84705.1766273,316313.9375,343241.375,332348.8125,317864.4375,318696.65625,306829.21875,307195.3125,277829.875,-0.011474609375,0.85791015625,-0.52099609375,-0.8850097060203552,-5.432128429412842,5.249022960662842,100.0,164189.0,1.0
84705.1784353,316568.75,344837.09375,333521.65625,319000.96875,321077.28125,307695.8125,308189.625,278563.28125,-0.01123046875,0.8583984375,-0.521484375,-0.8239745497703552,-5.279540538787842,5.096435070037842,100.0,164190.0,1.0
84705.1854083,316651.46875,344141.25,332931.5,318671.15625,320456.53125,306837.4375,307698.96875,278119.09375,-0.009765625,0.857666015625,-0.52294921875,-0.7629393935203552,-5.249022960662842,4.943847179412842,100.0,164191.0,1.0
84705.1879255,316419.53125,342106.34375,331388.40625,317325.125,317729.09375,305454.03125,306402.46875,277118.28125,-0.007080078125,0.855712890625,-0.523193359375,-0.7324218153953552,-5.065917491912842,4.852294445037842,100.0,164192.0,1.0
84705.1904166,316215.5,341529.5,331007.71875,316805.6875,316603.34375,305424.4375,306068.34375,276932.84375,-0.0048828125,0.852294921875,-0.52734375,-0.7324218153953552,-5.035399913787842,4.791259288787842,100.0,164193.0,1.0
84705.1954008,316317.15625,343234.125,332339.34375,317859.78125,318665.34375,306817.03125,307178.78125,277846.3125,-0.001953125,0.851318359375,-0.52783203125,-0.5798339247703552,-4.943847179412842,4.760741710662842,100.0,164194.0,1.0
84705.1954067,316573.21875,344842.5625,333522.90625,319004.90625,321067.96875,307702.53125,308192.84375,278593.40625,-0.001953125,0.848876953125,-0.530517578125,-0.4577636420726776,-4.852294445037842,4.760741710662842,100.0,164195.0,1.0
84705.1978878,316663.53125,344161.71875,332942.40625,318677.875,320457.5,306852.28125,307699.6875,278144.5,0.00048828125,0.850341796875,-0.53125,-0.2746581733226776,-4.760741710662842,4.669188976287842,100.0,164196.0,1.0
84705.2066046,316423.8125,342125.125,331397.09375,317328.53125,317721.65625,305465.3125,306390.84375,277137.9375,0.002197265625,0.850341796875,-0.529541015625,-0.1525878757238388,-4.486083507537842,4.638671398162842,100.0,164197.0,1.0
84705.2104428,316219.1875,341535.21875,331008.96875,316808.53125,316587.71875,305430.15625,306063.25,276954.3125,0.001220703125,0.849365234375,-0.530517578125,0.0610351525247097,-4.241942882537842,4.608153820037842,100.0,164198.0,1.0
84705.2104547,316306.0,343211.78125,332326.90625,317849.875,318630.5625,306808.28125,307165.28125,277860.1875,0.004150390625,0.848388671875,-0.52880859375,0.1831054538488388,-4.058837413787842,4.547118663787842,100.0,164199.0,1.0
84705.2180854,316568.03125,344834.59375,333522.8125,319003.40625,321046.0,307701.625,308183.53125,278610.03125,0.006103515625,0.848876953125,-0.5322265625,0.3356933295726776,-3.906249761581421,4.455565929412842,100.0,164200.0,1.0
84705.2180988,316663.4375,344181.21875,332962.25,318691.09375,320468.25,306868.53125,307708.625,278177.21875,0.00732421875,0.85107421875,-0.53369140625,0.4882812201976776,-3.692626714706421,4.455565929412842,100.0,164201.0,1.0
84705.2267214,316436.4375,342165.875,331427.46875,317351.5,317759.46875,305490.78125,306423.9375,277182.9375,0.007568359375,0.851806640625,-0.533203125,0.4577636420726776,-3.326415777206421,4.425048351287842,100.0,164202.0,1.0
84705.2291477,316231.78125,341547.09375,331016.46875,316810.96875,316592.4375,305430.25,306072.5625,276974.15625,0.006591796875,0.853759765625,-0.530517578125,0.4882812201976776,-3.082275152206421,4.394530773162842,100.0,164203.0,1.0
84705.2291622,316325.125,343204.625,332320.9375,317843.34375,318605.71875,306795.84375,307155.09375,277851.34375,0.0078125,0.853271484375,-0.5322265625,0.5187987685203552,-2.807616949081421,4.364013195037842,100.0,164204.0,1.0
84705.2329979,316577.59375,344832.71875,333524.34375,319002.875,321035.34375,307699.3125,308177.8125,278575.96875,0.007568359375,0.854248046875,-0.53271484375,0.5798339247703552,-2.746581792831421,4.364013195037842,100.0,164205.0,1.0
84705.2430198,316661.03125,344190.59375,332972.15625,318698.6875,320482.28125,306877.84375,307715.40625,278121.34375,0.007080078125,0.85498046875,-0.52978515625,0.4882812201976776,-2.502441167831421,4.333495616912842,100.0,164206.0,1.0
84705.2430359,316434.09375,342172.6875,331431.9375,317354.375,317764.21875,305494.1875,306425.4375,277113.28125,0.0068359375,0.854248046875,-0.5322265625,0.2746581733226776,-2.288818120956421,4.364013195037842,100.0,164207.0,1.0
84705.245341,316229.0,341539.0625,331008.875,316804.0,316572.25,305424.34375,306061.1875,276892.96875,0.0068359375,0.855224609375,-0.531005859375,0.1525878757238388,-1.9531248807907104,4.302978038787842,100.0,164208.0,1.0
