Time,FZ,C3,CZ,C4,PZ,PO7,OZ,PO8,AccX,AccY,AccZ,Gyro1,Gyro2,Gyro3,Battery,Counter,Validation
515490.990738,284375.34375,310800.40625,319942.34375,295462.4375,302508.625,304771.5,269675.5,305602.1875,-0.055908203125,0.95458984375,-0.294921875,-2.899169683456421,2.563476324081421,2.746581792831421,80.0,956211.0,1.0
515490.9930821,285947.59375,311883.65625,320418.34375,298438.28125,303601.0625,304949.6875,269719.5,306365.375,-0.056396484375,0.953369140625,-0.292236328125,-2.929687261581421,2.349853277206421,2.655029058456421,80.0,956212.0,1.0
515490.9957451,287859.71875,310834.5625,318413.3125,293652.84375,297349.75,302076.15625,268650.71875,304072.53125,-0.056640625,0.9541015625,-0.2919921875,-2.899169683456421,2.288818120956421,2.471923589706421,80.0,956213.0,1.0
515490.9982885,287327.65625,309082.71875,316729.6875,287845.59375,292559.21875,300188.78125,267969.53125,301958.5,-0.055908203125,0.957275390625,-0.29638671875,-2.777099370956421,2.075195074081421,2.319335699081421,80.0,956214.0,1.0
515490.9983023,285261.125,309032.375,317627.34375,288744.21875,295565.71875,301792.90625,268575.09375,302830.21875,-0.055908203125,0.958984375,-0.29736328125,-2.655029058456421,1.8920897245407104,2.227782964706421,80.0,956215.0,1.0
515490.99987,284371.15625,310749.4375,319949.15625,295380.8125,302510.03125,304788.3125,269679.625,305604.6875,-0.056640625,0.96240234375,-0.295654296875,-2.563476324081421,1.7089842557907104,2.197265386581421,80.0,956216.0,1.0
515491.0094743,285936.75,311830.46875,320421.9375,298368.34375,303605.90625,304961.21875,269723.25,306369.03125,-0.0576171875,0.9638671875,-0.296142578125,-2.563476324081421,1.4038084745407104,1.9531248807907104,80.0,956217.0,1.0
515491.0220633,287867.15625,310794.6875,318429.125,293585.625,297357.15625,302091.25,268659.3125,304083.0625,-0.05810546875,0.967041015625,-0.291748046875,-2.624511480331421,1.2817381620407104,1.8005369901657104,80.0,956218.0,1.0
515491.0220764,287349.40625,309057.0625,316752.9375,287789.09375,292577.09375,300213.625,267976.34375,301978.15625,-0.05908203125,0.96875,-0.28759765625,-2.655029058456421,0.9765624403953552,1.5563963651657104,80.0,956219.0,1.0
515491.0243798,285292.3125,309012.6875,317650.59375,288706.84375,295591.46875,301817.6875,268569.71875,302847.1875,-0.058837890625,0.970703125,-0.287841796875,-2.716064214706421,0.7934569716453552,1.3732908964157104,80.0,956220.0,1.0
515491.032038,284418.1875,310744.53125,319972.3125,295379.5625,302556.28125,304814.5,269656.71875,305613.0,-0.059326171875,0.9697265625,-0.28759765625,-2.868652105331421,0.5493163466453552,1.1901854276657104,80.0,956221.0,1.0
515491.0345281,285985.3125,311825.90625,320440.78125,298388.125,303661.96875,304982.25,269682.125,306365.4375,-0.056640625,0.96728515625,-0.287353515625,-2.960204839706421,0.3051757514476776,1.0375975370407104,80.0,956222.0,1.0
515491.0393228,287918.46875,310793.59375,318451.40625,293620.40625,297410.625,302109.9375,268621.125,304081.8125,-0.0556640625,0.96240234375,-0.286865234375,-2.929687261581421,0.1525878757238388,0.8850097060203552,80.0,956223.0,1.0
515491.0420339,287412.25,309066.09375,316781.09375,287844.09375,292633.625,300232.9375,267955.6875,301983.34375,-0.05419921875,0.962158203125,-0.28662109375,-2.746581792831421,-0.03051757626235485,0.8239745497703552,80.0,956224.0,1.0
515491.0470469,285394.78125,309056.0625,317702.0,288812.96875,295683.09375,301865.96875,268576.34375,302875.4375,-0.052978515625,0.9619140625,-0.285888671875,-2.868652105331421,-0.1831054538488388,0.6713866591453552,80.0,956225.0,1.0
515491.0495531,284568.21875,310835.71875,320055.0,295554.90625,302696.1875,304900.4375,269694.71875,305679.875,-0.051513671875,0.95947265625,-0.2861328125,-2.777099370956421,-0.3356933295726776,0.5493163466453552,80.0,956226.0,1.0
515491.0543983,286132.65625,311935.0625,320515.8125,298579.71875,303794.375,305064.3125,269733.96875,306449.59375,-0.05029296875,0.955078125,-0.28466796875,-2.685546636581421,-0.4272460639476776,0.4577636420726776,80.0,956227.0,1.0
515491.0570687,287998.9375,310867.625,318481.15625,293749.40625,297475.28125,302153.65625,268667.34375,304147.4375,-0.04931640625,0.9521484375,-0.28662109375,-2.563476324081421,-0.3662109076976776,0.3662109076976776,80.0,956228.0,1.0
515491.0596008,287431.03125,309084.75,316771.71875,287894.59375,292628.875,300235.71875,267978.21875,302011.59375,-0.044921875,0.951904296875,-0.287109375,-2.380370855331421,-0.4272460639476776,0.3967284858226776,80.0,956229.0,1.0
515491.0596444,285380.28125,309024.15625,317670.78125,288804.9375,295641.0,301837.15625,268567.9375,302859.71875,-0.042724609375,0.954345703125,-0.2890625,-2.136230230331421,-0.3967284858226776,0.5798339247703552,80.0,956230.0,1.0
515491.0620607,284515.625,310753.90625,319999.125,295500.0,302630.9375,304841.5,269646.4375,305617.28125,-0.0419921875,0.954345703125,-0.284912109375,-2.044677495956421,-0.3051757514476776,0.5798339247703552,80.0,956231.0,1.0
515491.0646157,286076.78125,311858.0,320470.9375,298523.46875,303739.9375,305015.125,269694.46875,306397.5625,-0.041015625,0.9521484375,-0.285888671875,-1.7700194120407104,-0.1831054538488388,0.6103515028953552,80.0,956232.0,1.0
515491.0684653,287910.6875,310762.5,318424.75,293647.9375,297391.84375,302084.65625,268623.625,304079.84375,-0.041259765625,0.95166015625,-0.282958984375,-1.8005369901657104,-0.0915527269244194,0.6103515028953552,80.0,956233.0,1.0
515491.0685071,287325.15625,308959.59375,316714.84375,287754.0625,292527.3125,300162.84375,267944.6875,301934.0,-0.041259765625,0.9482421875,-0.282958984375,-1.7089842557907104,-0.0610351525247097,0.6713866591453552,80.0,956234.0,1.0
515491.0958457,285326.46875,308953.96875,317658.0,288715.96875,295597.625,301817.6875,268584.9375,302833.875,-0.0439453125,0.947998046875,-0.28466796875,-1.4953612089157104,0.03051757626235485,0.7324218153953552,80.0,956235.0,1.0
515491.0984355,284546.84375,310771.4375,320034.09375,295506.96875,302663.28125,304877.09375,269698.5,305660.46875,-0.045166015625,0.946044921875,-0.28271484375,-1.3732908964157104,0.1831054538488388,0.7629393935203552,80.0,956236.0,1.0
515491.0984786,286085.4375,311862.71875,320477.625,298516.875,303754.21875,305028.8125,269712.0625,306422.03125,-0.043212890625,0.941650390625,-0.28564453125,-1.2512205839157104,0.4577636420726776,0.7324218153953552,80.0,956237.0,1.0
515491.1008782,287851.6875,310709.46875,318388.28125,293561.84375,297343.9375,302058.53125,268607.71875,304057.5,-0.04541015625,0.94091796875,-0.2802734375,-0.8850097060203552,0.5798339247703552,0.5798339247703552,80.0,956238.0,1.0
515491.1023463,287247.46875,308885.5625,316671.84375,287625.9375,292454.96875,300124.40625,267917.0625,301891.96875,-0.04638671875,0.94580078125,-0.2802734375,-0.5187987685203552,0.7019042372703552,0.6713866591453552,80.0,956239.0,1.0
515491.1097213,285263.78125,308878.25,317616.96875,288588.5625,295527.4375,301779.84375,268544.96875,302781.84375,-0.050537109375,0.95166015625,-0.277099609375,-0.2746581733226776,0.7629393935203552,0.7019042372703552,80.0,956240.0,1.0
515491.112098,284521.53125,310723.78125,320018.53125,295426.0625,302637.4375,304873.59375,269689.28125,305630.53125,-0.052490234375,0.95458984375,-0.280517578125,-0.3356933295726776,0.7629393935203552,0.8239745497703552,80.0,956241.0,1.0
515491.1144735,286071.75,311833.5,320477.4375,298466.25,303753.875,305043.46875,269729.59375,306417.5,-0.0546875,0.952880859375,-0.27880859375,-0.4577636420726776,0.8239745497703552,0.8239745497703552,80.0,956242.0,1.0
515491.1169039,287807.96875,310661.71875,318374.34375,293485.84375,297321.84375,302057.09375,268621.59375,304056.4375,-0.054931640625,0.951416015625,-0.27734375,-0.4882812201976776,0.7629393935203552,0.8544921278953552,80.0,956243.0,1.0
515491.1194814,287174.6875,308807.34375,316637.6875,287512.8125,292402.125,300102.84375,267919.03125,301878.65625,-0.05615234375,0.949951171875,-0.27685546875,-0.6408690810203552,0.8239745497703552,0.7934569716453552,80.0,956244.0,1.0
515491.1195118,285219.8125,308816.375,317598.90625,288497.46875,295494.28125,301767.4375,268546.46875,302772.46875,-0.0546875,0.948974609375,-0.279052734375,-0.5798339247703552,0.9155272841453552,0.6103515028953552,80.0,956245.0,1.0
515491.1243149,284512.875,310685.15625,320025.59375,295379.03125,302638.15625,304872.8125,269682.125,305621.125,-0.054931640625,0.94677734375,-0.279296875,-0.4577636420726776,0.9155272841453552,0.6713866591453552,80.0,956246.0,1.0
515491.1270519,286046.65625,311781.09375,320477.53125,298414.03125,303750.65625,305033.8125,269715.5625,306387.8125,-0.056396484375,0.949462890625,-0.277587890625,-0.3967284858226776,0.8239745497703552,0.5493163466453552,80.0,956247.0,1.0
515491.1293716,287749.84375,310587.96875,318364.6875,293407.15625,297294.84375,302042.8125,268620.5,304023.96875,-0.054931640625,0.95068359375,-0.280517578125,-0.3356933295726776,0.9460448622703552,0.6103515028953552,80.0,956248.0,1.0
515491.1293851,287098.25,308707.90625,316609.0,287401.6875,292340.625,300072.09375,267916.4375,301836.71875,-0.054931640625,0.95361328125,-0.277587890625,-0.2746581733226776,0.8850097060203552,0.6408690810203552,80.0,956249.0,1.0
515491.1320494,285179.5625,308737.0625,317587.71875,288418.0625,295459.6875,301754.46875,268551.125,302740.09375,-0.054931640625,0.953369140625,-0.278564453125,-0.3967284858226776,1.0375975370407104,0.5493163466453552,80.0,956250.0,1.0
515491.1821152,284520.65625,310647.78125,320030.3125,295363.21875,302651.40625,304885.125,269700.4375,305614.15625,-0.0537109375,0.9521484375,-0.279052734375,-0.5187987685203552,1.0681151151657104,0.6713866591453552,80.0,956251.0,1.0
515491.1821478,286041.0,311744.0,320472.0,298412.34375,303764.4375,305041.25,269730.84375,306390.21875,-0.0537109375,0.952392578125,-0.279052734375,-0.6103515028953552,1.0375975370407104,0.8239745497703552,80.0,956252.0,1.0
515491.1821555,287692.96875,310514.65625,318327.46875,293359.15625,297254.625,302009.71875,268608.25,304003.21875,-0.05322265625,0.952880859375,-0.2744140625,-0.5798339247703552,1.1291502714157104,1.0375975370407104,80.0,956253.0,1.0
515491.1860004,287040.3125,308642.90625,316586.71875,287346.8125,292298.59375,300043.75,267903.71875,301812.84375,-0.052490234375,0.953125,-0.273193359375,-0.6103515028953552,1.0681151151657104,1.1901854276657104,80.0,956254.0,1.0
515491.186038,285171.25,308712.375,317590.84375,288410.65625,295455.375,301749.09375,268546.65625,302734.8125,-0.0546875,0.951416015625,-0.2705078125,-0.7934569716453552,1.1901854276657104,1.4038084745407104,80.0,956255.0,1.0
515491.186046,284583.21875,310683.09375,320068.21875,295434.71875,302710.59375,304916.15625,269711.90625,305640.53125,-0.05517578125,0.953125,-0.271240234375,-0.9155272841453552,1.1596678495407104,1.5869139432907104,80.0,956256.0,1.0
515491.1860545,286106.0,311790.9375,320506.0625,298496.46875,303827.625,305076.125,269747.125,306421.5,-0.054443359375,0.951904296875,-0.275390625,-0.9460448622703552,1.3427733182907104,1.8920897245407104,80.0,956257.0,1.0
515491.1892085,287685.5625,310510.53125,318321.40625,293374.25,297259.34375,302012.5,268617.8125,304010.375,-0.055908203125,0.95263671875,-0.274169921875,-0.9460448622703552,1.2207030057907104,1.9226073026657104,80.0,956258.0,1.0
515491.189243,287007.40625,308610.46875,316562.5,287325.78125,292266.59375,300022.46875,267891.84375,301808.65625,-0.058837890625,0.955322265625,-0.27197265625,-1.0681151151657104,1.1596678495407104,2.136230230331421,80.0,956259.0,1.0
515491.1892508,285188.4375,308714.1875,317597.125,288429.25,295463.4375,301751.96875,268532.1875,302743.125,-0.058349609375,0.957275390625,-0.26806640625,-1.0375975370407104,1.0681151151657104,2.380370855331421,80.0,956260.0,1.0
515491.1892589,284633.21875,310707.9375,320091.5625,295485.78125,302751.96875,304928.5,269687.5,305649.3125,-0.05859375,0.958251953125,-0.27099609375,-1.1291502714157104,0.9765624403953552,2.593993902206421,80.0,956261.0,1.0
515491.2174505,286132.28125,311801.40625,320517.0625,298528.84375,303854.71875,305071.28125,269714.40625,306414.71875,-0.0556640625,0.95849609375,-0.2724609375,-1.1596678495407104,0.9155272841453552,2.685546636581421,80.0,956262.0,1.0
515491.2370327,287662.40625,310485.0625,318304.78125,293350.21875,297237.1875,301975.84375,268580.375,303976.9375,-0.05419921875,0.95849609375,-0.27587890625,-1.2817381620407104,0.8850097060203552,2.838134527206421,80.0,956263.0,1.0
515491.2420754,286954.9375,308556.1875,316532.28125,287262.125,292221.71875,299977.3125,267867.15625,301758.5,-0.053955078125,0.96044921875,-0.27685546875,-1.0375975370407104,0.8850097060203552,2.899169683456421,80.0,956264.0,1.0
515491.2444461,285129.6875,308642.75,317569.03125,288349.9375,295415.25,301710.21875,268513.65625,302686.625,-0.052734375,0.9619140625,-0.280517578125,-0.7629393935203552,0.8850097060203552,3.021239995956421,80.0,956265.0,1.0
515491.2470441,284584.5625,310646.15625,320076.28125,295420.78125,302724.34375,304912.3125,269687.03125,305611.03125,-0.05419921875,0.968017578125,-0.2822265625,-0.6408690810203552,0.8239745497703552,3.234863042831421,80.0,956266.0,1.0
515491.2495227,286078.46875,311737.03125,320496.75,298474.84375,303828.09375,305059.40625,269716.46875,306390.21875,-0.053466796875,0.970703125,-0.282470703125,-0.5187987685203552,0.7934569716453552,3.387450933456421,80.0,956267.0,1.0
515491.2521294,287622.34375,310432.9375,318295.125,293306.84375,297215.90625,301975.65625,268582.0625,303967.09375,-0.053466796875,0.975341796875,-0.281982421875,-0.3662109076976776,0.6713866591453552,3.417968511581421,80.0,956268.0,1.0
515491.2544186,286946.0,308532.21875,316539.53125,287238.96875,292216.25,299993.9375,267874.84375,301769.65625,-0.050537109375,0.97705078125,-0.281494140625,-0.3662109076976776,0.7934569716453552,3.601073980331421,80.0,956269.0,1.0
515491.2570887,285117.78125,308612.53125,317569.84375,288323.03125,295404.78125,301715.3125,268509.1875,302694.21875,-0.05029296875,0.976806640625,-0.280517578125,-0.5187987685203552,0.8544921278953552,3.723144292831421,80.0,956270.0,1.0
515491.2595758,284550.78125,310591.0,320061.4375,295373.75,302689.46875,304892.65625,269666.46875,305603.0,-0.048583984375,0.973388671875,-0.280029296875,-0.6408690810203552,0.9765624403953552,3.662109136581421,80.0,956271.0,1.0
515491.2621302,286041.1875,311677.65625,320486.9375,298425.40625,303798.75,305041.34375,269699.5625,306381.71875,-0.0498046875,0.97412109375,-0.28515625,-0.5798339247703552,1.0070799589157104,3.723144292831421,80.0,956272.0,1.0
515491.2643922,287596.875,310378.84375,318292.0,293272.25,297207.40625,301965.28125,268569.09375,303958.96875,-0.05029296875,0.974853515625,-0.28857421875,-0.3356933295726776,1.0681151151657104,3.784179449081421,80.0,956273.0,1.0
515491.2669456,286940.0,308491.90625,316546.9375,287224.03125,292224.40625,299988.3125,267864.3125,301764.03125,-0.0478515625,0.97509765625,-0.287109375,-0.3356933295726776,1.1901854276657104,3.906249761581421,80.0,956274.0,1.0
515491.2719702,285132.8125,308598.40625,317588.625,288329.125,295418.1875,301724.4375,268522.59375,302712.625,-0.04541015625,0.975341796875,-0.283203125,-0.1831054538488388,1.2207030057907104,3.967284917831421,80.0,956275.0,1.0
515491.2744724,284565.78125,310589.5625,320081.71875,295388.6875,302700.21875,304908.9375,269691.15625,305634.625,-0.044189453125,0.972412109375,-0.279296875,-0.2746581733226776,1.2207030057907104,3.936767339706421,80.0,956276.0,1.0
515491.2770633,286061.9375,311691.4375,320513.84375,298459.0,303823.34375,305064.5,269717.1875,306416.15625,-0.04345703125,0.970947265625,-0.280029296875,-0.2746581733226776,1.4038084745407104,4.028319835662842,80.0,956277.0,1.0
515491.2795215,287623.59375,310394.75,318310.21875,293315.15625,297236.46875,301982.625,268571.96875,303976.84375,-0.04443359375,0.968017578125,-0.279296875,-0.3662109076976776,1.5258787870407104,4.150390148162842,80.0,956278.0,1.0
515491.2819468,286951.96875,308485.75,316551.59375,287245.59375,292235.46875,299994.03125,267862.78125,301756.4375,-0.04296875,0.96337890625,-0.283935546875,-0.3662109076976776,1.6784666776657104,4.150390148162842,80.0,956279.0,1.0
515491.2845354,285116.375,308561.71875,317577.8125,288312.03125,295402.8125,301717.4375,268528.96875,302689.9375,-0.040771484375,0.963134765625,-0.28564453125,-0.2136230319738388,1.6784666776657104,4.211425304412842,80.0,956280.0,1.0
515491.2845727,284518.40625,310524.65625,320057.5,295336.75,302664.375,304889.15625,269688.46875,305600.03125,-0.039306640625,0.964111328125,-0.28955078125,0.1220703050494194,1.8310545682907104,4.241942882537842,80.0,956281.0,1.0
515491.2883403,286031.53125,311641.34375,320501.3125,298435.9375,303813.5,305053.03125,269709.75,306393.53125,-0.0380859375,0.96728515625,-0.2890625,0.2136230319738388,2.044677495956421,4.211425304412842,80.0,956282.0,1.0
515491.288379,287671.15625,310422.84375,318345.1875,293375.5,297296.90625,302019.65625,268591.1875,304004.40625,-0.037841796875,0.96728515625,-0.287353515625,0.3356933295726776,2.136230230331421,4.302978038787842,80.0,956283.0,1.0
515491.2883892,287042.375,308564.15625,316595.3125,287343.40625,292315.0625,300041.4375,267881.8125,301806.5,-0.03662109375,0.965087890625,-0.28271484375,0.4577636420726776,2.197265386581421,4.455565929412842,80.0,956284.0,1.0
515491.2907887,285209.0625,308656.59375,317610.625,288405.03125,295462.375,301750.625,268536.65625,302736.875,-0.04052734375,0.9619140625,-0.28369140625,0.4577636420726776,2.258300542831421,4.486083507537842,80.0,956285.0,1.0
515491.2908226,284589.03125,310613.53125,320079.78125,295419.90625,302708.625,304912.3125,269701.0,305641.0,-0.041259765625,0.961669921875,-0.28369140625,0.5187987685203552,2.441406011581421,4.577636241912842,80.0,956286.0,1.0
515491.2937049,286091.53125,311726.125,320526.96875,298519.90625,303867.78125,305086.84375,269733.53125,306435.8125,-0.043701171875,0.957275390625,-0.285400390625,0.4577636420726776,2.410888433456421,4.455565929412842,80.0,956287.0,1.0
515491.2958747,287726.34375,310497.21875,318369.21875,293454.0,297354.46875,302051.75,268599.84375,304029.6875,-0.044677734375,0.9482421875,-0.287841796875,0.6713866591453552,2.441406011581421,4.486083507537842,80.0,956288.0,1.0
515491.2983577,287058.375,308587.65625,316592.1875,287365.3125,292334.375,300042.3125,267860.28125,301777.34375,-0.04443359375,0.939697265625,-0.284423828125,0.9460448622703552,2.441406011581421,4.425048351287842,80.0,956289.0,1.0
515491.2984072,285186.46875,308627.4375,317582.0,288374.53125,295442.875,301722.375,268494.0,302666.875,-0.04443359375,0.9384765625,-0.283935546875,1.5563963651657104,2.380370855331421,4.302978038787842,80.0,956290.0,1.0
515491.3007089,284577.3125,310585.0,320061.15625,295401.46875,302696.0,304892.21875,269673.53125,305587.15625,-0.0458984375,0.943359375,-0.2880859375,2.075195074081421,2.319335699081421,4.058837413787842,80.0,956291.0,1.0
515491.3031679,286100.09375,311717.875,320528.59375,298533.125,303878.5,305087.28125,269730.9375,306406.3125,-0.046630859375,0.94873046875,-0.28662109375,2.410888433456421,2.380370855331421,3.997802495956421,80.0,956292.0,1.0
515491.3144319,287759.78125,310515.625,318390.15625,293492.375,297392.75,302072.3125,268623.09375,304029.4375,-0.04736328125,0.948486328125,-0.28515625,2.716064214706421,2.258300542831421,3.906249761581421,80.0,956293.0,1.0
515491.3170527,287130.15625,308647.03125,316631.96875,287434.15625,292397.125,300085.3125,267907.21875,301822.0625,-0.049072265625,0.949951171875,-0.28369140625,2.746581792831421,2.227782964706421,3.784179449081421,80.0,956294.0,1.0
515491.3170658,285254.6875,308686.8125,317612.59375,288430.0625,295482.5625,301752.0625,268532.4375,302717.125,-0.049072265625,0.951904296875,-0.28076171875,2.838134527206421,2.197265386581421,3.723144292831421,80.0,956295.0,1.0
515491.3185035,284613.4375,310617.1875,320076.09375,295425.0,302703.4375,304898.8125,269699.65625,305617.28125,-0.04931640625,0.950439453125,-0.28564453125,2.929687261581421,2.197265386581421,3.540038824081421,80.0,956296.0,1.0
515491.3258051,286120.9375,311738.71875,320541.5625,298552.90625,303890.40625,305093.09375,269745.59375,306425.1875,-0.046142578125,0.947998046875,-0.288818359375,2.990722417831421,2.227782964706421,3.417968511581421,80.0,956297.0,1.0
515491.3281074,287797.6875,310555.40625,318413.5,293541.09375,297434.0625,302095.28125,268628.46875,304053.75,-0.045166015625,0.947265625,-0.284423828125,3.234863042831421,2.166747808456421,3.295898199081421,80.0,956298.0,1.0
515491.331816,287199.71875,308721.6875,316674.53125,287518.0,292463.75,300129.21875,267920.625,301865.34375,-0.043212890625,0.945556640625,-0.289794921875,3.417968511581421,2.166747808456421,3.204345464706421,80.0,956299.0,1.0
515491.3443401,285327.90625,308763.71875,317647.375,288514.8125,295534.15625,301788.875,268540.3125,302760.75,-0.043212890625,0.946533203125,-0.290283203125,3.601073980331421,2.227782964706421,3.265380620956421,80.0,956300.0,1.0
515491.349466,284665.40625,310670.3125,320091.125,295484.71875,302724.8125,304913.9375,269685.25,305640.28125,-0.041259765625,0.949462890625,-0.2900390625,3.753661870956421,2.319335699081421,3.112792730331421,80.0,956301.0,1.0
515491.3494751,286178.25,311797.71875,320566.78125,298635.6875,303932.59375,305123.78125,269744.71875,306462.1875,-0.039794921875,0.94873046875,-0.288818359375,3.692626714706421,2.349853277206421,3.234863042831421,80.0,956302.0,1.0
515491.3494769,287883.15625,310640.90625,318456.3125,293671.625,297517.03125,302144.71875,268642.0625,304112.65625,-0.03857421875,0.94970703125,-0.289306640625,3.753661870956421,2.441406011581421,3.234863042831421,80.0,956303.0,1.0
515491.3519427,287309.25,308824.59375,316719.21875,287680.46875,292562.25,300182.25,267932.0625,301924.0625,-0.03759765625,0.947265625,-0.295654296875,3.601073980331421,2.471923589706421,3.234863042831421,80.0,956304.0,1.0
515491.3543853,285440.8125,308867.5,317681.6875,288674.9375,295621.78125,301829.84375,268545.84375,302804.71875,-0.039794921875,0.94580078125,-0.293212890625,3.509521245956421,2.624511480331421,3.265380620956421,80.0,956305.0,1.0
515491.358196,284772.40625,310763.03125,320116.34375,295639.03125,302796.875,304942.1875,269679.09375,305670.59375,-0.039794921875,0.94384765625,-0.296630859375,3.662109136581421,2.746581792831421,3.173827886581421,80.0,956306.0,1.0
515491.3956203,286335.59375,311933.53125,320619.96875,298853.46875,304052.125,305176.96875,269746.5,306509.84375,-0.039306640625,0.943115234375,-0.299072265625,3.753661870956421,2.838134527206421,3.204345464706421,80.0,956307.0,1.0
515491.395637,288116.59375,310853.0625,318550.90625,293995.28125,297722.65625,302245.21875,268663.78125,304191.0,-0.03857421875,0.943603515625,-0.29833984375,3.662109136581421,2.899169683456421,3.234863042831421,80.0,956308.0,1.0
515491.3983046,287589.1875,309084.59375,316824.625,288065.4375,292804.1875,300289.25,267958.0,302016.15625,-0.03857421875,0.946533203125,-0.29638671875,3.753661870956421,2.929687261581421,3.295898199081421,80.0,956309.0,1.0
515491.4006643,285737.03125,309149.59375,317785.84375,289066.625,295845.46875,301927.90625,268579.75,302905.21875,-0.041015625,0.946533203125,-0.29833984375,3.814697027206421,2.990722417831421,3.295898199081421,80.0,956310.0,1.0
515491.4006828,285065.3125,311060.21875,320219.875,296018.90625,303007.25,305037.3125,269729.15625,305783.84375,-0.0380859375,0.95068359375,-0.299560546875,3.784179449081421,2.990722417831421,3.265380620956421,80.0,956311.0,1.0
515491.4032664,286654.78125,312268.46875,320738.34375,299272.25,304300.34375,305285.59375,269801.125,306638.40625,-0.035400390625,0.952880859375,-0.302001953125,3.814697027206421,3.082275152206421,3.265380620956421,80.0,956312.0,1.0
515491.4057751,288523.125,311272.5625,318712.75,294527.96875,298050.96875,302401.875,268732.71875,304356.75,-0.033935546875,0.95654296875,-0.30224609375,3.784179449081421,3.326415777206421,3.356933355331421,80.0,956313.0,1.0
515491.4105775,288047.3125,309564.78125,317001.3125,288669.75,293164.40625,300474.59375,268038.03125,302207.9375,-0.033447265625,0.960205078125,-0.302978515625,3.692626714706421,3.479003667831421,3.356933355331421,80.0,956314.0,1.0
515491.4130848,286152.5,309608.59375,317920.59375,289636.5,296155.0,302078.125,268652.15625,303079.21875,-0.03125,0.9609375,-0.304443359375,3.662109136581421,3.570556402206421,3.326415777206421,80.0,956315.0,1.0
515491.4157924,285427.78125,311482.5625,320321.15625,296536.3125,303260.53125,305152.65625,269792.375,305935.84375,-0.033203125,0.96435546875,-0.305419921875,3.479003667831421,3.631591558456421,3.326415777206421,80.0,956316.0,1.0
515491.4181693,287010.09375,312696.28125,320843.9375,299802.53125,304556.65625,305408.96875,269861.5625,306796.5625,-0.0322265625,0.967529296875,-0.30419921875,3.326415777206421,3.753661870956421,3.417968511581421,80.0,956317.0,1.0
515491.4208322,288906.59375,311736.9375,318838.625,295117.53125,298354.6875,302552.4375,268798.4375,304528.59375,-0.0322265625,0.968505859375,-0.302734375,3.021239995956421,3.997802495956421,3.540038824081421,80.0,956318.0,1.0
515491.4228831,288417.625,310026.75,317116.46875,289264.125,293457.9375,300612.125,268095.5,302371.71875,-0.031982421875,0.967529296875,-0.30126953125,2.746581792831421,4.150390148162842,3.601073980331421,80.0,956319.0,1.0
515491.4229101,286432.625,310004.5,317982.46875,290126.625,296342.40625,302153.21875,268686.40625,303200.09375,-0.032470703125,0.96435546875,-0.301513671875,2.471923589706421,4.364013195037842,3.814697027206421,80.0,956320.0,1.0
515491.4319467,285573.15625,311772.96875,320317.84375,296877.9375,303323.65625,305158.625,269803.71875,306002.0,-0.032958984375,0.962158203125,-0.2998046875,2.288818120956421,4.394530773162842,3.814697027206421,80.0,956321.0,1.0
515491.4344081,287103.96875,312946.4375,320836.25,300091.21875,304602.0625,305407.8125,269871.65625,306847.625,-0.03466796875,0.95849609375,-0.298828125,1.9836424589157104,4.364013195037842,3.753661870956421,80.0,956322.0,1.0
515491.4371429,289044.375,312017.3125,318870.09375,295455.9375,298458.46875,302587.1875,268822.375,304605.9375,-0.033447265625,0.95556640625,-0.298583984375,1.7700194120407104,4.364013195037842,3.784179449081421,80.0,956323.0,1.0
515491.4371819,288568.28125,310312.9375,317151.25,289601.5625,293562.09375,300646.1875,268119.75,302451.5625,-0.03271484375,0.951904296875,-0.29345703125,1.6174315214157104,4.455565929412842,3.845214605331421,80.0,956324.0,1.0
515491.4393881,286453.53125,310185.0,317945.90625,290308.40625,296318.53125,302110.125,268675.3125,303224.0625,-0.032470703125,0.9501953125,-0.293212890625,1.4343260526657104,4.455565929412842,3.845214605331421,80.0,956325.0,1.0
515491.4420821,285432.0625,311819.0,320217.90625,296860.78125,303160.375,305045.34375,269766.96875,305967.59375,-0.03125,0.94580078125,-0.29443359375,1.3122557401657104,4.547118663787842,3.967284917831421,80.0,956326.0,1.0
515491.4444737,286928.1875,312948.03125,320745.21875,300018.8125,304433.71875,305306.34375,269845.65625,306806.9375,-0.03125,0.942138671875,-0.297119140625,1.1901854276657104,4.608153820037842,3.875732183456421,80.0,956327.0,1.0
515491.4445063,288967.21875,312076.84375,318843.90625,295478.53125,298396.15625,302549.90625,268813.09375,304600.28125,-0.03173828125,0.939453125,-0.29443359375,1.1291502714157104,4.547118663787842,3.814697027206421,80.0,956328.0,1.0
515491.4681962,288542.78125,310402.34375,317145.59375,289668.78125,293534.21875,300628.65625,268112.40625,302453.1875,-0.02880859375,0.938232421875,-0.2958984375,1.2207030057907104,4.730224132537842,3.936767339706421,80.0,956329.0,1.0
515491.4720323,286368.875,310210.75,317900.90625,290289.8125,296222.5,302053.96875,268653.125,303185.5,-0.030517578125,0.93701171875,-0.295654296875,1.1596678495407104,4.791259288787842,3.936767339706421,80.0,956330.0,1.0
515491.4720625,285256.8125,311753.125,320124.46875,296725.15625,302968.6875,304942.28125,269725.03125,305880.875,-0.032470703125,0.933349609375,-0.297607421875,1.2207030057907104,4.699706554412842,3.906249761581421,80.0,956331.0,1.0
515491.4720725,286783.09375,312896.1875,320685.6875,299907.9375,304274.59375,305237.125,269814.4375,306741.40625,-0.030029296875,0.936279296875,-0.294921875,1.3122557401657104,4.913329601287842,3.875732183456421,80.0,956332.0,1.0
515491.474338,288976.5,312147.84375,318865.875,295526.5625,298392.0625,302569.78125,268810.84375,304602.53125,-0.030517578125,0.936279296875,-0.29443359375,1.2817381620407104,4.913329601287842,3.906249761581421,80.0,956333.0,1.0
515491.476906,288647.84375,310547.46875,317199.15625,289813.1875,293612.875,300689.53125,268111.34375,302495.5625,-0.03173828125,0.931396484375,-0.296630859375,1.2512205839157104,4.852294445037842,3.814697027206421,80.0,956334.0,1.0
515491.479543,286460.34375,310355.59375,317942.03125,290419.1875,296256.90625,302106.46875,268643.9375,303238.875,-0.03125,0.931884765625,-0.29638671875,1.6479490995407104,4.669188976287842,3.784179449081421,80.0,956335.0,1.0
515491.4819974,285333.875,311893.75,320159.78125,296838.875,302967.28125,304987.875,269708.5,305937.625,-0.030029296875,0.936767578125,-0.29443359375,1.8310545682907104,4.699706554412842,3.662109136581421,80.0,956336.0,1.0
515491.4845438,286908.09375,313075.0,320743.0625,300085.25,304338.0625,305304.1875,269794.40625,306812.21875,-0.0283203125,0.9375,-0.29345703125,1.7089842557907104,4.760741710662842,3.784179449081421,80.0,956337.0,1.0
515491.4882793,289125.71875,312345.875,318935.1875,295748.8125,298503.4375,302646.65625,268788.78125,304688.53125,-0.0302734375,0.94189453125,-0.292236328125,1.8005369901657104,4.730224132537842,3.814697027206421,80.0,956338.0,1.0
515491.4920311,288819.15625,310766.0625,317268.625,290055.125,293762.09375,300760.96875,268086.46875,302580.40625,-0.028564453125,0.94140625,-0.29638671875,1.5563963651657104,4.577636241912842,3.784179449081421,80.0,956339.0,1.0
515491.492044,286666.6875,310601.375,318012.84375,290691.59375,296435.28125,302172.71875,268625.59375,303314.15625,-0.0302734375,0.9375,-0.295166015625,1.5258787870407104,4.486083507537842,3.906249761581421,80.0,956340.0,1.0
515491.5182727,285554.625,312162.15625,320233.28125,297144.90625,303150.71875,305054.9375,269710.28125,306012.84375,-0.03076171875,0.933837890625,-0.28759765625,1.4648436307907104,4.669188976287842,3.967284917831421,80.0,956341.0,1.0
515491.5208134,287120.96875,313350.8125,320816.40625,300411.3125,304519.90625,305374.09375,269817.21875,306890.1875,-0.031494140625,0.931884765625,-0.289794921875,1.2817381620407104,4.608153820037842,3.967284917831421,80.0,956342.0,1.0
515491.5208297,289355.3125,312642.34375,319014.75,296106.71875,298713.71875,302727.03125,268840.625,304773.28125,-0.0322265625,0.92822265625,-0.29296875,1.2817381620407104,4.638671398162842,3.967284917831421,80.0,956343.0,1.0
515491.5232886,289075.46875,311090.625,317365.0,290455.9375,293984.65625,300860.5,268178.5625,302689.9375,-0.030517578125,0.9296875,-0.297119140625,1.3122557401657104,4.516601085662842,3.875732183456421,80.0,956344.0,1.0
515491.5256568,286973.78125,310986.53125,318133.5625,291151.15625,296679.53125,302304.0625,268742.53125,303461.4375,-0.028564453125,0.935302734375,-0.294677734375,1.4343260526657104,4.455565929412842,3.875732183456421,80.0,956345.0,1.0
515491.5282424,285918.6875,312608.75,320378.21875,297675.90625,303442.75,305211.3125,269823.65625,306191.46875,-0.027099609375,0.9375,-0.291015625,1.4343260526657104,4.455565929412842,4.028319835662842,80.0,956346.0,1.0
515491.5307925,287496.1875,313816.8125,320957.46875,300973.9375,304824.96875,305524.75,269908.875,307073.71875,-0.0263671875,0.9404296875,-0.2890625,1.2512205839157104,4.333495616912842,4.058837413787842,80.0,956347.0,1.0
515491.5322563,289667.96875,313063.1875,319114.625,296620.4375,298965.78125,302836.65625,268890.25,304914.375,-0.025146484375,0.939697265625,-0.287841796875,0.9460448622703552,4.302978038787842,4.119872570037842,80.0,956348.0,1.0
515491.5394046,289314.8125,311429.65625,317417.6875,290889.0,294161.40625,300907.4375,268162.21875,302756.28125,-0.023193359375,0.938232421875,-0.29248046875,0.7324218153953552,4.364013195037842,4.150390148162842,80.0,956349.0,1.0
515491.5420579,287197.125,311286.0625,318175.21875,291559.375,296833.78125,302325.34375,268691.9375,303487.96875,-0.020751953125,0.9365234375,-0.29248046875,0.6713866591453552,4.364013195037842,4.211425304412842,80.0,956350.0,1.0
515491.5420878,286163.84375,312920.25,320434.4375,298106.125,303620.03125,305245.375,269778.0625,306217.84375,-0.019775390625,0.9345703125,-0.29296875,0.4882812201976776,4.455565929412842,4.211425304412842,80.0,956351.0,1.0
515491.5444004,287712.46875,314114.90625,321003.96875,301381.375,304982.9375,305547.375,269866.75,307095.71875,-0.01806640625,0.932861328125,-0.293701171875,0.4882812201976776,4.516601085662842,4.180907726287842,80.0,956352.0,1.0
515491.5766348,289862.0,313358.15625,319156.46875,297006.78125,299097.75,302855.6875,268872.53125,304956.125,-0.017333984375,0.934326171875,-0.294921875,0.4882812201976776,4.577636241912842,4.150390148162842,80.0,956353.0,1.0
515491.5766817,289545.21875,311774.3125,317482.6875,291305.03125,294318.5,300962.0625,268188.125,302842.5625,-0.0185546875,0.938232421875,-0.29541015625,0.6713866591453552,4.547118663787842,4.180907726287842,80.0,956354.0,1.0
515491.6084658,287455.6875,311658.6875,318257.90625,291989.6875,297008.28125,302399.8125,268742.71875,303598.5625,-0.019775390625,0.940673828125,-0.294921875,0.7934569716453552,4.699706554412842,4.089354991912842,80.0,956355.0,1.0
515491.6085034,286425.71875,313294.65625,320522.0625,298531.53125,303796.15625,305327.4375,269840.71875,306341.9375,-0.018310546875,0.945068359375,-0.294921875,0.9765624403953552,4.791259288787842,4.028319835662842,80.0,956356.0,1.0
515491.613258,287948.40625,314474.21875,321082.46875,301782.4375,305142.71875,305627.75,269937.5625,307224.21875,-0.017333984375,0.950439453125,-0.29736328125,0.9765624403953552,4.791259288787842,4.058837413787842,80.0,956357.0,1.0
515491.6132963,290027.5625,313658.375,319193.46875,297337.40625,299201.09375,302898.15625,268917.96875,305052.0625,-0.017822265625,0.9560546875,-0.2958984375,1.0070799589157104,4.943847179412842,3.875732183456421,80.0,956358.0,1.0
515491.6133053,289669.15625,312027.6875,317498.40625,291575.65625,294375.71875,300979.75,268218.34375,302912.46875,-0.017333984375,0.9580078125,-0.296142578125,0.7324218153953552,4.913329601287842,3.814697027206421,80.0,956359.0,1.0
515491.6133135,287584.625,311907.96875,318281.78125,292247.03125,297071.3125,302424.40625,268772.3125,303665.53125,-0.017578125,0.959716796875,-0.299560546875,0.6713866591453552,4.821776866912842,3.723144292831421,80.0,956360.0,1.0
515491.6133226,286539.375,313531.5,320540.40625,298766.65625,303856.59375,305344.0625,269861.46875,306397.5625,-0.0166015625,0.960693359375,-0.30029296875,0.5798339247703552,4.913329601287842,3.662109136581421,80.0,956361.0,1.0
515491.6172168,288005.90625,314665.09375,321073.78125,301969.125,305169.71875,305620.5,269950.0,307259.78125,-0.013671875,0.962158203125,-0.296142578125,0.3967284858226776,5.004882335662842,3.662109136581421,80.0,956362.0,1.0
515491.617254,290058.875,313819.59375,319177.21875,297492.6875,299210.75,302888.40625,268932.0,305079.78125,-0.012451171875,0.96337890625,-0.296630859375,0.2746581733226776,5.187987804412842,3.570556402206421,80.0,956363.0,1.0
515491.6172643,289767.59375,312230.71875,317521.84375,291794.875,294448.65625,301011.6875,268248.5625,302966.75,-0.01171875,0.96533203125,-0.2978515625,-0.03051757626235485,5.279540538787842,3.509521245956421,80.0,956364.0,1.0
515491.6195812,287795.875,312196.9375,318361.8125,292581.125,297237.4375,302513.96875,268826.84375,303762.71875,-0.0126953125,0.965576171875,-0.294921875,-0.3051757514476776,5.371093273162842,3.326415777206421,80.0,956365.0,1.0
515491.6219744,286817.40625,313882.25,320645.4375,299178.5625,304075.125,305464.0625,269919.21875,306512.625,-0.012939453125,0.96630859375,-0.296875,-0.5493163466453552,5.462646007537842,3.051757574081421,80.0,956366.0,1.0
515491.6244482,288289.9375,315033.90625,321169.0,302409.28125,305396.8125,305738.0,269993.53125,307370.65625,-0.0146484375,0.9697265625,-0.291259765625,-0.7629393935203552,5.554198741912842,2.899169683456421,80.0,956367.0,1.0
515491.6269522,290290.25,314154.3125,319234.5,297890.28125,299378.21875,302961.5625,268947.1875,305162.84375,-0.01318359375,0.968994140625,-0.28955078125,-1.1596678495407104,5.554198741912842,2.777099370956421,80.0,956368.0,1.0
515491.6295783,289936.84375,312521.5625,317545.96875,292119.25,294536.0,301038.84375,268245.96875,303025.84375,-0.016357421875,0.96728515625,-0.287841796875,-1.5563963651657104,5.554198741912842,2.655029058456421,80.0,956369.0,1.0
515491.6310603,287931.4375,312467.21875,318378.4375,292863.84375,297292.625,302528.5625,268824.53125,303814.125,-0.014404296875,0.96533203125,-0.285888671875,-2.044677495956421,5.645751476287842,2.380370855331421,80.0,956370.0,1.0
515491.638216,286907.90625,314123.75,320652.875,299416.03125,304111.6875,305470.5,269930.0625,306561.15625,-0.013671875,0.961669921875,-0.2890625,-2.319335699081421,5.615233898162842,2.288818120956421,80.0,956371.0,1.0
515491.6408072,288260.28125,315186.6875,321131.8125,302522.28125,305346.84375,305693.125,269997.71875,307387.375,-0.014404296875,0.96044921875,-0.291259765625,-2.441406011581421,5.584716320037842,2.166747808456421,80.0,956372.0,1.0
515491.643321,290135.59375,314184.53125,319141.625,297854.8125,299221.9375,302861.59375,268939.15625,305130.03125,-0.015625,0.96044921875,-0.292236328125,-2.563476324081421,5.676269054412842,2.014159917831421,80.0,956373.0,1.0
515491.6458652,289723.78125,312470.59375,317431.875,291993.375,294334.59375,300923.25,268232.21875,302957.875,-0.017578125,0.959716796875,-0.29345703125,-2.593993902206421,5.615233898162842,1.7395018339157104,80.0,956374.0,1.0
515491.6483259,287718.09375,312391.21875,318259.53125,292699.3125,297091.90625,302416.78125,268800.125,303727.40625,-0.018310546875,0.958984375,-0.28857421875,-2.624511480331421,5.493163585662842,1.5563963651657104,80.0,956375.0,1.0
515491.6507287,286683.75,314022.4375,320524.3125,299222.5625,303913.90625,305355.78125,269882.125,306455.5,-0.020751953125,0.95947265625,-0.289306640625,-2.746581792831421,5.371093273162842,1.4038084745407104,80.0,956376.0,1.0
515491.653189,288041.40625,315075.65625,321015.21875,302331.21875,305169.09375,305594.21875,269953.90625,307289.03125,-0.02197265625,0.957763671875,-0.286865234375,-2.960204839706421,5.401610851287842,1.2207030057907104,80.0,956377.0,1.0
515491.6559139,289958.375,314098.4375,319061.6875,297698.78125,299083.78125,302790.34375,268913.03125,305058.84375,-0.02099609375,0.95654296875,-0.286376953125,-3.082275152206421,5.340575695037842,1.0070799589157104,80.0,956378.0,1.0
515491.655955,289616.40625,312429.65625,317388.53125,291888.21875,294243.65625,300882.46875,268220.59375,302909.25,-0.022216796875,0.955078125,-0.287109375,-3.204345464706421,5.035399913787842,0.7934569716453552,80.0,956379.0,1.0
515491.6582609,287664.5625,312380.40625,318245.75,292642.90625,297051.65625,302408.75,268801.8125,303691.46875,-0.025390625,0.952880859375,-0.287353515625,-3.204345464706421,4.760741710662842,0.6103515028953552,80.0,956380.0,1.0
515491.6609533,286693.9375,314068.03125,320550.6875,299238.46875,303943.78125,305391.90625,269910.46875,306451.28125,-0.025146484375,0.951171875,-0.287109375,-3.234863042831421,4.638671398162842,0.3356933295726776,80.0,956381.0,1.0
515491.6609936,288071.0,315148.71875,321048.65625,302381.84375,305220.875,305636.0625,269980.03125,307296.8125,-0.02685546875,0.9501953125,-0.287353515625,-3.265380620956421,4.425048351287842,0.1525878757238388,80.0,956382.0,1.0
515491.6681901,289973.9375,314157.90625,319078.9375,297736.5,299109.375,302811.6875,268936.03125,305062.25,-0.02685546875,0.947021484375,-0.28369140625,-3.234863042831421,4.272460460662842,0.1220703050494194,80.0,956383.0,1.0
515491.6721004,289620.25,312468.625,317391.125,291907.71875,294246.78125,300884.53125,268228.625,302904.96875,-0.026123046875,0.9462890625,-0.28076171875,-3.143310308456421,3.936767339706421,0.0,80.0,956384.0,1.0
515491.6721423,287668.5625,312418.9375,318243.96875,292653.0,297044.0625,302401.15625,268790.8125,303679.21875,-0.027099609375,0.94580078125,-0.2822265625,-3.173827886581421,3.723144292831421,-0.0610351525247097,80.0,956385.0,1.0
515491.6933501,286703.34375,314124.8125,320559.15625,299261.875,303947.8125,305399.5,269908.0625,306452.34375,-0.02685546875,0.9453125,-0.28076171875,-3.143310308456421,3.631591558456421,-0.0610351525247097,80.0,956386.0,1.0
515491.695908,288067.875,315192.34375,321054.125,302407.40625,305226.5,305644.5625,269978.59375,307291.8125,-0.029296875,0.947509765625,-0.28125,-3.112792730331421,3.417968511581421,-0.0610351525247097,80.0,956387.0,1.0
515491.6959436,289959.1875,314182.03125,319078.84375,297750.46875,299101.65625,302804.1875,268911.25,305044.46875,-0.0302734375,0.9453125,-0.27978515625,-3.051757574081421,3.265380620956421,-0.0915527269244194,80.0,956388.0,1.0
515491.6982209,289597.4375,312476.96875,317375.46875,291896.1875,294206.375,300857.09375,268195.1875,302875.71875,-0.029052734375,0.942626953125,-0.279541015625,-2.990722417831421,3.021239995956421,0.0610351525247097,80.0,956389.0,1.0
515491.7007159,287667.0625,312442.8125,318237.0,292649.53125,297013.9375,302389.6875,268771.4375,303660.8125,-0.0302734375,0.9404296875,-0.276611328125,-2.899169683456421,2.716064214706421,0.1220703050494194,80.0,956390.0,1.0
515491.7033213,286728.09375,314173.28125,320564.1875,299291.125,303952.53125,305406.90625,269892.84375,306445.375,-0.029052734375,0.93896484375,-0.278076171875,-2.868652105331421,2.563476324081421,0.2441406100988388,80.0,956391.0,1.0
515491.7057002,288140.65625,315296.75,321089.0,302504.78125,305286.21875,305682.28125,269989.25,307329.25,-0.031005859375,0.940673828125,-0.286376953125,-2.532958745956421,2.136230230331421,0.3356933295726776,80.0,956392.0,1.0
515491.7096,290071.375,314325.90625,319126.40625,297894.59375,299187.15625,302854.96875,268942.0,305105.0,-0.032470703125,0.943359375,-0.288818359375,-2.166747808456421,1.8920897245407104,0.3356933295726776,80.0,956393.0,1.0
515491.7096424,289723.25,312634.59375,317433.0625,292056.5,294306.40625,300916.09375,268225.875,302937.0625,-0.03271484375,0.947509765625,-0.29248046875,-1.8310545682907104,1.6174315214157104,0.4272460639476776,80.0,956394.0,1.0
515491.7430585,287783.09375,312587.65625,318284.375,292803.3125,297109.5,302435.21875,268787.78125,303702.65625,-0.03271484375,0.951171875,-0.288330078125,-1.4648436307907104,1.4343260526657104,0.6103515028953552,80.0,956395.0,1.0
515491.747078,286828.875,314293.34375,320592.78125,299439.90625,304045.4375,305431.59375,269885.15625,306457.375,-0.031005859375,0.95458984375,-0.2890625,-1.2512205839157104,1.1596678495407104,0.7629393935203552,80.0,956396.0,1.0
515491.7470934,288237.65625,315406.09375,321112.25,302662.125,305383.21875,305698.65625,269968.3125,307324.96875,-0.0322265625,0.954345703125,-0.2900390625,-1.1596678495407104,0.8544921278953552,0.9460448622703552,80.0,956397.0,1.0
515491.7470959,290188.6875,314451.40625,319161.03125,298075.53125,299297.125,302882.59375,268932.53125,305115.4375,-0.033447265625,0.9541015625,-0.2880859375,-1.0681151151657104,0.6408690810203552,1.0681151151657104,80.0,956398.0,1.0
515491.7495049,289910.1875,312824.5625,317496.8125,292308.0,294458.78125,300978.15625,268245.34375,302991.15625,-0.034912109375,0.95556640625,-0.291015625,-0.9155272841453552,0.3967284858226776,1.2207030057907104,80.0,956399.0,1.0
515491.7520281,288055.25,312868.03125,318386.40625,293158.625,297330.4375,302544.375,268835.09375,303815.75,-0.033935546875,0.959228515625,-0.289794921875,-0.7934569716453552,0.1831054538488388,1.4038084745407104,80.0,956400.0,1.0
515491.7545731,287186.5,314669.125,320741.375,299907.6875,304338.3125,305588.78125,269962.78125,306633.40625,-0.034423828125,0.96484375,-0.289794921875,-0.7019042372703552,-0.1220703050494194,1.5563963651657104,80.0,956401.0,1.0
515491.7568575,288662.875,315852.96875,321290.53125,303226.0,305732.625,305885.34375,270053.0,307536.25,-0.032958984375,0.9716796875,-0.290283203125,-0.7324218153953552,-0.3356933295726776,1.4648436307907104,80.0,956402.0,1.0
515491.7594827,290675.34375,314959.4375,319355.125,298724.1875,299688.71875,303083.21875,269005.125,305334.9375,-0.029052734375,0.976318359375,-0.2880859375,-0.8544921278953552,-0.5493163466453552,1.4343260526657104,80.0,956403.0,1.0
515491.7620047,290445.09375,313385.15625,317706.5625,293029.0625,294885.15625,301191.46875,268319.375,303219.65625,-0.023193359375,0.97802734375,-0.284423828125,-1.1291502714157104,-0.6408690810203552,1.4648436307907104,80.0,956404.0,1.0
515491.7644356,288615.65625,313465.71875,318600.15625,293929.46875,297768.4375,302758.59375,268913.3125,304056.0625,-0.021484375,0.973388671875,-0.28466796875,-1.4648436307907104,-0.7324218153953552,1.5869139432907104,80.0,956405.0,1.0
515491.7669647,287745.71875,315286.65625,320951.65625,300711.8125,304779.8125,305797.0,270037.875,306880.0,-0.021484375,0.969970703125,-0.286376953125,-1.7700194120407104,-0.7934569716453552,1.5258787870407104,80.0,956406.0,1.0
515491.7769177,289248.9375,316513.6875,321510.46875,304094.25,306214.09375,306109.9375,270131.3125,307795.875,-0.020751953125,0.966552734375,-0.2861328125,-2.136230230331421,-0.7324218153953552,1.6479490995407104,80.0,956407.0,1.0
515491.7769427,291299.03125,315674.96875,319584.625,299657.4375,300201.8125,303323.65625,269097.21875,305613.90625,-0.017822265625,0.962158203125,-0.287841796875,-2.227782964706421,-0.7019042372703552,1.7089842557907104,80.0,956408.0,1.0
515491.7795334,291055.40625,314106.40625,317917.375,293960.9375,295369.28125,301415.875,268404.5,303486.90625,-0.016845703125,0.959228515625,-0.2880859375,-2.166747808456421,-0.6103515028953552,1.6784666776657104,80.0,956409.0,1.0
515491.7819288,289212.71875,314187.84375,318799.46875,294854.9375,298230.5,302972.8125,268992.96875,304310.96875,-0.019287109375,0.9580078125,-0.2890625,-2.136230230331421,-0.5798339247703552,1.5258787870407104,80.0,956410.0,1.0
515491.7844082,288335.625,316012.8125,321140.75,301643.40625,305241.53125,306006.21875,270110.75,307129.0,-0.019775390625,0.957275390625,-0.28662109375,-2.136230230331421,-0.5187987685203552,1.4343260526657104,80.0,956411.0,1.0
515491.787045,289788.6875,317214.53125,321673.28125,304984.84375,306636.90625,306295.96875,270191.3125,308028.78125,-0.020263671875,0.959228515625,-0.28466796875,-2.136230230331421,-0.4882812201976776,1.3122557401657104,80.0,956412.0,1.0
515491.7895419,291758.0625,316315.90625,319706.9375,300455.65625,300547.84375,303470.90625,269137.28125,305813.625,-0.0224609375,0.95751953125,-0.283447265625,-2.136230230331421,-0.5187987685203552,1.1901854276657104,80.0,956413.0,1.0
515491.794568,291419.03125,314661.25,317987.03125,294627.65625,295607.65625,301503.5,268424.15625,303637.46875,-0.020263671875,0.958984375,-0.28173828125,-2.258300542831421,-0.4272460639476776,1.1596678495407104,80.0,956414.0,1.0
515491.794608,289440.875,314630.40625,318803.75,295353.5625,298344.46875,302991.84375,268992.34375,304409.125,-0.017578125,0.9580078125,-0.287353515625,-2.258300542831421,-0.4577636420726776,1.1596678495407104,80.0,956415.0,1.0
515491.7963323,288427.71875,316345.6875,321089.625,301978.6875,305240.0,305971.15625,270091.15625,307182.71875,-0.018798828125,0.958984375,-0.289306640625,-2.197265386581421,-0.4577636420726776,0.9765624403953552,80.0,956416.0,1.0
515491.8219579,289807.375,317479.1875,321609.0625,305227.46875,306588.53125,306243.3125,270169.125,308060.15625,-0.018798828125,0.961669921875,-0.29541015625,-2.014159917831421,-0.3051757514476776,0.8544921278953552,80.0,956417.0,1.0
515491.8243835,291783.34375,316567.59375,319664.03125,300675.5,300517.59375,303433.0,269124.5,305842.15625,-0.016357421875,0.96435546875,-0.29833984375,-1.8615721464157104,-0.1220703050494194,0.8850097060203552,80.0,956418.0,1.0
515491.8269772,291430.1875,314892.71875,317940.78125,294805.5,295570.4375,301463.09375,268407.375,303659.28125,-0.018310546875,0.966552734375,-0.295654296875,-1.6479490995407104,0.03051757626235485,0.7019042372703552,80.0,956419.0,1.0
515491.8294186,289425.25,314823.25,318742.6875,295474.34375,298274.9375,302937.9375,268967.9375,304411.8125,-0.018798828125,0.9697265625,-0.297119140625,-1.4648436307907104,0.1831054538488388,0.6103515028953552,80.0,956420.0,1.0
515491.8320886,288402.25,316517.15625,321039.28125,302091.875,305179.28125,305929.875,270077.40625,307184.59375,-0.018310546875,0.97509765625,-0.302734375,-1.4343260526657104,0.3356933295726776,0.5493163466453552,80.0,956421.0,1.0
515491.8321301,289810.0625,317663.8125,321588.25,305379.90625,306575.1875,306231.6875,270172.25,308080.53125,-0.01708984375,0.9794921875,-0.303466796875,-1.1901854276657104,0.4577636420726776,0.2746581733226776,80.0,956422.0,1.0
515491.8387385,291800.53125,316757.84375,319649.375,300830.625,300516.1875,303427.4375,269123.875,305867.71875,-0.01708984375,0.98193359375,-0.304931640625,-1.1596678495407104,0.7019042372703552,0.1525878757238388,80.0,956423.0,1.0
515491.8387732,291454.96875,315076.5625,317926.59375,294947.46875,295565.1875,301455.65625,268400.03125,303680.65625,-0.01611328125,0.982421875,-0.3037109375,-1.1596678495407104,0.9765624403953552,0.0610351525247097,80.0,956424.0,1.0
515491.8387834,289433.65625,314989.28125,318718.90625,295608.09375,298264.8125,302925.0625,268958.03125,304430.875,-0.016845703125,0.98681640625,-0.30224609375,-1.1596678495407104,1.0375975370407104,0.03051757626235485,80.0,956425.0,1.0
515491.8456306,288414.40625,316674.6875,321017.125,302242.1875,305183.5,305917.6875,270072.125,307210.34375,-0.01806640625,0.985107421875,-0.300537109375,-1.1596678495407104,1.3122557401657104,-0.0610351525247097,80.0,956426.0,1.0
515491.8481811,289828.65625,317822.15625,321574.84375,305542.625,306592.28125,306226.59375,270172.0625,308115.3125,-0.021240234375,0.983154296875,-0.29833984375,-1.2512205839157104,1.3732908964157104,-0.1831054538488388,80.0,956427.0,1.0
515491.8507848,291782.375,316887.03125,319622.71875,300958.28125,300503.75,303409.65625,269122.09375,305893.75,-0.02294921875,0.979736328125,-0.296875,-1.4648436307907104,1.5869139432907104,-0.3662109076976776,80.0,956428.0,1.0
515491.8532872,291419.1875,315182.9375,317892.15625,295051.1875,295534.34375,301431.0,268397.0,303700.3125,-0.0244140625,0.97705078125,-0.297119140625,-1.5258787870407104,1.7395018339157104,-0.4272460639476776,80.0,956429.0,1.0
515491.8558975,289529.65625,315184.03125,318763.4375,295833.125,298346.28125,302969.96875,268976.0,304494.0,-0.027587890625,0.97314453125,-0.29443359375,-1.5869139432907104,1.7395018339157104,-0.5798339247703552,80.0,956430.0,1.0
515491.8559388,288741.09375,317062.09375,321179.46875,302715.0625,305474.6875,306084.71875,270126.21875,307359.84375,-0.031005859375,0.96533203125,-0.29638671875,-1.6174315214157104,1.8920897245407104,-0.6103515028953552,80.0,956431.0,1.0
515491.8683044,290335.40625,318370.75,321804.875,306241.8125,307042.625,306471.03125,270243.875,308331.5,-0.034423828125,0.96435546875,-0.296142578125,-1.6174315214157104,1.9531248807907104,-0.7934569716453552,80.0,956432.0,1.0
515491.8733807,292335.53125,317491.78125,319844.625,301743.375,300971.15625,303645.78125,269187.96875,306117.96875,-0.036865234375,0.960693359375,-0.2958984375,-1.4343260526657104,1.9226073026657104,-1.0070799589157104,80.0,956433.0,1.0
515491.8734151,291898.15625,315749.53125,318052.46875,295770.625,295902.875,301602.75,268442.0625,303887.09375,-0.0390625,0.9599609375,-0.2939453125,-1.3732908964157104,1.8005369901657104,-1.1901854276657104,80.0,956434.0,1.0
515491.873425,289867.0,315652.25,318842.46875,296390.40625,298569.34375,303065.25,269002.0,304627.28125,-0.0419921875,0.959228515625,-0.293701171875,-1.2817381620407104,1.7089842557907104,-1.2817381620407104,80.0,956435.0,1.0
515491.8770553,288908.28125,317397.5625,321180.1875,303070.96875,305545.0625,306105.71875,270134.625,307434.3125,-0.045166015625,0.960205078125,-0.290283203125,-1.1596678495407104,1.5563963651657104,-1.3427733182907104,80.0,956436.0,1.0
515491.8933694,290287.5625,318540.53125,321713.0625,306359.90625,306941.40625,306398.25,270222.9375,308332.40625,-0.048828125,0.959716796875,-0.29150390625,-1.2207030057907104,1.3122557401657104,-1.4343260526657104,80.0,956437.0,1.0
515491.8934108,292043.34375,317456.5625,319650.4375,301585.125,300674.59375,303463.5625,269130.125,306029.8125,-0.050048828125,0.9599609375,-0.291015625,-1.3427733182907104,1.1901854276657104,-1.4953612089157104,80.0,956438.0,1.0
515491.8984478,291445.40625,315552.90625,317805.53125,295387.0,295466.21875,301354.71875,268365.875,303730.71875,-0.051513671875,0.960205078125,-0.28759765625,-1.4343260526657104,1.0375975370407104,-1.5869139432907104,80.0,956439.0,1.0
515491.8984833,289382.3125,315389.75,318602.59375,295917.875,298115.15625,302817.0625,268921.0,304444.0,-0.05419921875,0.95849609375,-0.285888671875,-1.5869139432907104,0.7019042372703552,-1.7700194120407104,80.0,956440.0,1.0
515491.8984932,288458.9375,317132.28125,320973.21875,302606.5,305147.1875,305889.71875,270055.84375,307252.8125,-0.05517578125,0.95654296875,-0.282470703125,-1.6479490995407104,0.4882812201976776,-1.8615721464157104,80.0,956441.0,1.0
515491.9021373,289822.5625,318242.0,321507.0625,305865.9375,306549.53125,306185.21875,270140.96875,308139.375,-0.05419921875,0.958984375,-0.28466796875,-1.8310545682907104,0.1220703050494194,-1.8920897245407104,80.0,956442.0,1.0
515491.9021747,291481.4375,317052.625,319402.875,300961.25,300204.5,303210.625,269037.9375,305797.0,-0.05419921875,0.960693359375,-0.2861328125,-1.8615721464157104,-0.1831054538488388,-1.9836424589157104,80.0,956443.0,1.0
515491.9183924,290806.21875,315054.46875,317535.34375,294649.84375,294949.25,301083.90625,268273.59375,303469.125,-0.05224609375,0.96142578125,-0.283935546875,-2.105712652206421,-0.4272460639476776,-1.9836424589157104,80.0,956444.0,1.0
515491.921133,288743.96875,314864.03125,318350.375,295153.09375,297617.0625,302574.0625,268840.71875,304183.84375,-0.05029296875,0.963623046875,-0.285400390625,-2.166747808456421,-0.7629393935203552,-1.9531248807907104,80.0,956445.0,1.0
515491.9211687,287834.5,316593.6875,320738.25,301841.0,304669.84375,305668.0625,269970.71875,306990.84375,-0.050537109375,0.96484375,-0.283447265625,-2.288818120956421,-1.0070799589157104,-1.7395018339157104,80.0,956446.0,1.0
515491.9211786,289126.09375,317622.40625,321242.15625,305012.90625,306019.625,305934.59375,270037.4375,307843.15625,-0.04931640625,0.965087890625,-0.2841796875,-2.471923589706421,-1.1596678495407104,-1.6174315214157104,80.0,956447.0,1.0
515491.9671613,290676.3125,316320.375,319095.65625,299965.6875,299583.75,302915.5,268924.03125,305463.59375,-0.05029296875,0.9638671875,-0.2841796875,-2.716064214706421,-1.4343260526657104,-1.3122557401657104,80.0,956448.0,1.0
515491.9694433,289946.9375,314241.40625,317213.75,293550.03125,294273.96875,300767.21875,268154.25,303117.90625,-0.053466796875,0.9638671875,-0.284912109375,-2.746581792831421,-1.7089842557907104,-1.0986326932907104,80.0,956449.0,1.0
515491.9719238,287893.0,314013.78125,318046.03125,294024.34375,296954.21875,302267.40625,268721.09375,303830.3125,-0.052978515625,0.9638671875,-0.290771484375,-2.929687261581421,-1.8615721464157104,-0.8544921278953552,80.0,956450.0,1.0
515491.974552,287014.375,315733.78125,320460.0,300723.78125,304047.65625,305387.6875,269867.28125,306649.5,-0.05126953125,0.96142578125,-0.290771484375,-2.960204839706421,-2.105712652206421,-0.6103515028953552,80.0,956451.0,1.0
515491.9769111,288315.875,316745.59375,320971.34375,303887.4375,305409.15625,305656.46875,269945.34375,307510.5,-0.052001953125,0.961181640625,-0.2890625,-3.082275152206421,-2.410888433456421,-0.2746581733226776,80.0,956452.0,1.0
515491.9795397,289844.5625,315409.40625,318815.03125,298795.8125,298957.28125,302620.8125,268828.03125,305125.28125,-0.05322265625,0.95849609375,-0.289794921875,-3.143310308456421,-2.655029058456421,0.0,80.0,956453.0,1.0
515491.9819795,289119.90625,313317.375,316936.40625,292359.40625,293650.34375,300470.75,268053.65625,302777.09375,-0.051513671875,0.95556640625,-0.284912109375,-3.295898199081421,-2.990722417831421,0.3662109076976776,80.0,956454.0,1.0
515491.9844664,287119.4375,313112.5625,317798.1875,292873.9375,296374.9375,301995.3125,268623.28125,303510.5,-0.052978515625,0.9521484375,-0.2822265625,-3.509521245956421,-3.204345464706421,0.7324218153953552,80.0,956455.0,1.0
515491.989439,286294.84375,314860.53125,320238.03125,299635.15625,303529.8125,305143.71875,269776.0,306353.75,-0.054443359375,0.94775390625,-0.27734375,-3.631591558456421,-3.448486089706421,1.0986326932907104,80.0,956456.0,1.0
515491.9919254,287628.78125,315894.8125,320774.28125,302850.3125,304942.0,305444.75,269868.625,307236.1875,-0.052734375,0.9404296875,-0.275390625,-3.662109136581421,-3.784179449081421,1.3122557401657104,80.0,956457.0,1.0
515491.9969862,289181.34375,314573.375,318631.5625,297780.59375,298504.15625,302425.46875,268753.71875,304853.3125,-0.05126953125,0.934814453125,-0.27490234375,-3.631591558456421,-4.089354991912842,1.6479490995407104,80.0,956458.0,1.0
515491.9994684,288497.5625,312499.21875,316763.46875,291371.1875,293214.3125,300287.65625,267975.0,302508.15625,-0.047607421875,0.931884765625,-0.270751953125,-3.662109136581421,-4.425048351287842,1.9531248807907104,80.0,956459.0,1.0
515492.0020764,286551.6875,312325.78125,317647.625,291940.09375,295981.0,301837.15625,268559.53125,303261.6875,-0.04443359375,0.92822265625,-0.267333984375,-3.570556402206421,-4.486083507537842,2.197265386581421,80.0,956460.0,1.0
515492.0045899,285768.3125,314099.15625,320111.96875,298753.53125,303170.9375,305004.6875,269724.40625,306121.625,-0.043701171875,0.926025390625,-0.27001953125,-3.479003667831421,-4.699706554412842,2.441406011581421,80.0,956461.0,1.0
515492.0046294,287117.46875,315138.15625,320647.3125,301994.0625,304593.21875,305304.28125,269809.53125,307002.9375,-0.042724609375,0.92529296875,-0.2705078125,-3.417968511581421,-4.852294445037842,2.777099370956421,80.0,956462.0,1.0
515492.0071002,288689.15625,313828.4375,318503.15625,296935.78125,298162.0,302285.1875,268689.78125,304617.28125,-0.04443359375,0.92431640625,-0.26708984375,-3.265380620956421,-5.035399913787842,2.990722417831421,80.0,956463.0,1.0
515492.0071318,288021.28125,311770.8125,316640.71875,290530.3125,292871.6875,300150.0625,267920.8125,302273.21875,-0.044921875,0.923828125,-0.266845703125,-3.204345464706421,-5.249022960662842,3.173827886581421,80.0,956464.0,1.0
515492.0094236,286052.8125,311582.34375,317508.25,291076.78125,295607.03125,301677.40625,268498.09375,303014.375,-0.044189453125,0.926025390625,-0.26611328125,-3.204345464706421,-5.401610851287842,3.479003667831421,80.0,956465.0,1.0
515492.0118989,285230.4375,313329.09375,319952.53125,297866.96875,302769.0625,304821.5625,269651.375,305865.9375,-0.042236328125,0.93017578125,-0.271240234375,-3.082275152206421,-5.767821788787842,3.723144292831421,80.0,956466.0,1.0
515492.0145206,286583.8125,314374.53125,320500.15625,301115.21875,304206.0,305131.625,269740.5,306758.75,-0.042236328125,0.93408203125,-0.27197265625,-2.807616949081421,-5.889892101287842,4.028319835662842,80.0,956467.0,1.0
515492.0170323,288209.9375,313102.4375,318383.90625,296084.8125,297818.15625,302142.65625,268633.90625,304395.71875,-0.0390625,0.9384765625,-0.2705078125,-2.777099370956421,-6.195067882537842,4.180907726287842,80.0,956468.0,1.0
515492.0220072,287572.5625,311067.71875,316525.03125,289689.4375,292543.59375,300014.34375,267864.3125,302062.90625,-0.032470703125,0.93798828125,-0.267333984375,-2.899169683456421,-6.408690929412842,4.486083507537842,80.0,956469.0,1.0
515492.0220202,285560.0,310843.84375,317362.0625,290192.625,295234.1875,301506.625,268428.71875,302790.6875,-0.028564453125,0.941162109375,-0.2685546875,-2.899169683456421,-6.347655773162842,4.669188976287842,80.0,956470.0,1.0
515492.0244259,284658.5,312518.4375,319773.46875,296920.84375,302337.40625,304616.375,269575.8125,305624.625,-0.027587890625,0.939697265625,-0.269775390625,-2.990722417831421,-6.469726085662842,4.882812023162842,80.0,956471.0,1.0
515492.0244397,285999.0,313541.25,320328.3125,300163.90625,303785.96875,304939.78125,269669.4375,306514.75,-0.02734375,0.9404296875,-0.266845703125,-2.990722417831421,-6.500243663787842,5.157470226287842,80.0,956472.0,1.0
515492.0432566,287714.875,312335.96875,318263.03125,295205.84375,297483.6875,302002.65625,268570.625,304175.78125,-0.032470703125,0.93994140625,-0.268310546875,-3.051757574081421,-6.500243663787842,5.401610851287842,80.0,956473.0,1.0
515492.0471333,287119.4375,310322.4375,316412.46875,288824.78125,292223.9375,299877.8125,267797.34375,301840.5625,-0.029296875,0.9423828125,-0.27197265625,-3.082275152206421,-6.591796398162842,5.462646007537842,80.0,956474.0,1.0
515492.0471512,284982.875,309985.4375,317171.1875,289205.125,294795.90625,301292.5,268333.96875,302512.8125,-0.025390625,0.942138671875,-0.275146484375,-3.021239995956421,-6.713866710662842,5.432128429412842,80.0,956475.0,1.0
515492.0471542,283848.75,311456.5625,319466.625,295711.90625,301703.0625,304280.03125,269433.125,305258.9375,-0.021728515625,0.9462890625,-0.2744140625,-2.838134527206421,-6.713866710662842,5.523681163787842,80.0,956476.0,1.0
515492.0471575,285060.75,312371.53125,319979.0,298803.59375,303052.65625,304555.125,269519.21875,306117.96875,-0.01953125,0.948974609375,-0.276123046875,-2.777099370956421,-6.835937023162842,5.645751476287842,80.0,956477.0,1.0
515492.0484252,286847.625,311215.15625,317974.5,293871.1875,296822.96875,301685.96875,268458.21875,303815.125,-0.0185546875,0.9521484375,-0.273681640625,-2.746581792831421,-6.774901866912842,5.615233898162842,80.0,956478.0,1.0
515492.0557401,286452.1875,309366.03125,316235.09375,287689.0625,291757.78125,299685.40625,267737.625,301565.375,-0.017578125,0.95458984375,-0.2734375,-2.807616949081421,-6.652831554412842,5.554198741912842,80.0,956479.0,1.0
515492.060808,284356.40625,309070.625,317008.625,288131.53125,294363.46875,301113.15625,268291.3125,302267.21875,-0.015625,0.95654296875,-0.271728515625,-2.746581792831421,-6.561278820037842,5.493163585662842,80.0,956480.0,1.0
515492.0632176,283232.5625,310548.34375,319314.4375,294671.90625,301285.96875,304110.4375,269410.59375,305036.40625,-0.015869140625,0.956787109375,-0.268310546875,-2.929687261581421,-6.469726085662842,5.432128429412842,80.0,956481.0,1.0
515492.0658234,284696.34375,311652.625,319968.375,298048.28125,302879.125,304534.5625,269544.15625,305993.53125,-0.0146484375,0.9541015625,-0.2685546875,-2.929687261581421,-6.469726085662842,5.432128429412842,80.0,956482.0,1.0
515492.0707131,286892.78125,310833.84375,318147.6875,293560.9375,296996.3125,301852.28125,268521.09375,303824.5,-0.016845703125,0.952880859375,-0.267333984375,-2.990722417831421,-6.378173351287842,5.310058116912842,80.0,956483.0,1.0
515492.0731867,286641.5625,309118.90625,316423.5625,287550.8125,291998.65625,299860.8125,267775.875,301594.875,-0.018310546875,0.948974609375,-0.26904296875,-3.021239995956421,-6.195067882537842,5.187987804412842,80.0,956484.0,1.0
515492.0732245,284525.90625,308828.0625,317146.6875,288012.15625,294550.21875,301235.90625,268298.28125,302272.84375,-0.01708984375,0.945556640625,-0.270751953125,-2.960204839706421,-6.164550304412842,5.004882335662842,80.0,956485.0,1.0
515492.07568,283362.8125,310302.84375,319415.21875,294557.90625,301430.90625,304191.34375,269404.6875,305031.5,-0.015869140625,0.943359375,-0.27001953125,-2.868652105331421,-6.011962413787842,4.638671398162842,80.0,956486.0,1.0
515492.0933167,284818.5625,311423.375,320057.875,297951.375,303015.71875,304596.96875,269533.8125,305982.625,-0.016845703125,0.9423828125,-0.26953125,-2.655029058456421,-6.011962413787842,4.394530773162842,80.0,956487.0,1.0
515492.0982315,287031.28125,310648.03125,318240.125,293491.03125,297135.53125,301924.15625,268523.6875,303822.28125,-0.014892578125,0.942626953125,-0.27001953125,-2.441406011581421,-5.859374523162842,4.119872570037842,80.0,956488.0,1.0
515492.098271,286774.78125,308968.96875,316504.65625,287484.5,292125.15625,299938.25,267793.59375,301603.09375,-0.014404296875,0.945556640625,-0.267578125,-2.288818120956421,-5.828856945037842,3.753661870956421,80.0,956489.0,1.0
515492.1006986,284603.78125,308664.8125,317196.21875,287899.96875,294618.90625,301282.125,268319.90625,302279.375,-0.014404296875,0.9453125,-0.269287109375,-2.105712652206421,-5.737304210662842,3.540038824081421,80.0,956490.0,1.0
515492.1033118,283349.3125,310080.3125,319422.1875,294369.28125,301416.15625,304191.875,269409.25,305018.90625,-0.013916015625,0.947509765625,-0.269287109375,-1.9836424589157104,-5.676269054412842,3.387450933456421,80.0,956491.0,1.0
515492.105743,284762.03125,311184.40625,320048.75,297727.21875,302967.0,304586.875,269531.21875,305965.53125,-0.014892578125,0.94970703125,-0.267333984375,-1.8920897245407104,-5.462646007537842,3.051757574081421,80.0,956492.0,1.0
515492.1082826,286965.9375,310410.59375,318227.0625,293239.625,297086.625,301916.03125,268517.6875,303792.59375,-0.01220703125,0.9541015625,-0.2705078125,-1.6784666776657104,-5.157470226287842,2.777099370956421,80.0,956493.0,1.0
515492.1107947,286691.09375,308708.4375,316478.90625,287182.90625,292051.40625,299918.59375,267784.28125,301550.875,-0.009521484375,0.95947265625,-0.27099609375,-1.4343260526657104,-4.974364757537842,2.563476324081421,80.0,956494.0,1.0
515492.1182484,284453.40625,308340.1875,317133.4375,287532.3125,294485.59375,301225.8125,268291.21875,302190.40625,-0.00830078125,0.965576171875,-0.26953125,-1.4038084745407104,-4.699706554412842,2.197265386581421,80.0,956495.0,1.0
515492.1182892,283148.15625,309714.09375,319340.625,293967.21875,301246.375,304115.25,269379.75,304918.59375,-0.009033203125,0.969482421875,-0.267333984375,-1.5869139432907104,-4.516601085662842,2.075195074081421,80.0,956496.0,1.0
515492.1433947,284565.25,310820.15625,319980.71875,297337.9375,302813.5,304520.4375,269504.28125,305874.4375,-0.009033203125,0.97119140625,-0.265625,-1.7395018339157104,-4.211425304412842,1.8310545682907104,80.0,956497.0,1.0
515492.1434309,286840.5625,310104.1875,318200.78125,292905.40625,296999.0,301894.125,268503.84375,303727.21875,-0.005615234375,0.97265625,-0.264404296875,-1.8615721464157104,-3.997802495956421,1.7700194120407104,80.0,956498.0,1.0
515492.1457612,286624.5625,308463.5625,316479.09375,286906.46875,292017.15625,299924.21875,267779.8125,301507.0625,-0.005126953125,0.97119140625,-0.2666015625,-1.8920897245407104,-3.631591558456421,1.4953612089157104,80.0,956499.0,1.0
515492.145793,284394.59375,308113.53125,317130.9375,287281.09375,294455.375,301232.78125,268293.46875,302156.78125,-0.0078125,0.969970703125,-0.264892578125,-2.014159917831421,-3.265380620956421,1.3427733182907104,80.0,956500.0,1.0
515492.1496391,283064.75,309472.96875,319327.40625,293723.65625,301206.65625,304108.5625,269374.9375,304880.3125,-0.007568359375,0.96826171875,-0.26611328125,-2.044677495956421,-2.990722417831421,1.2512205839157104,80.0,956501.0,1.0
515492.1496754,284516.625,310612.375,319991.78125,297148.9375,302820.90625,304542.53125,269516.0,305854.125,-0.010009765625,0.9658203125,-0.263916015625,-1.9531248807907104,-2.655029058456421,1.0986326932907104,80.0,956502.0,1.0
515492.1496847,286855.40625,309956.9375,318243.09375,292793.65625,297068.03125,301956.4375,268532.875,303730.0,-0.00927734375,0.965087890625,-0.2607421875,-1.9531248807907104,-2.380370855331421,1.1291502714157104,80.0,956503.0,1.0
515492.1496936,286686.625,308362.96875,316530.75,286849.53125,292106.8125,299997.25,267813.78125,301526.75,-0.01123046875,0.96142578125,-0.262939453125,-1.8310545682907104,-2.014159917831421,0.8850097060203552,80.0,956504.0,1.0
515492.1511442,284469.6875,308030.03125,317176.1875,287250.875,294539.9375,301289.28125,268316.6875,302180.65625,-0.009765625,0.957275390625,-0.263916015625,-1.7089842557907104,-1.8005369901657104,0.7019042372703552,80.0,956505.0,1.0
515492.1683275,283147.8125,309398.59375,319370.59375,293717.5,301297.25,304158.25,269397.71875,304909.625,-0.010009765625,0.9560546875,-0.2626953125,-1.4343260526657104,-1.4648436307907104,0.6713866591453552,80.0,956506.0,1.0
515492.1734617,284619.4375,310565.25,320049.625,297188.8125,302938.46875,304607.71875,269545.875,305903.40625,-0.011474609375,0.95166015625,-0.262451171875,-1.3122557401657104,-1.1901854276657104,0.6408690810203552,80.0,956507.0,1.0
515492.1735013,286983.71875,309939.0625,318309.15625,292866.59375,297194.1875,302023.9375,268562.75,303793.125,-0.01123046875,0.947021484375,-0.260009765625,-1.0375975370407104,-0.9765624403953552,0.5493163466453552,80.0,956508.0,1.0
515492.1735116,286832.09375,308368.4375,316598.78125,286935.53125,292231.0,300066.28125,267845.78125,301593.71875,-0.0126953125,0.94287109375,-0.259765625,-0.6103515028953552,-0.6408690810203552,0.3967284858226776,80.0,956509.0,1.0
515492.1770169,284625.15625,308052.46875,317246.625,287347.4375,294669.5,301365.71875,268356.5625,302251.375,-0.0126953125,0.941650390625,-0.260986328125,-0.1220703050494194,-0.4272460639476776,0.3967284858226776,80.0,956510.0,1.0
515492.1770524,283320.09375,309447.40625,319450.0625,293840.34375,301438.15625,304245.78125,269441.625,304988.59375,-0.012939453125,0.9404296875,-0.26025390625,0.3051757514476776,-0.1525878757238388,0.5187987685203552,80.0,956511.0,1.0
515492.193395,284785.1875,310620.6875,320121.96875,297311.65625,303067.40625,304681.84375,269584.65625,305973.59375,-0.013671875,0.939453125,-0.258544921875,0.7934569716453552,0.03051757626235485,0.4577636420726776,80.0,956512.0,1.0
515492.1972123,287115.40625,309978.75,318363.78125,292962.4375,297292.875,302075.53125,268595.65625,303846.84375,-0.01708984375,0.94140625,-0.259765625,1.1901854276657104,0.2136230319738388,0.4577636420726776,80.0,956513.0,1.0
515492.1972735,286925.4375,308382.03125,316636.78125,286995.59375,292297.34375,300096.21875,267862.6875,301628.59375,-0.020263671875,0.945068359375,-0.26025390625,1.6479490995407104,0.3356933295726776,0.2746581733226776,80.0,956514.0,1.0
515492.1972837,284710.8125,308061.875,317279.375,287391.59375,294715.1875,301385.3125,268363.1875,302276.4375,-0.022705078125,0.94921875,-0.258544921875,1.9531248807907104,0.4272460639476776,0.1220703050494194,80.0,956515.0,1.0
515492.2045983,283413.15625,309468.21875,319485.75,293894.4375,301488.125,304266.53125,269446.8125,305016.03125,-0.0244140625,0.953125,-0.260009765625,2.227782964706421,0.4577636420726776,0.03051757626235485,80.0,956516.0,1.0
515492.2046355,284868.875,310643.40625,320155.59375,297365.03125,303117.65625,304706.40625,269590.125,306003.8125,-0.027587890625,0.958740234375,-0.263671875,2.502441167831421,0.4577636420726776,-0.0610351525247097,80.0,956517.0,1.0
515492.2123165,287155.65625,309974.1875,318374.40625,292972.03125,297310.21875,302080.625,268587.875,303861.53125,-0.027587890625,0.963134765625,-0.266845703125,2.716064214706421,0.3662109076976776,-0.1525878757238388,80.0,956518.0,1.0
515492.2146938,286923.8125,308339.5625,316627.40625,286951.8125,292281.53125,300079.875,267843.90625,301621.4375,-0.02978515625,0.966064453125,-0.26806640625,2.960204839706421,0.4577636420726776,-0.3967284858226776,80.0,956519.0,1.0
515492.219406,284700.4375,308005.25,317264.625,287325.96875,294690.40625,301365.53125,268342.4375,302262.84375,-0.03076171875,0.972412109375,-0.270751953125,3.082275152206421,0.2441406100988388,-0.4272460639476776,80.0,956520.0,1.0
515492.2220671,283399.65625,309404.75,319467.59375,293824.6875,301461.9375,304245.15625,269426.59375,305001.0,-0.03125,0.974609375,-0.2685546875,3.051757574081421,0.1831054538488388,-0.5493163466453552,80.0,956521.0,1.0
515492.2245753,284841.53125,310575.0,320136.375,297294.84375,303095.125,304683.25,269571.78125,305992.4375,-0.03173828125,0.978759765625,-0.270263671875,3.112792730331421,0.0610351525247097,-0.6408690810203552,80.0,956522.0,1.0
515492.2269242,287116.65625,309907.03125,318357.15625,292898.25,297295.1875,302064.96875,268579.5625,303859.03125,-0.032958984375,0.983154296875,-0.2705078125,3.204345464706421,0.0,-0.8239745497703552,80.0,956523.0,1.0
515492.230829,286878.3125,308266.25,316602.625,286860.34375,292249.875,300057.25,267837.03125,301618.375,-0.030517578125,0.98876953125,-0.275390625,3.082275152206421,-0.0915527269244194,-0.9765624403953552,80.0,956524.0,1.0
515492.2308702,284645.375,307918.375,317236.8125,287214.84375,294643.46875,301338.375,268340.40625,302252.46875,-0.0283203125,0.989501953125,-0.27685546875,2.990722417831421,-0.2441406100988388,-1.1291502714157104,80.0,956525.0,1.0
515492.2433644,283333.0625,309299.0625,319443.09375,293698.0,301409.90625,304221.46875,269435.4375,304986.09375,-0.03125,0.991455078125,-0.2783203125,3.051757574081421,-0.1831054538488388,-1.2817381620407104,80.0,956526.0,1.0
515492.2434018,284768.9375,310459.40625,320114.09375,297173.59375,303046.84375,304660.0,269574.84375,305977.0625,-0.028564453125,0.993896484375,-0.27880859375,2.929687261581421,-0.1220703050494194,-1.2207030057907104,80.0,956527.0,1.0
515492.2482649,287046.21875,309792.6875,318340.96875,292801.4375,297257.46875,302046.90625,268581.96875,303845.4375,-0.025634765625,0.992919921875,-0.278564453125,2.716064214706421,-0.2441406100988388,-1.1901854276657104,80.0,956528.0,1.0
515492.250666,286820.625,308169.25,316602.09375,286793.625,292231.8125,300057.78125,267856.96875,301618.03125,-0.025634765625,0.99072265625,-0.278076171875,2.380370855331421,-0.2136230319738388,-1.2512205839157104,80.0,956529.0,1.0
515492.2524357,284585.46875,307817.59375,317223.65625,287136.4375,294606.5625,301323.6875,268346.03125,302244.875,-0.02197265625,0.98828125,-0.279541015625,2.227782964706421,-0.0915527269244194,-1.2817381620407104,80.0,956530.0,1.0
515492.261905,283255.53125,309180.25,319408.6875,293589.5625,301342.3125,304180.34375,269411.59375,304963.28125,-0.023681640625,0.988525390625,-0.279052734375,2.105712652206421,0.0,-1.3427733182907104,80.0,956531.0,1.0
515492.2643895,284686.125,310336.90625,320088.96875,297062.65625,302989.53125,304626.125,269556.15625,305956.15625,-0.0244140625,0.9873046875,-0.280029296875,2.075195074081421,0.03051757626235485,-1.3122557401657104,80.0,956532.0,1.0
515492.2669487,286985.5,309689.59375,318337.40625,292727.65625,297238.6875,302036.71875,268573.3125,303837.1875,-0.025146484375,0.984619140625,-0.283935546875,2.136230230331421,0.03051757626235485,-1.1901854276657104,80.0,956533.0,1.0
515492.2669794,286782.1875,308078.84375,316600.84375,286743.84375,292219.03125,300048.84375,267839.09375,301607.75,-0.0263671875,0.982421875,-0.283447265625,1.9531248807907104,0.1831054538488388,-1.1901854276657104,80.0,956534.0,1.0
515492.2706515,284547.03125,307722.125,317216.25,287074.375,294579.03125,301304.9375,268326.96875,302230.90625,-0.024658203125,0.980224609375,-0.284912109375,2.014159917831421,0.2746581733226776,-1.2207030057907104,80.0,956535.0,1.0
515492.3177569,283207.625,309074.40625,319398.40625,293495.0625,301302.34375,304158.0,269402.09375,304947.28125,-0.024169921875,0.977783203125,-0.283935546875,2.014159917831421,0.3051757514476776,-1.2207030057907104,80.0,956536.0,1.0
515492.3177699,284643.3125,310234.28125,320079.84375,296970.125,302958.5,304611.28125,269550.78125,305942.8125,-0.0263671875,0.97314453125,-0.28466796875,2.166747808456421,0.3967284858226776,-1.1291502714157104,80.0,956537.0,1.0
515492.3330597,286959.125,309601.09375,318340.625,292661.34375,297229.3125,302034.75,268569.71875,303826.46875,-0.02685546875,0.9716796875,-0.28369140625,2.288818120956421,0.4272460639476776,-1.1596678495407104,80.0,956538.0,1.0
515492.3355401,286762.875,308004.8125,316610.0625,286686.09375,292224.40625,300055.5625,267841.5,301595.9375,-0.02734375,0.97119140625,-0.284912109375,2.563476324081421,0.4577636420726776,-1.1596678495407104,80.0,956539.0,1.0
515492.3380589,284524.84375,307646.21875,317217.3125,286989.4375,294565.875,301306.96875,268330.28125,302207.3125,-0.02685546875,0.970947265625,-0.28466796875,2.716064214706421,0.5187987685203552,-1.1291502714157104,80.0,956540.0,1.0
515492.3505202,283192.0625,309005.8125,319397.3125,293399.65625,301279.96875,304161.9375,269407.75,304921.09375,-0.02587890625,0.968017578125,-0.287353515625,2.777099370956421,0.5798339247703552,-1.0375975370407104,80.0,956541.0,1.0
515492.3530354,284638.125,310178.125,320087.8125,296888.59375,302952.59375,304623.1875,269559.625,305918.5,-0.028564453125,0.967529296875,-0.284423828125,2.960204839706421,0.6408690810203552,-0.9155272841453552,80.0,956542.0,1.0
515492.3554191,286963.5,309564.0625,318356.28125,292598.28125,297247.375,302053.8125,268581.96875,303814.21875,-0.029296875,0.96484375,-0.285888671875,3.112792730331421,0.7629393935203552,-0.7324218153953552,80.0,956543.0,1.0
515492.3554321,286767.4375,307963.0625,316619.8125,286609.5625,292232.1875,300065.65625,267849.0,301583.875,-0.029052734375,0.9638671875,-0.28515625,3.356933355331421,0.7934569716453552,-0.7019042372703552,80.0,956544.0,1.0
515492.3620104,284535.03125,307601.875,317225.8125,286912.28125,294568.8125,301312.96875,268338.25,302194.4375,-0.030517578125,0.96240234375,-0.284423828125,3.448486089706421,0.8850097060203552,-0.6103515028953552,80.0,956545.0,1.0
515492.3644916,283221.75,308970.0625,319411.625,293352.625,301294.375,304174.1875,269419.96875,304914.375,-0.033203125,0.96142578125,-0.283447265625,3.662109136581421,0.7934569716453552,-0.4577636420726776,80.0,956546.0,1.0
515492.3669963,284673.96875,310148.625,320103.0,296867.84375,302977.1875,304640.53125,269573.3125,305918.875,-0.031494140625,0.95947265625,-0.284423828125,3.875732183456421,0.9460448622703552,-0.3051757514476776,80.0,956547.0,1.0
515492.3693599,286987.84375,309527.875,318368.78125,292577.28125,297270.875,302070.53125,268596.8125,303819.78125,-0.031494140625,0.95703125,-0.285400390625,3.967284917831421,0.9460448622703552,-0.0915527269244194,80.0,956548.0,1.0
515492.3718387,286787.65625,307930.78125,316634.5625,286595.78125,292269.375,300089.09375,267865.1875,301598.625,-0.03369140625,0.95751953125,-0.28369140625,4.150390148162842,1.0070799589157104,0.1525878757238388,80.0,956549.0,1.0
515492.3743785,284576.53125,307584.6875,317248.6875,286919.78125,294613.25,301345.6875,268348.96875,302213.75,-0.032958984375,0.956787109375,-0.28759765625,4.241942882537842,1.0375975370407104,0.3051757514476776,80.0,956550.0,1.0
515492.3793078,283300.875,308984.71875,319447.9375,293398.59375,301356.25,304217.90625,269422.5625,304937.1875,-0.0322265625,0.957763671875,-0.2880859375,4.302978038787842,0.9765624403953552,0.6103515028953552,80.0,956551.0,1.0
515492.3820252,284765.4375,310186.15625,320143.4375,296947.0625,303055.34375,304692.125,269568.9375,305950.4375,-0.031005859375,0.957275390625,-0.287353515625,4.272460460662842,0.9460448622703552,0.8239745497703552,80.0,956552.0,1.0
515492.3870476,287054.78125,309560.40625,318396.40625,292648.625,297338.375,302113.15625,268586.96875,303850.96875,-0.0302734375,0.953857421875,-0.28515625,4.333495616912842,0.9460448622703552,1.0986326932907104,80.0,956553.0,1.0
515492.3870612,286829.40625,307947.96875,316653.5,286645.125,292317.75,300121.625,267852.9375,301624.90625,-0.03076171875,0.9541015625,-0.28662109375,4.364013195037842,0.8850097060203552,1.3732908964157104,80.0,956554.0,1.0
515492.3895434,284646.71875,307624.75,317282.40625,287002.40625,294683.09375,301389.78125,268343.53125,302252.1875,-0.031005859375,0.9521484375,-0.288330078125,4.425048351287842,1.0070799589157104,1.7089842557907104,80.0,956555.0,1.0
515492.3944674,283418.875,309058.375,319504.0,293536.34375,301455.65625,304275.5625,269429.375,304991.1875,-0.02978515625,0.951416015625,-0.28662109375,4.486083507537842,0.9460448622703552,1.9531248807907104,80.0,956556.0,1.0
515492.3969758,284883.0,310261.1875,320196.625,297097.96875,303150.375,304738.4375,269579.125,306003.25,-0.028076171875,0.949462890625,-0.28857421875,4.455565929412842,1.0375975370407104,2.349853277206421,80.0,956557.0,1.0
515492.4018843,287125.6875,309608.6875,318424.125,292773.28125,297404.375,302136.6875,268591.09375,303892.28125,-0.02734375,0.94677734375,-0.29052734375,4.486083507537842,1.0986326932907104,2.777099370956421,80.0,956558.0,1.0
515492.4094954,286879.46875,307983.375,316667.5625,286751.625,292364.0625,300134.0625,267860.53125,301662.65625,-0.025634765625,0.94580078125,-0.29150390625,4.364013195037842,1.1291502714157104,3.082275152206421,80.0,956559.0,1.0
515492.4095119,284721.625,307668.65625,317300.375,287112.03125,294728.5,301399.34375,268352.71875,302287.59375,-0.024169921875,0.94580078125,-0.29248046875,4.547118663787842,1.0681151151657104,3.356933355331421,80.0,956560.0,1.0
515492.4120241,283531.53125,309127.0625,319535.71875,293679.40625,301527.5625,304299.15625,269444.3125,305036.0625,-0.020751953125,0.94482421875,-0.293701171875,4.547118663787842,1.0986326932907104,3.784179449081421,80.0,956561.0,1.0
515492.4120412,284991.09375,310333.96875,320230.96875,297258.0,303235.75,304770.625,269605.3125,306055.75,-0.019775390625,0.9453125,-0.291748046875,4.608153820037842,1.2207030057907104,4.089354991912842,80.0,956562.0,1.0
515492.4145525,287179.59375,309644.375,318438.6875,292895.65625,297455.5,302149.8125,268616.46875,303930.375,-0.019775390625,0.943359375,-0.292236328125,4.547118663787842,1.3122557401657104,4.364013195037842,80.0,956563.0,1.0
515492.4145716,286901.71875,307993.09375,316668.25,286845.125,292386.75,300129.75,267871.46875,301682.84375,-0.020751953125,0.9453125,-0.294677734375,4.486083507537842,1.2817381620407104,4.791259288787842,80.0,956564.0,1.0
515492.417039,284779.46875,307701.625,317325.6875,287228.78125,294775.53125,301417.65625,268374.5625,302319.78125,-0.021728515625,0.945556640625,-0.29736328125,4.425048351287842,1.4038084745407104,5.126952648162842,80.0,956565.0,1.0
515492.4219107,283636.3125,309191.0625,319582.3125,293829.15625,301607.75,304338.9375,269474.0625,305084.25,-0.0224609375,0.9462890625,-0.2998046875,4.333495616912842,1.4648436307907104,5.401610851287842,80.0,956566.0,1.0
515492.4219303,285093.03125,310400.3125,320274.59375,297414.21875,303322.65625,304809.6875,269631.875,306107.6875,-0.022705078125,0.948974609375,-0.299560546875,4.241942882537842,1.4038084745407104,5.737304210662842,80.0,956567.0,1.0
515492.4243704,287248.90625,309701.21875,318469.375,293028.78125,297525.5,302181.375,268644.125,303979.90625,-0.021484375,0.949462890625,-0.301513671875,4.150390148162842,1.3732908964157104,5.859374523162842,80.0,956568.0,1.0
515492.427024,286954.46875,308037.375,316692.40625,286944.375,292430.65625,300151.9375,267901.59375,301724.96875,-0.02099609375,0.94921875,-0.301513671875,4.058837413787842,1.3122557401657104,6.042479991912842,80.0,956569.0,1.0
515492.427049,284851.90625,307757.4375,317353.65625,287331.5,294822.90625,301444.03125,268401.90625,302363.875,-0.019287109375,0.950927734375,-0.30224609375,3.753661870956421,1.3732908964157104,6.134032726287842,80.0,956570.0,1.0
515492.4319503,283742.53125,309272.25,319622.0,293965.78125,301678.1875,304378.5625,269505.0,305138.15625,-0.021240234375,0.951416015625,-0.30078125,3.570556402206421,1.2512205839157104,6.164550304412842,80.0,956571.0,1.0
515492.4363468,285190.03125,310484.4375,320306.6875,297552.78125,303389.0,304843.3125,269653.15625,306158.5625,-0.02099609375,0.9521484375,-0.30126953125,3.326415777206421,1.2207030057907104,6.164550304412842,80.0,956572.0,1.0
515492.4658282,287297.8125,309756.125,318475.8125,293121.6875,297556.28125,302191.5,268644.8125,304009.84375,-0.021484375,0.9521484375,-0.30224609375,3.021239995956421,1.1901854276657104,6.378173351287842,80.0,956573.0,1.0
515492.4708108,286988.53125,308087.25,316697.6875,287010.375,292457.125,300167.03125,267910.625,301750.8125,-0.0205078125,0.952392578125,-0.30029296875,2.685546636581421,1.1901854276657104,6.439208507537842,80.0,956574.0,1.0
515492.4708528,284896.59375,307810.4375,317367.96875,287401.15625,294853.5,301458.09375,268415.5,302392.125,-0.01953125,0.9541015625,-0.299560546875,2.441406011581421,1.2512205839157104,6.439208507537842,80.0,956575.0,1.0
515492.4732349,283806.0,309335.71875,319646.84375,294064.75,301717.625,304390.1875,269509.84375,305169.1875,-0.01904296875,0.95263671875,-0.299072265625,1.9836424589157104,1.2512205839157104,6.256103038787842,80.0,956576.0,1.0
515492.475789,285249.3125,310556.84375,320330.90625,297662.5,303429.78125,304857.96875,269657.4375,306189.40625,-0.0185546875,0.952880859375,-0.2998046875,1.5563963651657104,1.2207030057907104,6.256103038787842,80.0,956577.0,1.0
515492.4782737,287320.59375,309826.5625,318487.59375,293199.8125,297583.8125,302199.09375,268648.65625,304029.875,-0.0185546875,0.95263671875,-0.30029296875,1.2207030057907104,1.1291502714157104,6.286620616912842,80.0,956578.0,1.0
515492.4833139,286984.25,308152.59375,316696.6875,287044.78125,292458.65625,300157.375,267903.8125,301756.0625,-0.014404296875,0.9482421875,-0.302734375,0.9155272841453552,1.1291502714157104,6.378173351287842,80.0,956579.0,1.0
515492.4858498,284893.03125,307883.125,317371.4375,287427.1875,294853.78125,301453.96875,268413.71875,302391.9375,-0.011474609375,0.945068359375,-0.30224609375,0.6408690810203552,1.2512205839157104,6.347655773162842,80.0,956580.0,1.0
515492.4908186,283806.625,309412.875,319654.8125,294101.6875,301726.46875,304395.28125,269519.9375,305169.28125,-0.00537109375,0.944091796875,-0.3056640625,0.4882812201976776,1.3122557401657104,6.347655773162842,80.0,956581.0,1.0
515492.4933132,285243.40625,310617.90625,320341.375,297703.4375,303444.0,304858.0625,269670.84375,306191.375,-0.00390625,0.943603515625,-0.305908203125,0.3967284858226776,1.2512205839157104,6.317138195037842,80.0,956582.0,1.0
515492.4982768,287307.375,309860.28125,318492.34375,293218.96875,297585.59375,302188.1875,268659.125,304030.3125,-0.0029296875,0.94189453125,-0.3046875,0.3356933295726776,1.4343260526657104,6.408690929412842,80.0,956583.0,1.0
515492.5032835,286967.71875,308165.84375,316695.1875,287044.78125,292450.5,300143.0,267907.5,301754.46875,-0.0048828125,0.9443359375,-0.301025390625,0.3051757514476776,1.5869139432907104,6.378173351287842,80.0,956584.0,1.0
515492.5056806,284887.5625,307892.53125,317368.3125,287433.4375,294843.3125,301439.21875,268414.78125,302394.1875,-0.008056640625,0.944091796875,-0.302734375,0.3051757514476776,1.7089842557907104,6.408690929412842,80.0,956585.0,1.0
515492.5158252,283809.3125,309429.59375,319657.0625,294132.625,301726.5625,304386.59375,269525.21875,305184.46875,-0.00732421875,0.9462890625,-0.30224609375,0.2746581733226776,1.7089842557907104,6.378173351287842,80.0,956586.0,1.0
515492.520843,285235.4375,310635.53125,320341.46875,297741.4375,303451.6875,304852.78125,269676.125,306212.21875,-0.008544921875,0.94677734375,-0.302001953125,0.1220703050494194,1.8615721464157104,6.347655773162842,80.0,956587.0,1.0
515492.520886,287287.875,309872.71875,318493.25,293241.59375,297591.0625,302185.84375,268667.34375,304051.5,-0.00732421875,0.948974609375,-0.302490234375,0.0915527269244194,1.9531248807907104,6.256103038787842,80.0,956588.0,1.0
515492.5233763,286950.8125,308181.5,316699.5625,287054.15625,292455.15625,300144.96875,267921.96875,301773.96875,-0.007080078125,0.9501953125,-0.305908203125,-0.03051757626235485,2.105712652206421,6.195067882537842,80.0,956589.0,1.0
515492.5256777,284871.46875,307906.46875,317374.84375,287439.25,294853.78125,301450.84375,268435.875,302414.46875,-0.00732421875,0.951416015625,-0.305908203125,0.0,2.105712652206421,6.164550304412842,80.0,956590.0,1.0
515492.5282387,283795.28125,309435.875,319660.28125,294137.71875,301736.59375,304399.21875,269542.03125,305201.46875,-0.006103515625,0.952392578125,-0.303466796875,-0.1220703050494194,2.166747808456421,6.164550304412842,80.0,956591.0,1.0
515492.5282787,285221.15625,310640.34375,320339.0625,297745.90625,303456.59375,304857.15625,269677.21875,306223.03125,-0.00732421875,0.954833984375,-0.3037109375,-0.1831054538488388,2.166747808456421,5.920409679412842,80.0,956592.0,1.0
515492.5307908,287283.5,309888.625,318487.4375,293254.625,297596.15625,302191.65625,268659.3125,304057.78125,-0.0078125,0.95458984375,-0.30322265625,-0.2441406100988388,2.227782964706421,5.828856945037842,80.0,956593.0,1.0
515492.5332373,286955.5625,308200.96875,316691.875,287067.9375,292454.96875,300148.96875,267910.53125,301776.625,-0.010009765625,0.9560546875,-0.30224609375,-0.3967284858226776,2.288818120956421,5.645751476287842,80.0,956594.0,1.0
515492.5383632,284869.34375,307908.625,317352.59375,287433.25,294824.96875,301430.1875,268406.5625,302401.0625,-0.0087890625,0.953857421875,-0.303466796875,-0.6408690810203552,2.410888433456421,5.554198741912842,80.0,956595.0,1.0
515492.538404,283777.65625,309425.40625,319635.9375,294120.90625,301702.53125,304372.9375,269511.4375,305182.0625,-0.010498046875,0.95751953125,-0.302001953125,-0.5187987685203552,2.380370855331421,5.523681163787842,80.0,956596.0,1.0
515492.5433483,285205.40625,310635.875,320327.4375,297745.1875,303445.5,304850.4375,269666.75,306215.6875,-0.0107421875,0.957275390625,-0.3046875,-0.6408690810203552,2.441406011581421,5.279540538787842,80.0,956597.0,1.0
515492.545749,287279.21875,309896.65625,318491.0,293269.125,297603.375,302197.84375,268661.375,304061.4375,-0.011962890625,0.9580078125,-0.30712890625,-0.5493163466453552,2.502441167831421,5.004882335662842,80.0,956598.0,1.0
515492.5484223,286959.84375,308214.375,316697.9375,287084.84375,292459.71875,300155.6875,267910.0625,301778.875,-0.01123046875,0.96044921875,-0.307373046875,-0.4577636420726776,2.563476324081421,4.821776866912842,80.0,956599.0,1.0
515492.5506534,284878.28125,307922.46875,317360.09375,287449.4375,294832.5625,301441.53125,268409.25,302408.46875,-0.00927734375,0.962646484375,-0.302734375,-0.5187987685203552,2.655029058456421,4.638671398162842,80.0,956600.0,1.0
515492.5555808,283788.65625,309431.125,319640.59375,294135.125,301707.53125,304382.5,269508.21875,305195.90625,-0.009765625,0.965087890625,-0.303955078125,-0.4272460639476776,2.685546636581421,4.455565929412842,80.0,956601.0,1.0
515492.5555872,285232.5,310652.15625,320344.84375,297778.34375,303465.0,304872.25,269669.25,306241.96875,-0.0078125,0.966552734375,-0.30224609375,-0.6408690810203552,2.807616949081421,4.302978038787842,80.0,956602.0,1.0
515492.558203,287309.6875,309915.34375,318507.71875,293309.09375,297624.125,302215.625,268656.625,304078.78125,-0.00927734375,0.968505859375,-0.304443359375,-0.7934569716453552,2.929687261581421,4.211425304412842,80.0,956603.0,1.0
515492.5623949,286996.40625,308236.65625,316712.0,287120.15625,292475.09375,300167.65625,267904.71875,301789.15625,-0.007568359375,0.96923828125,-0.303466796875,-0.8239745497703552,3.051757574081421,4.089354991912842,80.0,956604.0,1.0
515492.5695153,284913.59375,307940.8125,317369.125,287473.21875,294832.65625,301444.84375,268402.34375,302414.03125,-0.0068359375,0.968017578125,-0.302734375,-0.8544921278953552,3.143310308456421,4.089354991912842,80.0,956605.0,1.0
515492.5720318,283817.90625,309449.1875,319646.84375,294153.09375,301708.59375,304387.5,269511.71875,305202.0,-0.0048828125,0.966064453125,-0.302978515625,-0.8544921278953552,3.326415777206421,3.845214605331421,80.0,956606.0,1.0
515492.5720453,285251.71875,310665.125,320352.46875,297798.03125,303478.3125,304880.75,269680.78125,306251.28125,-0.005615234375,0.96533203125,-0.303955078125,-0.9155272841453552,3.387450933456421,3.875732183456421,80.0,956607.0,1.0
515492.5744893,287338.75,309934.59375,318525.59375,293339.75,297651.03125,302231.4375,268683.53125,304098.4375,-0.005126953125,0.962646484375,-0.303955078125,-0.7629393935203552,3.601073980331421,3.692626714706421,80.0,956608.0,1.0
515492.5845229,287031.625,308259.625,316731.3125,287150.5625,292501.125,300186.0,267929.46875,301810.875,-0.00341796875,0.960693359375,-0.302490234375,-0.6713866591453552,3.784179449081421,3.692626714706421,80.0,956609.0,1.0
515492.5869723,284944.15625,307965.46875,317382.53125,287486.1875,294851.34375,301464.0625,268427.3125,302431.90625,-0.002197265625,0.959228515625,-0.3056640625,-0.6103515028953552,3.967284917831421,3.723144292831421,80.0,956610.0,1.0
515492.5869877,283837.125,309470.90625,319654.625,294151.75,301721.65625,304404.125,269532.71875,305215.78125,-0.001953125,0.958984375,-0.3037109375,-0.3967284858226776,4.211425304412842,3.753661870956421,80.0,956611.0,1.0
515492.5893435,285266.375,310687.46875,320358.90625,297796.875,303496.75,304898.46875,269691.59375,306261.46875,-0.000244140625,0.958984375,-0.3046875,-0.2136230319738388,4.486083507537842,3.723144292831421,80.0,956612.0,1.0
515492.59202,287361.90625,309960.25,318536.78125,293345.03125,297675.90625,302248.15625,268679.875,304105.78125,0.00244140625,0.958984375,-0.3056640625,-0.0610351525247097,4.730224132537842,3.814697027206421,80.0,956613.0,1.0
515492.5920394,287059.53125,308277.96875,316740.5,287144.03125,292514.875,300192.96875,267922.78125,301809.90625,0.005126953125,0.9599609375,-0.3056640625,0.0915527269244194,5.035399913787842,3.906249761581421,80.0,956614.0,1.0
515492.5968458,284978.40625,307982.375,317394.0625,287471.4375,294858.59375,301470.0625,268423.90625,302430.125,0.00341796875,0.9609375,-0.305908203125,0.2441406100988388,5.218505382537842,4.028319835662842,80.0,956615.0,1.0
515492.5994779,283870.5625,309489.78125,319674.40625,294145.125,301738.5625,304421.375,269535.75,305220.40625,0.003662109375,0.958740234375,-0.30517578125,0.2441406100988388,5.645751476287842,4.150390148162842,80.0,956616.0,1.0
515492.6019914,285291.78125,310707.6875,320381.34375,297805.8125,303523.5625,304918.59375,269693.84375,306270.40625,0.0029296875,0.95556640625,-0.30517578125,0.5493163466453552,5.828856945037842,4.272460460662842,80.0,956617.0,1.0
515492.6057625,287388.09375,309984.125,318559.65625,293360.3125,297705.65625,302267.03125,268682.1875,304119.375,0.002685546875,0.955810546875,-0.304443359375,0.8850097060203552,6.103515148162842,4.302978038787842,80.0,956618.0,1.0
515492.6145551,287093.0625,308307.46875,316762.21875,287161.71875,292539.03125,300207.28125,267921.0625,301826.15625,0.000732421875,0.9560546875,-0.309326171875,1.0681151151657104,6.347655773162842,4.547118663787842,80.0,956619.0,1.0
515492.6145924,285009.96875,308008.125,317404.96875,287477.25,294869.40625,301478.8125,268416.125,302438.6875,0.000244140625,0.954833984375,-0.310302734375,1.3122557401657104,6.530761241912842,4.669188976287842,80.0,956620.0,1.0
515492.6170318,283890.59375,309506.3125,319672.96875,294141.28125,301741.0625,304427.03125,269527.09375,305222.65625,0.000732421875,0.955078125,-0.30712890625,1.4038084745407104,6.683349132537842,4.821776866912842,80.0,956621.0,1.0
515492.6458596,285307.15625,310718.78125,320380.0,297806.625,303532.5,304923.6875,269689.71875,306275.96875,0.00146484375,0.955078125,-0.30517578125,1.5869139432907104,6.866454601287842,4.913329601287842,80.0,956622.0,1.0
515492.645899,287405.8125,309995.71875,318562.96875,293372.75,297722.84375,302276.34375,268681.84375,304131.4375,0.002197265625,0.9560546875,-0.304443359375,1.7089842557907104,7.080077648162842,4.974364757537842,80.0,956623.0,1.0
515492.6496371,287113.09375,308313.625,316768.3125,287174.15625,292554.9375,300218.53125,267924.75,301839.59375,0.001220703125,0.955810546875,-0.3056640625,1.9226073026657104,7.202147960662842,5.035399913787842,80.0,956624.0,1.0
515492.6496798,285034.71875,308014.375,317409.625,287478.6875,294872.625,301490.34375,268424.09375,302446.9375,0.000244140625,0.95703125,-0.3037109375,2.044677495956421,7.202147960662842,5.035399913787842,80.0,956625.0,1.0
515492.6496902,283913.3125,309513.84375,319676.28125,294132.4375,301735.59375,304436.84375,269528.78125,305222.90625,0.0,0.9580078125,-0.303466796875,2.136230230331421,7.354735851287842,5.096435070037842,80.0,956626.0,1.0
515492.6535369,285317.53125,310722.6875,320383.21875,297801.5,303530.09375,304933.0625,269684.09375,306274.15625,-0.000244140625,0.957763671875,-0.306640625,2.136230230331421,7.385253429412842,5.126952648162842,80.0,956627.0,1.0
515492.6535726,287411.96875,309998.9375,318569.3125,293377.84375,297728.125,302284.125,268680.3125,304131.34375,-0.0009765625,0.957763671875,-0.306396484375,2.227782964706421,7.415771007537842,5.096435070037842,80.0,956628.0,1.0
515492.6535828,287119.0,308316.5,316770.71875,287172.28125,292553.78125,300221.75,267926.25,301834.75,-0.000732421875,0.95751953125,-0.307373046875,2.380370855331421,7.476806163787842,5.187987804412842,80.0,956629.0,1.0
515492.6578855,285034.71875,308010.53125,317406.6875,287461.59375,294864.3125,301489.46875,268416.03125,302434.59375,-0.00244140625,0.95703125,-0.305908203125,2.471923589706421,7.385253429412842,5.157470226287842,80.0,956630.0,1.0
515492.6579208,283917.40625,309514.09375,319681.28125,294118.9375,301735.78125,304442.65625,269519.5,305214.15625,-0.002685546875,0.9580078125,-0.306640625,2.532958745956421,7.446288585662842,5.065917491912842,80.0,956631.0,1.0
515492.7032527,285320.21875,310721.53125,320393.9375,297800.71875,303545.28125,304943.25,269681.9375,306273.625,-0.002685546875,0.958984375,-0.307373046875,2.532958745956421,7.232665538787842,5.157470226287842,80.0,956632.0,1.0
515492.7143697,287405.375,309988.21875,318579.0625,293383.375,297743.84375,302284.375,268667.90625,304130.1875,-0.00439453125,0.9580078125,-0.305419921875,2.593993902206421,7.141112804412842,5.126952648162842,80.0,956633.0,1.0
515492.7170292,287107.71875,308297.0,316778.59375,287171.65625,292556.90625,300210.21875,267905.0625,301826.875,-0.003662109375,0.958740234375,-0.305908203125,2.471923589706421,7.171630382537842,5.157470226287842,80.0,956634.0,1.0
515492.7170467,285036.0625,307995.59375,317420.53125,287457.75,294858.3125,301479.375,268402.09375,302427.4375,-0.005126953125,0.955810546875,-0.305908203125,2.410888433456421,7.049560070037842,5.004882335662842,80.0,956635.0,1.0
515492.7193668,283932.71875,309511.6875,319692.53125,294114.0,301731.65625,304434.625,269507.34375,305206.75,-0.00439453125,0.953857421875,-0.30810546875,2.532958745956421,7.049560070037842,5.004882335662842,80.0,956636.0,1.0
515492.7193867,285329.0625,310724.5,320397.34375,297801.34375,303545.71875,304934.21875,269667.8125,306266.65625,-0.00439453125,0.951171875,-0.3076171875,2.532958745956421,6.927489757537842,4.913329601287842,80.0,956637.0,1.0
515492.7244952,287384.875,309973.46875,318562.34375,293372.125,297726.6875,302266.0625,268656.4375,304120.25,-0.0068359375,0.952392578125,-0.30810546875,2.685546636581421,6.713866710662842,4.913329601287842,80.0,956638.0,1.0
515492.7268445,287073.65625,308271.53125,316749.34375,287144.28125,292522.75,300189.21875,267893.09375,301817.21875,-0.008056640625,0.952392578125,-0.310302734375,2.655029058456421,6.622313976287842,4.882812023162842,80.0,956639.0,1.0
515492.7295489,285011.5,307976.75,317392.46875,287427.71875,294831.875,301466.03125,268391.09375,302419.90625,-0.008544921875,0.953125,-0.310546875,2.716064214706421,6.408690929412842,4.791259288787842,80.0,956640.0,1.0
515492.7343662,283928.9375,309504.875,319677.4375,294097.21875,301725.125,304437.84375,269504.84375,305208.0,-0.008056640625,0.9541015625,-0.312744140625,2.777099370956421,6.256103038787842,4.760741710662842,80.0,956641.0,1.0
515492.7395596,285324.875,310719.9375,320386.25,297790.4375,303545.90625,304943.0,269666.375,306269.53125,-0.00732421875,0.9560546875,-0.3115234375,2.838134527206421,6.103515148162842,4.760741710662842,80.0,956642.0,1.0
515492.7420624,287369.5,309962.75,318554.03125,293356.125,297723.90625,302276.4375,268658.59375,304124.8125,-0.007568359375,0.956787109375,-0.311279296875,2.868652105331421,5.889892101287842,4.730224132537842,80.0,956643.0,1.0
515492.7445975,287059.09375,308258.5625,316746.40625,287121.3125,292515.78125,300195.46875,267891.5625,301817.0625,-0.00634765625,0.95361328125,-0.30859375,2.746581792831421,5.767821788787842,4.791259288787842,80.0,956644.0,1.0
515492.7469145,285015.25,307970.3125,317396.03125,287400.4375,294821.40625,301470.34375,268381.15625,302411.78125,-0.005615234375,0.953857421875,-0.310791015625,2.777099370956421,5.554198741912842,4.791259288787842,80.0,956645.0,1.0
515492.7520644,283950.59375,309511.40625,319691.65625,294086.21875,301732.90625,304449.1875,269497.78125,305204.9375,-0.0048828125,0.95458984375,-0.310302734375,2.807616949081421,5.432128429412842,4.882812023162842,80.0,956646.0,1.0
515492.7544321,285348.8125,310733.875,320409.21875,297801.25,303574.34375,304964.8125,269667.375,306275.5,-0.0029296875,0.954833984375,-0.31005859375,2.685546636581421,5.310058116912842,4.852294445037842,80.0,956647.0,1.0
515492.7621147,287374.4375,309963.375,318567.1875,293361.125,297742.78125,302284.5625,268651.09375,304125.375,-0.004638671875,0.95458984375,-0.309326171875,2.685546636581421,5.096435070037842,4.638671398162842,80.0,956648.0,1.0
515492.7621537,287052.03125,308244.53125,316751.0625,287108.4375,292519.15625,300194.3125,267885.5,301814.46875,-0.0068359375,0.95361328125,-0.308349609375,2.746581792831421,4.913329601287842,4.730224132537842,80.0,956649.0,1.0
515492.7645707,285018.0,307961.0,317403.28125,287391.6875,294828.71875,301473.5625,268383.84375,302414.8125,-0.00830078125,0.951171875,-0.31005859375,2.716064214706421,4.760741710662842,4.730224132537842,80.0,956650.0,1.0
515492.7669253,283974.09375,309521.875,319706.75,294101.5,301752.84375,304463.21875,269508.9375,305215.15625,-0.007080078125,0.950439453125,-0.31103515625,2.685546636581421,4.455565929412842,4.760741710662842,80.0,956651.0,1.0
515492.7807313,285374.3125,310752.28125,320424.875,297830.21875,303597.84375,304979.03125,269684.0,306290.09375,-0.005615234375,0.951171875,-0.311279296875,2.807616949081421,4.364013195037842,4.760741710662842,80.0,956652.0,1.0
515492.7807762,287382.75,309971.875,318578.625,293381.0625,297761.28125,302295.46875,268673.625,304138.9375,-0.0029296875,0.9521484375,-0.3134765625,2.746581792831421,4.150390148162842,4.760741710662842,80.0,956653.0,1.0
515492.7832249,287055.25,308247.03125,316758.84375,287117.1875,292528.8125,300198.96875,267902.125,301823.125,-0.00390625,0.954345703125,-0.312744140625,2.746581792831421,3.967284917831421,4.791259288787842,80.0,956654.0,1.0
515492.785778,285033.40625,307967.53125,317414.8125,287398.65625,294835.0,301477.75,268397.15625,302422.25,-0.005126953125,0.954345703125,-0.311279296875,2.716064214706421,3.875732183456421,4.821776866912842,80.0,956655.0,1.0
515492.7933196,283996.4375,309530.8125,319721.0625,294116.15625,301766.28125,304468.59375,269513.9375,305223.625,-0.003662109375,0.9541015625,-0.309814453125,2.685546636581421,3.662109136581421,4.760741710662842,80.0,956656.0,1.0
515492.7957962,285391.90625,310757.40625,320443.03125,297854.96875,303618.15625,304983.5625,269681.3125,306305.09375,-0.003173828125,0.952880859375,-0.310791015625,2.563476324081421,3.570556402206421,4.852294445037842,80.0,956657.0,1.0
515492.798314,287401.96875,309979.90625,318599.0,293412.0,297786.40625,302301.46875,268671.75,304160.59375,-0.00439453125,0.950439453125,-0.3125,2.471923589706421,3.417968511581421,4.882812023162842,80.0,956658.0,1.0
515492.8007296,287063.5625,308243.1875,316767.40625,287130.78125,292539.03125,300193.875,267891.75,301833.21875,-0.001953125,0.948974609375,-0.31298828125,2.380370855331421,3.143310308456421,4.791259288787842,80.0,956659.0,1.0
515492.8007683,285035.375,307950.0,317415.4375,287398.03125,294832.75,301462.0,268381.34375,302418.59375,-0.00341796875,0.947265625,-0.31787109375,2.380370855331421,3.082275152206421,4.730224132537842,80.0,956660.0,1.0
515492.8032069,283999.03125,309514.09375,319721.6875,294119.375,301765.71875,304456.625,269504.84375,305220.5,-0.0029296875,0.94580078125,-0.31494140625,2.441406011581421,2.899169683456421,4.577636241912842,80.0,956661.0,1.0
515492.8057918,285392.71875,310747.65625,320440.4375,297870.34375,303627.09375,304979.09375,269675.15625,306307.78125,-0.00244140625,0.947265625,-0.314697265625,2.532958745956421,2.746581792831421,4.425048351287842,80.0,956662.0,1.0
515492.810834,287394.8125,309967.125,318591.40625,293427.8125,297791.21875,302294.21875,268654.75,304162.8125,-0.001953125,0.944580078125,-0.3134765625,2.563476324081421,2.593993902206421,4.364013195037842,80.0,956663.0,1.0
515492.8108747,287069.28125,308241.46875,316766.625,287149.84375,292541.875,300193.25,267883.4375,301841.375,-0.00146484375,0.944580078125,-0.3154296875,2.441406011581421,2.410888433456421,4.272460460662842,80.0,956664.0,1.0
515492.8136149,285057.96875,307963.34375,317422.59375,287425.125,294835.4375,301468.375,268375.71875,302436.375,-0.000732421875,0.942138671875,-0.311279296875,2.563476324081421,2.288818120956421,4.272460460662842,80.0,956665.0,1.0
515492.8136557,284027.5625,309526.4375,319734.375,294152.5625,301770.03125,304461.71875,269494.0,305238.21875,0.00146484375,0.94140625,-0.310791015625,2.532958745956421,2.258300542831421,4.211425304412842,80.0,956666.0,1.0
515492.8157783,285413.375,310756.21875,320450.28125,297900.5625,303631.9375,304980.71875,269658.25,306314.9375,0.00244140625,0.942626953125,-0.311279296875,2.441406011581421,2.258300542831421,4.119872570037842,80.0,956667.0,1.0
515492.8182936,287393.28125,309967.65625,318588.90625,293439.875,297786.84375,302291.25,268638.375,304159.34375,0.0048828125,0.94482421875,-0.3125,2.593993902206421,2.075195074081421,3.967284917831421,80.0,956668.0,1.0
515492.8208953,287059.8125,308241.125,316758.125,287150.0,292538.03125,300191.90625,267869.5,301835.375,0.0048828125,0.94677734375,-0.314697265625,2.502441167831421,2.014159917831421,3.875732183456421,80.0,956669.0,1.0
515492.8209334,285058.15625,307972.53125,317419.28125,287428.15625,294842.21875,301476.21875,268371.875,302436.28125,0.004150390625,0.94775390625,-0.3154296875,2.563476324081421,1.9531248807907104,3.784179449081421,80.0,956670.0,1.0
515492.8231802,284026.65625,309532.96875,319725.1875,294150.125,301767.34375,304463.59375,269486.875,305235.15625,0.006103515625,0.94677734375,-0.315185546875,2.532958745956421,1.8615721464157104,3.570556402206421,80.0,956671.0,1.0
515492.8256883,285408.625,310759.34375,320445.625,297903.0,303635.21875,304981.78125,269655.21875,306316.625,0.00537109375,0.947509765625,-0.312255859375,2.380370855331421,1.8310545682907104,3.448486089706421,80.0,956672.0,1.0
515492.8344298,287399.625,309975.71875,318597.84375,293451.96875,297807.3125,302297.96875,268639.625,304164.25,0.00537109375,0.947509765625,-0.314208984375,2.319335699081421,1.8005369901657104,3.417968511581421,80.0,956673.0,1.0
515492.8344428,287072.40625,308245.84375,316767.96875,287149.125,292544.90625,300188.0625,267857.78125,301833.59375,0.008544921875,0.94873046875,-0.313232421875,2.136230230331421,1.7089842557907104,3.295898199081421,80.0,956674.0,1.0
515492.8393251,285071.5625,307968.0625,317422.78125,287408.03125,294823.0,301457.0,268351.21875,302424.5625,0.00927734375,0.949462890625,-0.3134765625,2.136230230331421,1.8310545682907104,3.021239995956421,80.0,956675.0,1.0
515492.8393392,284041.6875,309529.28125,319734.9375,294136.375,301750.71875,304445.78125,269480.5,305228.09375,0.009521484375,0.94921875,-0.313720703125,2.044677495956421,1.8615721464157104,2.868652105331421,80.0,956676.0,1.0
515492.8419505,285423.21875,310760.6875,320459.46875,297903.53125,303632.71875,304971.6875,269662.71875,306318.0625,0.009521484375,0.950439453125,-0.312744140625,1.8920897245407104,1.8615721464157104,2.655029058456421,80.0,956677.0,1.0
515492.8457329,287410.71875,309981.875,318611.53125,293457.21875,297817.34375,302299.125,268660.5625,304174.09375,0.01123046875,0.950439453125,-0.3095703125,1.7089842557907104,1.7700194120407104,2.471923589706421,80.0,956678.0,1.0
515492.8519988,287088.3125,308262.5,316785.65625,287160.28125,292567.1875,300201.5625,267900.78125,301853.875,0.013671875,0.95361328125,-0.30908203125,1.6174315214157104,1.7395018339157104,2.258300542831421,80.0,956679.0,1.0
515492.852013,285083.28125,307985.25,317435.65625,287409.90625,294839.1875,301466.3125,268400.5625,302443.71875,0.01318359375,0.95556640625,-0.31396484375,1.4648436307907104,1.7089842557907104,2.136230230331421,80.0,956680.0,1.0
515492.8593707,284051.4375,309546.90625,319742.875,294133.875,301763.84375,304453.84375,269523.53125,305247.6875,0.011474609375,0.954833984375,-0.313720703125,1.3732908964157104,1.8615721464157104,2.044677495956421,80.0,956681.0,1.0
515492.8644955,285430.0,310775.8125,320466.71875,297907.1875,303646.5,304983.03125,269696.4375,306337.28125,0.011962890625,0.955078125,-0.313720703125,1.1901854276657104,1.8310545682907104,1.9531248807907104,80.0,956682.0,1.0
515492.8668377,287414.46875,309990.46875,318611.25,293465.71875,297823.875,302306.28125,268677.5625,304182.3125,0.01318359375,0.95654296875,-0.312744140625,1.0070799589157104,1.8920897245407104,1.7395018339157104,80.0,956683.0,1.0
515492.8693022,287087.6875,308259.90625,316771.1875,287158.875,292553.5,300194.84375,267896.65625,301843.0625,0.013427734375,0.9560546875,-0.314697265625,0.8544921278953552,1.8920897245407104,1.5258787870407104,80.0,956684.0,1.0
515492.8732559,285075.78125,307969.21875,317404.96875,287387.75,294801.71875,301444.84375,268384.21875,302420.28125,0.013427734375,0.9560546875,-0.313232421875,0.7324218153953552,1.9226073026657104,1.4038084745407104,80.0,956685.0,1.0
515492.8820342,284018.1875,309511.25,319701.65625,294084.40625,301709.59375,304424.5,269506.96875,305215.0625,0.016845703125,0.953857421875,-0.311279296875,0.5187987685203552,2.075195074081421,1.1901854276657104,80.0,956686.0,1.0
515492.882056,285389.59375,310742.8125,320432.75,297866.6875,303614.5,304965.15625,269683.28125,306313.0625,0.014892578125,0.953857421875,-0.3115234375,0.3662109076976776,2.166747808456421,1.0681151151657104,80.0,956687.0,1.0
515492.8845228,287413.21875,310001.71875,318606.34375,293473.40625,297839.34375,302319.59375,268682.8125,304188.65625,0.015625,0.95166015625,-0.3095703125,0.1220703050494194,2.258300542831421,1.0070799589157104,80.0,956688.0,1.0
515492.9183505,287116.125,308297.0,316783.6875,287188.28125,292587.21875,300219.4375,267913.5625,301861.5,0.016357421875,0.95068359375,-0.31005859375,0.03051757626235485,2.288818120956421,0.8239745497703552,80.0,956689.0,1.0
515492.9183938,285094.09375,307999.28125,317417.6875,287399.28125,294820.5,301463.0,268400.84375,302428.0625,0.014404296875,0.94970703125,-0.310791015625,-0.0610351525247097,2.441406011581421,0.7324218153953552,80.0,956690.0,1.0
515492.9306836,284012.8125,309520.1875,319707.21875,294070.90625,301708.875,304427.8125,269512.875,305210.5,0.014892578125,0.95068359375,-0.312744140625,-0.2136230319738388,2.380370855331421,0.5493163466453552,80.0,956691.0,1.0
515492.9333194,285386.625,310752.375,320446.34375,297857.9375,303622.34375,304973.75,269691.78125,306311.09375,0.01513671875,0.951416015625,-0.308837890625,-0.3051757514476776,2.502441167831421,0.4272460639476776,80.0,956692.0,1.0
515492.9356817,287439.0625,310031.5,318633.4375,293494.4375,297872.78125,302342.59375,268702.125,304199.5625,0.015625,0.951171875,-0.307373046875,-0.3662109076976776,2.563476324081421,0.3356933295726776,80.0,956693.0,1.0
515492.9381599,287162.0,308339.90625,316810.0625,287225.5625,292625.5625,300249.125,267937.78125,301878.46875,0.015380859375,0.951171875,-0.306640625,-0.5798339247703552,2.685546636581421,0.2136230319738388,80.0,956694.0,1.0
515492.9408518,285126.28125,308030.46875,317425.8125,287411.09375,294829.1875,301475.6875,268408.625,302433.875,0.016357421875,0.95068359375,-0.306396484375,-0.7324218153953552,2.655029058456421,0.0,80.0,956695.0,1.0
515492.9456682,284027.03125,309543.0625,319705.34375,294055.4375,301699.75,304431.3125,269515.5625,305210.03125,0.015380859375,0.952392578125,-0.301025390625,-0.8850097060203552,2.746581792831421,0.0,80.0,956696.0,1.0
515492.9482824,285394.78125,310778.21875,320447.5,297848.8125,303625.5625,304983.75,269700.90625,306317.96875,0.01416015625,0.952392578125,-0.299560546875,-1.1291502714157104,2.807616949081421,-0.1220703050494194,80.0,956697.0,1.0
515492.9508398,287446.5,310056.0,318636.125,293497.09375,297880.90625,302349.46875,268700.71875,304203.15625,0.012939453125,0.955322265625,-0.298583984375,-1.2512205839157104,2.838134527206421,-0.0610351525247097,80.0,956698.0,1.0
515492.950882,287172.625,308364.9375,316810.78125,287226.71875,292625.125,300250.8125,267923.5,301878.125,0.011474609375,0.95166015625,-0.300048828125,-1.2512205839157104,2.838134527206421,-0.1831054538488388,80.0,956699.0,1.0
515492.9533649,285126.28125,308042.46875,317421.4375,287394.625,294818.71875,301475.0625,268397.34375,302427.0,0.008544921875,0.95263671875,-0.3017578125,-1.3122557401657104,2.868652105331421,-0.3356933295726776,80.0,956700.0,1.0
515492.9557666,284020.3125,309549.6875,319705.5,294033.0,301693.5,304433.8125,269506.25,305202.0,0.006591796875,0.95166015625,-0.30224609375,-1.3122557401657104,2.716064214706421,-0.3662109076976776,80.0,956701.0,1.0
515492.9582529,285389.59375,310789.65625,320456.0,297836.125,303630.03125,304990.28125,269691.78125,306315.28125,0.0048828125,0.95263671875,-0.3017578125,-1.3122557401657104,2.655029058456421,-0.4577636420726776,80.0,956702.0,1.0
515492.958298,287438.53125,310061.1875,318641.03125,293484.6875,297883.15625,302354.375,268693.8125,304201.96875,0.006591796875,0.951416015625,-0.30078125,-1.1596678495407104,2.624511480331421,-0.3967284858226776,80.0,956703.0,1.0
515492.9608018,287155.1875,308351.375,316802.71875,287195.15625,292608.40625,300243.3125,267916.59375,301869.4375,0.005126953125,0.952880859375,-0.30224609375,-1.1291502714157104,2.532958745956421,-0.3967284858226776,80.0,956704.0,1.0
515492.9632019,285120.9375,308033.875,317410.53125,287363.53125,294800.65625,301466.40625,268395.46875,302421.875,0.003662109375,0.953125,-0.298828125,-0.9765624403953552,2.410888433456421,-0.4577636420726776,80.0,956705.0,1.0
515492.9681439,284033.8125,309558.53125,319697.5625,294024.78125,301695.53125,304434.875,269511.8125,305206.65625,0.00390625,0.95361328125,-0.299560546875,-0.9460448622703552,2.288818120956421,-0.3967284858226776,80.0,956706.0,1.0
515492.9757474,285397.1875,310795.9375,320444.71875,297839.875,303644.34375,304994.125,269698.21875,306320.65625,0.002197265625,0.9521484375,-0.2978515625,-0.9460448622703552,2.105712652206421,-0.2136230319738388,80.0,956707.0,1.0
515492.9757866,287436.65625,310059.65625,318630.46875,293485.84375,297890.75,302352.78125,268702.21875,304204.5,0.002197265625,0.955078125,-0.30029296875,-0.9155272841453552,1.9226073026657104,-0.2441406100988388,80.0,956708.0,1.0
515492.9782743,287156.53125,308350.65625,316798.875,287195.78125,292611.4375,300238.03125,267930.1875,301872.03125,0.000244140625,0.955322265625,-0.297607421875,-0.8544921278953552,1.7395018339157104,-0.2136230319738388,80.0,956709.0,1.0
515492.98073,285132.46875,308043.0,317416.78125,287368.0625,294811.375,301468.0,268411.03125,302427.625,0.000732421875,0.956298828125,-0.29931640625,-0.7629393935203552,1.5563963651657104,-0.2136230319738388,80.0,956710.0,1.0
515492.9807661,284051.78125,309579.46875,319712.46875,294035.5,301714.21875,304446.0625,269527.71875,305216.9375,0.000732421875,0.956298828125,-0.29931640625,-0.7934569716453552,1.4648436307907104,-0.03051757626235485,80.0,956711.0,1.0
515492.9824556,285415.59375,310824.34375,320466.375,297864.375,303669.375,305011.28125,269715.28125,306337.375,-0.00048828125,0.957275390625,-0.29833984375,-0.7629393935203552,1.2817381620407104,0.03051757626235485,80.0,956712.0,1.0
515492.9945769,287452.46875,310088.625,318651.03125,293524.03125,297919.1875,302369.3125,268713.9375,304222.0,0.001953125,0.95703125,-0.302734375,-0.7019042372703552,1.0375975370407104,0.1831054538488388,80.0,956713.0,1.0
515492.9994837,287174.59375,308376.46875,316815.59375,287235.125,292628.25,300248.6875,267936.0,301882.125,0.004150390625,0.955322265625,-0.301025390625,-0.6408690810203552,0.8544921278953552,0.2746581733226776,80.0,956714.0,1.0
515492.9995237,285144.15625,308050.3125,317420.8125,287381.21875,294799.3125,301463.71875,268409.78125,302418.5,0.00390625,0.957763671875,-0.301513671875,-0.6408690810203552,0.7629393935203552,0.3051757514476776,80.0,956715.0,1.0
515493.0019753,284044.90625,309568.625,319706.6875,294028.1875,301691.875,304434.34375,269525.75,305197.71875,0.004150390625,0.957763671875,-0.300048828125,-0.7324218153953552,0.6103515028953552,0.4577636420726776,80.0,956716.0,1.0
515493.0044202,285415.53125,310827.75,320474.3125,297877.96875,303675.09375,305016.46875,269727.09375,306331.46875,0.0029296875,0.958251953125,-0.300048828125,-0.7019042372703552,0.4272460639476776,0.5798339247703552,80.0,956717.0,1.0
515493.0094296,287473.21875,310111.34375,318667.40625,293567.8125,297943.75,302384.34375,268730.84375,304228.53125,0.004638671875,0.95849609375,-0.302001953125,-0.7019042372703552,0.4272460639476776,0.6713866591453552,80.0,956718.0,1.0
515493.0195226,287201.4375,308402.21875,316824.28125,287284.125,292649.34375,300262.25,267955.5,301889.46875,0.005859375,0.958740234375,-0.3017578125,-0.7324218153953552,0.3967284858226776,0.7629393935203552,80.0,956719.0,1.0
515493.0220011,285149.71875,308061.5,317414.28125,287406.0625,294797.53125,301460.40625,268420.5,302419.125,0.008056640625,0.957275390625,-0.29833984375,-0.8239745497703552,0.2746581733226776,0.7934569716453552,80.0,956720.0,1.0
515493.0220358,284032.65625,309567.90625,319695.75,294035.6875,301676.40625,304421.9375,269523.4375,305192.0625,0.007568359375,0.95947265625,-0.298828125,-0.9155272841453552,0.1525878757238388,0.8850097060203552,80.0,956721.0,1.0
515493.0236217,285403.0,310830.875,320466.71875,297894.0625,303671.34375,305008.6875,269715.28125,306329.25,0.00927734375,0.95849609375,-0.299072265625,-0.9765624403953552,0.1220703050494194,1.0070799589157104,80.0,956722.0,1.0
515493.0524493,287482.4375,310132.78125,318675.8125,293605.46875,297968.4375,302394.8125,268724.5625,304232.375,0.010498046875,0.958251953125,-0.299072265625,-1.0070799589157104,0.2136230319738388,1.1291502714157104,80.0,956723.0,1.0
515493.068174,287238.09375,308445.25,316844.84375,287328.03125,292672.59375,300273.71875,267945.21875,301896.8125,0.011474609375,0.954345703125,-0.30126953125,-1.1291502714157104,0.2746581733226776,1.1596678495407104,80.0,956724.0,1.0
515493.0706964,285191.28125,308110.84375,317436.1875,287439.875,294809.78125,301472.5625,268412.8125,302425.71875,0.013916015625,0.953125,-0.3017578125,-1.1291502714157104,0.3662109076976776,1.2817381620407104,80.0,956725.0,1.0
515493.0731476,284056.25,309606.0,319711.21875,294055.0,301683.375,304435.96875,269523.78125,305195.75,0.01416015625,0.951904296875,-0.29931640625,-1.0375975370407104,0.3051757514476776,1.1596678495407104,80.0,956726.0,1.0
515493.074838,285416.3125,310861.0,320480.59375,297915.25,303685.9375,305026.21875,269725.125,306333.8125,0.01513671875,0.951904296875,-0.301513671875,-0.9460448622703552,0.4577636420726776,1.2512205839157104,80.0,956727.0,1.0
515493.104509,287507.90625,310177.9375,318691.71875,293631.46875,297985.5,302414.5625,268742.46875,304245.625,0.015625,0.9521484375,-0.302734375,-0.8850097060203552,0.5187987685203552,1.3732908964157104,80.0,956728.0,1.0
515493.1119537,287259.96875,308486.53125,316857.0,287341.625,292688.59375,300291.59375,267966.6875,301906.1875,0.017578125,0.951904296875,-0.299072265625,-0.7324218153953552,0.6713866591453552,1.3732908964157104,80.0,956729.0,1.0
515493.114332,285206.40625,308137.6875,317440.65625,287442.375,294817.09375,301478.90625,268431.40625,302429.03125,0.019287109375,0.952880859375,-0.30029296875,-0.6103515028953552,0.7934569716453552,1.3732908964157104,80.0,956730.0,1.0
515493.1168832,284079.875,309637.65625,319724.03125,294075.21875,301701.90625,304446.6875,269548.46875,305210.84375,0.020263671875,0.951171875,-0.302734375,-0.5187987685203552,0.8850097060203552,1.3732908964157104,80.0,956731.0,1.0
515493.1218461,285432.0625,310886.0625,320493.90625,297943.84375,303709.53125,305036.78125,269748.46875,306349.90625,0.017822265625,0.949951171875,-0.302490234375,-0.5187987685203552,1.0681151151657104,1.3732908964157104,80.0,956732.0,1.0
