Time,FZ,C3,CZ,C4,PZ,PO7,OZ,PO8,AccX,AccY,AccZ,Gyro1,Gyro2,Gyro3,Battery,Counter,Validation
558999.918606,305447.875,293884.40625,328502.0,324776.75,367959.71875,294293.53125,295057.625,297321.3125,-0.115234375,0.82373046875,-0.537109375,-2.593993902206421,-1.6479490995407104,-4.150390148162842,100.0,66326.0,1.0
558999.9211258,305615.9375,296217.9375,330203.0625,325553.1875,371203.75,296633.84375,296164.125,298084.5625,-0.110595703125,0.82080078125,-0.533935546875,-2.746581792831421,-2.258300542831421,-4.302978038787842,100.0,66327.0,1.0
558999.9236724,305708.3125,298861.34375,332417.3125,326495.0625,377985.1875,299708.375,298101.03125,299043.90625,-0.108154296875,0.817626953125,-0.53466796875,-2.746581792831421,-2.899169683456421,-4.241942882537842,100.0,66328.0,1.0
558999.9263425,305577.0625,298055.34375,331958.65625,326225.875,378617.03125,299153.875,298069.8125,298822.8125,-0.104736328125,0.8173828125,-0.5361328125,-2.502441167831421,-3.417968511581421,-4.425048351287842,100.0,66329.0,1.0
558999.928806,305427.46875,294937.90625,329490.75,325147.625,372101.5,295739.625,296091.25,297740.375,-0.102783203125,0.81982421875,-0.5380859375,-2.227782964706421,-3.967284917831421,-4.302978038787842,100.0,66330.0,1.0
558999.9313362,305408.71875,293847.125,328409.09375,324696.375,367469.21875,294216.28125,294856.4375,297261.0625,-0.099853515625,0.821533203125,-0.5419921875,-2.258300542831421,-4.302978038787842,-4.150390148162842,100.0,66331.0,1.0
558999.9338333,305565.34375,296154.1875,330088.53125,325447.75,370632.8125,296514.59375,295917.09375,298005.53125,-0.098876953125,0.820068359375,-0.543701171875,-2.014159917831421,-4.638671398162842,-3.936767339706421,100.0,66332.0,1.0
559000.007437,305674.59375,298841.0625,332325.84375,326412.71875,377403.84375,299621.9375,297852.46875,298993.5625,-0.09814453125,0.82177734375,-0.54248046875,-1.5563963651657104,-4.760741710662842,-3.662109136581421,100.0,66333.0,1.0
559000.0074761,305563.28125,298087.78125,331900.53125,326188.6875,378067.875,299109.90625,297859.71875,298799.5625,-0.0986328125,0.8251953125,-0.542724609375,-1.2207030057907104,-4.699706554412842,-3.448486089706421,100.0,66334.0,1.0
559000.0074851,305410.125,294970.25,329429.5,325119.5625,371529.65625,295703.125,295904.3125,297702.09375,-0.099853515625,0.82763671875,-0.542724609375,-0.5493163466453552,-4.547118663787842,-3.021239995956421,100.0,66335.0,1.0
559000.0074932,305405.03125,293872.78125,328359.03125,324677.78125,366864.5625,294192.875,294693.1875,297226.53125,-0.099609375,0.8291015625,-0.542236328125,-0.1220703050494194,-4.486083507537842,-2.899169683456421,100.0,66336.0,1.0
559000.0075031,305566.0625,296174.84375,330056.4375,325432.375,370016.0625,296494.21875,295770.625,297966.90625,-0.100341796875,0.834228515625,-0.541748046875,0.4272460639476776,-4.211425304412842,-2.563476324081421,100.0,66337.0,1.0
559000.0101522,305674.59375,298863.3125,332310.375,326391.46875,376801.15625,299594.40625,297714.78125,298945.75,-0.10400390625,0.83935546875,-0.54052734375,1.0986326932907104,-3.875732183456421,-2.319335699081421,100.0,66338.0,1.0
559000.0101925,305555.15625,298108.90625,331885.15625,326147.8125,377464.46875,299069.9375,297707.46875,298742.78125,-0.1044921875,0.8447265625,-0.542236328125,1.6784666776657104,-3.570556402206421,-2.105712652206421,100.0,66339.0,1.0
559000.0150966,305392.0,294971.34375,329395.625,325063.5,370890.28125,295633.03125,295725.3125,297636.46875,-0.107177734375,0.849365234375,-0.537841796875,1.9226073026657104,-3.204345464706421,-2.105712652206421,100.0,66340.0,1.0
559000.0175787,305382.34375,293849.71875,328299.5,324616.71875,366155.375,294088.4375,294488.71875,297151.53125,-0.10693359375,0.85498046875,-0.533447265625,1.8920897245407104,-2.868652105331421,-2.014159917831421,100.0,66341.0,1.0
559000.0226421,305505.96875,296109.03125,329948.5,325328.6875,369211.75,296341.3125,295520.375,297857.3125,-0.110107421875,0.86181640625,-0.529052734375,1.6784666776657104,-2.593993902206421,-1.9836424589157104,100.0,66342.0,1.0
559000.0249666,305628.28125,298815.65625,332225.71875,326306.34375,376011.875,299475.75,297498.4375,298857.21875,-0.11181640625,0.865234375,-0.526611328125,1.1291502714157104,-2.441406011581421,-1.9226073026657104,100.0,66343.0,1.0
559000.0275883,305529.59375,298091.0,331840.28125,326101.40625,376749.59375,299002.34375,297552.59375,298688.0,-0.1142578125,0.8681640625,-0.52783203125,0.6103515028953552,-2.319335699081421,-1.8920897245407104,100.0,66344.0,1.0
559000.101356,305363.28125,294955.78125,329359.5,325027.71875,370224.03125,295582.53125,295600.21875,297591.78125,-0.118896484375,0.86865234375,-0.532470703125,-0.3356933295726776,-2.288818120956421,-1.8310545682907104,100.0,66345.0,1.0
559000.1013963,305356.5,293831.9375,328269.34375,324591.78125,365516.84375,294043.84375,294385.625,297117.09375,-0.119384765625,0.867919921875,-0.530029296875,-0.9460448622703552,-2.380370855331421,-1.8920897245407104,100.0,66346.0,1.0
559000.1014052,305520.1875,296125.65625,329959.0625,325350.21875,368629.09375,296329.6875,295466.75,297857.46875,-0.12109375,0.863037109375,-0.53369140625,-1.7700194120407104,-2.532958745956421,-1.8615721464157104,100.0,66347.0,1.0
559000.1014132,305654.125,298866.34375,332269.5,326347.375,375519.25,299495.15625,297482.875,298877.875,-0.125,0.8583984375,-0.53662109375,-2.136230230331421,-2.746581792831421,-1.7700194120407104,100.0,66348.0,1.0
559000.1014211,305543.8125,298152.34375,331894.8125,326135.3125,376349.125,299040.78125,297562.71875,298708.8125,-0.12646484375,0.85498046875,-0.53955078125,-2.349853277206421,-3.051757574081421,-1.5869139432907104,100.0,66349.0,1.0
559000.1014291,305374.90625,295014.25,329410.0,325054.375,369872.3125,295624.375,295628.9375,297612.40625,-0.12744140625,0.8544921875,-0.54150390625,-2.410888433456421,-3.387450933456421,-1.5258787870407104,100.0,66350.0,1.0
559000.1014375,305371.4375,293881.09375,328309.6875,324609.125,365179.15625,294077.71875,294410.03125,297141.5,-0.126953125,0.853271484375,-0.540283203125,-2.349853277206421,-3.662109136581421,-1.3732908964157104,100.0,66351.0,1.0
559000.1014454,305565.875,296214.375,330031.5625,325393.03125,368359.4375,296402.65625,295507.6875,297919.34375,-0.122314453125,0.849853515625,-0.53857421875,-2.288818120956421,-3.967284917831421,-1.2207030057907104,100.0,66352.0,1.0
559000.1090043,305697.9375,298983.28125,332361.4375,326394.3125,375325.9375,299596.0,297527.40625,298947.625,-0.1181640625,0.844970703125,-0.5390625,-1.9836424589157104,-4.180907726287842,-0.8544921278953552,100.0,66353.0,1.0
559000.1090441,305588.40625,298292.8125,332004.15625,326185.46875,376228.6875,299169.96875,297625.375,298785.71875,-0.113525390625,0.840087890625,-0.539794921875,-1.6784666776657104,-4.394530773162842,-0.3051757514476776,100.0,66354.0,1.0
559000.1090535,305409.59375,295128.78125,329497.4375,325090.3125,369742.5,295738.28125,295679.71875,297679.375,-0.111328125,0.8369140625,-0.53857421875,-1.0986326932907104,-4.455565929412842,0.1525878757238388,100.0,66355.0,1.0
559000.1114034,305395.9375,293972.21875,328371.625,324630.59375,365016.96875,294170.78125,294462.625,297186.46875,-0.10693359375,0.83642578125,-0.541015625,-0.4882812201976776,-4.486083507537842,0.4577636420726776,100.0,66356.0,1.0
559000.1114739,305395.9375,293972.21875,328371.625,324630.59375,365016.96875,294170.78125,294462.625,297186.46875,-0.10693359375,0.83642578125,-0.541015625,-0.4882812201976776,-4.486083507537842,0.4577636420726776,100.0,66357.0,0.0
559000.1114757,305395.9375,293972.21875,328371.625,324630.59375,365016.96875,294170.78125,294462.625,297186.46875,-0.10693359375,0.83642578125,-0.541015625,-0.4882812201976776,-4.486083507537842,0.4577636420726776,100.0,66358.0,0.0
559000.1114773,305395.9375,293972.21875,328371.625,324630.59375,365016.96875,294170.78125,294462.625,297186.46875,-0.10693359375,0.83642578125,-0.541015625,-0.4882812201976776,-4.486083507537842,0.4577636420726776,100.0,66359.0,0.0
559000.1114786,305395.9375,293972.21875,328371.625,324630.59375,365016.96875,294170.78125,294462.625,297186.46875,-0.10693359375,0.83642578125,-0.541015625,-0.4882812201976776,-4.486083507537842,0.4577636420726776,100.0,66360.0,0.0
559000.11148,305395.9375,293972.21875,328371.625,324630.59375,365016.96875,294170.78125,294462.625,297186.46875,-0.10693359375,0.83642578125,-0.541015625,-0.4882812201976776,-4.486083507537842,0.4577636420726776,100.0,66361.0,0.0
559000.1114814,305395.9375,293972.21875,328371.625,324630.59375,365016.96875,294170.78125,294462.625,297186.46875,-0.10693359375,0.83642578125,-0.541015625,-0.4882812201976776,-4.486083507537842,0.4577636420726776,100.0,66362.0,0.0
559000.1114828,305395.9375,293972.21875,328371.625,324630.59375,365016.96875,294170.78125,294462.625,297186.46875,-0.10693359375,0.83642578125,-0.541015625,-0.4882812201976776,-4.486083507537842,0.4577636420726776,100.0,66363.0,0.0
559000.1114842,305395.9375,293972.21875,328371.625,324630.59375,365016.96875,294170.78125,294462.625,297186.46875,-0.10693359375,0.83642578125,-0.541015625,-0.4882812201976776,-4.486083507537842,0.4577636420726776,100.0,66364.0,0.0
559000.1114856,305395.9375,293972.21875,328371.625,324630.59375,365016.96875,294170.78125,294462.625,297186.46875,-0.10693359375,0.83642578125,-0.541015625,-0.4882812201976776,-4.486083507537842,0.4577636420726776,100.0,66365.0,0.0
559000.1114869,305395.9375,293972.21875,328371.625,324630.59375,365016.96875,294170.78125,294462.625,297186.46875,-0.10693359375,0.83642578125,-0.541015625,-0.4882812201976776,-4.486083507537842,0.4577636420726776,100.0,66366.0,0.0
559000.1114883,305395.9375,293972.21875,328371.625,324630.59375,365016.96875,294170.78125,294462.625,297186.46875,-0.10693359375,0.83642578125,-0.541015625,-0.4882812201976776,-4.486083507537842,0.4577636420726776,100.0,66367.0,0.0
559000.1114897,305395.9375,293972.21875,328371.625,324630.59375,365016.96875,294170.78125,294462.625,297186.46875,-0.10693359375,0.83642578125,-0.541015625,-0.4882812201976776,-4.486083507537842,0.4577636420726776,100.0,66368.0,0.0
559000.1114911,305395.9375,293972.21875,328371.625,324630.59375,365016.96875,294170.78125,294462.625,297186.46875,-0.10693359375,0.83642578125,-0.541015625,-0.4882812201976776,-4.486083507537842,0.4577636420726776,100.0,66369.0,0.0
559000.1114925,305395.9375,293972.21875,328371.625,324630.59375,365016.96875,294170.78125,294462.625,297186.46875,-0.10693359375,0.83642578125,-0.541015625,-0.4882812201976776,-4.486083507537842,0.4577636420726776,100.0,66370.0,0.0
559000.1114938,305395.9375,293972.21875,328371.625,324630.59375,365016.96875,294170.78125,294462.625,297186.46875,-0.10693359375,0.83642578125,-0.541015625,-0.4882812201976776,-4.486083507537842,0.4577636420726776,100.0,66371.0,0.0
559000.1114952,305395.9375,293972.21875,328371.625,324630.59375,365016.96875,294170.78125,294462.625,297186.46875,-0.10693359375,0.83642578125,-0.541015625,-0.4882812201976776,-4.486083507537842,0.4577636420726776,100.0,66372.0,0.0
559000.1114966,305395.9375,293972.21875,328371.625,324630.59375,365016.96875,294170.78125,294462.625,297186.46875,-0.10693359375,0.83642578125,-0.541015625,-0.4882812201976776,-4.486083507537842,0.4577636420726776,100.0,66373.0,0.0
559000.111498,305395.9375,293972.21875,328371.625,324630.59375,365016.96875,294170.78125,294462.625,297186.46875,-0.10693359375,0.83642578125,-0.541015625,-0.4882812201976776,-4.486083507537842,0.4577636420726776,100.0,66374.0,0.0
559000.1114994,305395.9375,293972.21875,328371.625,324630.59375,365016.96875,294170.78125,294462.625,297186.46875,-0.10693359375,0.83642578125,-0.541015625,-0.4882812201976776,-4.486083507537842,0.4577636420726776,100.0,66375.0,0.0
559000.1115008,305395.9375,293972.21875,328371.625,324630.59375,365016.96875,294170.78125,294462.625,297186.46875,-0.10693359375,0.83642578125,-0.541015625,-0.4882812201976776,-4.486083507537842,0.4577636420726776,100.0,66376.0,0.0
559000.1115022,305395.9375,293972.21875,328371.625,324630.59375,365016.96875,294170.78125,294462.625,297186.46875,-0.10693359375,0.83642578125,-0.541015625,-0.4882812201976776,-4.486083507537842,0.4577636420726776,100.0,66377.0,0.0
559000.1115037,305395.9375,293972.21875,328371.625,324630.59375,365016.96875,294170.78125,294462.625,297186.46875,-0.10693359375,0.83642578125,-0.541015625,-0.4882812201976776,-4.486083507537842,0.4577636420726776,100.0,66378.0,0.0
559000.1115051,305395.9375,293972.21875,328371.625,324630.59375,365016.96875,294170.78125,294462.625,297186.46875,-0.10693359375,0.83642578125,-0.541015625,-0.4882812201976776,-4.486083507537842,0.4577636420726776,100.0,66379.0,0.0
559000.1115064,305395.9375,293972.21875,328371.625,324630.59375,365016.96875,294170.78125,294462.625,297186.46875,-0.10693359375,0.83642578125,-0.541015625,-0.4882812201976776,-4.486083507537842,0.4577636420726776,100.0,66380.0,0.0
559000.1115078,305395.9375,293972.21875,328371.625,324630.59375,365016.96875,294170.78125,294462.625,297186.46875,-0.10693359375,0.83642578125,-0.541015625,-0.4882812201976776,-4.486083507537842,0.4577636420726776,100.0,66381.0,0.0
559000.1115092,305395.9375,293972.21875,328371.625,324630.59375,365016.96875,294170.78125,294462.625,297186.46875,-0.10693359375,0.83642578125,-0.541015625,-0.4882812201976776,-4.486083507537842,0.4577636420726776,100.0,66382.0,0.0
559000.1115106,305395.9375,293972.21875,328371.625,324630.59375,365016.96875,294170.78125,294462.625,297186.46875,-0.10693359375,0.83642578125,-0.541015625,-0.4882812201976776,-4.486083507537842,0.4577636420726776,100.0,66383.0,0.0
559000.111512,305395.9375,293972.21875,328371.625,324630.59375,365016.96875,294170.78125,294462.625,297186.46875,-0.10693359375,0.83642578125,-0.541015625,-0.4882812201976776,-4.486083507537842,0.4577636420726776,100.0,66384.0,0.0
559000.1115134,305395.9375,293972.21875,328371.625,324630.59375,365016.96875,294170.78125,294462.625,297186.46875,-0.10693359375,0.83642578125,-0.541015625,-0.4882812201976776,-4.486083507537842,0.4577636420726776,100.0,66385.0,0.0
559000.1115148,305395.9375,293972.21875,328371.625,324630.59375,365016.96875,294170.78125,294462.625,297186.46875,-0.10693359375,0.83642578125,-0.541015625,-0.4882812201976776,-4.486083507537842,0.4577636420726776,100.0,66386.0,0.0
559000.1115161,305395.9375,293972.21875,328371.625,324630.59375,365016.96875,294170.78125,294462.625,297186.46875,-0.10693359375,0.83642578125,-0.541015625,-0.4882812201976776,-4.486083507537842,0.4577636420726776,100.0,66387.0,0.0
559000.1115175,305395.9375,293972.21875,328371.625,324630.59375,365016.96875,294170.78125,294462.625,297186.46875,-0.10693359375,0.83642578125,-0.541015625,-0.4882812201976776,-4.486083507537842,0.4577636420726776,100.0,66388.0,0.0
559000.1115189,305395.9375,293972.21875,328371.625,324630.59375,365016.96875,294170.78125,294462.625,297186.46875,-0.10693359375,0.83642578125,-0.541015625,-0.4882812201976776,-4.486083507537842,0.4577636420726776,100.0,66389.0,0.0
559000.1115203,305395.9375,293972.21875,328371.625,324630.59375,365016.96875,294170.78125,294462.625,297186.46875,-0.10693359375,0.83642578125,-0.541015625,-0.4882812201976776,-4.486083507537842,0.4577636420726776,100.0,66390.0,0.0
559000.1115217,305395.9375,293972.21875,328371.625,324630.59375,365016.96875,294170.78125,294462.625,297186.46875,-0.10693359375,0.83642578125,-0.541015625,-0.4882812201976776,-4.486083507537842,0.4577636420726776,100.0,66391.0,0.0
559000.1115231,305395.9375,293972.21875,328371.625,324630.59375,365016.96875,294170.78125,294462.625,297186.46875,-0.10693359375,0.83642578125,-0.541015625,-0.4882812201976776,-4.486083507537842,0.4577636420726776,100.0,66392.0,0.0
559000.1115245,305395.9375,293972.21875,328371.625,324630.59375,365016.96875,294170.78125,294462.625,297186.46875,-0.10693359375,0.83642578125,-0.541015625,-0.4882812201976776,-4.486083507537842,0.4577636420726776,100.0,66393.0,0.0
559000.1115259,305395.9375,293972.21875,328371.625,324630.59375,365016.96875,294170.78125,294462.625,297186.46875,-0.10693359375,0.83642578125,-0.541015625,-0.4882812201976776,-4.486083507537842,0.4577636420726776,100.0,66394.0,0.0
559000.1115272,305395.9375,293972.21875,328371.625,324630.59375,365016.96875,294170.78125,294462.625,297186.46875,-0.10693359375,0.83642578125,-0.541015625,-0.4882812201976776,-4.486083507537842,0.4577636420726776,100.0,66395.0,0.0
559000.1115286,305395.9375,293972.21875,328371.625,324630.59375,365016.96875,294170.78125,294462.625,297186.46875,-0.10693359375,0.83642578125,-0.541015625,-0.4882812201976776,-4.486083507537842,0.4577636420726776,100.0,66396.0,0.0
559000.11153,305395.9375,293972.21875,328371.625,324630.59375,365016.96875,294170.78125,294462.625,297186.46875,-0.10693359375,0.83642578125,-0.541015625,-0.4882812201976776,-4.486083507537842,0.4577636420726776,100.0,66397.0,0.0
559000.1115313,305395.9375,293972.21875,328371.625,324630.59375,365016.96875,294170.78125,294462.625,297186.46875,-0.10693359375,0.83642578125,-0.541015625,-0.4882812201976776,-4.486083507537842,0.4577636420726776,100.0,66398.0,0.0
559000.1115327,305395.9375,293972.21875,328371.625,324630.59375,365016.96875,294170.78125,294462.625,297186.46875,-0.10693359375,0.83642578125,-0.541015625,-0.4882812201976776,-4.486083507537842,0.4577636420726776,100.0,66399.0,0.0
559000.1115341,305395.9375,293972.21875,328371.625,324630.59375,365016.96875,294170.78125,294462.625,297186.46875,-0.10693359375,0.83642578125,-0.541015625,-0.4882812201976776,-4.486083507537842,0.4577636420726776,100.0,66400.0,0.0
559000.1115355,305395.9375,293972.21875,328371.625,324630.59375,365016.96875,294170.78125,294462.625,297186.46875,-0.10693359375,0.83642578125,-0.541015625,-0.4882812201976776,-4.486083507537842,0.4577636420726776,100.0,66401.0,0.0
559000.1115368,305395.9375,293972.21875,328371.625,324630.59375,365016.96875,294170.78125,294462.625,297186.46875,-0.10693359375,0.83642578125,-0.541015625,-0.4882812201976776,-4.486083507537842,0.4577636420726776,100.0,66402.0,0.0
559000.1115382,305395.9375,293972.21875,328371.625,324630.59375,365016.96875,294170.78125,294462.625,297186.46875,-0.10693359375,0.83642578125,-0.541015625,-0.4882812201976776,-4.486083507537842,0.4577636420726776,100.0,66403.0,0.0
559000.1115396,305395.9375,293972.21875,328371.625,324630.59375,365016.96875,294170.78125,294462.625,297186.46875,-0.10693359375,0.83642578125,-0.541015625,-0.4882812201976776,-4.486083507537842,0.4577636420726776,100.0,66404.0,0.0
559000.111541,305395.9375,293972.21875,328371.625,324630.59375,365016.96875,294170.78125,294462.625,297186.46875,-0.10693359375,0.83642578125,-0.541015625,-0.4882812201976776,-4.486083507537842,0.4577636420726776,100.0,66405.0,0.0
559000.1115424,305395.9375,293972.21875,328371.625,324630.59375,365016.96875,294170.78125,294462.625,297186.46875,-0.10693359375,0.83642578125,-0.541015625,-0.4882812201976776,-4.486083507537842,0.4577636420726776,100.0,66406.0,0.0
559000.1115437,305395.9375,293972.21875,328371.625,324630.59375,365016.96875,294170.78125,294462.625,297186.46875,-0.10693359375,0.83642578125,-0.541015625,-0.4882812201976776,-4.486083507537842,0.4577636420726776,100.0,66407.0,0.0
559000.1115451,305395.9375,293972.21875,328371.625,324630.59375,365016.96875,294170.78125,294462.625,297186.46875,-0.10693359375,0.83642578125,-0.541015625,-0.4882812201976776,-4.486083507537842,0.4577636420726776,100.0,66408.0,0.0
559000.1115465,305395.9375,293972.21875,328371.625,324630.59375,365016.96875,294170.78125,294462.625,297186.46875,-0.10693359375,0.83642578125,-0.541015625,-0.4882812201976776,-4.486083507537842,0.4577636420726776,100.0,66409.0,0.0
559000.1115479,305395.9375,293972.21875,328371.625,324630.59375,365016.96875,294170.78125,294462.625,297186.46875,-0.10693359375,0.83642578125,-0.541015625,-0.4882812201976776,-4.486083507537842,0.4577636420726776,100.0,66410.0,0.0
559000.1115493,305395.9375,293972.21875,328371.625,324630.59375,365016.96875,294170.78125,294462.625,297186.46875,-0.10693359375,0.83642578125,-0.541015625,-0.4882812201976776,-4.486083507537842,0.4577636420726776,100.0,66411.0,0.0
559000.1115507,305395.9375,293972.21875,328371.625,324630.59375,365016.96875,294170.78125,294462.625,297186.46875,-0.10693359375,0.83642578125,-0.541015625,-0.4882812201976776,-4.486083507537842,0.4577636420726776,100.0,66412.0,0.0
559000.1115521,305395.9375,293972.21875,328371.625,324630.59375,365016.96875,294170.78125,294462.625,297186.46875,-0.10693359375,0.83642578125,-0.541015625,-0.4882812201976776,-4.486083507537842,0.4577636420726776,100.0,66413.0,0.0
559000.1115535,305395.9375,293972.21875,328371.625,324630.59375,365016.96875,294170.78125,294462.625,297186.46875,-0.10693359375,0.83642578125,-0.541015625,-0.4882812201976776,-4.486083507537842,0.4577636420726776,100.0,66414.0,0.0
559000.1115549,305395.9375,293972.21875,328371.625,324630.59375,365016.96875,294170.78125,294462.625,297186.46875,-0.10693359375,0.83642578125,-0.541015625,-0.4882812201976776,-4.486083507537842,0.4577636420726776,100.0,66415.0,0.0
559000.1115562,305395.9375,293972.21875,328371.625,324630.59375,365016.96875,294170.78125,294462.625,297186.46875,-0.10693359375,0.83642578125,-0.541015625,-0.4882812201976776,-4.486083507537842,0.4577636420726776,100.0,66416.0,0.0
559000.1115576,305395.9375,293972.21875,328371.625,324630.59375,365016.96875,294170.78125,294462.625,297186.46875,-0.10693359375,0.83642578125,-0.541015625,-0.4882812201976776,-4.486083507537842,0.4577636420726776,100.0,66417.0,0.0
559000.111559,305395.9375,293972.21875,328371.625,324630.59375,365016.96875,294170.78125,294462.625,297186.46875,-0.10693359375,0.83642578125,-0.541015625,-0.4882812201976776,-4.486083507537842,0.4577636420726776,100.0,66418.0,0.0
559000.1115604,305395.9375,293972.21875,328371.625,324630.59375,365016.96875,294170.78125,294462.625,297186.46875,-0.10693359375,0.83642578125,-0.541015625,-0.4882812201976776,-4.486083507537842,0.4577636420726776,100.0,66419.0,0.0
559000.1115618,305395.9375,293972.21875,328371.625,324630.59375,365016.96875,294170.78125,294462.625,297186.46875,-0.10693359375,0.83642578125,-0.541015625,-0.4882812201976776,-4.486083507537842,0.4577636420726776,100.0,66420.0,0.0
559000.1115632,305395.9375,293972.21875,328371.625,324630.59375,365016.96875,294170.78125,294462.625,297186.46875,-0.10693359375,0.83642578125,-0.541015625,-0.4882812201976776,-4.486083507537842,0.4577636420726776,100.0,66421.0,0.0
559000.1115646,305886.78125,297139.0,331096.21875,325910.71875,377433.90625,298458.75,298089.6875,298671.4375,-0.07080078125,0.839599609375,-0.53857421875,0.8850097060203552,8.697508811950684,-2.655029058456421,100.0,66422.0,1.0
559000.111575,306042.6875,299968.84375,333488.84375,326955.15625,384623.75,301705.75,300150.3125,299712.40625,-0.071044921875,0.840087890625,-0.53759765625,0.6713866591453552,8.850096702575684,-2.899169683456421,100.0,66423.0,1.0
559000.1136789,305907.5,299338.875,333140.59375,326687.375,385741.25,301328.25,300196.71875,299540.9375,-0.07373046875,0.8369140625,-0.533447265625,0.4577636420726776,9.063719749450684,-3.295898199081421,100.0,66424.0,1.0
559000.1817133,305644.46875,296060.59375,330493.96875,325459.46875,379191.65625,297787.21875,298117.84375,298363.71875,-0.07470703125,0.8359375,-0.533447265625,0.3051757514476776,9.063719749450684,-3.601073980331421,100.0,66425.0,1.0
559000.1879626,305603.875,294713.9375,329232.53125,324981.78125,374295.8125,296061.46875,296827.0625,297833.96875,-0.075439453125,0.8369140625,-0.537109375,0.03051757626235485,8.880614280700684,-3.814697027206421,100.0,66426.0,1.0
559000.2626644,305840.28125,296981.28125,330948.53125,325850.28125,377488.4375,298332.15625,297973.53125,298618.34375,-0.074462890625,0.83837890625,-0.5380859375,-0.4272460639476776,8.666991233825684,-4.028319835662842,100.0,66427.0,1.0
559000.2627016,306045.90625,299875.5625,333398.71875,326945.875,384729.6875,301621.875,300085.15625,299703.75,-0.07470703125,0.8388671875,-0.53857421875,-0.8239745497703552,8.300780296325684,-3.997802495956421,100.0,66428.0,1.0
559000.2649698,305879.875,299259.21875,333054.96875,326667.4375,385866.0625,301243.25,300106.0625,299523.125,-0.076904296875,0.832275390625,-0.542236328125,-1.1901854276657104,7.965087413787842,-4.180907726287842,100.0,66429.0,1.0
559000.28496,305635.34375,296025.96875,330438.90625,325474.84375,379368.5,297733.125,298014.3125,298373.0,-0.07861328125,0.830810546875,-0.537841796875,-1.1596678495407104,7.843017101287842,-3.875732183456421,100.0,66430.0,1.0
559000.2849994,305616.125,294713.40625,329202.84375,325008.3125,374513.34375,296027.40625,296708.34375,297854.71875,-0.07958984375,0.82421875,-0.54150390625,-1.4648436307907104,7.232665538787842,-3.814697027206421,100.0,66431.0,1.0
559000.2850084,305842.34375,296977.90625,330912.75,325860.375,377693.625,298292.34375,297839.4375,298626.90625,-0.079833984375,0.822021484375,-0.541748046875,-0.8850097060203552,7.080077648162842,-3.967284917831421,100.0,66432.0,1.0
559000.2850162,306018.46875,299861.0,333350.71875,326929.0625,384929.5,301573.875,299919.125,299656.71875,-0.079833984375,0.818603515625,-0.540283203125,-0.5493163466453552,7.019042491912842,-3.845214605331421,100.0,66433.0,1.0
559000.2850242,305876.03125,299282.09375,333046.65625,326665.5,386147.78125,301240.1875,299987.15625,299472.25,-0.08251953125,0.812255859375,-0.540283203125,-0.2746581733226776,7.019042491912842,-3.601073980331421,100.0,66434.0,1.0
559000.2850321,305628.8125,296029.125,330423.25,325449.0,379674.15625,297732.65625,297933.5625,298303.0,-0.081787109375,0.80810546875,-0.54052734375,0.4272460639476776,6.988524913787842,-3.570556402206421,100.0,66435.0,1.0
559000.28504,305591.625,294663.15625,329145.90625,324971.03125,374758.5625,295987.34375,296643.34375,297784.25,-0.0859375,0.803955078125,-0.54150390625,1.3427733182907104,7.415771007537842,-3.570556402206421,100.0,66436.0,1.0
559000.2850478,305825.625,296924.625,330859.03125,325831.5,377920.0,298241.3125,297795.53125,298559.5,-0.091796875,0.802490234375,-0.54443359375,2.075195074081421,7.751464366912842,-3.601073980331421,100.0,66437.0,1.0
559000.2850563,306044.125,299872.4375,333358.65625,326926.28125,385219.5625,301568.21875,299906.6875,299633.1875,-0.0966796875,0.794921875,-0.55029296875,2.532958745956421,7.873534679412842,-3.540038824081421,100.0,66438.0,1.0
559000.2850643,305940.3125,299388.5625,333132.75,326687.375,386572.375,301306.1875,300003.34375,299480.5,-0.10009765625,0.79541015625,-0.5517578125,2.960204839706421,8.209227561950684,-3.662109136581421,100.0,66439.0,1.0
559000.3451332,305708.75,296234.65625,330588.03125,325485.75,380270.0625,297866.4375,297981.5,298333.5,-0.10205078125,0.794921875,-0.5556640625,3.509521245956421,8.422850608825684,-3.662109136581421,100.0,66440.0,1.0
559000.3476012,305675.59375,294929.6875,329358.59375,325007.0,375489.5625,296164.125,296692.6875,297808.21875,-0.103759765625,0.7958984375,-0.558837890625,3.997802495956421,8.361815452575684,-3.570556402206421,100.0,66441.0,1.0
559000.3525527,305897.84375,297170.75,331051.96875,325864.84375,378676.9375,298401.0,297830.46875,298579.96875,-0.102783203125,0.79833984375,-0.560546875,4.302978038787842,8.422850608825684,-3.601073980331421,100.0,66442.0,1.0
559000.3525928,306084.28125,300051.875,333498.9375,326950.25,385945.90625,301679.1875,299924.9375,299641.96875,-0.105224609375,0.797607421875,-0.563720703125,4.730224132537842,8.666991233825684,-3.417968511581421,100.0,66443.0,1.0
559000.3526023,305974.84375,299536.90625,333259.0625,326720.375,387310.25,301415.6875,300044.90625,299504.28125,-0.110595703125,0.798828125,-0.566162109375,5.157470226287842,8.666991233825684,-3.387450933456421,100.0,66444.0,1.0
559000.3526102,305738.875,296352.3125,330698.28125,325514.8125,381017.34375,297971.375,298023.4375,298353.96875,-0.1162109375,0.797607421875,-0.5634765625,5.523681163787842,8.514403343200684,-3.417968511581421,100.0,66445.0,1.0
559000.3526182,305691.78125,294993.25,329433.4375,325031.125,376216.4375,296239.21875,296737.65625,297821.0,-0.120849609375,0.798583984375,-0.564208984375,6.225585460662842,8.361815452575684,-3.356933355331421,100.0,66446.0,1.0
559000.3550864,305918.59375,297192.84375,331110.34375,325897.3125,379374.03125,298456.34375,297879.5625,298597.0625,-0.125,0.79833984375,-0.562744140625,6.835937023162842,8.026122093200684,-3.387450933456421,100.0,66447.0,1.0
559000.3551257,306113.25,300059.125,333562.0625,326992.8125,386637.46875,301734.09375,299981.25,299669.125,-0.129638671875,0.799072265625,-0.563720703125,7.476806163787842,7.537841320037842,-3.417968511581421,100.0,66448.0,1.0
559000.3574532,305992.8125,299541.90625,333324.0625,326755.15625,388016.5625,301465.40625,300074.5,299517.0625,-0.1328125,0.800537109375,-0.56396484375,8.117674827575684,6.988524913787842,-3.356933355331421,100.0,66449.0,1.0
559000.3601565,305752.03125,296365.28125,330760.3125,325546.1875,381727.5,298020.21875,298023.78125,298358.15625,-0.13623046875,0.802734375,-0.56689453125,8.514403343200684,6.256103038787842,-3.326415777206421,100.0,66450.0,1.0
559000.3601971,305702.21875,295001.09375,329476.875,325047.84375,376889.15625,296274.0,296719.5,297814.125,-0.13671875,0.8076171875,-0.567138671875,9.033202171325684,5.493163585662842,-3.387450933456421,100.0,66451.0,1.0
559000.3688272,305936.75,297195.5,331141.375,325917.5,380012.21875,298471.25,297851.21875,298590.09375,-0.138427734375,0.811279296875,-0.56494140625,9.216307640075684,4.669188976287842,-3.295898199081421,100.0,66452.0,1.0
559000.368868,306128.25,300052.34375,333578.96875,327007.03125,387242.90625,301729.78125,299944.0625,299651.34375,-0.14013671875,0.815673828125,-0.564208984375,9.582518577575684,3.814697027206421,-3.265380620956421,100.0,66453.0,1.0
559000.3688768,306003.53125,299553.4375,333344.375,326753.46875,388620.6875,301470.59375,300053.84375,299492.28125,-0.138427734375,0.8173828125,-0.560546875,9.674071311950684,2.960204839706421,-3.234863042831421,100.0,66454.0,1.0
559000.3688999,306003.53125,299553.4375,333344.375,326753.46875,388620.6875,301470.59375,300053.84375,299492.28125,-0.138427734375,0.8173828125,-0.560546875,9.674071311950684,2.960204839706421,-3.234863042831421,100.0,66455.0,0.0
559000.3689015,306003.53125,299553.4375,333344.375,326753.46875,388620.6875,301470.59375,300053.84375,299492.28125,-0.138427734375,0.8173828125,-0.560546875,9.674071311950684,2.960204839706421,-3.234863042831421,100.0,66456.0,0.0
559000.3689029,306003.53125,299553.4375,333344.375,326753.46875,388620.6875,301470.59375,300053.84375,299492.28125,-0.138427734375,0.8173828125,-0.560546875,9.674071311950684,2.960204839706421,-3.234863042831421,100.0,66457.0,0.0
559000.3689043,306003.53125,299553.4375,333344.375,326753.46875,388620.6875,301470.59375,300053.84375,299492.28125,-0.138427734375,0.8173828125,-0.560546875,9.674071311950684,2.960204839706421,-3.234863042831421,100.0,66458.0,0.0
559000.3689057,306003.53125,299553.4375,333344.375,326753.46875,388620.6875,301470.59375,300053.84375,299492.28125,-0.138427734375,0.8173828125,-0.560546875,9.674071311950684,2.960204839706421,-3.234863042831421,100.0,66459.0,0.0
559000.3689071,306003.53125,299553.4375,333344.375,326753.46875,388620.6875,301470.59375,300053.84375,299492.28125,-0.138427734375,0.8173828125,-0.560546875,9.674071311950684,2.960204839706421,-3.234863042831421,100.0,66460.0,0.0
559000.3689085,306003.53125,299553.4375,333344.375,326753.46875,388620.6875,301470.59375,300053.84375,299492.28125,-0.138427734375,0.8173828125,-0.560546875,9.674071311950684,2.960204839706421,-3.234863042831421,100.0,66461.0,0.0
559000.3689099,306003.53125,299553.4375,333344.375,326753.46875,388620.6875,301470.59375,300053.84375,299492.28125,-0.138427734375,0.8173828125,-0.560546875,9.674071311950684,2.960204839706421,-3.234863042831421,100.0,66462.0,0.0
559000.3689113,306003.53125,299553.4375,333344.375,326753.46875,388620.6875,301470.59375,300053.84375,299492.28125,-0.138427734375,0.8173828125,-0.560546875,9.674071311950684,2.960204839706421,-3.234863042831421,100.0,66463.0,0.0
559000.3689127,306003.53125,299553.4375,333344.375,326753.46875,388620.6875,301470.59375,300053.84375,299492.28125,-0.138427734375,0.8173828125,-0.560546875,9.674071311950684,2.960204839706421,-3.234863042831421,100.0,66464.0,0.0
559000.3689141,306003.53125,299553.4375,333344.375,326753.46875,388620.6875,301470.59375,300053.84375,299492.28125,-0.138427734375,0.8173828125,-0.560546875,9.674071311950684,2.960204839706421,-3.234863042831421,100.0,66465.0,0.0
559000.3689155,306003.53125,299553.4375,333344.375,326753.46875,388620.6875,301470.59375,300053.84375,299492.28125,-0.138427734375,0.8173828125,-0.560546875,9.674071311950684,2.960204839706421,-3.234863042831421,100.0,66466.0,0.0
559000.3689169,306003.53125,299553.4375,333344.375,326753.46875,388620.6875,301470.59375,300053.84375,299492.28125,-0.138427734375,0.8173828125,-0.560546875,9.674071311950684,2.960204839706421,-3.234863042831421,100.0,66467.0,0.0
559000.3689183,306003.53125,299553.4375,333344.375,326753.46875,388620.6875,301470.59375,300053.84375,299492.28125,-0.138427734375,0.8173828125,-0.560546875,9.674071311950684,2.960204839706421,-3.234863042831421,100.0,66468.0,0.0
559000.3689197,306003.53125,299553.4375,333344.375,326753.46875,388620.6875,301470.59375,300053.84375,299492.28125,-0.138427734375,0.8173828125,-0.560546875,9.674071311950684,2.960204839706421,-3.234863042831421,100.0,66469.0,0.0
559000.368921,306003.53125,299553.4375,333344.375,326753.46875,388620.6875,301470.59375,300053.84375,299492.28125,-0.138427734375,0.8173828125,-0.560546875,9.674071311950684,2.960204839706421,-3.234863042831421,100.0,66470.0,0.0
559000.3689224,306003.53125,299553.4375,333344.375,326753.46875,388620.6875,301470.59375,300053.84375,299492.28125,-0.138427734375,0.8173828125,-0.560546875,9.674071311950684,2.960204839706421,-3.234863042831421,100.0,66471.0,0.0
559000.3689238,306003.53125,299553.4375,333344.375,326753.46875,388620.6875,301470.59375,300053.84375,299492.28125,-0.138427734375,0.8173828125,-0.560546875,9.674071311950684,2.960204839706421,-3.234863042831421,100.0,66472.0,0.0
559000.3689252,306003.53125,299553.4375,333344.375,326753.46875,388620.6875,301470.59375,300053.84375,299492.28125,-0.138427734375,0.8173828125,-0.560546875,9.674071311950684,2.960204839706421,-3.234863042831421,100.0,66473.0,0.0
559000.3689267,306003.53125,299553.4375,333344.375,326753.46875,388620.6875,301470.59375,300053.84375,299492.28125,-0.138427734375,0.8173828125,-0.560546875,9.674071311950684,2.960204839706421,-3.234863042831421,100.0,66474.0,0.0
559000.3689281,306003.53125,299553.4375,333344.375,326753.46875,388620.6875,301470.59375,300053.84375,299492.28125,-0.138427734375,0.8173828125,-0.560546875,9.674071311950684,2.960204839706421,-3.234863042831421,100.0,66475.0,0.0
559000.3689294,306003.53125,299553.4375,333344.375,326753.46875,388620.6875,301470.59375,300053.84375,299492.28125,-0.138427734375,0.8173828125,-0.560546875,9.674071311950684,2.960204839706421,-3.234863042831421,100.0,66476.0,0.0
559000.3689309,306003.53125,299553.4375,333344.375,326753.46875,388620.6875,301470.59375,300053.84375,299492.28125,-0.138427734375,0.8173828125,-0.560546875,9.674071311950684,2.960204839706421,-3.234863042831421,100.0,66477.0,0.0
559000.3689323,306003.53125,299553.4375,333344.375,326753.46875,388620.6875,301470.59375,300053.84375,299492.28125,-0.138427734375,0.8173828125,-0.560546875,9.674071311950684,2.960204839706421,-3.234863042831421,100.0,66478.0,0.0
559000.3689337,306003.53125,299553.4375,333344.375,326753.46875,388620.6875,301470.59375,300053.84375,299492.28125,-0.138427734375,0.8173828125,-0.560546875,9.674071311950684,2.960204839706421,-3.234863042831421,100.0,66479.0,0.0
559000.3689351,306003.53125,299553.4375,333344.375,326753.46875,388620.6875,301470.59375,300053.84375,299492.28125,-0.138427734375,0.8173828125,-0.560546875,9.674071311950684,2.960204839706421,-3.234863042831421,100.0,66480.0,0.0
559000.3689364,306003.53125,299553.4375,333344.375,326753.46875,388620.6875,301470.59375,300053.84375,299492.28125,-0.138427734375,0.8173828125,-0.560546875,9.674071311950684,2.960204839706421,-3.234863042831421,100.0,66481.0,0.0
559000.3689378,306003.53125,299553.4375,333344.375,326753.46875,388620.6875,301470.59375,300053.84375,299492.28125,-0.138427734375,0.8173828125,-0.560546875,9.674071311950684,2.960204839706421,-3.234863042831421,100.0,66482.0,0.0
559000.3689391,306003.53125,299553.4375,333344.375,326753.46875,388620.6875,301470.59375,300053.84375,299492.28125,-0.138427734375,0.8173828125,-0.560546875,9.674071311950684,2.960204839706421,-3.234863042831421,100.0,66483.0,0.0
559000.3689405,306003.53125,299553.4375,333344.375,326753.46875,388620.6875,301470.59375,300053.84375,299492.28125,-0.138427734375,0.8173828125,-0.560546875,9.674071311950684,2.960204839706421,-3.234863042831421,100.0,66484.0,0.0
559000.3689419,306003.53125,299553.4375,333344.375,326753.46875,388620.6875,301470.59375,300053.84375,299492.28125,-0.138427734375,0.8173828125,-0.560546875,9.674071311950684,2.960204839706421,-3.234863042831421,100.0,66485.0,0.0
559000.3689432,306003.53125,299553.4375,333344.375,326753.46875,388620.6875,301470.59375,300053.84375,299492.28125,-0.138427734375,0.8173828125,-0.560546875,9.674071311950684,2.960204839706421,-3.234863042831421,100.0,66486.0,0.0
559000.3689446,306003.53125,299553.4375,333344.375,326753.46875,388620.6875,301470.59375,300053.84375,299492.28125,-0.138427734375,0.8173828125,-0.560546875,9.674071311950684,2.960204839706421,-3.234863042831421,100.0,66487.0,0.0
559000.368946,306107.5,299580.8125,333310.21875,327070.21875,389217.375,301374.125,299932.34375,299625.25,-0.088623046875,0.81884765625,-0.595458984375,4.577636241912842,-5.432128429412842,3.845214605331421,100.0,66488.0,1.0
559000.3689564,306019.8125,299189.125,333165.375,326835.8125,390645.65625,301200.6875,300088.46875,299506.40625,-0.088623046875,0.81494140625,-0.59814453125,4.852294445037842,-5.523681163787842,4.241942882537842,100.0,66489.0,1.0
559000.37122,305787.15625,296176.375,330673.34375,325578.5625,384462.625,297880.375,298042.90625,298352.8125,-0.091064453125,0.81396484375,-0.598876953125,5.157470226287842,-5.340575695037842,4.455565929412842,100.0,66490.0,1.0
559000.4324641,305718.0625,294785.71875,329339.03125,325063.9375,379520.65625,296109.5,296709.6875,297793.8125,-0.089111328125,0.8095703125,-0.6015625,5.645751476287842,-5.004882335662842,4.547118663787842,100.0,66491.0,1.0
559000.4349603,305905.625,296766.0,330875.9375,325941.75,382330.28125,298141.8125,297836.03125,298539.65625,-0.090087890625,0.809326171875,-0.602294921875,6.011962413787842,-4.577636241912842,4.730224132537842,100.0,66492.0,1.0
559000.4375596,306111.0,299503.90625,333284.09375,327088.65625,389330.5625,301311.90625,299956.5,299632.125,-0.090576171875,0.81201171875,-0.60205078125,6.225585460662842,-4.302978038787842,5.157470226287842,100.0,66493.0,1.0
559000.4426042,306005.59375,299096.21875,333130.78125,326885.875,390733.71875,301126.5625,300029.96875,299523.03125,-0.094482421875,0.805908203125,-0.594970703125,6.500243663787842,-3.997802495956421,5.432128429412842,100.0,66494.0,1.0
559000.4515209,305766.59375,296101.875,330667.25,325725.1875,384566.53125,297817.875,297944.375,298388.90625,-0.095703125,0.813232421875,-0.590576171875,6.347655773162842,-3.692626714706421,5.737304210662842,100.0,66495.0,1.0
559000.4515616,305701.15625,294718.40625,329335.90625,325262.4375,379635.53125,296038.5,296741.6875,297862.21875,-0.10595703125,0.802734375,-0.592529296875,6.347655773162842,-3.784179449081421,6.072997570037842,100.0,66496.0,1.0
559000.4515701,305911.875,296706.46875,330852.40625,326134.59375,382472.875,298058.8125,297979.96875,298629.6875,-0.1064453125,0.796875,-0.59228515625,6.378173351287842,-3.295898199081421,5.981444835662842,100.0,66497.0,1.0
559000.4563065,306107.34375,299413.0625,333227.6875,327216.84375,389426.78125,301190.40625,300076.125,299694.53125,-0.1103515625,0.791259765625,-0.595458984375,6.805419445037842,-3.356933355331421,5.462646007537842,100.0,66498.0,1.0
559000.4563469,305985.84375,298986.15625,333069.25,326923.15625,390769.65625,300996.5625,300171.96875,299515.34375,-0.11083984375,0.797607421875,-0.594970703125,7.324218273162842,-3.387450933456421,5.035399913787842,100.0,66499.0,1.0
559000.4563557,305766.15625,296011.21875,330610.46875,325653.84375,384618.375,297720.5,298157.96875,298363.09375,-0.109130859375,0.804931640625,-0.595703125,7.476806163787842,-3.173827886581421,4.913329601287842,100.0,66500.0,1.0
559000.5200422,305706.25,294640.1875,329289.40625,325140.84375,379684.4375,295959.28125,296797.28125,297825.46875,-0.107666015625,0.803955078125,-0.593505859375,7.415771007537842,-3.234863042831421,4.882812023162842,100.0,66501.0,1.0
559000.5200859,305902.5,296606.6875,330811.09375,326029.625,382438.46875,297959.0625,297907.09375,298585.0,-0.103515625,0.80078125,-0.596923828125,7.537841320037842,-3.417968511581421,4.608153820037842,100.0,66502.0,1.0
559000.5238209,306103.125,299315.625,333195.40625,327153.03125,389355.53125,301081.21875,300017.09375,299667.71875,-0.100830078125,0.80126953125,-0.59326171875,7.965087413787842,-3.326415777206421,4.333495616912842,100.0,66503.0,1.0
559000.5238513,306018.03125,298935.5625,333055.9375,326904.75,390743.65625,300911.09375,300126.1875,299546.375,-0.09912109375,0.80615234375,-0.590087890625,8.117674827575684,-3.540038824081421,4.211425304412842,100.0,66504.0,1.0
559000.5238603,305802.625,295988.78125,330599.03125,325646.6875,384594.59375,297647.5625,298060.78125,298392.125,-0.0947265625,0.8056640625,-0.591064453125,7.965087413787842,-3.814697027206421,4.180907726287842,100.0,66505.0,1.0
559000.5261983,305754.8125,294635.4375,329292.09375,325146.28125,379657.1875,295908.5,296731.125,297852.9375,-0.0888671875,0.80224609375,-0.594482421875,8.239745140075684,-3.662109136581421,4.241942882537842,100.0,66506.0,1.0
559000.612575,305754.8125,294635.4375,329292.09375,325146.28125,379657.1875,295908.5,296731.125,297852.9375,-0.0888671875,0.80224609375,-0.594482421875,8.239745140075684,-3.662109136581421,4.241942882537842,100.0,66507.0,0.0
559000.6125796,305754.8125,294635.4375,329292.09375,325146.28125,379657.1875,295908.5,296731.125,297852.9375,-0.0888671875,0.80224609375,-0.594482421875,8.239745140075684,-3.662109136581421,4.241942882537842,100.0,66508.0,0.0
559000.6125803,305754.8125,294635.4375,329292.09375,325146.28125,379657.1875,295908.5,296731.125,297852.9375,-0.0888671875,0.80224609375,-0.594482421875,8.239745140075684,-3.662109136581421,4.241942882537842,100.0,66509.0,0.0
559000.6125811,305754.8125,294635.4375,329292.09375,325146.28125,379657.1875,295908.5,296731.125,297852.9375,-0.0888671875,0.80224609375,-0.594482421875,8.239745140075684,-3.662109136581421,4.241942882537842,100.0,66510.0,0.0
559000.6125817,305754.8125,294635.4375,329292.09375,325146.28125,379657.1875,295908.5,296731.125,297852.9375,-0.0888671875,0.80224609375,-0.594482421875,8.239745140075684,-3.662109136581421,4.241942882537842,100.0,66511.0,0.0
559000.6125823,305754.8125,294635.4375,329292.09375,325146.28125,379657.1875,295908.5,296731.125,297852.9375,-0.0888671875,0.80224609375,-0.594482421875,8.239745140075684,-3.662109136581421,4.241942882537842,100.0,66512.0,0.0
559000.612583,305754.8125,294635.4375,329292.09375,325146.28125,379657.1875,295908.5,296731.125,297852.9375,-0.0888671875,0.80224609375,-0.594482421875,8.239745140075684,-3.662109136581421,4.241942882537842,100.0,66513.0,0.0
559000.6125836,306043.9375,298853.3125,333028.65625,326926.1875,390498.84375,300735.84375,299973.375,299546.125,-0.05810546875,0.810302734375,-0.60205078125,8.331297874450684,-3.662109136581421,4.272460460662842,100.0,66514.0,1.0
559000.6126022,305824.0,295969.84375,330606.46875,325677.1875,384427.65625,297531.15625,297928.03125,298419.84375,-0.06005859375,0.811279296875,-0.603271484375,8.270262718200684,-3.234863042831421,4.333495616912842,100.0,66515.0,1.0
559000.6126064,305803.0,294672.71875,329350.5625,325211.0,379581.53125,295845.03125,296617.59375,297925.15625,-0.05810546875,0.8173828125,-0.60302734375,8.361815452575684,-2.807616949081421,4.394530773162842,100.0,66516.0,1.0
559000.6126101,306005.9375,296611.5,330876.8125,326108.75,382310.0625,297824.75,297714.4375,298694.4375,-0.055419921875,0.819091796875,-0.60546875,8.422850608825684,-2.197265386581421,4.547118663787842,100.0,66517.0,1.0
559000.6126138,306202.71875,299297.5625,333253.625,327245.46875,389185.03125,300929.875,299830.6875,299768.375,-0.054443359375,0.81982421875,-0.60595703125,8.331297874450684,-1.3427733182907104,4.669188976287842,100.0,66518.0,1.0
559000.6126175,306110.65625,298968.8125,333147.125,327011.5,390652.09375,300814.8125,300003.15625,299649.28125,-0.05712890625,0.8251953125,-0.603271484375,8.026122093200684,-0.5798339247703552,4.852294445037842,100.0,66519.0,1.0
559000.6126211,305882.03125,296084.53125,330733.0625,325764.09375,384652.34375,297622.4375,298004.03125,298510.96875,-0.055419921875,0.82958984375,-0.60498046875,7.446288585662842,0.1525878757238388,5.035399913787842,100.0,66520.0,1.0
559000.6126251,305838.84375,294753.90625,329456.40625,325282.0,379821.4375,295914.125,296717.625,297976.03125,-0.0576171875,0.82861328125,-0.603271484375,6.774901866912842,1.1291502714157104,5.157470226287842,100.0,66521.0,1.0
559000.6126289,306065.3125,296719.5,331014.5,326204.875,382599.84375,297924.0,297884.75,298748.15625,-0.060791015625,0.829833984375,-0.59814453125,6.134032726287842,1.9836424589157104,5.126952648162842,100.0,66522.0,1.0
559000.6126329,306268.96875,299426.5,333409.0,327353.21875,389516.71875,301053.34375,300043.9375,299833.375,-0.06103515625,0.830810546875,-0.59814453125,5.401610851287842,2.685546636581421,5.004882335662842,100.0,66523.0,1.0
559000.6126367,306128.96875,299053.3125,333250.125,327073.8125,390972.0,300902.875,300176.53125,299678.875,-0.0595703125,0.833984375,-0.595458984375,4.516601085662842,3.509521245956421,4.882812023162842,100.0,66524.0,1.0
559000.614914,305896.875,296148.90625,330819.15625,325819.0625,385007.03125,297714.96875,298169.4375,298546.375,-0.060791015625,0.837158203125,-0.59375,3.540038824081421,4.241942882537842,4.821776866912842,100.0,66525.0,1.0
559000.6187563,305896.875,296148.90625,330819.15625,325819.0625,385007.03125,297714.96875,298169.4375,298546.375,-0.060791015625,0.837158203125,-0.59375,3.540038824081421,4.241942882537842,4.821776866912842,100.0,66526.0,0.0
559000.6187572,305896.875,296148.90625,330819.15625,325819.0625,385007.03125,297714.96875,298169.4375,298546.375,-0.060791015625,0.837158203125,-0.59375,3.540038824081421,4.241942882537842,4.821776866912842,100.0,66527.0,0.0
559000.6187575,305896.875,296148.90625,330819.15625,325819.0625,385007.03125,297714.96875,298169.4375,298546.375,-0.060791015625,0.837158203125,-0.59375,3.540038824081421,4.241942882537842,4.821776866912842,100.0,66528.0,0.0
559000.6187577,305896.875,296148.90625,330819.15625,325819.0625,385007.03125,297714.96875,298169.4375,298546.375,-0.060791015625,0.837158203125,-0.59375,3.540038824081421,4.241942882537842,4.821776866912842,100.0,66529.0,0.0
559000.618758,305896.875,296148.90625,330819.15625,325819.0625,385007.03125,297714.96875,298169.4375,298546.375,-0.060791015625,0.837158203125,-0.59375,3.540038824081421,4.241942882537842,4.821776866912842,100.0,66530.0,0.0
559000.6187582,305896.875,296148.90625,330819.15625,325819.0625,385007.03125,297714.96875,298169.4375,298546.375,-0.060791015625,0.837158203125,-0.59375,3.540038824081421,4.241942882537842,4.821776866912842,100.0,66531.0,0.0
559000.6187585,305896.875,296148.90625,330819.15625,325819.0625,385007.03125,297714.96875,298169.4375,298546.375,-0.060791015625,0.837158203125,-0.59375,3.540038824081421,4.241942882537842,4.821776866912842,100.0,66532.0,0.0
559000.6187587,306378.40625,299584.375,333627.34375,327476.84375,390822.5,301299.125,300441.53125,300049.75,-0.076904296875,0.82470703125,-0.5869140625,-4.089354991912842,6.500243663787842,3.906249761581421,100.0,66533.0,1.0
559000.6187637,306248.78125,299245.4375,333487.96875,327209.71875,392400.71875,301194.875,300586.375,299939.59375,-0.07568359375,0.825927734375,-0.5859375,-4.791259288787842,6.286620616912842,3.692626714706421,100.0,66534.0,1.0
559000.6187655,305995.75,296328.71875,331045.1875,325949.96875,386538.40625,298021.71875,298576.0625,298820.75,-0.075439453125,0.82421875,-0.58642578125,-5.584716320037842,6.103515148162842,3.479003667831421,100.0,66535.0,1.0
559000.6211982,305954.34375,294969.1875,329762.46875,325459.9375,381816.625,296313.59375,297290.5625,298297.375,-0.072509765625,0.8232421875,-0.58544921875,-6.225585460662842,5.828856945037842,3.326415777206421,100.0,66536.0,1.0
559000.6237064,306205.40625,296952.0625,331335.03125,326371.15625,384666.03125,298325.09375,298432.09375,299073.40625,-0.072509765625,0.822021484375,-0.58154296875,-6.744384288787842,5.645751476287842,3.112792730331421,100.0,66537.0,1.0
559000.6262937,306419.28125,299690.9375,333725.78125,327489.28125,391624.40625,301451.09375,300552.21875,300137.53125,-0.07080078125,0.8203125,-0.587890625,-7.263183116912842,5.432128429412842,3.112792730331421,100.0,66538.0,1.0
559000.6263241,306302.15625,299372.5625,333592.125,327231.4375,393192.15625,301360.625,300727.4375,300014.15625,-0.072998046875,0.81689453125,-0.584228515625,-7.537841320037842,5.310058116912842,2.838134527206421,100.0,66539.0,1.0
559000.6924631,306033.03125,296423.125,331113.125,325945.59375,387278.59375,298162.71875,298730.28125,298888.96875,-0.0751953125,0.814697265625,-0.58447265625,-7.934569835662842,5.065917491912842,2.746581792831421,100.0,66540.0,1.0
559000.7001507,305962.6875,295011.5625,329772.125,325409.0625,382476.90625,296399.6875,297420.0,298351.8125,-0.077392578125,0.805908203125,-0.584716796875,-8.026122093200684,4.882812023162842,2.471923589706421,100.0,66541.0,1.0
559000.7001913,306180.8125,296950.375,331290.0625,326288.28125,385235.28125,298346.90625,298506.5625,299075.65625,-0.07373046875,0.804931640625,-0.587158203125,-7.873534679412842,4.699706554412842,2.075195074081421,100.0,66542.0,1.0
559000.7761394,306408.375,299718.40625,333695.375,327424.09375,392163.0625,301476.59375,300623.125,300138.53125,-0.078857421875,0.808837890625,-0.586669921875,-7.629394054412842,4.516601085662842,1.8615721464157104,100.0,66543.0,1.0
559000.7761588,306277.5625,299386.0,333547.15625,327168.125,393673.34375,301374.84375,300757.3125,300000.03125,-0.074462890625,0.808837890625,-0.59130859375,-7.568358898162842,4.150390148162842,1.9226073026657104,100.0,66544.0,1.0
559000.7761608,305959.0,296355.90625,331015.03125,325883.53125,387659.5625,298130.1875,298657.125,298815.03125,-0.07958984375,0.805908203125,-0.59033203125,-7.141112804412842,4.058837413787842,1.7700194120407104,100.0,66545.0,1.0
559000.7761622,305888.71875,294912.96875,329667.0625,325375.53125,382778.75,296367.15625,297321.5,298248.625,-0.0791015625,0.808837890625,-0.591552734375,-6.652831554412842,3.967284917831421,1.6784666776657104,100.0,66546.0,1.0
559000.7761636,306154.09375,296890.53125,331223.09375,326277.28125,385490.0,298346.71875,298461.53125,298994.21875,-0.082763671875,0.81689453125,-0.59326171875,-6.072997570037842,3.845214605331421,1.4648436307907104,100.0,66547.0,1.0
559000.776165,306404.15625,299701.5,333654.6875,327401.65625,392391.0625,301497.25,300569.09375,300074.40625,-0.0849609375,0.81982421875,-0.592529296875,-5.706786632537842,3.692626714706421,1.2512205839157104,100.0,66548.0,1.0
559000.7777355,306229.28125,299346.8125,333474.90625,327099.28125,393860.1875,301368.84375,300702.3125,299909.375,-0.08251953125,0.823486328125,-0.58935546875,-5.645751476287842,3.631591558456421,1.1901854276657104,100.0,66549.0,1.0
559000.7850961,305927.71875,296322.53125,330962.21875,325840.53125,387856.25,298157.90625,298690.65625,298778.90625,-0.0869140625,0.818115234375,-0.590087890625,-5.432128429412842,3.417968511581421,1.2207030057907104,100.0,66550.0,1.0
559000.7926127,305868.0,294855.46875,329621.1875,325353.625,382936.1875,296382.90625,297308.71875,298239.78125,-0.082763671875,0.824462890625,-0.589111328125,-5.493163585662842,3.509521245956421,1.1901854276657104,100.0,66551.0,1.0
559000.7926269,305868.0,294855.46875,329621.1875,325353.625,382936.1875,296382.90625,297308.71875,298239.78125,-0.082763671875,0.824462890625,-0.589111328125,-5.493163585662842,3.509521245956421,1.1901854276657104,100.0,66552.0,0.0
559000.7926272,305868.0,294855.46875,329621.1875,325353.625,382936.1875,296382.90625,297308.71875,298239.78125,-0.082763671875,0.824462890625,-0.589111328125,-5.493163585662842,3.509521245956421,1.1901854276657104,100.0,66553.0,0.0
559000.7926275,305868.0,294855.46875,329621.1875,325353.625,382936.1875,296382.90625,297308.71875,298239.78125,-0.082763671875,0.824462890625,-0.589111328125,-5.493163585662842,3.509521245956421,1.1901854276657104,100.0,66554.0,0.0
559000.7926278,305868.0,294855.46875,329621.1875,325353.625,382936.1875,296382.90625,297308.71875,298239.78125,-0.082763671875,0.824462890625,-0.589111328125,-5.493163585662842,3.509521245956421,1.1901854276657104,100.0,66555.0,0.0
559000.7926281,305868.0,294855.46875,329621.1875,325353.625,382936.1875,296382.90625,297308.71875,298239.78125,-0.082763671875,0.824462890625,-0.589111328125,-5.493163585662842,3.509521245956421,1.1901854276657104,100.0,66556.0,0.0
559000.7926283,305868.0,294855.46875,329621.1875,325353.625,382936.1875,296382.90625,297308.71875,298239.78125,-0.082763671875,0.824462890625,-0.589111328125,-5.493163585662842,3.509521245956421,1.1901854276657104,100.0,66557.0,0.0
559000.7926286,305868.0,294855.46875,329621.1875,325353.625,382936.1875,296382.90625,297308.71875,298239.78125,-0.082763671875,0.824462890625,-0.589111328125,-5.493163585662842,3.509521245956421,1.1901854276657104,100.0,66558.0,0.0
559000.7926289,305868.0,294855.46875,329621.1875,325353.625,382936.1875,296382.90625,297308.71875,298239.78125,-0.082763671875,0.824462890625,-0.589111328125,-5.493163585662842,3.509521245956421,1.1901854276657104,100.0,66559.0,0.0
559000.7926292,305868.0,294855.46875,329621.1875,325353.625,382936.1875,296382.90625,297308.71875,298239.78125,-0.082763671875,0.824462890625,-0.589111328125,-5.493163585662842,3.509521245956421,1.1901854276657104,100.0,66560.0,0.0
559000.7926294,305868.0,294855.46875,329621.1875,325353.625,382936.1875,296382.90625,297308.71875,298239.78125,-0.082763671875,0.824462890625,-0.589111328125,-5.493163585662842,3.509521245956421,1.1901854276657104,100.0,66561.0,0.0
559000.7926297,305868.0,294855.46875,329621.1875,325353.625,382936.1875,296382.90625,297308.71875,298239.78125,-0.082763671875,0.824462890625,-0.589111328125,-5.493163585662842,3.509521245956421,1.1901854276657104,100.0,66562.0,0.0
559000.79263,305868.0,294855.46875,329621.1875,325353.625,382936.1875,296382.90625,297308.71875,298239.78125,-0.082763671875,0.824462890625,-0.589111328125,-5.493163585662842,3.509521245956421,1.1901854276657104,100.0,66563.0,0.0
559000.7926302,305868.0,294855.46875,329621.1875,325353.625,382936.1875,296382.90625,297308.71875,298239.78125,-0.082763671875,0.824462890625,-0.589111328125,-5.493163585662842,3.509521245956421,1.1901854276657104,100.0,66564.0,0.0
559000.7926305,305868.0,294855.46875,329621.1875,325353.625,382936.1875,296382.90625,297308.71875,298239.78125,-0.082763671875,0.824462890625,-0.589111328125,-5.493163585662842,3.509521245956421,1.1901854276657104,100.0,66565.0,0.0
559000.7926308,305868.0,294855.46875,329621.1875,325353.625,382936.1875,296382.90625,297308.71875,298239.78125,-0.082763671875,0.824462890625,-0.589111328125,-5.493163585662842,3.509521245956421,1.1901854276657104,100.0,66566.0,0.0
559000.7926311,305868.0,294855.46875,329621.1875,325353.625,382936.1875,296382.90625,297308.71875,298239.78125,-0.082763671875,0.824462890625,-0.589111328125,-5.493163585662842,3.509521245956421,1.1901854276657104,100.0,66567.0,0.0
559000.7926313,305868.0,294855.46875,329621.1875,325353.625,382936.1875,296382.90625,297308.71875,298239.78125,-0.082763671875,0.824462890625,-0.589111328125,-5.493163585662842,3.509521245956421,1.1901854276657104,100.0,66568.0,0.0
559000.7926316,305868.0,294855.46875,329621.1875,325353.625,382936.1875,296382.90625,297308.71875,298239.78125,-0.082763671875,0.824462890625,-0.589111328125,-5.493163585662842,3.509521245956421,1.1901854276657104,100.0,66569.0,0.0
559000.7926319,305868.0,294855.46875,329621.1875,325353.625,382936.1875,296382.90625,297308.71875,298239.78125,-0.082763671875,0.824462890625,-0.589111328125,-5.493163585662842,3.509521245956421,1.1901854276657104,100.0,66570.0,0.0
559000.7926322,305868.0,294855.46875,329621.1875,325353.625,382936.1875,296382.90625,297308.71875,298239.78125,-0.082763671875,0.824462890625,-0.589111328125,-5.493163585662842,3.509521245956421,1.1901854276657104,100.0,66571.0,0.0
559000.7926324,305868.0,294855.46875,329621.1875,325353.625,382936.1875,296382.90625,297308.71875,298239.78125,-0.082763671875,0.824462890625,-0.589111328125,-5.493163585662842,3.509521245956421,1.1901854276657104,100.0,66572.0,0.0
559000.7926327,305868.0,294855.46875,329621.1875,325353.625,382936.1875,296382.90625,297308.71875,298239.78125,-0.082763671875,0.824462890625,-0.589111328125,-5.493163585662842,3.509521245956421,1.1901854276657104,100.0,66573.0,0.0
559000.792633,306143.90625,299102.375,333102.34375,326970.1875,393244.375,301137.375,300283.375,299759.15625,-0.066162109375,0.80078125,-0.5771484375,-7.080077648162842,0.7019042372703552,2.716064214706421,100.0,66574.0,1.0
559000.8601809,305767.78125,295950.0,330481.46875,325691.65625,387133.9375,297869.5625,298238.8125,298610.03125,-0.06396484375,0.799072265625,-0.57861328125,-6.713866710662842,0.9460448622703552,2.563476324081421,100.0,66575.0,1.0
559000.8602226,305721.375,294439.625,329128.1875,325216.8125,382124.71875,296055.65625,296909.59375,298063.75,-0.065185546875,0.800537109375,-0.579833984375,-6.378173351287842,1.2817381620407104,2.258300542831421,100.0,66576.0,1.0
559000.8602313,306072.65625,296504.65625,330779.5625,326144.5,384736.5625,298026.1875,298022.78125,298828.625,-0.0654296875,0.806884765625,-0.57958984375,-6.042479991912842,1.6479490995407104,2.258300542831421,100.0,66577.0,1.0
559000.8602393,306337.03125,299393.3125,333242.0,327242.59375,391517.71875,301162.15625,300098.90625,299878.96875,-0.06494140625,0.809326171875,-0.578125,-5.767821788787842,1.9836424589157104,2.136230230331421,100.0,66578.0,1.0
559000.8602471,306116.90625,299041.59375,333025.1875,326940.0625,392915.0,301048.875,300205.75,299732.71875,-0.068359375,0.8095703125,-0.57568359375,-5.340575695037842,2.288818120956421,1.9531248807907104,100.0,66579.0,1.0
559000.860255,305742.46875,295915.46875,330423.875,325674.15625,386807.96875,297800.25,298174.96875,298590.25,-0.07373046875,0.814697265625,-0.57421875,-4.821776866912842,2.746581792831421,1.6174315214157104,100.0,66580.0,1.0
559000.860263,305699.5625,294412.625,329081.71875,325199.9375,381790.0,295989.6875,296834.5625,298046.75,-0.080078125,0.81787109375,-0.57373046875,-4.364013195037842,3.021239995956421,1.3122557401657104,100.0,66581.0,1.0
559000.8602715,306022.5,296435.09375,330701.84375,326095.53125,384351.125,297919.8125,297888.96875,298781.6875,-0.08349609375,0.81982421875,-0.572265625,-4.241942882537842,3.204345464706421,0.8239745497703552,100.0,66582.0,1.0
559000.8640096,306283.1875,299330.90625,333175.5625,327197.625,391137.75,301063.09375,299965.6875,299839.46875,-0.089111328125,0.823486328125,-0.57421875,-4.028319835662842,3.326415777206421,0.3662109076976776,100.0,66583.0,1.0
559000.8640455,306100.0,299037.84375,333012.40625,326931.5625,392600.90625,301002.71875,300118.0625,299728.0625,-0.093994140625,0.827880859375,-0.568359375,-4.241942882537842,3.356933355331421,-0.1220703050494194,100.0,66584.0,1.0
559000.8640614,306100.0,299037.84375,333012.40625,326931.5625,392600.90625,301002.71875,300118.0625,299728.0625,-0.093994140625,0.827880859375,-0.568359375,-4.241942882537842,3.356933355331421,-0.1220703050494194,100.0,66585.0,0.0
559000.8640631,306100.0,299037.84375,333012.40625,326931.5625,392600.90625,301002.71875,300118.0625,299728.0625,-0.093994140625,0.827880859375,-0.568359375,-4.241942882537842,3.356933355331421,-0.1220703050494194,100.0,66586.0,0.0
559000.8640645,306100.0,299037.84375,333012.40625,326931.5625,392600.90625,301002.71875,300118.0625,299728.0625,-0.093994140625,0.827880859375,-0.568359375,-4.241942882537842,3.356933355331421,-0.1220703050494194,100.0,66587.0,0.0
559000.8640659,306100.0,299037.84375,333012.40625,326931.5625,392600.90625,301002.71875,300118.0625,299728.0625,-0.093994140625,0.827880859375,-0.568359375,-4.241942882537842,3.356933355331421,-0.1220703050494194,100.0,66588.0,0.0
559000.8640673,306100.0,299037.84375,333012.40625,326931.5625,392600.90625,301002.71875,300118.0625,299728.0625,-0.093994140625,0.827880859375,-0.568359375,-4.241942882537842,3.356933355331421,-0.1220703050494194,100.0,66589.0,0.0
559000.8640687,306100.0,299037.84375,333012.40625,326931.5625,392600.90625,301002.71875,300118.0625,299728.0625,-0.093994140625,0.827880859375,-0.568359375,-4.241942882537842,3.356933355331421,-0.1220703050494194,100.0,66590.0,0.0
559000.8640701,306100.0,299037.84375,333012.40625,326931.5625,392600.90625,301002.71875,300118.0625,299728.0625,-0.093994140625,0.827880859375,-0.568359375,-4.241942882537842,3.356933355331421,-0.1220703050494194,100.0,66591.0,0.0
559000.8640714,306100.0,299037.84375,333012.40625,326931.5625,392600.90625,301002.71875,300118.0625,299728.0625,-0.093994140625,0.827880859375,-0.568359375,-4.241942882537842,3.356933355331421,-0.1220703050494194,100.0,66592.0,0.0
559000.8640728,306100.0,299037.84375,333012.40625,326931.5625,392600.90625,301002.71875,300118.0625,299728.0625,-0.093994140625,0.827880859375,-0.568359375,-4.241942882537842,3.356933355331421,-0.1220703050494194,100.0,66593.0,0.0
559000.8640742,306100.0,299037.84375,333012.40625,326931.5625,392600.90625,301002.71875,300118.0625,299728.0625,-0.093994140625,0.827880859375,-0.568359375,-4.241942882537842,3.356933355331421,-0.1220703050494194,100.0,66594.0,0.0
559000.8640756,306100.0,299037.84375,333012.40625,326931.5625,392600.90625,301002.71875,300118.0625,299728.0625,-0.093994140625,0.827880859375,-0.568359375,-4.241942882537842,3.356933355331421,-0.1220703050494194,100.0,66595.0,0.0
559000.864077,306100.0,299037.84375,333012.40625,326931.5625,392600.90625,301002.71875,300118.0625,299728.0625,-0.093994140625,0.827880859375,-0.568359375,-4.241942882537842,3.356933355331421,-0.1220703050494194,100.0,66596.0,0.0
559000.8640783,306100.0,299037.84375,333012.40625,326931.5625,392600.90625,301002.71875,300118.0625,299728.0625,-0.093994140625,0.827880859375,-0.568359375,-4.241942882537842,3.356933355331421,-0.1220703050494194,100.0,66597.0,0.0
559000.8640797,306426.59375,299677.8125,333422.0625,327343.8125,390940.78125,301321.125,299988.9375,299962.40625,-0.09521484375,0.8525390625,-0.572265625,-12.298583030700684,-0.5798339247703552,-2.960204839706421,100.0,66598.0,1.0
559000.9500682,306242.4375,299395.71875,333255.0625,327081.3125,392460.34375,301295.8125,300160.78125,299854.375,-0.0908203125,0.851806640625,-0.576416015625,-12.756346702575684,-0.5798339247703552,-2.777099370956421,100.0,66599.0,1.0
559001.0475689,305950.4375,296399.25,330755.84375,325856.09375,386491.90625,298120.4375,298168.53125,298743.25,-0.083740234375,0.853271484375,-0.576904296875,-13.214110374450684,-0.4272460639476776,-2.166747808456421,100.0,66600.0,1.0
559001.0476094,305962.21875,294983.5,329489.59375,325408.15625,381554.75,296341.3125,296850.5,298211.4375,-0.078125,0.8525390625,-0.577880859375,-13.732909202575684,-0.3051757514476776,-1.6479490995407104,100.0,66601.0,1.0
559001.0476185,306234.5625,296956.875,331064.5,326287.125,384104.5625,298247.21875,297892.25,298931.8125,-0.072998046875,0.84765625,-0.57763671875,-14.099120140075684,-0.03051757626235485,-1.0070799589157104,100.0,66602.0,1.0
559001.047627,306444.5,299777.78125,333460.78125,327383.6875,390888.84375,301395.40625,299971.34375,299989.65625,-0.06787109375,0.848388671875,-0.576416015625,-14.282225608825684,0.2136230319738388,-0.3662109076976776,100.0,66603.0,1.0
559001.0476348,306302.59375,299520.90625,333314.6875,327149.8125,392444.25,301395.75,300168.21875,299905.53125,-0.063720703125,0.8505859375,-0.5771484375,-14.434813499450684,0.4882812201976776,0.2136230319738388,100.0,66604.0,1.0
559001.0476427,306052.71875,296554.5625,330843.75,325930.5625,386486.0,298231.84375,298180.15625,298800.28125,-0.060302734375,0.846435546875,-0.58154296875,-14.862059593200684,0.8544921278953552,0.9460448622703552,100.0,66605.0,1.0
559001.0476506,306074.875,295134.0625,329577.28125,325469.9375,381526.3125,296437.78125,296848.09375,298267.40625,-0.057861328125,0.841064453125,-0.583740234375,-15.045165061950684,1.2512205839157104,1.7395018339157104,100.0,66606.0,1.0
559001.0476584,306384.84375,297120.5,331175.8125,326381.4375,384094.1875,298377.28125,297933.21875,299024.875,-0.05615234375,0.836669921875,-0.58544921875,-15.106200218200684,1.7395018339157104,2.563476324081421,100.0,66607.0,1.0
559001.0476662,306585.9375,299919.21875,333553.65625,327485.78125,390870.25,301530.40625,300038.84375,300099.53125,-0.05615234375,0.83203125,-0.5830078125,-15.075682640075684,2.227782964706421,3.234863042831421,100.0,66608.0,1.0
559001.047674,306419.625,299640.0,333385.125,327234.28125,392415.1875,301518.34375,300233.65625,300004.15625,-0.055419921875,0.8310546875,-0.583740234375,-14.892577171325684,2.838134527206421,3.967284917831421,100.0,66609.0,1.0
559001.0476833,306193.0,296705.125,330949.96875,326027.75,386499.5,298366.375,298263.40625,298906.40625,-0.05322265625,0.827392578125,-0.578125,-14.709471702575684,3.356933355331421,4.547118663787842,100.0,66610.0,1.0
559001.0500804,306251.46875,295330.5625,329739.03125,325591.875,381611.4375,296597.65625,296976.28125,298402.59375,-0.051513671875,0.821044921875,-0.577880859375,-14.373778343200684,3.936767339706421,5.310058116912842,100.0,66611.0,1.0
559001.0501152,306251.46875,295330.5625,329739.03125,325591.875,381611.4375,296597.65625,296976.28125,298402.59375,-0.051513671875,0.821044921875,-0.577880859375,-14.373778343200684,3.936767339706421,5.310058116912842,100.0,66612.0,0.0
559001.0501171,306251.46875,295330.5625,329739.03125,325591.875,381611.4375,296597.65625,296976.28125,298402.59375,-0.051513671875,0.821044921875,-0.577880859375,-14.373778343200684,3.936767339706421,5.310058116912842,100.0,66613.0,0.0
559001.0501187,306251.46875,295330.5625,329739.03125,325591.875,381611.4375,296597.65625,296976.28125,298402.59375,-0.051513671875,0.821044921875,-0.577880859375,-14.373778343200684,3.936767339706421,5.310058116912842,100.0,66614.0,0.0
559001.0501203,306251.46875,295330.5625,329739.03125,325591.875,381611.4375,296597.65625,296976.28125,298402.59375,-0.051513671875,0.821044921875,-0.577880859375,-14.373778343200684,3.936767339706421,5.310058116912842,100.0,66615.0,0.0
559001.0501217,306251.46875,295330.5625,329739.03125,325591.875,381611.4375,296597.65625,296976.28125,298402.59375,-0.051513671875,0.821044921875,-0.577880859375,-14.373778343200684,3.936767339706421,5.310058116912842,100.0,66616.0,0.0
559001.0501231,306251.46875,295330.5625,329739.03125,325591.875,381611.4375,296597.65625,296976.28125,298402.59375,-0.051513671875,0.821044921875,-0.577880859375,-14.373778343200684,3.936767339706421,5.310058116912842,100.0,66617.0,0.0
559001.0501244,306796.84375,300162.65625,333773.78125,327624.28125,391032.15625,301760.1875,300237.75,300355.875,-0.05419921875,0.791015625,-0.56103515625,-10.925292015075684,7.934569835662842,8.392333030700684,100.0,66618.0,1.0
559001.0524645,306617.125,299873.53125,333605.53125,327493.21875,392606.625,301740.78125,300361.3125,300269.15625,-0.0576171875,0.791259765625,-0.5615234375,-10.314940452575684,8.331297874450684,8.514403343200684,100.0,66619.0,1.0
559001.0552137,306423.03125,296964.5,331215.84375,326420.34375,386738.125,298582.40625,298406.25,299186.25,-0.05859375,0.787353515625,-0.5625,-9.552000999450684,8.361815452575684,8.728026390075684,100.0,66620.0,1.0
559001.0576509,306487.65625,295586.90625,330016.625,325927.34375,381830.21875,296793.90625,297117.28125,298658.84375,-0.05908203125,0.783935546875,-0.56396484375,-8.789061546325684,8.331297874450684,8.728026390075684,100.0,66621.0,1.0
559001.1211721,306728.1875,297496.46875,331536.75,326721.09375,384320.21875,298654.1875,298190.25,299229.625,-0.053955078125,0.779541015625,-0.565673828125,-8.026122093200684,8.392333030700684,8.483885765075684,100.0,66622.0,1.0
559001.1237977,306907.71875,300280.5,333878.125,327792.28125,391091.71875,301806.59375,300301.78125,300216.75,-0.049072265625,0.77685546875,-0.56640625,-6.927489757537842,8.392333030700684,8.422850608825684,100.0,66623.0,1.0
559001.1263079,306729.0625,300004.59375,333716.375,327537.46875,392673.21875,301798.53125,300440.8125,300116.34375,-0.043212890625,0.7880859375,-0.565673828125,-6.042479991912842,8.300780296325684,8.148192405700684,100.0,66624.0,1.0
559001.1300822,306541.0625,297092.59375,331336.375,326344.0625,386790.96875,298649.1875,298479.9375,299052.75,-0.035888671875,0.799560546875,-0.567138671875,-5.157470226287842,8.300780296325684,8.209227561950684,100.0,66625.0,1.0
559001.1325875,306601.5,295689.1875,330124.28125,325897.125,381834.0625,296831.4375,297143.46875,298544.03125,-0.03662109375,0.804443359375,-0.5703125,-4.364013195037842,8.209227561950684,8.422850608825684,100.0,66626.0,1.0
559001.1326071,306860.84375,297595.78125,331649.125,326772.78125,384273.625,298686.09375,298155.21875,299281.90625,-0.034912109375,0.810546875,-0.5673828125,-3.479003667831421,8.056639671325684,8.514403343200684,100.0,66627.0,1.0
559001.1426339,307060.0625,300367.0625,333983.96875,327902.15625,390976.65625,301844.3125,300262.4375,300394.125,-0.027587890625,0.81396484375,-0.566162109375,-2.258300542831421,8.148192405700684,8.575438499450684,100.0,66628.0,1.0
559001.14266,306913.34375,300094.09375,333823.84375,327691.625,392518.65625,301852.625,300464.21875,300325.90625,-0.025634765625,0.8125,-0.5615234375,-1.3427733182907104,8.270262718200684,8.636473655700684,100.0,66629.0,1.0
559001.1426644,306702.53125,297160.75,331423.46875,326488.625,386598.65625,298672.15625,298483.6875,299217.71875,-0.025634765625,0.813232421875,-0.560791015625,-0.2746581733226776,8.514403343200684,8.789061546325684,100.0,66630.0,1.0
559001.1426684,306734.4375,295722.4375,330194.75,326005.3125,381581.9375,296807.3125,297083.40625,298643.5625,-0.0244140625,0.8173828125,-0.556640625,0.7324218153953552,8.758543968200684,8.514403343200684,100.0,66631.0,1.0
559001.1426723,306935.25,297560.65625,331661.5625,326808.90625,383906.6875,298590.09375,298050.78125,299306.3125,-0.02392578125,0.824462890625,-0.55810546875,1.4648436307907104,9.185790061950684,8.544920921325684,100.0,66632.0,1.0
559001.1426765,307021.875,300211.75,333883.59375,327827.25,390453.0,301627.34375,300076.5625,300299.53125,-0.022705078125,0.825927734375,-0.55712890625,1.8615721464157104,9.582518577575684,8.575438499450684,100.0,66633.0,1.0
559001.2084815,306841.09375,299917.40625,333701.46875,327585.125,391965.75,301604.4375,300258.25,300205.75,-0.02001953125,0.825439453125,-0.557861328125,2.227782964706421,9.887694358825684,8.392333030700684,100.0,66634.0,1.0
559001.2085216,306646.71875,297026.71875,331336.5625,326400.40625,386098.34375,298448.5625,298300.40625,299108.71875,-0.018798828125,0.8291015625,-0.558837890625,2.593993902206421,10.467528343200684,8.117674827575684,100.0,66635.0,1.0
559001.2085303,306701.1875,295628.375,330136.53125,325941.125,381124.25,296617.3125,296967.625,298562.8125,-0.02001953125,0.837158203125,-0.5537109375,2.655029058456421,11.047362327575684,7.965087413787842,100.0,66636.0,1.0
559001.2085407,306701.1875,295628.375,330136.53125,325941.125,381124.25,296617.3125,296967.625,298562.8125,-0.02001953125,0.837158203125,-0.5537109375,2.655029058456421,11.047362327575684,7.965087413787842,100.0,66637.0,0.0
559001.2085423,306701.1875,295628.375,330136.53125,325941.125,381124.25,296617.3125,296967.625,298562.8125,-0.02001953125,0.837158203125,-0.5537109375,2.655029058456421,11.047362327575684,7.965087413787842,100.0,66638.0,0.0
559001.208544,306701.1875,295628.375,330136.53125,325941.125,381124.25,296617.3125,296967.625,298562.8125,-0.02001953125,0.837158203125,-0.5537109375,2.655029058456421,11.047362327575684,7.965087413787842,100.0,66639.0,0.0
559001.2085454,306568.75,296840.46875,331212.28125,326314.90625,385553.125,298216.625,298149.125,299044.8125,-0.025390625,0.840087890625,-0.5400390625,1.7395018339157104,12.634276390075684,7.019042491912842,100.0,66640.0,1.0
559001.2289757,306636.1875,295451.4375,330032.65625,325867.34375,380598.28125,296396.5625,296828.9375,298520.71875,-0.027099609375,0.84033203125,-0.537109375,1.3122557401657104,12.786864280700684,6.683349132537842,100.0,66641.0,1.0
559001.229013,306830.28125,297253.1875,331462.0,326663.78125,382834.34375,298153.59375,297776.5625,299191.34375,-0.03076171875,0.836669921875,-0.536865234375,1.0986326932907104,13.000487327575684,6.286620616912842,100.0,66642.0,1.0
559001.2290221,306881.59375,299831.84375,333600.78125,327655.40625,389231.25,301134.6875,299741.1875,300181.15625,-0.034423828125,0.83544921875,-0.537109375,0.9765624403953552,13.092040061950684,5.981444835662842,100.0,66643.0,1.0
559001.2290306,306702.4375,299554.4375,333417.6875,327425.71875,390736.5,301137.1875,299950.0625,300103.84375,-0.03662109375,0.8349609375,-0.540283203125,1.0070799589157104,13.031004905700684,5.462646007537842,100.0,66644.0,1.0
559001.2290385,306549.09375,296740.25,331126.71875,326282.09375,384971.90625,298054.34375,298042.75,299042.75,-0.03759765625,0.83740234375,-0.545654296875,1.0681151151657104,12.878417015075684,4.974364757537842,100.0,66645.0,1.0
559001.2290469,306615.6875,295367.0625,329953.25,325828.1875,380022.15625,296235.0,296707.8125,298507.90625,-0.038330078125,0.839111328125,-0.54248046875,1.1596678495407104,12.695311546325684,4.638671398162842,100.0,66646.0,1.0
559001.2290549,306779.125,297141.5,331350.15625,326591.1875,382199.90625,297959.3125,297616.34375,299151.90625,-0.039306640625,0.84130859375,-0.539306640625,1.3427733182907104,12.359618186950684,4.333495616912842,100.0,66647.0,1.0
559001.2290639,306836.28125,299719.28125,333487.3125,327591.84375,388556.5625,300945.5,299573.84375,300148.53125,-0.03857421875,0.843505859375,-0.538330078125,1.4648436307907104,11.932372093200684,3.967284917831421,100.0,66648.0,1.0
559001.3774116,306691.25,299481.125,333343.75,327398.1875,390085.625,300990.03125,299811.75,300095.0625,-0.034423828125,0.84716796875,-0.536865234375,1.6784666776657104,11.535643577575684,3.723144292831421,100.0,66649.0,1.0
559001.3774563,306691.25,299481.125,333343.75,327398.1875,390085.625,300990.03125,299811.75,300095.0625,-0.034423828125,0.84716796875,-0.536865234375,1.6784666776657104,11.535643577575684,3.723144292831421,100.0,66650.0,0.0
559001.3774581,306691.25,299481.125,333343.75,327398.1875,390085.625,300990.03125,299811.75,300095.0625,-0.034423828125,0.84716796875,-0.536865234375,1.6784666776657104,11.535643577575684,3.723144292831421,100.0,66651.0,0.0
559001.3774597,306691.25,299481.125,333343.75,327398.1875,390085.625,300990.03125,299811.75,300095.0625,-0.034423828125,0.84716796875,-0.536865234375,1.6784666776657104,11.535643577575684,3.723144292831421,100.0,66652.0,0.0
559001.3774612,306691.25,299481.125,333343.75,327398.1875,390085.625,300990.03125,299811.75,300095.0625,-0.034423828125,0.84716796875,-0.536865234375,1.6784666776657104,11.535643577575684,3.723144292831421,100.0,66653.0,0.0
559001.3774625,306691.25,299481.125,333343.75,327398.1875,390085.625,300990.03125,299811.75,300095.0625,-0.034423828125,0.84716796875,-0.536865234375,1.6784666776657104,11.535643577575684,3.723144292831421,100.0,66654.0,0.0
559001.3774639,306691.25,299481.125,333343.75,327398.1875,390085.625,300990.03125,299811.75,300095.0625,-0.034423828125,0.84716796875,-0.536865234375,1.6784666776657104,11.535643577575684,3.723144292831421,100.0,66655.0,0.0
559001.3774653,306691.25,299481.125,333343.75,327398.1875,390085.625,300990.03125,299811.75,300095.0625,-0.034423828125,0.84716796875,-0.536865234375,1.6784666776657104,11.535643577575684,3.723144292831421,100.0,66656.0,0.0
559001.3774666,306691.25,299481.125,333343.75,327398.1875,390085.625,300990.03125,299811.75,300095.0625,-0.034423828125,0.84716796875,-0.536865234375,1.6784666776657104,11.535643577575684,3.723144292831421,100.0,66657.0,0.0
559001.377468,306691.25,299481.125,333343.75,327398.1875,390085.625,300990.03125,299811.75,300095.0625,-0.034423828125,0.84716796875,-0.536865234375,1.6784666776657104,11.535643577575684,3.723144292831421,100.0,66658.0,0.0
559001.3774694,306691.25,299481.125,333343.75,327398.1875,390085.625,300990.03125,299811.75,300095.0625,-0.034423828125,0.84716796875,-0.536865234375,1.6784666776657104,11.535643577575684,3.723144292831421,100.0,66659.0,0.0
559001.3774707,306691.25,299481.125,333343.75,327398.1875,390085.625,300990.03125,299811.75,300095.0625,-0.034423828125,0.84716796875,-0.536865234375,1.6784666776657104,11.535643577575684,3.723144292831421,100.0,66660.0,0.0
559001.3774723,306691.25,299481.125,333343.75,327398.1875,390085.625,300990.03125,299811.75,300095.0625,-0.034423828125,0.84716796875,-0.536865234375,1.6784666776657104,11.535643577575684,3.723144292831421,100.0,66661.0,0.0
559001.3774737,306691.25,299481.125,333343.75,327398.1875,390085.625,300990.03125,299811.75,300095.0625,-0.034423828125,0.84716796875,-0.536865234375,1.6784666776657104,11.535643577575684,3.723144292831421,100.0,66662.0,0.0
559001.3774752,306691.25,299481.125,333343.75,327398.1875,390085.625,300990.03125,299811.75,300095.0625,-0.034423828125,0.84716796875,-0.536865234375,1.6784666776657104,11.535643577575684,3.723144292831421,100.0,66663.0,0.0
559001.3774765,306628.65625,299373.375,333171.1875,327276.59375,388331.4375,300721.8125,299522.59375,299972.75,-0.096923828125,0.84375,-0.525390625,-5.645751476287842,9.368895530700684,0.2136230319738388,100.0,66664.0,1.0
559001.3837453,306553.03125,296701.0,331029.8125,326201.71875,382836.9375,297771.46875,297723.375,298962.09375,-0.105224609375,0.838134765625,-0.5205078125,-5.767821788787842,8.911131858825684,-0.3662109076976776,100.0,66665.0,1.0
559001.3890017,306664.25,295399.15625,329931.34375,325754.96875,378011.90625,296001.65625,296430.0,298445.15625,-0.10791015625,0.833251953125,-0.522705078125,-5.615233898162842,8.209227561950684,-1.0681151151657104,100.0,66666.0,1.0
559001.465358,306768.15625,297079.71875,331223.0,326440.0,380041.09375,297641.125,297260.6875,299032.8125,-0.109130859375,0.82958984375,-0.523681640625,-5.493163585662842,7.446288585662842,-1.7700194120407104,100.0,66667.0,1.0
559001.4653992,306750.71875,299565.78125,333235.65625,327381.375,386250.9375,300575.8125,299163.28125,299980.1875,-0.10986328125,0.832275390625,-0.5244140625,-5.340575695037842,6.530761241912842,-2.441406011581421,100.0,66668.0,1.0
559001.465408,306605.0625,299382.6875,333122.28125,327212.46875,387901.03125,300695.0,299436.84375,299951.125,-0.104736328125,0.834716796875,-0.522216796875,-5.432128429412842,5.371093273162842,-2.807616949081421,100.0,66669.0,1.0
559001.4654159,306534.4375,296760.0,331012.625,326138.78125,382484.40625,297768.34375,297641.03125,298945.84375,-0.101806640625,0.835693359375,-0.521484375,-5.371093273162842,4.180907726287842,-3.021239995956421,100.0,66670.0,1.0
559001.4654237,306600.59375,295440.09375,329879.21875,325651.625,377649.1875,295958.46875,296296.25,298364.5,-0.09716796875,0.833984375,-0.52197265625,-5.493163585662842,2.929687261581421,-3.051757574081421,100.0,66671.0,1.0
559001.465432,306722.90625,297147.0625,331188.40625,326364.0,379693.65625,297618.15625,297138.46875,298966.9375,-0.0927734375,0.832275390625,-0.519287109375,-5.249022960662842,1.7395018339157104,-3.234863042831421,100.0,66672.0,1.0
559001.4654404,306713.6875,299653.03125,333230.1875,327326.21875,385944.375,300578.5,299052.84375,299940.5625,-0.0888671875,0.835205078125,-0.521484375,-4.882812023162842,0.4272460639476776,-3.662109136581421,100.0,66673.0,1.0
559001.4654485,306558.3125,299470.65625,333135.5,327156.5,387636.65625,300702.78125,299334.65625,299886.3125,-0.080322265625,0.837158203125,-0.518310546875,-4.302978038787842,-0.8239745497703552,-3.753661870956421,100.0,66674.0,1.0
559001.4654565,306480.53125,296822.96875,331021.5625,326070.75,382168.90625,297748.40625,297523.09375,298844.71875,-0.07275390625,0.83837890625,-0.52099609375,-4.058837413787842,-1.9226073026657104,-3.631591558456421,100.0,66675.0,1.0
559001.4654643,306582.625,295526.09375,329925.09375,325613.15625,377327.3125,295953.75,296205.34375,298293.625,-0.065673828125,0.8369140625,-0.517822265625,-3.845214605331421,-2.960204839706421,-3.540038824081421,100.0,66676.0,1.0
559001.4654734,306714.75,297253.0,331245.8125,326330.375,379392.625,297627.71875,297067.03125,298905.78125,-0.060302734375,0.83544921875,-0.51708984375,-3.601073980331421,-3.936767339706421,-3.295898199081421,100.0,66677.0,1.0
559001.472549,306670.6875,299741.65625,333246.90625,327263.09375,385637.15625,300567.3125,298956.5625,299846.78125,-0.052734375,0.835693359375,-0.5205078125,-3.326415777206421,-4.577636241912842,-3.173827886581421,100.0,66678.0,1.0
559001.4725997,306670.6875,299741.65625,333246.90625,327263.09375,385637.15625,300567.3125,298956.5625,299846.78125,-0.052734375,0.835693359375,-0.5205078125,-3.326415777206421,-4.577636241912842,-3.173827886581421,100.0,66679.0,0.0
559001.4726014,306670.6875,299741.65625,333246.90625,327263.09375,385637.15625,300567.3125,298956.5625,299846.78125,-0.052734375,0.835693359375,-0.5205078125,-3.326415777206421,-4.577636241912842,-3.173827886581421,100.0,66680.0,0.0
559001.4726029,306670.6875,299741.65625,333246.90625,327263.09375,385637.15625,300567.3125,298956.5625,299846.78125,-0.052734375,0.835693359375,-0.5205078125,-3.326415777206421,-4.577636241912842,-3.173827886581421,100.0,66681.0,0.0
559001.4726043,306670.6875,299741.65625,333246.90625,327263.09375,385637.15625,300567.3125,298956.5625,299846.78125,-0.052734375,0.835693359375,-0.5205078125,-3.326415777206421,-4.577636241912842,-3.173827886581421,100.0,66682.0,0.0
559001.4726057,306670.6875,299741.65625,333246.90625,327263.09375,385637.15625,300567.3125,298956.5625,299846.78125,-0.052734375,0.835693359375,-0.5205078125,-3.326415777206421,-4.577636241912842,-3.173827886581421,100.0,66683.0,0.0
559001.4726071,306670.6875,299741.65625,333246.90625,327263.09375,385637.15625,300567.3125,298956.5625,299846.78125,-0.052734375,0.835693359375,-0.5205078125,-3.326415777206421,-4.577636241912842,-3.173827886581421,100.0,66684.0,0.0
559001.4726085,306670.6875,299741.65625,333246.90625,327263.09375,385637.15625,300567.3125,298956.5625,299846.78125,-0.052734375,0.835693359375,-0.5205078125,-3.326415777206421,-4.577636241912842,-3.173827886581421,100.0,66685.0,0.0
559001.4726098,306670.6875,299741.65625,333246.90625,327263.09375,385637.15625,300567.3125,298956.5625,299846.78125,-0.052734375,0.835693359375,-0.5205078125,-3.326415777206421,-4.577636241912842,-3.173827886581421,100.0,66686.0,0.0
559001.4726113,306670.6875,299741.65625,333246.90625,327263.09375,385637.15625,300567.3125,298956.5625,299846.78125,-0.052734375,0.835693359375,-0.5205078125,-3.326415777206421,-4.577636241912842,-3.173827886581421,100.0,66687.0,0.0
559001.4726127,306670.6875,299741.65625,333246.90625,327263.09375,385637.15625,300567.3125,298956.5625,299846.78125,-0.052734375,0.835693359375,-0.5205078125,-3.326415777206421,-4.577636241912842,-3.173827886581421,100.0,66688.0,0.0
559001.4726141,306670.6875,299741.65625,333246.90625,327263.09375,385637.15625,300567.3125,298956.5625,299846.78125,-0.052734375,0.835693359375,-0.5205078125,-3.326415777206421,-4.577636241912842,-3.173827886581421,100.0,66689.0,0.0
559001.4726154,306670.6875,299741.65625,333246.90625,327263.09375,385637.15625,300567.3125,298956.5625,299846.78125,-0.052734375,0.835693359375,-0.5205078125,-3.326415777206421,-4.577636241912842,-3.173827886581421,100.0,66690.0,0.0
559001.4726168,306670.6875,299741.65625,333246.90625,327263.09375,385637.15625,300567.3125,298956.5625,299846.78125,-0.052734375,0.835693359375,-0.5205078125,-3.326415777206421,-4.577636241912842,-3.173827886581421,100.0,66691.0,0.0
559001.4726182,306670.6875,299741.65625,333246.90625,327263.09375,385637.15625,300567.3125,298956.5625,299846.78125,-0.052734375,0.835693359375,-0.5205078125,-3.326415777206421,-4.577636241912842,-3.173827886581421,100.0,66692.0,0.0
559001.4726196,306670.6875,299741.65625,333246.90625,327263.09375,385637.15625,300567.3125,298956.5625,299846.78125,-0.052734375,0.835693359375,-0.5205078125,-3.326415777206421,-4.577636241912842,-3.173827886581421,100.0,66693.0,0.0
559001.472621,306670.6875,299741.65625,333246.90625,327263.09375,385637.15625,300567.3125,298956.5625,299846.78125,-0.052734375,0.835693359375,-0.5205078125,-3.326415777206421,-4.577636241912842,-3.173827886581421,100.0,66694.0,0.0
559001.4726224,306670.6875,299741.65625,333246.90625,327263.09375,385637.15625,300567.3125,298956.5625,299846.78125,-0.052734375,0.835693359375,-0.5205078125,-3.326415777206421,-4.577636241912842,-3.173827886581421,100.0,66695.0,0.0
559001.4726238,306670.6875,299741.65625,333246.90625,327263.09375,385637.15625,300567.3125,298956.5625,299846.78125,-0.052734375,0.835693359375,-0.5205078125,-3.326415777206421,-4.577636241912842,-3.173827886581421,100.0,66696.0,0.0
559001.4726251,306670.6875,299741.65625,333246.90625,327263.09375,385637.15625,300567.3125,298956.5625,299846.78125,-0.052734375,0.835693359375,-0.5205078125,-3.326415777206421,-4.577636241912842,-3.173827886581421,100.0,66697.0,0.0
559001.4726267,306670.6875,299741.65625,333246.90625,327263.09375,385637.15625,300567.3125,298956.5625,299846.78125,-0.052734375,0.835693359375,-0.5205078125,-3.326415777206421,-4.577636241912842,-3.173827886581421,100.0,66698.0,0.0
559001.4726281,306670.6875,299741.65625,333246.90625,327263.09375,385637.15625,300567.3125,298956.5625,299846.78125,-0.052734375,0.835693359375,-0.5205078125,-3.326415777206421,-4.577636241912842,-3.173827886581421,100.0,66699.0,0.0
559001.4726295,306670.6875,299741.65625,333246.90625,327263.09375,385637.15625,300567.3125,298956.5625,299846.78125,-0.052734375,0.835693359375,-0.5205078125,-3.326415777206421,-4.577636241912842,-3.173827886581421,100.0,66700.0,0.0
559001.4726309,306670.6875,299741.65625,333246.90625,327263.09375,385637.15625,300567.3125,298956.5625,299846.78125,-0.052734375,0.835693359375,-0.5205078125,-3.326415777206421,-4.577636241912842,-3.173827886581421,100.0,66701.0,0.0
559001.4726323,306670.6875,299741.65625,333246.90625,327263.09375,385637.15625,300567.3125,298956.5625,299846.78125,-0.052734375,0.835693359375,-0.5205078125,-3.326415777206421,-4.577636241912842,-3.173827886581421,100.0,66702.0,0.0
559001.4726337,306670.6875,299741.65625,333246.90625,327263.09375,385637.15625,300567.3125,298956.5625,299846.78125,-0.052734375,0.835693359375,-0.5205078125,-3.326415777206421,-4.577636241912842,-3.173827886581421,100.0,66703.0,0.0
559001.4726351,306782.0,300264.84375,333650.3125,327348.375,387173.625,301290.34375,299140.375,299981.71875,-0.0712890625,0.85595703125,-0.5380859375,-2.105712652206421,-1.9226073026657104,-2.136230230331421,100.0,66704.0,1.0
559001.4749725,306755.0,297698.15625,331593.59375,326317.4375,381869.1875,298427.1875,297386.5,298995.53125,-0.06689453125,0.86181640625,-0.5380859375,-1.5258787870407104,-2.258300542831421,-1.7395018339157104,100.0,66705.0,1.0
559001.4774153,306904.3125,296387.1875,330484.9375,325873.78125,376954.15625,296613.125,296051.28125,298455.09375,-0.060302734375,0.8603515625,-0.538818359375,-1.0375975370407104,-2.563476324081421,-1.1291502714157104,100.0,66706.0,1.0
559001.4837496,307056.03125,298034.25,331752.75,326587.34375,378809.25,298202.6875,296854.78125,299061.625,-0.056884765625,0.860595703125,-0.540283203125,-0.6408690810203552,-2.624511480331421,-0.6103515028953552,100.0,66707.0,1.0
559001.483781,307061.84375,300539.59375,333801.25,327585.75,385059.875,301169.21875,298804.65625,300070.84375,-0.0517578125,0.859130859375,-0.538330078125,-0.1831054538488388,-2.624511480331421,0.03051757626235485,100.0,66708.0,1.0
559001.4855217,306932.90625,300444.46875,333790.3125,327485.0,386997.5,301406.40625,299189.125,300089.09375,-0.047607421875,0.858642578125,-0.538818359375,0.1220703050494194,-2.349853277206421,0.8239745497703552,100.0,66709.0,1.0
559001.5512954,306900.71875,297900.5,331772.40625,326464.6875,381808.9375,298576.0625,297477.25,299113.46875,-0.04736328125,0.859130859375,-0.5390625,0.3967284858226776,-1.9531248807907104,1.5258787870407104,100.0,66710.0,1.0
559001.557591,307020.34375,296562.25,330648.9375,325988.9375,376916.59375,296747.84375,296146.9375,298554.5,-0.04541015625,0.859130859375,-0.53857421875,0.3662109076976776,-1.4343260526657104,2.380370855331421,100.0,66711.0,1.0
559001.5625699,307127.75,298150.125,331871.84375,326650.5625,378734.78125,298299.34375,296943.65625,299127.5,-0.0458984375,0.855712890625,-0.536865234375,0.3662109076976776,-1.0375975370407104,3.082275152206421,100.0,66712.0,1.0
559001.5626102,307144.0,300647.34375,333925.25,327660.84375,385004.96875,301286.15625,298934.9375,300159.0,-0.04296875,0.851806640625,-0.53564453125,0.1831054538488388,-0.4577636420726776,3.784179449081421,100.0,66713.0,1.0
559001.5665365,307023.40625,300555.875,333925.875,327581.0,386998.21875,301554.375,299360.3125,300200.03125,-0.04248046875,0.847412109375,-0.53564453125,0.0610351525247097,0.1831054538488388,4.394530773162842,100.0,66714.0,1.0
559001.5665776,307003.28125,298019.9375,331916.0,326570.71875,381850.34375,298736.8125,297669.28125,299239.34375,-0.042724609375,0.84326171875,-0.534912109375,-0.2136230319738388,0.8850097060203552,4.974364757537842,100.0,66715.0,1.0
559001.5665861,307124.25,296683.46875,330785.1875,326091.75,376953.0625,296895.90625,296328.625,298690.75,-0.0439453125,0.84033203125,-0.536865234375,-0.3967284858226776,1.4343260526657104,5.584716320037842,100.0,66716.0,1.0
559001.5665941,307238.0625,298280.28125,332000.125,326761.40625,378753.90625,298435.40625,297116.9375,299283.25,-0.046875,0.842529296875,-0.5390625,-0.6408690810203552,1.9836424589157104,6.072997570037842,100.0,66717.0,1.0
559001.5666039,307195.9375,300737.28125,333999.1875,327727.90625,384981.625,301369.375,299061.78125,300277.1875,-0.047607421875,0.848876953125,-0.541015625,-0.7019042372703552,2.471923589706421,6.530761241912842,100.0,66718.0,1.0
559001.5727289,307070.4375,300664.5,334016.0,327660.9375,387032.53125,301651.125,299514.03125,300329.9375,-0.0458984375,0.85791015625,-0.545166015625,-0.6713866591453552,2.868652105331421,6.866454601287842,100.0,66719.0,1.0
559001.5727906,307070.4375,300664.5,334016.0,327660.9375,387032.53125,301651.125,299514.03125,300329.9375,-0.0458984375,0.85791015625,-0.545166015625,-0.6713866591453552,2.868652105331421,6.866454601287842,100.0,66720.0,0.0
559001.5727924,307070.4375,300664.5,334016.0,327660.9375,387032.53125,301651.125,299514.03125,300329.9375,-0.0458984375,0.85791015625,-0.545166015625,-0.6713866591453552,2.868652105331421,6.866454601287842,100.0,66721.0,0.0
559001.5727939,307070.4375,300664.5,334016.0,327660.9375,387032.53125,301651.125,299514.03125,300329.9375,-0.0458984375,0.85791015625,-0.545166015625,-0.6713866591453552,2.868652105331421,6.866454601287842,100.0,66722.0,0.0
559001.5727953,307070.4375,300664.5,334016.0,327660.9375,387032.53125,301651.125,299514.03125,300329.9375,-0.0458984375,0.85791015625,-0.545166015625,-0.6713866591453552,2.868652105331421,6.866454601287842,100.0,66723.0,0.0
559001.5727967,307070.4375,300664.5,334016.0,327660.9375,387032.53125,301651.125,299514.03125,300329.9375,-0.0458984375,0.85791015625,-0.545166015625,-0.6713866591453552,2.868652105331421,6.866454601287842,100.0,66724.0,0.0
559001.572798,307070.4375,300664.5,334016.0,327660.9375,387032.53125,301651.125,299514.03125,300329.9375,-0.0458984375,0.85791015625,-0.545166015625,-0.6713866591453552,2.868652105331421,6.866454601287842,100.0,66725.0,0.0
559001.5727994,307070.4375,300664.5,334016.0,327660.9375,387032.53125,301651.125,299514.03125,300329.9375,-0.0458984375,0.85791015625,-0.545166015625,-0.6713866591453552,2.868652105331421,6.866454601287842,100.0,66726.0,0.0
559001.5728008,307070.4375,300664.5,334016.0,327660.9375,387032.53125,301651.125,299514.03125,300329.9375,-0.0458984375,0.85791015625,-0.545166015625,-0.6713866591453552,2.868652105331421,6.866454601287842,100.0,66727.0,0.0
559001.5728021,307070.4375,300664.5,334016.0,327660.9375,387032.53125,301651.125,299514.03125,300329.9375,-0.0458984375,0.85791015625,-0.545166015625,-0.6713866591453552,2.868652105331421,6.866454601287842,100.0,66728.0,0.0
559001.5728035,307070.4375,300664.5,334016.0,327660.9375,387032.53125,301651.125,299514.03125,300329.9375,-0.0458984375,0.85791015625,-0.545166015625,-0.6713866591453552,2.868652105331421,6.866454601287842,100.0,66729.0,0.0
559001.5728051,307070.4375,300664.5,334016.0,327660.9375,387032.53125,301651.125,299514.03125,300329.9375,-0.0458984375,0.85791015625,-0.545166015625,-0.6713866591453552,2.868652105331421,6.866454601287842,100.0,66730.0,0.0
559001.5728065,307070.4375,300664.5,334016.0,327660.9375,387032.53125,301651.125,299514.03125,300329.9375,-0.0458984375,0.85791015625,-0.545166015625,-0.6713866591453552,2.868652105331421,6.866454601287842,100.0,66731.0,0.0
559001.5728079,307070.4375,300664.5,334016.0,327660.9375,387032.53125,301651.125,299514.03125,300329.9375,-0.0458984375,0.85791015625,-0.545166015625,-0.6713866591453552,2.868652105331421,6.866454601287842,100.0,66732.0,0.0
559001.5728092,307070.4375,300664.5,334016.0,327660.9375,387032.53125,301651.125,299514.03125,300329.9375,-0.0458984375,0.85791015625,-0.545166015625,-0.6713866591453552,2.868652105331421,6.866454601287842,100.0,66733.0,0.0
559001.5728106,307070.4375,300664.5,334016.0,327660.9375,387032.53125,301651.125,299514.03125,300329.9375,-0.0458984375,0.85791015625,-0.545166015625,-0.6713866591453552,2.868652105331421,6.866454601287842,100.0,66734.0,0.0
559001.572812,307070.4375,300664.5,334016.0,327660.9375,387032.53125,301651.125,299514.03125,300329.9375,-0.0458984375,0.85791015625,-0.545166015625,-0.6713866591453552,2.868652105331421,6.866454601287842,100.0,66735.0,0.0
559001.5728134,307070.4375,300664.5,334016.0,327660.9375,387032.53125,301651.125,299514.03125,300329.9375,-0.0458984375,0.85791015625,-0.545166015625,-0.6713866591453552,2.868652105331421,6.866454601287842,100.0,66736.0,0.0
559001.5728148,307070.4375,300664.5,334016.0,327660.9375,387032.53125,301651.125,299514.03125,300329.9375,-0.0458984375,0.85791015625,-0.545166015625,-0.6713866591453552,2.868652105331421,6.866454601287842,100.0,66737.0,0.0
559001.5728161,307070.4375,300664.5,334016.0,327660.9375,387032.53125,301651.125,299514.03125,300329.9375,-0.0458984375,0.85791015625,-0.545166015625,-0.6713866591453552,2.868652105331421,6.866454601287842,100.0,66738.0,0.0
559001.5728175,307070.4375,300664.5,334016.0,327660.9375,387032.53125,301651.125,299514.03125,300329.9375,-0.0458984375,0.85791015625,-0.545166015625,-0.6713866591453552,2.868652105331421,6.866454601287842,100.0,66739.0,0.0
559001.5728189,307070.4375,300664.5,334016.0,327660.9375,387032.53125,301651.125,299514.03125,300329.9375,-0.0458984375,0.85791015625,-0.545166015625,-0.6713866591453552,2.868652105331421,6.866454601287842,100.0,66740.0,0.0
559001.5728203,307070.4375,300664.5,334016.0,327660.9375,387032.53125,301651.125,299514.03125,300329.9375,-0.0458984375,0.85791015625,-0.545166015625,-0.6713866591453552,2.868652105331421,6.866454601287842,100.0,66741.0,0.0
559001.5728216,307070.4375,300664.5,334016.0,327660.9375,387032.53125,301651.125,299514.03125,300329.9375,-0.0458984375,0.85791015625,-0.545166015625,-0.6713866591453552,2.868652105331421,6.866454601287842,100.0,66742.0,0.0
559001.572823,307070.4375,300664.5,334016.0,327660.9375,387032.53125,301651.125,299514.03125,300329.9375,-0.0458984375,0.85791015625,-0.545166015625,-0.6713866591453552,2.868652105331421,6.866454601287842,100.0,66743.0,0.0
559001.5728244,307070.4375,300664.5,334016.0,327660.9375,387032.53125,301651.125,299514.03125,300329.9375,-0.0458984375,0.85791015625,-0.545166015625,-0.6713866591453552,2.868652105331421,6.866454601287842,100.0,66744.0,0.0
559001.5728258,307070.4375,300664.5,334016.0,327660.9375,387032.53125,301651.125,299514.03125,300329.9375,-0.0458984375,0.85791015625,-0.545166015625,-0.6713866591453552,2.868652105331421,6.866454601287842,100.0,66745.0,0.0
559001.5728272,307070.4375,300664.5,334016.0,327660.9375,387032.53125,301651.125,299514.03125,300329.9375,-0.0458984375,0.85791015625,-0.545166015625,-0.6713866591453552,2.868652105331421,6.866454601287842,100.0,66746.0,0.0
559001.5728286,307070.4375,300664.5,334016.0,327660.9375,387032.53125,301651.125,299514.03125,300329.9375,-0.0458984375,0.85791015625,-0.545166015625,-0.6713866591453552,2.868652105331421,6.866454601287842,100.0,66747.0,0.0
559001.5728299,307070.4375,300664.5,334016.0,327660.9375,387032.53125,301651.125,299514.03125,300329.9375,-0.0458984375,0.85791015625,-0.545166015625,-0.6713866591453552,2.868652105331421,6.866454601287842,100.0,66748.0,0.0
559001.5728313,307070.4375,300664.5,334016.0,327660.9375,387032.53125,301651.125,299514.03125,300329.9375,-0.0458984375,0.85791015625,-0.545166015625,-0.6713866591453552,2.868652105331421,6.866454601287842,100.0,66749.0,0.0
559001.5728327,307070.4375,300664.5,334016.0,327660.9375,387032.53125,301651.125,299514.03125,300329.9375,-0.0458984375,0.85791015625,-0.545166015625,-0.6713866591453552,2.868652105331421,6.866454601287842,100.0,66750.0,0.0
559001.5728341,307070.4375,300664.5,334016.0,327660.9375,387032.53125,301651.125,299514.03125,300329.9375,-0.0458984375,0.85791015625,-0.545166015625,-0.6713866591453552,2.868652105331421,6.866454601287842,100.0,66751.0,0.0
559001.5728354,307070.4375,300664.5,334016.0,327660.9375,387032.53125,301651.125,299514.03125,300329.9375,-0.0458984375,0.85791015625,-0.545166015625,-0.6713866591453552,2.868652105331421,6.866454601287842,100.0,66752.0,0.0
559001.5728368,307070.4375,300664.5,334016.0,327660.9375,387032.53125,301651.125,299514.03125,300329.9375,-0.0458984375,0.85791015625,-0.545166015625,-0.6713866591453552,2.868652105331421,6.866454601287842,100.0,66753.0,0.0
559001.5728382,307070.4375,300664.5,334016.0,327660.9375,387032.53125,301651.125,299514.03125,300329.9375,-0.0458984375,0.85791015625,-0.545166015625,-0.6713866591453552,2.868652105331421,6.866454601287842,100.0,66754.0,0.0
559001.5728396,307070.4375,300664.5,334016.0,327660.9375,387032.53125,301651.125,299514.03125,300329.9375,-0.0458984375,0.85791015625,-0.545166015625,-0.6713866591453552,2.868652105331421,6.866454601287842,100.0,66755.0,0.0
559001.5728409,307070.4375,300664.5,334016.0,327660.9375,387032.53125,301651.125,299514.03125,300329.9375,-0.0458984375,0.85791015625,-0.545166015625,-0.6713866591453552,2.868652105331421,6.866454601287842,100.0,66756.0,0.0
559001.5728423,307070.4375,300664.5,334016.0,327660.9375,387032.53125,301651.125,299514.03125,300329.9375,-0.0458984375,0.85791015625,-0.545166015625,-0.6713866591453552,2.868652105331421,6.866454601287842,100.0,66757.0,0.0
559001.5728437,307070.4375,300664.5,334016.0,327660.9375,387032.53125,301651.125,299514.03125,300329.9375,-0.0458984375,0.85791015625,-0.545166015625,-0.6713866591453552,2.868652105331421,6.866454601287842,100.0,66758.0,0.0
559001.572845,307070.4375,300664.5,334016.0,327660.9375,387032.53125,301651.125,299514.03125,300329.9375,-0.0458984375,0.85791015625,-0.545166015625,-0.6713866591453552,2.868652105331421,6.866454601287842,100.0,66759.0,0.0
559001.5728464,307070.4375,300664.5,334016.0,327660.9375,387032.53125,301651.125,299514.03125,300329.9375,-0.0458984375,0.85791015625,-0.545166015625,-0.6713866591453552,2.868652105331421,6.866454601287842,100.0,66760.0,0.0
559001.5728478,307070.4375,300664.5,334016.0,327660.9375,387032.53125,301651.125,299514.03125,300329.9375,-0.0458984375,0.85791015625,-0.545166015625,-0.6713866591453552,2.868652105331421,6.866454601287842,100.0,66761.0,0.0
559001.5728492,307070.4375,300664.5,334016.0,327660.9375,387032.53125,301651.125,299514.03125,300329.9375,-0.0458984375,0.85791015625,-0.545166015625,-0.6713866591453552,2.868652105331421,6.866454601287842,100.0,66762.0,0.0
559001.5728506,307070.4375,300664.5,334016.0,327660.9375,387032.53125,301651.125,299514.03125,300329.9375,-0.0458984375,0.85791015625,-0.545166015625,-0.6713866591453552,2.868652105331421,6.866454601287842,100.0,66763.0,0.0
559001.5728519,307070.4375,300664.5,334016.0,327660.9375,387032.53125,301651.125,299514.03125,300329.9375,-0.0458984375,0.85791015625,-0.545166015625,-0.6713866591453552,2.868652105331421,6.866454601287842,100.0,66764.0,0.0
559001.5728533,307070.4375,300664.5,334016.0,327660.9375,387032.53125,301651.125,299514.03125,300329.9375,-0.0458984375,0.85791015625,-0.545166015625,-0.6713866591453552,2.868652105331421,6.866454601287842,100.0,66765.0,0.0
559001.5728546,307070.4375,300664.5,334016.0,327660.9375,387032.53125,301651.125,299514.03125,300329.9375,-0.0458984375,0.85791015625,-0.545166015625,-0.6713866591453552,2.868652105331421,6.866454601287842,100.0,66766.0,0.0
559001.572856,307070.4375,300664.5,334016.0,327660.9375,387032.53125,301651.125,299514.03125,300329.9375,-0.0458984375,0.85791015625,-0.545166015625,-0.6713866591453552,2.868652105331421,6.866454601287842,100.0,66767.0,0.0
559001.5728574,307070.4375,300664.5,334016.0,327660.9375,387032.53125,301651.125,299514.03125,300329.9375,-0.0458984375,0.85791015625,-0.545166015625,-0.6713866591453552,2.868652105331421,6.866454601287842,100.0,66768.0,0.0
559001.5728587,307070.4375,300664.5,334016.0,327660.9375,387032.53125,301651.125,299514.03125,300329.9375,-0.0458984375,0.85791015625,-0.545166015625,-0.6713866591453552,2.868652105331421,6.866454601287842,100.0,66769.0,0.0
559001.5728601,307070.4375,300664.5,334016.0,327660.9375,387032.53125,301651.125,299514.03125,300329.9375,-0.0458984375,0.85791015625,-0.545166015625,-0.6713866591453552,2.868652105331421,6.866454601287842,100.0,66770.0,0.0
559001.5728615,307070.4375,300664.5,334016.0,327660.9375,387032.53125,301651.125,299514.03125,300329.9375,-0.0458984375,0.85791015625,-0.545166015625,-0.6713866591453552,2.868652105331421,6.866454601287842,100.0,66771.0,0.0
559001.5728628,306642.875,297309.5,331232.5625,326243.9375,377199.28125,297845.59375,297092.6875,298958.09375,-0.0537109375,0.84326171875,-0.532470703125,-2.563476324081421,-0.4272460639476776,-0.4577636420726776,100.0,66772.0,1.0
559001.5728718,306577.96875,299736.0,333202.46875,327231.4375,383348.0,300781.28125,299009.75,299936.46875,-0.0498046875,0.844970703125,-0.534423828125,-2.288818120956421,-1.0681151151657104,-0.4882812201976776,100.0,66773.0,1.0
559001.5728797,306463.53125,299787.0625,333341.25,327247.34375,385761.625,301231.34375,299593.0625,300048.40625,-0.047607421875,0.847900390625,-0.53662109375,-1.9531248807907104,-1.9226073026657104,-0.3967284858226776,100.0,66774.0,1.0
559001.5728876,306458.0,297345.71875,331429.53125,326251.8125,380918.96875,298497.0,297975.6875,299097.28125,-0.04541015625,0.8515625,-0.536376953125,-1.6174315214157104,-2.746581792831421,-0.1525878757238388,100.0,66775.0,1.0
559001.7201452,306533.4375,295880.875,330172.03125,325642.21875,375756.96875,296478.1875,296466.21875,298420.9375,-0.04345703125,0.85302734375,-0.53515625,-1.2512205839157104,-3.021239995956421,-0.0610351525247097,100.0,66776.0,1.0
559001.7201858,306601.9375,297316.75,331219.4375,326214.875,377115.6875,297836.28125,297080.90625,298905.6875,-0.039306640625,0.854736328125,-0.535400390625,-1.2207030057907104,-3.387450933456421,0.1831054538488388,100.0,66777.0,1.0
559001.7201946,306565.28125,299771.6875,333213.65625,327232.15625,383296.59375,300807.03125,299039.875,299907.75,-0.038818359375,0.854736328125,-0.529541015625,-1.2207030057907104,-3.692626714706421,0.5187987685203552,100.0,66778.0,1.0
559001.7202026,306413.65625,299800.5625,333325.6875,327217.75,385714.6875,301235.625,299590.8125,299986.34375,-0.03662109375,0.850341796875,-0.5283203125,-1.3732908964157104,-3.631591558456421,0.7019042372703552,100.0,66779.0,1.0
559001.7202104,306387.09375,297344.5625,331396.28125,326198.59375,380885.90625,298483.96875,297962.96875,299019.3125,-0.038818359375,0.846923828125,-0.526611328125,-1.4953612089157104,-3.540038824081421,0.9460448622703552,100.0,66780.0,1.0
559001.7202183,306481.40625,295887.75,330149.75,325600.1875,375738.125,296479.0,296476.875,298360.03125,-0.039306640625,0.842529296875,-0.527099609375,-1.4038084745407104,-3.265380620956421,1.0681151151657104,100.0,66781.0,1.0
559001.7202263,306555.09375,297308.53125,331190.71875,326179.375,377078.78125,297825.21875,297087.25,298849.1875,-0.040283203125,0.839599609375,-0.528564453125,-1.4648436307907104,-2.929687261581421,1.0681151151657104,100.0,66782.0,1.0
559001.7202341,306510.65625,299752.1875,333181.90625,327200.125,383272.4375,300787.71875,299039.96875,299858.78125,-0.047119140625,0.837890625,-0.531982421875,-1.3122557401657104,-2.532958745956421,1.1291502714157104,100.0,66783.0,1.0
559001.7202486,306382.78125,299802.0,333325.40625,327211.59375,385747.3125,301248.0625,299622.75,299967.9375,-0.052978515625,0.8359375,-0.537109375,-1.3427733182907104,-2.319335699081421,1.0070799589157104,100.0,66784.0,1.0
559001.7202565,306347.03125,297329.53125,331390.28125,326174.46875,380925.6875,298482.78125,297975.5,298988.40625,-0.0546875,0.837646484375,-0.5380859375,-1.3122557401657104,-2.014159917831421,1.0681151151657104,100.0,66785.0,1.0
559001.7202644,306441.8125,295861.21875,330139.3125,325566.40625,375767.34375,296456.46875,296469.34375,298326.78125,-0.058349609375,0.837158203125,-0.5380859375,-1.1596678495407104,-1.9226073026657104,0.9155272841453552,100.0,66786.0,1.0
559001.7211462,306514.5,297265.0625,331166.6875,326138.4375,377080.75,297783.53125,297059.25,298814.125,-0.06005859375,0.83447265625,-0.533935546875,-1.0070799589157104,-1.9226073026657104,0.8239745497703552,100.0,66787.0,1.0
559001.8064165,306514.5,297265.0625,331166.6875,326138.4375,377080.75,297783.53125,297059.25,298814.125,-0.06005859375,0.83447265625,-0.533935546875,-1.0070799589157104,-1.9226073026657104,0.8239745497703552,100.0,66788.0,0.0
559001.8064239,306514.5,297265.0625,331166.6875,326138.4375,377080.75,297783.53125,297059.25,298814.125,-0.06005859375,0.83447265625,-0.533935546875,-1.0070799589157104,-1.9226073026657104,0.8239745497703552,100.0,66789.0,0.0
559001.8064254,306514.5,297265.0625,331166.6875,326138.4375,377080.75,297783.53125,297059.25,298814.125,-0.06005859375,0.83447265625,-0.533935546875,-1.0070799589157104,-1.9226073026657104,0.8239745497703552,100.0,66790.0,0.0
559001.8064268,306486.78125,295842.78125,330152.96875,325587.0625,375776.28125,296455.9375,296471.59375,298345.75,-0.059814453125,0.83447265625,-0.5302734375,-0.2136230319738388,-2.258300542831421,0.3356933295726776,100.0,66791.0,1.0
559001.8064605,306567.25,297233.4375,331175.34375,326162.75,377055.09375,297779.78125,297070.6875,298842.75,-0.05419921875,0.83935546875,-0.53076171875,0.0915527269244194,-2.655029058456421,0.1525878757238388,100.0,66792.0,1.0
559001.8064692,306485.625,299621.84375,333118.875,327149.53125,383182.9375,300698.75,298988.5625,299821.65625,-0.050537109375,0.845947265625,-0.533935546875,0.0915527269244194,-3.112792730331421,0.2136230319738388,100.0,66793.0,1.0
559001.8064773,306368.03125,299689.96875,333277.125,327177.96875,385688.5625,301176.71875,299580.53125,299946.21875,-0.04638671875,0.84912109375,-0.5322265625,0.03051757626235485,-3.601073980331421,0.3662109076976776,100.0,66794.0,1.0
559001.8064855,306372.15625,297255.59375,331372.3125,326180.53125,380886.71875,298441.84375,297961.65625,298995.90625,-0.0390625,0.850830078125,-0.530517578125,-0.0610351525247097,-4.028319835662842,0.3967284858226776,100.0,66795.0,1.0
559001.8064935,306470.25,295780.46875,330105.0625,325573.1875,375668.375,296401.59375,296457.8125,298332.21875,-0.034912109375,0.853759765625,-0.529052734375,-0.03051757626235485,-4.272460460662842,0.4272460639476776,100.0,66796.0,1.0
559001.806502,306510.375,297124.71875,331069.5,326107.75,376855.4375,297667.9375,297000.6875,298779.4375,-0.030029296875,0.8583984375,-0.530029296875,0.0915527269244194,-4.455565929412842,0.5493163466453552,100.0,66797.0,1.0
559001.8065099,306452.28125,299533.15625,333027.40625,327120.9375,382971.0625,300603.96875,298929.84375,299770.34375,-0.026123046875,0.857421875,-0.530029296875,-0.0610351525247097,-4.364013195037842,0.7019042372703552,100.0,66798.0,1.0
559001.8065179,306338.375,299607.1875,333193.71875,327159.46875,385470.25,301092.75,299531.625,299896.21875,-0.02294921875,0.860595703125,-0.53466796875,-0.03051757626235485,-4.058837413787842,0.9765624403953552,100.0,66799.0,1.0
559001.8065258,306347.5625,297175.5,331290.15625,326159.53125,380656.5625,298358.0625,297905.75,298937.0625,-0.0224609375,0.85986328125,-0.53662109375,0.1220703050494194,-3.784179449081421,1.1291502714157104,100.0,66800.0,1.0
559001.8065337,306450.375,295687.75,330012.53125,325544.3125,375395.59375,296300.1875,296377.53125,298257.3125,-0.018310546875,0.8623046875,-0.535888671875,0.3356933295726776,-3.143310308456421,1.1291502714157104,100.0,66801.0,1.0
559001.8065428,306488.65625,297018.5,330978.46875,326081.84375,376546.34375,297554.9375,296913.0625,298698.71875,-0.017822265625,0.867919921875,-0.5361328125,0.4272460639476776,-2.471923589706421,1.3427733182907104,100.0,66802.0,1.0
559001.8087009,306424.8125,299415.40625,332941.9375,327098.21875,382643.09375,300486.125,298842.46875,299695.15625,-0.0166015625,0.8701171875,-0.53369140625,0.1831054538488388,-1.6479490995407104,1.7395018339157104,100.0,66803.0,1.0
559001.8150535,306424.8125,299415.40625,332941.9375,327098.21875,382643.09375,300486.125,298842.46875,299695.15625,-0.0166015625,0.8701171875,-0.53369140625,0.1831054538488388,-1.6479490995407104,1.7395018339157104,100.0,66804.0,0.0
559001.8150611,306424.8125,299415.40625,332941.9375,327098.21875,382643.09375,300486.125,298842.46875,299695.15625,-0.0166015625,0.8701171875,-0.53369140625,0.1831054538488388,-1.6479490995407104,1.7395018339157104,100.0,66805.0,0.0
559001.8150626,306424.8125,299415.40625,332941.9375,327098.21875,382643.09375,300486.125,298842.46875,299695.15625,-0.0166015625,0.8701171875,-0.53369140625,0.1831054538488388,-1.6479490995407104,1.7395018339157104,100.0,66806.0,0.0
559001.8150641,306424.8125,299415.40625,332941.9375,327098.21875,382643.09375,300486.125,298842.46875,299695.15625,-0.0166015625,0.8701171875,-0.53369140625,0.1831054538488388,-1.6479490995407104,1.7395018339157104,100.0,66807.0,0.0
559001.8150655,306424.8125,299415.40625,332941.9375,327098.21875,382643.09375,300486.125,298842.46875,299695.15625,-0.0166015625,0.8701171875,-0.53369140625,0.1831054538488388,-1.6479490995407104,1.7395018339157104,100.0,66808.0,0.0
559001.815067,306424.8125,299415.40625,332941.9375,327098.21875,382643.09375,300486.125,298842.46875,299695.15625,-0.0166015625,0.8701171875,-0.53369140625,0.1831054538488388,-1.6479490995407104,1.7395018339157104,100.0,66809.0,0.0
559001.8150684,306424.8125,299415.40625,332941.9375,327098.21875,382643.09375,300486.125,298842.46875,299695.15625,-0.0166015625,0.8701171875,-0.53369140625,0.1831054538488388,-1.6479490995407104,1.7395018339157104,100.0,66810.0,0.0
559001.8150698,306424.8125,299415.40625,332941.9375,327098.21875,382643.09375,300486.125,298842.46875,299695.15625,-0.0166015625,0.8701171875,-0.53369140625,0.1831054538488388,-1.6479490995407104,1.7395018339157104,100.0,66811.0,0.0
559001.8150712,306424.0,296788.09375,330883.78125,326057.25,375959.75,297367.625,296859.25,298685.3125,-0.033203125,0.858154296875,-0.519287109375,-2.593993902206421,6.195067882537842,2.380370855331421,100.0,66812.0,1.0
559001.815105,306356.96875,299194.5625,332862.28125,327071.125,382081.0,300307.59375,298811.1875,299693.625,-0.0380859375,0.855712890625,-0.517578125,-3.021239995956421,6.530761241912842,2.258300542831421,100.0,66813.0,1.0
559001.8190738,306258.0,299315.25,333078.90625,327136.65625,384669.59375,300852.25,299477.28125,299863.0625,-0.04296875,0.852294921875,-0.518798828125,-3.204345464706421,6.774901866912842,1.8615721464157104,100.0,66814.0,1.0
559001.8191154,306286.9375,296915.3125,331205.125,326159.8125,379921.5625,298155.375,297898.875,298950.21875,-0.0478515625,0.852783203125,-0.519287109375,-3.479003667831421,6.713866710662842,1.6784666776657104,100.0,66815.0,1.0
559001.8191246,306390.65625,295411.03125,329908.53125,325537.34375,374621.15625,296077.3125,296362.59375,298293.96875,-0.04931640625,0.853515625,-0.521728515625,-3.662109136581421,6.591796398162842,1.4343260526657104,100.0,66816.0,1.0
559001.8191326,306440.71875,296747.59375,330863.59375,326081.03125,375735.0,297330.34375,296899.75,298769.0625,-0.05224609375,0.85205078125,-0.5224609375,-3.753661870956421,6.500243663787842,1.3427733182907104,100.0,66817.0,1.0
559001.8211814,306395.59375,299185.1875,332847.53125,327117.71875,381866.96875,300297.9375,298859.1875,299800.03125,-0.05322265625,0.850341796875,-0.5224609375,-3.997802495956421,6.164550304412842,1.2817381620407104,100.0,66818.0,1.0
559001.8237944,306282.75,299304.28125,333053.15625,327179.9375,384461.09375,300844.5625,299504.71875,299952.375,-0.0517578125,0.85009765625,-0.523193359375,-3.967284917831421,5.584716320037842,1.1291502714157104,100.0,66819.0,1.0
559001.8238338,306312.4375,296917.90625,331193.78125,326207.8125,379724.78125,298163.15625,297937.5,299033.28125,-0.051513671875,0.84814453125,-0.521484375,-3.845214605331421,5.187987804412842,0.8850097060203552,100.0,66820.0,1.0
559001.8950897,306433.65625,295421.0625,329916.9375,325597.96875,374411.125,296088.125,296410.625,298364.59375,-0.05078125,0.852294921875,-0.524658203125,-3.631591558456421,4.821776866912842,0.6713866591453552,100.0,66821.0,1.0
559001.8951301,306504.84375,296767.15625,330894.34375,326154.34375,375513.0,297345.71875,296952.3125,298834.4375,-0.049072265625,0.85205078125,-0.520751953125,-3.448486089706421,4.455565929412842,0.6713866591453552,100.0,66822.0,1.0
559001.8951515,306488.5625,299239.1875,332912.09375,327221.40625,381677.34375,300346.46875,298936.1875,299885.21875,-0.048095703125,0.852783203125,-0.521728515625,-3.204345464706421,4.058837413787842,0.7629393935203552,100.0,66823.0,1.0
559001.8951601,306400.78125,299393.40625,333141.0625,327309.65625,384331.03125,300928.0625,299615.03125,300062.4375,-0.045654296875,0.853271484375,-0.518798828125,-3.021239995956421,3.723144292831421,0.9460448622703552,100.0,66824.0,1.0
559001.8951912,306400.78125,299393.40625,333141.0625,327309.65625,384331.03125,300928.0625,299615.03125,300062.4375,-0.045654296875,0.853271484375,-0.518798828125,-3.021239995956421,3.723144292831421,0.9460448622703552,100.0,66825.0,0.0
559001.8951928,306400.78125,299393.40625,333141.0625,327309.65625,384331.03125,300928.0625,299615.03125,300062.4375,-0.045654296875,0.853271484375,-0.518798828125,-3.021239995956421,3.723144292831421,0.9460448622703552,100.0,66826.0,0.0
559001.8951942,306400.78125,299393.40625,333141.0625,327309.65625,384331.03125,300928.0625,299615.03125,300062.4375,-0.045654296875,0.853271484375,-0.518798828125,-3.021239995956421,3.723144292831421,0.9460448622703552,100.0,66827.0,0.0
559001.8951956,306400.78125,299393.40625,333141.0625,327309.65625,384331.03125,300928.0625,299615.03125,300062.4375,-0.045654296875,0.853271484375,-0.518798828125,-3.021239995956421,3.723144292831421,0.9460448622703552,100.0,66828.0,0.0
559001.8951969,306400.78125,299393.40625,333141.0625,327309.65625,384331.03125,300928.0625,299615.03125,300062.4375,-0.045654296875,0.853271484375,-0.518798828125,-3.021239995956421,3.723144292831421,0.9460448622703552,100.0,66829.0,0.0
559001.8951983,306400.78125,299393.40625,333141.0625,327309.65625,384331.03125,300928.0625,299615.03125,300062.4375,-0.045654296875,0.853271484375,-0.518798828125,-3.021239995956421,3.723144292831421,0.9460448622703552,100.0,66830.0,0.0
559001.8951997,306400.78125,299393.40625,333141.0625,327309.65625,384331.03125,300928.0625,299615.03125,300062.4375,-0.045654296875,0.853271484375,-0.518798828125,-3.021239995956421,3.723144292831421,0.9460448622703552,100.0,66831.0,0.0
559001.8952011,306400.78125,299393.40625,333141.0625,327309.65625,384331.03125,300928.0625,299615.03125,300062.4375,-0.045654296875,0.853271484375,-0.518798828125,-3.021239995956421,3.723144292831421,0.9460448622703552,100.0,66832.0,0.0
559001.8952024,306400.78125,299393.40625,333141.0625,327309.65625,384331.03125,300928.0625,299615.03125,300062.4375,-0.045654296875,0.853271484375,-0.518798828125,-3.021239995956421,3.723144292831421,0.9460448622703552,100.0,66833.0,0.0
559001.8952038,306400.78125,299393.40625,333141.0625,327309.65625,384331.03125,300928.0625,299615.03125,300062.4375,-0.045654296875,0.853271484375,-0.518798828125,-3.021239995956421,3.723144292831421,0.9460448622703552,100.0,66834.0,0.0
559001.8952052,306400.78125,299393.40625,333141.0625,327309.65625,384331.03125,300928.0625,299615.03125,300062.4375,-0.045654296875,0.853271484375,-0.518798828125,-3.021239995956421,3.723144292831421,0.9460448622703552,100.0,66835.0,0.0
559001.8952066,306400.78125,299393.40625,333141.0625,327309.65625,384331.03125,300928.0625,299615.03125,300062.4375,-0.045654296875,0.853271484375,-0.518798828125,-3.021239995956421,3.723144292831421,0.9460448622703552,100.0,66836.0,0.0
559001.895208,306400.78125,299393.40625,333141.0625,327309.65625,384331.03125,300928.0625,299615.03125,300062.4375,-0.045654296875,0.853271484375,-0.518798828125,-3.021239995956421,3.723144292831421,0.9460448622703552,100.0,66837.0,0.0
559001.8952093,306400.78125,299393.40625,333141.0625,327309.65625,384331.03125,300928.0625,299615.03125,300062.4375,-0.045654296875,0.853271484375,-0.518798828125,-3.021239995956421,3.723144292831421,0.9460448622703552,100.0,66838.0,0.0
559001.8952107,306400.78125,299393.40625,333141.0625,327309.65625,384331.03125,300928.0625,299615.03125,300062.4375,-0.045654296875,0.853271484375,-0.518798828125,-3.021239995956421,3.723144292831421,0.9460448622703552,100.0,66839.0,0.0
559001.8952121,306400.78125,299393.40625,333141.0625,327309.65625,384331.03125,300928.0625,299615.03125,300062.4375,-0.045654296875,0.853271484375,-0.518798828125,-3.021239995956421,3.723144292831421,0.9460448622703552,100.0,66840.0,0.0
559001.8952135,306400.78125,299393.40625,333141.0625,327309.65625,384331.03125,300928.0625,299615.03125,300062.4375,-0.045654296875,0.853271484375,-0.518798828125,-3.021239995956421,3.723144292831421,0.9460448622703552,100.0,66841.0,0.0
559001.8952149,306400.78125,299393.40625,333141.0625,327309.65625,384331.03125,300928.0625,299615.03125,300062.4375,-0.045654296875,0.853271484375,-0.518798828125,-3.021239995956421,3.723144292831421,0.9460448622703552,100.0,66842.0,0.0
559001.8952162,306400.78125,299393.40625,333141.0625,327309.65625,384331.03125,300928.0625,299615.03125,300062.4375,-0.045654296875,0.853271484375,-0.518798828125,-3.021239995956421,3.723144292831421,0.9460448622703552,100.0,66843.0,0.0
559001.8952176,306400.78125,299393.40625,333141.0625,327309.65625,384331.03125,300928.0625,299615.03125,300062.4375,-0.045654296875,0.853271484375,-0.518798828125,-3.021239995956421,3.723144292831421,0.9460448622703552,100.0,66844.0,0.0
559001.895219,306400.78125,299393.40625,333141.0625,327309.65625,384331.03125,300928.0625,299615.03125,300062.4375,-0.045654296875,0.853271484375,-0.518798828125,-3.021239995956421,3.723144292831421,0.9460448622703552,100.0,66845.0,0.0
559001.8952204,306400.78125,299393.40625,333141.0625,327309.65625,384331.03125,300928.0625,299615.03125,300062.4375,-0.045654296875,0.853271484375,-0.518798828125,-3.021239995956421,3.723144292831421,0.9460448622703552,100.0,66846.0,0.0
559001.8952218,306400.78125,299393.40625,333141.0625,327309.65625,384331.03125,300928.0625,299615.03125,300062.4375,-0.045654296875,0.853271484375,-0.518798828125,-3.021239995956421,3.723144292831421,0.9460448622703552,100.0,66847.0,0.0
