Time,FZ,C3,CZ,C4,PZ,PO7,OZ,PO8,AccX,AccY,AccZ,Gyro1,Gyro2,Gyro3,Battery,Counter,Validation
1208927.3990224,317287.21875,322691.15625,351053.84375,339493.15625,327770.8125,321332.09375,307325.59375,328702.90625,-0.051513671875,0.947265625,-0.22216796875,-2.593993902206421,11.627196311950684,-5.554198741912842,100.0,151828.0,1.0
1208927.399081,319117.3125,324707.46875,352703.21875,341712.21875,329140.09375,321628.46875,307909.78125,330417.71875,-0.056640625,0.949462890625,-0.222900390625,-2.410888433456421,11.901854515075684,-5.401610851287842,100.0,151829.0,1.0
1208927.4190758,315679.59375,321923.0625,349829.21875,338495.71875,327129.6875,320272.875,306229.8125,327848.78125,-0.060302734375,0.953857421875,-0.220458984375,-2.227782964706421,12.268065452575684,-5.340575695037842,100.0,151830.0,1.0
1208927.4192374,311686.34375,318111.46875,346341.5625,334233.875,324474.46875,319099.96875,304550.40625,324461.96875,-0.06494140625,0.957763671875,-0.218505859375,-2.105712652206421,12.390135765075684,-5.401610851287842,100.0,151831.0,1.0
1208927.4192503,312636.71875,318518.0,347046.53125,334802.875,324835.875,319730.1875,305193.3125,324926.78125,-0.067138671875,0.9580078125,-0.21484375,-2.166747808456421,12.695311546325684,-5.493163585662842,100.0,151832.0,1.0
1208927.4192613,317298.84375,322699.40625,351063.75,339520.25,327798.53125,321334.3125,307330.59375,328716.46875,-0.07080078125,0.95849609375,-0.214599609375,-2.197265386581421,12.634276390075684,-5.493163585662842,100.0,151833.0,1.0
1208927.4221197,319137.59375,324728.03125,352725.28125,341753.09375,329179.34375,321637.9375,307928.46875,330446.34375,-0.07421875,0.95849609375,-0.216796875,-2.319335699081421,12.634276390075684,-5.615233898162842,100.0,151834.0,1.0
1208927.4221562,315679.25,321917.15625,349832.90625,338514.15625,327150.4375,320269.59375,306231.53125,327856.03125,-0.073974609375,0.958984375,-0.218994140625,-2.532958745956421,12.664793968200684,-5.676269054412842,100.0,151835.0,1.0
1208927.4221678,311670.78125,318089.3125,346325.375,334227.34375,324471.625,319079.84375,304535.1875,324440.78125,-0.075439453125,0.958984375,-0.221923828125,-2.685546636581421,12.573241233825684,-5.737304210662842,100.0,151836.0,1.0
1208927.4253534,312639.59375,318515.9375,347047.9375,334813.9375,324846.5,319725.71875,305193.0625,324922.84375,-0.078369140625,0.960693359375,-0.224853515625,-2.685546636581421,12.542723655700684,-5.981444835662842,100.0,151837.0,1.0
1208927.4254,317332.125,322734.53125,351101.65625,339567.71875,327842.78125,321358.03125,307355.8125,328754.5625,-0.080078125,0.959716796875,-0.227294921875,-2.716064214706421,12.451170921325684,-6.134032726287842,100.0,151838.0,1.0
1208927.4271983,319148.25,324751.0,352747.46875,341786.0,329210.28125,321638.125,307933.1875,330472.71875,-0.0830078125,0.96337890625,-0.225830078125,-2.471923589706421,12.451170921325684,-6.256103038787842,100.0,151839.0,1.0
1208927.441077,315675.9375,321926.375,349836.1875,338529.625,327173.125,320256.15625,306219.625,327862.46875,-0.083740234375,0.967529296875,-0.22314453125,-2.258300542831421,12.329100608825684,-6.439208507537842,100.0,151840.0,1.0
1208927.4453071,311674.0,318099.21875,346325.53125,334238.15625,324499.34375,319074.5625,304520.71875,324440.25,-0.08740234375,0.972900390625,-0.2216796875,-2.258300542831421,12.115477561950684,-6.774901866912842,100.0,151841.0,1.0
1208927.4453509,312664.53125,318554.46875,347075.125,334852.03125,324896.75,319738.84375,305199.3125,324948.15625,-0.0888671875,0.97509765625,-0.219482421875,-2.258300542831421,11.901854515075684,-7.080077648162842,100.0,151842.0,1.0
1208927.4540746,317340.59375,322768.25,351119.0,339605.34375,327882.9375,321354.0,307353.84375,328778.71875,-0.087646484375,0.9775390625,-0.21435546875,-2.349853277206421,11.627196311950684,-7.141112804412842,100.0,151843.0,1.0
1208927.4541192,319145.28125,324777.46875,352757.21875,341817.5625,329245.59375,321636.0625,307931.59375,330496.3125,-0.090576171875,0.981201171875,-0.2119140625,-2.593993902206421,11.352538108825684,-7.110595226287842,100.0,151844.0,1.0
1208927.4628908,315662.0,321939.96875,349831.46875,338541.78125,327196.46875,320259.375,306220.6875,327873.90625,-0.08984375,0.9814453125,-0.210693359375,-2.868652105331421,11.016844749450684,-7.049560070037842,100.0,151845.0,1.0
1208927.462936,311668.1875,318113.625,346324.28125,334251.03125,324530.0,319091.375,304535.90625,324453.75,-0.090087890625,0.97998046875,-0.208740234375,-3.112792730331421,10.772704124450684,-7.110595226287842,100.0,151846.0,1.0
1208927.471672,312670.34375,318573.96875,347083.90625,334872.6875,324939.03125,319758.15625,305217.65625,324969.625,-0.087890625,0.97900390625,-0.208984375,-3.479003667831421,10.528563499450684,-7.080077648162842,100.0,151847.0,1.0
1208927.4717166,317361.96875,322800.6875,351145.84375,339643.53125,327939.71875,321386.625,307384.5,328824.21875,-0.089599609375,0.97412109375,-0.2119140625,-3.784179449081421,10.284422874450684,-6.927489757537842,100.0,151848.0,1.0
1208927.4740572,319159.3125,324804.03125,352779.21875,341851.53125,329301.90625,321661.375,307958.59375,330545.5625,-0.09033203125,0.96923828125,-0.212646484375,-3.814697027206421,10.101317405700684,-6.774901866912842,100.0,151849.0,1.0
1208927.4741008,315665.9375,321956.6875,349842.28125,338556.78125,327241.1875,320270.03125,306234.46875,327909.3125,-0.09033203125,0.96484375,-0.21240234375,-3.875732183456421,9.887694358825684,-6.713866710662842,100.0,151850.0,1.0
1208927.4822172,311656.65625,318108.34375,346318.40625,334243.625,324549.84375,319083.0625,304531.4375,324464.28125,-0.089599609375,0.958984375,-0.209716796875,-3.753661870956421,9.582518577575684,-6.622313976287842,100.0,151851.0,1.0
1208927.48651,312659.0625,318564.59375,347073.6875,334864.28125,324946.5625,319742.96875,305211.65625,324979.4375,-0.089599609375,0.952880859375,-0.2109375,-3.784179449081421,9.246825218200684,-6.500243663787842,100.0,151852.0,1.0
1208927.4865516,317370.125,322811.78125,351163.71875,339669.28125,327971.90625,321386.375,307403.03125,328869.90625,-0.088623046875,0.951416015625,-0.212158203125,-3.723144292831421,9.155272483825684,-6.439208507537842,100.0,151853.0,1.0
1208927.5003872,319169.0625,324817.8125,352799.78125,341884.0,329334.46875,321670.0625,307979.875,330597.59375,-0.089111328125,0.950439453125,-0.211181640625,-3.479003667831421,8.911131858825684,-6.256103038787842,100.0,151854.0,1.0
1208927.5004353,315676.03125,321966.25,349858.09375,338582.71875,327268.09375,320288.71875,306256.71875,327952.0625,-0.091796875,0.94970703125,-0.210693359375,-3.112792730331421,8.728026390075684,-6.011962413787842,100.0,151855.0,1.0
1208927.5021681,311671.5,318119.78125,346335.65625,334266.25,324578.5625,319103.625,304553.0,324500.9375,-0.09130859375,0.949462890625,-0.214599609375,-2.838134527206421,8.514403343200684,-6.072997570037842,100.0,151856.0,1.0
1208927.5047357,312667.125,318572.375,347088.625,334884.9375,324971.75,319755.3125,305225.875,325011.90625,-0.09130859375,0.95068359375,-0.214111328125,-2.593993902206421,8.300780296325684,-5.920409679412842,100.0,151857.0,1.0
1208927.5072231,317381.65625,322833.6875,351181.875,339696.8125,328002.75,321400.9375,307419.03125,328913.8125,-0.0908203125,0.9521484375,-0.210205078125,-2.319335699081421,7.995604991912842,-5.798339366912842,100.0,151858.0,1.0
1208927.5098317,319178.53125,324843.90625,352820.78125,341912.6875,329373.71875,321685.96875,307999.28125,330644.71875,-0.090087890625,0.957275390625,-0.210693359375,-2.044677495956421,7.720946788787842,-5.554198741912842,100.0,151859.0,1.0
1208927.5159789,315652.5,321960.09375,349850.0625,338578.34375,327289.28125,320279.59375,306249.59375,327968.40625,-0.090087890625,0.9609375,-0.211669921875,-1.9531248807907104,7.415771007537842,-5.340575695037842,100.0,151860.0,1.0
1208927.5252886,311657.625,318122.65625,346334.3125,334260.15625,324615.65625,319108.625,304556.46875,324521.0625,-0.088134765625,0.964111328125,-0.21044921875,-1.9531248807907104,7.141112804412842,-5.126952648162842,100.0,151861.0,1.0
1208927.5253348,312684.8125,318613.21875,347119.84375,334910.15625,325038.625,319790.34375,305255.28125,325061.0,-0.0869140625,0.96826171875,-0.2099609375,-2.014159917831421,7.019042491912842,-4.699706554412842,100.0,151862.0,1.0
1208927.5277581,317401.3125,322885.96875,351218.25,339731.4375,328075.875,321433.65625,307447.28125,328971.65625,-0.084716796875,0.9697265625,-0.209716796875,-2.105712652206421,6.805419445037842,-4.333495616912842,100.0,151863.0,1.0
1208927.5277948,319182.3125,324890.5,352840.71875,341934.59375,329437.46875,321704.46875,308016.25,330696.75,-0.08349609375,0.968017578125,-0.212646484375,-2.166747808456421,6.652831554412842,-3.936767339706421,100.0,151864.0,1.0
1208927.5361104,315666.46875,322023.375,349876.4375,338607.84375,327357.75,320317.59375,306283.03125,328027.34375,-0.081298828125,0.9677734375,-0.21337890625,-2.258300542831421,6.439208507537842,-3.540038824081421,100.0,151865.0,1.0
1208927.5403065,311662.71875,318178.96875,346345.9375,334282.0625,324662.6875,319132.40625,304572.5625,324557.625,-0.08349609375,0.966796875,-0.213134765625,-2.288818120956421,6.225585460662842,-3.143310308456421,100.0,151866.0,1.0
1208927.5403501,312690.0,318668.75,347128.34375,334933.125,325081.09375,319793.84375,305258.5,325094.25,-0.0830078125,0.962890625,-0.21044921875,-2.410888433456421,6.042479991912842,-2.746581792831421,100.0,151867.0,1.0
1208927.5484786,317422.15625,322965.5625,351242.3125,339769.59375,328129.0625,321445.1875,307461.21875,329023.6875,-0.083251953125,0.960693359375,-0.210205078125,-2.441406011581421,5.737304210662842,-2.380370855331421,100.0,151868.0,1.0
1208927.5515641,319199.1875,324972.03125,352864.40625,341968.46875,329487.0,321717.4375,308026.8125,330749.78125,-0.081787109375,0.959716796875,-0.2060546875,-2.380370855331421,5.523681163787842,-1.9531248807907104,100.0,151869.0,1.0
1208927.5516076,315661.46875,322083.8125,349878.03125,338613.46875,327386.375,320307.75,306271.21875,328056.21875,-0.081787109375,0.95458984375,-0.200439453125,-2.288818120956421,5.340575695037842,-1.5563963651657104,100.0,151870.0,1.0
1208927.5596059,311666.65625,318249.875,346352.90625,334286.53125,324690.9375,319128.3125,304565.875,324591.59375,-0.080322265625,0.950439453125,-0.199951171875,-2.227782964706421,5.065917491912842,-1.0070799589157104,100.0,151871.0,1.0
1208927.5638984,312721.125,318771.65625,347158.09375,334961.5625,325127.15625,319814.9375,305274.78125,325156.84375,-0.082763671875,0.944580078125,-0.203125,-2.105712652206421,4.882812023162842,-0.7019042372703552,100.0,151872.0,1.0
1208927.5639331,317451.375,323066.40625,351276.8125,339805.53125,328178.53125,321473.0,307483.03125,329098.53125,-0.082275390625,0.939697265625,-0.203125,-1.9531248807907104,4.608153820037842,-0.2746581733226776,100.0,151873.0,1.0
1208927.5670637,319218.5,325064.75,352886.9375,341992.78125,329522.9375,321738.53125,308045.6875,330816.75,-0.08154296875,0.9365234375,-0.205810546875,-1.5563963651657104,4.272460460662842,0.0,100.0,151874.0,1.0
1208927.575918,315683.625,322178.5,349899.15625,338639.0625,327421.34375,320333.9375,306294.8125,328122.5625,-0.08203125,0.930419921875,-0.2080078125,-0.9460448622703552,4.058837413787842,0.3356933295726776,100.0,151875.0,1.0
1208927.5827744,311679.8125,318330.96875,346360.59375,334302.28125,324714.53125,319140.8125,304576.0625,324643.28125,-0.080810546875,0.9287109375,-0.21044921875,-0.4272460639476776,3.692626714706421,0.4882812201976776,100.0,151876.0,1.0
1208927.5828294,312748.75,318866.0625,347180.8125,334993.9375,325163.90625,319837.5625,305298.28125,325222.53125,-0.083251953125,0.927001953125,-0.207763671875,0.1220703050494194,3.387450933456421,0.7019042372703552,100.0,151877.0,1.0
1208927.5847403,317484.1875,323173.96875,351304.34375,339846.21875,328220.71875,321495.09375,307512.09375,329171.125,-0.083740234375,0.926513671875,-0.206787109375,0.6103515028953552,3.051757574081421,0.8239745497703552,100.0,151878.0,1.0
1208927.5883984,319230.9375,325153.78125,352901.96875,342018.4375,329559.78125,321751.40625,308061.3125,330875.9375,-0.08544921875,0.930908203125,-0.20849609375,1.1596678495407104,2.593993902206421,1.0070799589157104,100.0,151879.0,1.0
1208927.6077388,315686.75,322255.125,349904.96875,338648.625,327454.40625,320341.90625,306302.875,328162.25,-0.084716796875,0.93359375,-0.2080078125,1.6784666776657104,2.258300542831421,1.0375975370407104,100.0,151880.0,1.0
1208927.607783,311699.46875,318418.3125,346382.21875,334326.0625,324767.1875,319162.28125,304600.90625,324689.78125,-0.0849609375,0.93505859375,-0.209716796875,1.9226073026657104,1.8615721464157104,1.2207030057907104,100.0,151881.0,1.0
1208927.6101638,312765.21875,318946.96875,347199.40625,335013.6875,325212.875,319852.75,305313.9375,325260.90625,-0.0859375,0.93994140625,-0.21142578125,2.288818120956421,1.3427733182907104,1.2817381620407104,100.0,151882.0,1.0
1208927.6101992,317491.53125,323247.0,351315.625,339857.75,328267.03125,321503.125,307517.71875,329202.40625,-0.08544921875,0.945068359375,-0.209716796875,2.655029058456421,0.8544921278953552,1.3732908964157104,100.0,151883.0,1.0
1208927.6121662,319240.40625,325229.875,352913.84375,342030.53125,329612.59375,321765.8125,308074.8125,330909.625,-0.08642578125,0.95166015625,-0.2080078125,3.021239995956421,0.3662109076976776,1.4038084745407104,100.0,151884.0,1.0
1208927.6145839,315694.4375,322327.375,349917.28125,338660.5,327507.6875,320361.21875,306316.90625,328193.8125,-0.084228515625,0.95654296875,-0.207275390625,3.265380620956421,-0.1220703050494194,1.4648436307907104,100.0,151885.0,1.0
1208927.617105,311708.15625,318486.34375,346395.46875,334339.5625,324811.90625,319165.40625,304603.25,324716.6875,-0.08154296875,0.95751953125,-0.205810546875,3.234863042831421,-0.4882812201976776,1.4038084745407104,100.0,151886.0,1.0
1208927.6258637,312781.9375,319014.46875,347218.90625,335039.78125,325262.875,319840.0625,305319.3125,325296.75,-0.0791015625,0.958984375,-0.205810546875,3.112792730331421,-0.8544921278953552,1.3732908964157104,100.0,151887.0,1.0
1208927.6289556,317507.78125,323304.78125,351340.21875,339887.625,328319.78125,321491.5,307530.25,329245.3125,-0.078369140625,0.955322265625,-0.207763671875,3.021239995956421,-1.1596678495407104,1.4648436307907104,100.0,151888.0,1.0
1208927.6289871,319245.78125,325272.4375,352931.28125,342049.21875,329653.46875,321751.84375,308081.96875,330943.25,-0.074462890625,0.94970703125,-0.210205078125,2.929687261581421,-1.6479490995407104,1.5258787870407104,100.0,151889.0,1.0
1208927.6308898,315694.53125,322362.15625,349929.1875,338672.75,327539.09375,320344.84375,306322.0,328223.59375,-0.0732421875,0.946044921875,-0.212646484375,3.051757574081421,-1.9836424589157104,1.4953612089157104,100.0,151890.0,1.0
1208927.6446133,311727.8125,318535.53125,346422.625,334370.125,324854.71875,319172.46875,304626.9375,324762.46875,-0.072021484375,0.943359375,-0.216796875,3.204345464706421,-2.258300542831421,1.5869139432907104,100.0,151891.0,1.0
1208927.6477061,312808.5625,319070.28125,347256.71875,335081.09375,325308.375,319860.1875,305351.3125,325353.0,-0.071044921875,0.94189453125,-0.216796875,3.540038824081421,-2.593993902206421,1.5563963651657104,100.0,151892.0,1.0
1208927.647742,317524.875,323351.875,351368.625,339919.4375,328355.28125,321505.28125,307555.0,329293.34375,-0.070556640625,0.939697265625,-0.2197265625,3.814697027206421,-2.716064214706421,1.4648436307907104,100.0,151893.0,1.0
1208927.649638,319251.84375,325311.59375,352948.71875,342069.25,329680.90625,321759.90625,308098.96875,330981.6875,-0.069091796875,0.941162109375,-0.2197265625,4.089354991912842,-2.990722417831421,1.3732908964157104,100.0,151894.0,1.0
1208927.6533506,315698.8125,322398.71875,349948.75,338692.25,327569.125,320351.84375,306334.34375,328261.03125,-0.065673828125,0.9443359375,-0.21826171875,4.302978038787842,-3.326415777206421,1.2817381620407104,100.0,151895.0,1.0
1208927.6621366,311724.15625,318562.34375,346435.59375,334385.78125,324878.875,319169.4375,304629.53125,324793.46875,-0.065185546875,0.945556640625,-0.218017578125,4.638671398162842,-3.479003667831421,1.2207030057907104,100.0,151896.0,1.0
1208927.6652083,312809.375,319103.625,347275.21875,335103.71875,325338.96875,319865.8125,305359.53125,325390.0,-0.064697265625,0.947021484375,-0.21533203125,4.791259288787842,-3.540038824081421,1.1596678495407104,100.0,151897.0,1.0
1208927.6652435,317532.75,323395.6875,351396.96875,339948.9375,328396.40625,321520.5625,307569.5,329337.15625,-0.0654296875,0.95068359375,-0.21728515625,4.821776866912842,-3.753661870956421,1.0986326932907104,100.0,151898.0,1.0
1208927.6946398,319244.0,325336.09375,352966.53125,342083.0,329711.75,321766.25,308106.375,331011.5625,-0.06298828125,0.952392578125,-0.21533203125,4.791259288787842,-3.814697027206421,0.9460448622703552,100.0,151899.0,1.0
1208927.6976069,315679.15625,322409.09375,349952.34375,338691.875,327584.9375,320347.0,306336.5625,328275.53125,-0.064208984375,0.95361328125,-0.2158203125,4.669188976287842,-3.997802495956421,0.9155272841453552,100.0,151900.0,1.0
1208927.6976398,311721.8125,318585.875,346453.03125,334397.9375,324904.34375,319176.5,304642.59375,324817.1875,-0.06591796875,0.95556640625,-0.21533203125,4.699706554412842,-4.180907726287842,0.6408690810203552,100.0,151901.0,1.0
1208927.699623,312827.34375,319149.3125,347307.78125,335131.25,325379.1875,319882.1875,305378.3125,325424.59375,-0.06591796875,0.9580078125,-0.21728515625,4.547118663787842,-4.241942882537842,0.4882812201976776,100.0,151902.0,1.0
1208927.7021144,317534.96875,323430.125,351410.84375,339959.84375,328422.4375,321515.28125,307570.125,329352.4375,-0.06494140625,0.959716796875,-0.221435546875,4.455565929412842,-4.302978038787842,0.2441406100988388,100.0,151903.0,1.0
1208927.7046357,319225.46875,325350.40625,352960.96875,342075.5,329722.5,321743.8125,308094.3125,331006.8125,-0.064453125,0.96142578125,-0.219970703125,4.333495616912842,-4.364013195037842,0.03051757626235485,100.0,151904.0,1.0
1208927.7071155,315669.15625,322429.46875,349959.03125,338693.21875,327609.0,320339.59375,306340.34375,328283.65625,-0.06396484375,0.96142578125,-0.219970703125,4.180907726287842,-4.486083507537842,-0.1831054538488388,100.0,151905.0,1.0
1208927.7094871,311721.5625,318616.4375,346471.625,334412.875,324936.09375,319174.0625,304651.875,324838.8125,-0.06103515625,0.959716796875,-0.215576171875,4.028319835662842,-4.486083507537842,-0.2441406100988388,100.0,151906.0,1.0
1208927.7195315,312822.4375,319173.0,347321.09375,335143.59375,325397.78125,319871.90625,305378.9375,325440.875,-0.058837890625,0.956298828125,-0.213623046875,3.753661870956421,-4.455565929412842,-0.1831054538488388,100.0,151907.0,1.0
1208927.7221361,317538.5625,323460.5,351434.34375,339981.75,328446.46875,321527.0,307582.8125,329382.28125,-0.05859375,0.95361328125,-0.217529296875,3.662109136581421,-4.333495616912842,-0.2746581733226776,100.0,151908.0,1.0
1208927.7245655,319226.8125,325378.46875,352985.125,342095.34375,329745.46875,321767.78125,308111.3125,331037.65625,-0.054931640625,0.950439453125,-0.22265625,3.662109136581421,-4.241942882537842,-0.3662109076976776,100.0,151909.0,1.0
1208927.7277123,315655.09375,322436.8125,349966.09375,338699.3125,327610.875,320349.875,306340.96875,328296.0,-0.055419921875,0.954833984375,-0.224365234375,3.814697027206421,-4.119872570037842,-0.2746581733226776,100.0,151910.0,1.0
1208927.7277455,311711.90625,318620.28125,346475.9375,334417.25,324933.40625,319180.5,304650.09375,324846.6875,-0.055908203125,0.955810546875,-0.224853515625,3.967284917831421,-3.967284917831421,-0.4272460639476776,100.0,151911.0,1.0
1208927.729615,312823.40625,319184.625,347332.0,335153.34375,325404.84375,319881.90625,305382.15625,325455.1875,-0.057861328125,0.956298828125,-0.219482421875,4.089354991912842,-3.723144292831421,-0.5798339247703552,100.0,151912.0,1.0
1208927.7321352,317539.28125,323472.59375,351441.78125,339985.96875,328454.875,321535.125,307587.46875,329390.4375,-0.0576171875,0.95458984375,-0.218994140625,4.119872570037842,-3.631591558456421,-0.6408690810203552,100.0,151913.0,1.0
1208927.7414621,319218.59375,325383.84375,352982.875,342089.8125,329751.1875,321770.71875,308110.59375,331037.65625,-0.060302734375,0.951904296875,-0.2158203125,3.936767339706421,-3.417968511581421,-0.5798339247703552,100.0,151914.0,1.0
1208927.7414955,315642.59375,322434.46875,349957.78125,338686.96875,327615.0,320344.40625,306334.53125,328292.34375,-0.06201171875,0.95068359375,-0.215576171875,3.875732183456421,-3.295898199081421,-0.6408690810203552,100.0,151915.0,1.0
1208927.754616,311709.03125,318621.375,346476.28125,334414.125,324941.375,319173.90625,304648.21875,324850.78125,-0.064208984375,0.9462890625,-0.21826171875,3.906249761581421,-3.204345464706421,-0.6103515028953552,100.0,151916.0,1.0
1208927.7588815,312833.40625,319193.75,347345.5,335163.71875,325417.53125,319880.5625,305387.25,325470.5625,-0.06689453125,0.94189453125,-0.21826171875,3.997802495956421,-3.051757574081421,-0.5798339247703552,100.0,151917.0,1.0
1208927.7589186,317535.78125,323468.75,351444.8125,339984.0,328452.28125,321525.375,307585.3125,329395.4375,-0.06591796875,0.937744140625,-0.2197265625,4.211425304412842,-3.021239995956421,-0.6103515028953552,100.0,151918.0,1.0
1208927.7589275,319208.125,325373.90625,352976.4375,342073.875,329734.5625,321766.4375,308111.75,331032.75,-0.069091796875,0.93798828125,-0.22216796875,4.425048351287842,-2.960204839706421,-0.7019042372703552,100.0,151919.0,1.0
1208927.7589361,315634.625,322426.4375,349951.8125,338667.5625,327595.5,320348.78125,306343.1875,328283.75,-0.071044921875,0.938720703125,-0.22119140625,4.608153820037842,-3.021239995956421,-0.8544921278953552,100.0,151920.0,1.0
1208927.7609171,311710.65625,318618.84375,346478.53125,334405.0,324932.0625,319179.4375,304654.75,324844.09375,-0.0712890625,0.940185546875,-0.224365234375,4.913329601287842,-2.929687261581421,-1.0375975370407104,100.0,151921.0,1.0
1208927.763969,312850.84375,319210.46875,347355.4375,335170.875,325419.59375,319885.125,305395.65625,325469.3125,-0.069091796875,0.942138671875,-0.2255859375,5.218505382537842,-2.807616949081421,-1.0681151151657104,100.0,151922.0,1.0
1208927.7640016,317540.53125,323472.59375,351443.5625,339981.03125,328443.96875,321512.875,307579.34375,329382.125,-0.06982421875,0.945068359375,-0.2236328125,5.523681163787842,-2.807616949081421,-1.1291502714157104,100.0,151923.0,1.0
1208927.7659051,319194.09375,325357.625,352962.59375,342054.9375,329720.34375,321742.90625,308086.96875,331002.875,-0.06787109375,0.945068359375,-0.22412109375,5.737304210662842,-2.593993902206421,-1.0070799589157104,100.0,151924.0,1.0
1208927.774583,315619.96875,322407.75,349942.0625,338651.5625,327586.125,320341.71875,306325.40625,328257.8125,-0.066650390625,0.94580078125,-0.22265625,5.889892101287842,-2.563476324081421,-0.9765624403953552,100.0,151925.0,1.0
1208927.7783912,311703.9375,318609.65625,346478.6875,334398.28125,324919.375,319188.65625,304656.15625,324833.71875,-0.063720703125,0.942138671875,-0.222900390625,6.072997570037842,-2.563476324081421,-0.7934569716453552,100.0,151926.0,1.0
1208927.782716,312843.78125,319198.84375,347362.3125,335165.59375,325405.46875,319882.0,305393.59375,325463.5,-0.062744140625,0.938232421875,-0.2255859375,6.134032726287842,-2.380370855331421,-0.6103515028953552,100.0,151927.0,1.0
1208927.782748,317534.0,323461.6875,351446.15625,339967.8125,328425.90625,321497.9375,307566.46875,329364.0625,-0.06103515625,0.935791015625,-0.229736328125,6.439208507537842,-2.166747808456421,-0.4577636420726776,100.0,151928.0,1.0
1208927.7908623,319187.5,325345.65625,352961.875,342037.5,329698.09375,321736.125,308083.3125,330985.28125,-0.061767578125,0.93017578125,-0.22998046875,6.835937023162842,-2.014159917831421,-0.2746581733226776,100.0,151929.0,1.0
1208927.7952107,315612.90625,322390.59375,349937.9375,338630.1875,327554.625,320319.125,306314.21875,328237.4375,-0.0625,0.92236328125,-0.231201171875,7.415771007537842,-1.8005369901657104,-0.1831054538488388,100.0,151930.0,1.0
1208927.7952508,311713.0625,318600.25,346486.3125,334387.75,324894.0625,319166.28125,304642.75,324821.1875,-0.06298828125,0.919189453125,-0.23193359375,8.117674827575684,-1.5258787870407104,-0.0915527269244194,100.0,151931.0,1.0
1208927.8059194,312861.6875,319198.65625,347371.4375,335159.0625,325379.90625,319877.71875,305383.5,325454.75,-0.06591796875,0.91796875,-0.229248046875,8.911131858825684,-1.3427733182907104,-0.0610351525247097,100.0,151932.0,1.0
1208927.8088078,317549.09375,323466.0625,351458.03125,339966.375,328408.84375,321513.78125,307569.3125,329364.5,-0.065673828125,0.918212890625,-0.229736328125,9.704588890075684,-1.2207030057907104,-0.0610351525247097,100.0,151933.0,1.0
1208927.8088403,319185.96875,325333.6875,352957.5625,342018.0,329667.5,321736.75,308073.3125,330968.90625,-0.065185546875,0.921630859375,-0.225830078125,10.437010765075684,-1.0375975370407104,-0.03051757626235485,100.0,151934.0,1.0
1208927.8158899,315615.84375,322381.46875,349930.96875,338607.3125,327521.125,320324.5625,306300.8125,328214.1875,-0.067626953125,0.921142578125,-0.22265625,11.413573265075684,-0.8239745497703552,0.2441406100988388,100.0,151935.0,1.0
1208927.8183153,311725.5,318599.09375,346481.90625,334371.65625,324865.28125,319169.59375,304630.0625,324796.6875,-0.067626953125,0.923583984375,-0.223876953125,11.840819358825684,-0.8239745497703552,0.4272460639476776,100.0,151936.0,1.0
1208927.8208865,312882.5,319202.6875,347380.375,335158.25,325364.625,319886.5625,305385.09375,325444.71875,-0.071044921875,0.92529296875,-0.2265625,12.329100608825684,-0.8850097060203552,0.5187987685203552,100.0,151937.0,1.0
1208927.8246222,317554.28125,323454.0625,351452.40625,339951.09375,328380.75,321512.78125,307562.15625,329344.9375,-0.06982421875,0.926513671875,-0.229248046875,12.756346702575684,-0.8239745497703552,0.7019042372703552,100.0,151938.0,1.0
1208927.838933,319177.84375,325314.8125,352944.625,341992.78125,329633.15625,321742.46875,308069.90625,330946.03125,-0.071044921875,0.926513671875,-0.231201171875,13.214110374450684,-0.7934569716453552,0.7629393935203552,100.0,151939.0,1.0
1208927.8389649,315609.875,322363.84375,349925.875,338588.625,327491.15625,320340.125,306311.0,328202.84375,-0.070556640625,0.92724609375,-0.231689453125,13.763426780700684,-0.7019042372703552,0.6408690810203552,100.0,151940.0,1.0
1208927.8408643,311735.25,318596.6875,346488.96875,334367.09375,324842.03125,319177.46875,304634.875,324792.40625,-0.06982421875,0.925537109375,-0.23828125,14.068602561950684,-0.6408690810203552,0.6713866591453552,100.0,151941.0,1.0
1208927.8433574,312897.875,319208.5,347387.4375,335159.59375,325338.25,319877.4375,305377.5,325434.4375,-0.0703125,0.920654296875,-0.239990234375,14.526366233825684,-0.5187987685203552,0.5798339247703552,100.0,151942.0,1.0
1208927.8476913,317553.40625,323443.71875,351444.0,339936.34375,328337.5,321493.46875,307546.25,329317.75,-0.07080078125,0.91552734375,-0.2431640625,15.045165061950684,-0.5187987685203552,0.5493163466453552,100.0,151943.0,1.0
1208927.847724,319160.21875,325282.1875,352922.0,341959.25,329573.0,321711.625,308042.71875,330898.625,-0.072021484375,0.9111328125,-0.243896484375,15.686034202575684,-0.4882812201976776,0.5798339247703552,100.0,151944.0,1.0
1208927.8608573,315597.78125,322329.875,349906.65625,338557.78125,327430.375,320305.25,306279.1875,328151.15625,-0.072509765625,0.907958984375,-0.242919921875,16.357419967651367,-0.5187987685203552,0.5798339247703552,100.0,151945.0,1.0
1208927.8639171,311751.5,318580.6875,346493.71875,334362.53125,324795.625,319168.875,304628.90625,324768.09375,-0.07177734375,0.9091796875,-0.23779296875,17.028806686401367,-0.5493163466453552,0.4272460639476776,100.0,151946.0,1.0
1208927.8639513,312923.0,319196.0625,347398.34375,335161.125,325291.375,319882.4375,305383.3125,325423.71875,-0.071533203125,0.912353515625,-0.23974609375,17.700193405151367,-0.5798339247703552,0.3967284858226776,100.0,151947.0,1.0
1208927.8664572,317561.625,323414.375,351436.9375,339921.3125,328278.84375,321491.78125,307539.71875,329295.125,-0.0673828125,0.917724609375,-0.236572265625,18.066404342651367,-0.6408690810203552,0.3356933295726776,100.0,151948.0,1.0
1208927.8664897,319160.40625,325242.125,352902.15625,341931.0,329510.25,321706.78125,308028.40625,330865.28125,-0.062744140625,0.925537109375,-0.240966796875,18.218992233276367,-0.6103515028953552,0.2441406100988388,100.0,151949.0,1.0
1208927.8845992,315617.5625,322299.84375,349896.0,338535.59375,327372.96875,320305.6875,306272.46875,328118.25,-0.060546875,0.936767578125,-0.247314453125,18.402097702026367,-0.4577636420726776,0.2136230319738388,100.0,151950.0,1.0
1208927.8895439,311795.3125,318566.46875,346498.8125,334359.3125,324752.625,319170.21875,304628.90625,324742.34375,-0.057861328125,0.946044921875,-0.251953125,18.463132858276367,-0.4577636420726776,0.2136230319738388,100.0,151951.0,1.0
1208927.8895766,312974.875,319191.0625,347412.375,335172.28125,325260.46875,319885.03125,305387.0625,325405.21875,-0.05810546875,0.951904296875,-0.25341796875,18.402097702026367,-0.3051757514476776,0.3051757514476776,100.0,151952.0,1.0
1208927.889584,317603.65625,323405.53125,351444.1875,339927.3125,328248.875,321493.28125,307542.84375,329266.78125,-0.0576171875,0.95703125,-0.25244140625,18.310544967651367,-0.0915527269244194,0.3662109076976776,100.0,151953.0,1.0
1208927.8928058,319182.125,325215.84375,352891.875,341924.125,329467.5,321695.875,308021.1875,330819.78125,-0.056640625,0.95947265625,-0.2548828125,17.913816452026367,0.1525878757238388,0.5187987685203552,100.0,151954.0,1.0
1208927.8928356,315651.09375,322284.28125,349897.34375,338543.375,327339.875,320297.03125,306269.0625,328084.71875,-0.056640625,0.963623046875,-0.259521484375,17.547605514526367,0.3662109076976776,0.5798339247703552,100.0,151955.0,1.0
1208927.9033192,311834.46875,318560.5625,346511.0625,334376.75,324721.25,319159.9375,304622.65625,324718.125,-0.056640625,0.966064453125,-0.258056640625,17.211912155151367,0.4882812201976776,0.5798339247703552,100.0,151956.0,1.0
1208927.9107733,313011.6875,319186.40625,347428.8125,335196.25,325233.625,319877.25,305379.03125,325384.90625,-0.056640625,0.967529296875,-0.262939453125,16.876218795776367,0.7019042372703552,0.5798339247703552,100.0,151957.0,1.0
1208927.9108042,317605.59375,323370.46875,351442.125,339929.1875,328204.34375,321476.46875,307523.0,329233.6875,-0.05615234375,0.97021484375,-0.262939453125,16.754148483276367,0.7629393935203552,0.6713866591453552,100.0,151958.0,1.0
1208927.9108115,319156.09375,325156.03125,352866.46875,341896.3125,329398.75,321670.40625,307990.0625,330766.21875,-0.05615234375,0.972900390625,-0.259765625,16.265867233276367,1.0070799589157104,0.7019042372703552,100.0,151959.0,1.0
1208927.9139345,315632.84375,322231.78125,349875.28125,338518.34375,327272.75,320277.96875,306245.1875,328037.34375,-0.056640625,0.97265625,-0.257568359375,15.624999046325684,1.2817381620407104,0.7324218153953552,100.0,151960.0,1.0
1208927.9139679,311849.125,318538.21875,346516.0625,334381.5,324676.90625,319161.5625,304622.46875,324698.1875,-0.0556640625,0.9697265625,-0.2548828125,14.862059593200684,1.4953612089157104,0.7934569716453552,100.0,151961.0,1.0
1208927.9222404,313025.1875,319165.5,347432.40625,335202.96875,325186.25,319877.4375,305382.34375,325370.59375,-0.05615234375,0.96923828125,-0.26220703125,14.099120140075684,1.6784666776657104,0.8239745497703552,100.0,151962.0,1.0
1208927.9339598,317601.21875,323331.78125,351434.09375,339926.5,328150.28125,321474.53125,307527.46875,329213.9375,-0.056396484375,0.967529296875,-0.267578125,13.671874046325684,1.8615721464157104,0.8239745497703552,100.0,151963.0,1.0
1208927.9339922,319140.625,325106.21875,352852.15625,341884.53125,329342.59375,321671.375,307991.3125,330742.09375,-0.056396484375,0.966552734375,-0.270751953125,13.031004905700684,2.044677495956421,0.8850097060203552,100.0,151964.0,1.0
1208927.9363986,315619.78125,322184.75,349863.46875,338506.28125,327215.59375,320277.28125,306241.09375,328010.25,-0.057373046875,0.96923828125,-0.27294921875,12.573241233825684,2.166747808456421,0.7934569716453552,100.0,151965.0,1.0
1208927.936427,311851.1875,318507.0,346517.6875,334380.875,324632.375,319161.125,304622.09375,324679.9375,-0.059814453125,0.97021484375,-0.2705078125,12.054442405700684,2.349853277206421,0.8544921278953552,100.0,151966.0,1.0
1208927.9496398,313028.875,319136.875,347436.0625,335200.09375,325149.15625,319874.5,305381.71875,325352.625,-0.05810546875,0.973388671875,-0.270263671875,11.474608421325684,2.532958745956421,0.8544921278953552,100.0,151967.0,1.0
1208927.953296,317583.25,323287.78125,351418.0,339901.5625,328104.3125,321460.375,307513.875,329180.5,-0.05712890625,0.972412109375,-0.270751953125,10.833739280700684,2.593993902206421,0.8850097060203552,100.0,151968.0,1.0
1208927.9533315,319104.0625,325042.75,352823.28125,341843.3125,329293.6875,321652.78125,307975.75,330703.09375,-0.05908203125,0.974365234375,-0.270263671875,10.101317405700684,2.716064214706421,0.8544921278953552,100.0,151969.0,1.0
1208927.9533415,315592.78125,322125.75,349840.3125,338463.90625,327176.8125,320269.03125,306234.125,327977.0,-0.061767578125,0.974609375,-0.27490234375,9.338377952575684,2.807616949081421,0.9765624403953552,100.0,151970.0,1.0
1208927.9559157,311845.75,318466.875,346510.96875,334352.875,324605.28125,319165.75,304624.4375,324661.25,-0.064453125,0.97509765625,-0.273681640625,8.453368186950684,2.868652105331421,0.9765624403953552,100.0,151971.0,1.0
1208927.9596199,313031.1875,319108.53125,347441.0,335188.03125,325131.53125,319880.65625,305388.59375,325347.34375,-0.06396484375,0.97412109375,-0.27587890625,7.659911632537842,2.929687261581421,0.9460448622703552,100.0,151972.0,1.0
1208927.9683891,317568.6875,323245.21875,351412.625,339882.875,328078.84375,321455.90625,307513.34375,329172.28125,-0.064208984375,0.97412109375,-0.2802734375,6.927489757537842,2.899169683456421,0.8544921278953552,100.0,151973.0,1.0
1208927.9726463,319087.09375,325001.1875,352817.9375,341824.875,329267.5,321647.875,307978.09375,330697.03125,-0.064208984375,0.972412109375,-0.278076171875,6.195067882537842,2.899169683456421,0.8544921278953552,100.0,151974.0,1.0
1208927.9726756,315571.59375,322081.5,349830.46875,338441.5625,327143.625,320251.59375,306229.03125,327963.3125,-0.064697265625,0.970703125,-0.27783203125,5.615233898162842,2.807616949081421,0.7629393935203552,100.0,151975.0,1.0
1208927.9833889,311836.25,318433.59375,346506.9375,334336.25,324580.4375,319150.28125,304618.875,324649.625,-0.06494140625,0.967529296875,-0.27880859375,4.882812023162842,2.777099370956421,0.7629393935203552,100.0,151976.0,1.0
1208927.9864074,313028.875,319084.5,347439.8125,335176.40625,325113.1875,319869.75,305385.28125,325343.875,-0.062255859375,0.96435546875,-0.27783203125,4.241942882537842,2.655029058456421,0.7324218153953552,100.0,151977.0,1.0
1208927.9864359,317553.03125,323211.78125,351397.6875,339859.0,328052.46875,321441.25,307504.84375,329160.125,-0.0625,0.960693359375,-0.27734375,3.723144292831421,2.716064214706421,0.8239745497703552,100.0,151978.0,1.0
1208927.9883738,319051.125,324947.25,352784.125,341778.9375,329228.59375,321630.71875,307962.4375,330668.40625,-0.06396484375,0.9560546875,-0.27783203125,3.143310308456421,2.593993902206421,0.8850097060203552,100.0,151979.0,1.0
1208928.0026494,315550.84375,322036.15625,349806.25,338402.75,327116.28125,320254.03125,306227.21875,327947.59375,-0.063232421875,0.951904296875,-0.278076171875,2.807616949081421,2.471923589706421,0.8850097060203552,100.0,151980.0,1.0
1208928.0026803,311826.4375,318391.3125,346489.96875,334306.5625,324556.5625,319150.03125,304623.625,324644.0,-0.06298828125,0.94677734375,-0.2783203125,2.624511480331421,2.288818120956421,0.8239745497703552,100.0,151981.0,1.0
1208928.0046378,313020.1875,319038.625,347428.28125,335151.28125,325087.90625,319870.28125,305393.6875,325341.625,-0.064208984375,0.945068359375,-0.2802734375,2.319335699081421,2.288818120956421,0.9765624403953552,100.0,151982.0,1.0
1208928.0071371,317545.96875,323171.0,351391.6875,339840.6875,328030.65625,321446.96875,307515.75,329165.125,-0.065673828125,0.944091796875,-0.2822265625,2.136230230331421,2.227782964706421,0.9460448622703552,100.0,151983.0,1.0
1208928.0096116,319038.4375,324904.625,352773.5,341758.53125,329204.28125,321632.3125,307969.40625,330672.875,-0.063232421875,0.943603515625,-0.2783203125,1.8920897245407104,2.136230230331421,1.0070799589157104,100.0,151984.0,1.0
1208928.0189905,315520.28125,321980.75,349783.53125,338368.5,327081.84375,320240.96875,306222.75,327941.0625,-0.064453125,0.94384765625,-0.276611328125,1.6174315214157104,2.014159917831421,1.1291502714157104,100.0,151985.0,1.0
1208928.019028,311801.9375,318345.0,346475.125,334281.875,324531.0625,319146.53125,304625.875,324643.8125,-0.06298828125,0.946533203125,-0.27685546875,1.3122557401657104,1.9226073026657104,1.2817381620407104,100.0,151986.0,1.0
1208928.0206714,313004.53125,319005.71875,347417.5625,335137.34375,325070.375,319867.59375,305394.84375,325348.625,-0.065673828125,0.945068359375,-0.27685546875,0.9460448622703552,1.7395018339157104,1.3122557401657104,100.0,151987.0,1.0
1208928.0283889,317534.96875,323147.3125,351386.25,339832.1875,328021.96875,321443.5,307518.96875,329179.78125,-0.06689453125,0.94384765625,-0.2744140625,0.5493163466453552,1.7395018339157104,1.3122557401657104,100.0,151988.0,1.0
1208928.0308939,319016.0,324876.09375,352760.0625,341740.84375,329189.0,321623.90625,307965.9375,330677.90625,-0.06494140625,0.944580078125,-0.277587890625,0.2746581733226776,1.6174315214157104,1.3427733182907104,100.0,151989.0,1.0
1208928.0377083,315497.65625,321954.8125,349774.0625,338355.90625,327070.9375,320242.5,306227.21875,327947.3125,-0.06494140625,0.94482421875,-0.27783203125,0.0,1.4953612089157104,1.4038084745407104,100.0,151990.0,1.0
1208928.0377688,311784.6875,318329.71875,346468.59375,334272.0625,324521.40625,319150.1875,304631.65625,324652.65625,-0.064208984375,0.942626953125,-0.276123046875,-0.2746581733226776,1.4343260526657104,1.4648436307907104,100.0,151991.0,1.0
1208928.0396668,313003.90625,319010.71875,347427.125,335146.46875,325077.15625,319877.0,305410.0625,325373.375,-0.06494140625,0.941162109375,-0.278564453125,-0.4882812201976776,1.2207030057907104,1.5563963651657104,100.0,151992.0,1.0
1208928.0483879,317526.75,323140.09375,351388.5625,339839.34375,328026.25,321447.96875,307528.1875,329200.625,-0.06591796875,0.94091796875,-0.27880859375,-0.7019042372703552,1.0681151151657104,1.6174315214157104,100.0,151993.0,1.0
1208928.0526501,319001.25,324858.125,352752.375,341736.8125,329189.90625,321623.8125,307970.3125,330690.6875,-0.062744140625,0.9384765625,-0.279296875,-0.9155272841453552,0.9460448622703552,1.6479490995407104,100.0,151994.0,1.0
1208928.052681,315484.4375,321934.0625,349767.09375,338347.9375,327071.65625,320244.1875,306230.96875,327956.96875,-0.0634765625,0.9365234375,-0.27783203125,-1.1291502714157104,0.7629393935203552,1.7395018339157104,100.0,151995.0,1.0
1208928.0658873,311785.03125,318321.84375,346474.0625,334276.0,324534.28125,319159.6875,304642.59375,324671.1875,-0.063232421875,0.936767578125,-0.277099609375,-1.1901854276657104,0.7019042372703552,1.7700194120407104,100.0,151996.0,1.0
1208928.0690177,313003.28125,319005.90625,347431.25,335151.1875,325087.4375,319884.21875,305421.65625,325396.53125,-0.06494140625,0.939208984375,-0.277099609375,-1.3427733182907104,0.5798339247703552,1.7395018339157104,100.0,151997.0,1.0
1208928.0690516,317523.4375,323141.25,351394.65625,339845.15625,328038.5,321461.90625,307546.4375,329228.78125,-0.0634765625,0.942138671875,-0.276123046875,-1.4648436307907104,0.4272460639476776,1.6479490995407104,100.0,151998.0,1.0
1208928.0708518,318984.53125,324848.8125,352749.53125,341732.15625,329195.0625,321630.53125,307983.1875,330712.03125,-0.0615234375,0.945556640625,-0.277099609375,-1.7700194120407104,0.2441406100988388,1.7089842557907104,100.0,151999.0,1.0
1208928.0771381,315465.65625,321927.90625,349758.3125,338337.375,327075.0625,320241.5,306241.1875,327975.125,-0.0595703125,0.94677734375,-0.27392578125,-2.105712652206421,0.1831054538488388,1.6479490995407104,100.0,152000.0,1.0
1208928.0814594,311765.8125,318313.53125,346463.40625,334264.09375,324536.53125,319143.3125,304642.9375,324684.6875,-0.057861328125,0.946533203125,-0.27197265625,-2.349853277206421,0.0915527269244194,1.7395018339157104,100.0,152001.0,1.0
1208928.0814955,312998.03125,319006.0,347435.625,335156.28125,325104.71875,319869.40625,305424.8125,325417.46875,-0.058837890625,0.944091796875,-0.273193359375,-2.532958745956421,0.0610351525247097,1.8005369901657104,100.0,152002.0,1.0
1208928.0871049,317528.0,323147.15625,351402.34375,339860.96875,328064.53125,321444.75,307552.0625,329256.0625,-0.05810546875,0.9423828125,-0.273681640625,-2.777099370956421,0.1220703050494194,1.7700194120407104,100.0,152003.0,1.0
1208928.0964811,318991.9375,324859.65625,352755.25,341747.625,329225.21875,321623.28125,307991.3125,330737.34375,-0.05712890625,0.937744140625,-0.273681640625,-2.868652105331421,-0.0610351525247097,1.6479490995407104,100.0,152004.0,1.0
1208928.0965139,315461.09375,321925.125,349753.78125,338340.34375,327098.03125,320239.8125,306244.40625,327989.6875,-0.056884765625,0.936279296875,-0.272705078125,-2.899169683456421,-0.1220703050494194,1.6174315214157104,100.0,152005.0,1.0
1208928.0989582,311761.0625,318310.21875,346462.0625,334271.875,324562.46875,319155.75,304658.125,324705.875,-0.05712890625,0.9345703125,-0.272705078125,-2.868652105331421,-0.2746581733226776,1.5869139432907104,100.0,152006.0,1.0
1208928.0989907,313006.59375,319017.875,347444.125,335175.6875,325134.84375,319896.75,305453.15625,325452.21875,-0.060302734375,0.931396484375,-0.271240234375,-2.838134527206421,-0.3967284858226776,1.4343260526657104,100.0,152007.0,1.0
1208928.1072383,317530.15625,323157.15625,351406.53125,339871.625,328083.65625,321468.4375,307574.5,329282.875,-0.061767578125,0.9296875,-0.27099609375,-2.838134527206421,-0.4272460639476776,1.2817381620407104,100.0,152008.0,1.0
1208928.1114818,318983.1875,324857.9375,352754.625,341747.8125,329238.71875,321643.6875,308011.78125,330760.59375,-0.059814453125,0.9287109375,-0.271240234375,-2.624511480331421,-0.4882812201976776,1.2207030057907104,100.0,152009.0,1.0
1208928.1115128,315443.21875,321911.1875,349744.75,338326.9375,327104.28125,320253.9375,306256.71875,328003.8125,-0.059814453125,0.927978515625,-0.2685546875,-2.471923589706421,-0.6408690810203552,1.1291502714157104,100.0,152010.0,1.0
1208928.1145846,311746.84375,318297.15625,346449.09375,334252.75,324559.0625,319163.625,304661.96875,324712.84375,-0.059326171875,0.92578125,-0.2685546875,-2.380370855331421,-0.6713866591453552,1.0070799589157104,100.0,152011.0,1.0
1208928.1233441,313004.46875,319011.625,347441.53125,335165.5,325137.875,319908.375,305458.96875,325465.46875,-0.05712890625,0.926025390625,-0.26904296875,-2.166747808456421,-0.7324218153953552,0.8850097060203552,100.0,152012.0,1.0
1208928.1326724,317532.75,323154.90625,351408.6875,339867.3125,328094.5625,321482.46875,307576.65625,329299.6875,-0.05908203125,0.923583984375,-0.269775390625,-1.9531248807907104,-0.8239745497703552,0.7934569716453552,100.0,152013.0,1.0
1208928.1327072,318962.4375,324834.78125,352734.9375,341724.03125,329230.5625,321636.4375,307995.875,330757.1875,-0.06005859375,0.92236328125,-0.268310546875,-1.6479490995407104,-0.9765624403953552,0.6713866591453552,100.0,152014.0,1.0
1208928.1346461,315424.53125,321893.375,349725.6875,338304.9375,327094.625,320246.0625,306247.78125,328001.3125,-0.06103515625,0.92138671875,-0.266845703125,-1.4343260526657104,-0.9765624403953552,0.6713866591453552,100.0,152015.0,1.0
1208928.1371631,311734.78125,318282.96875,346439.1875,334240.9375,324559.0625,319157.4375,304660.375,324719.46875,-0.060546875,0.920654296875,-0.267578125,-1.1596678495407104,-1.0375975370407104,0.5187987685203552,100.0,152016.0,1.0
1208928.1458887,313000.53125,319002.25,347434.09375,335160.59375,325141.375,319896.46875,305456.09375,325476.46875,-0.05908203125,0.9208984375,-0.26708984375,-0.9460448622703552,-1.0375975370407104,0.3967284858226776,100.0,152017.0,1.0
1208928.1501738,317531.21875,323145.8125,351398.84375,339861.78125,328094.84375,321466.65625,307575.5625,329308.4375,-0.0576171875,0.920654296875,-0.269287109375,-0.7934569716453552,-1.0986326932907104,0.3967284858226776,100.0,152018.0,1.0
1208928.1502082,318964.40625,324827.09375,352729.6875,341722.5,329236.90625,321632.9375,308001.15625,330768.5625,-0.0556640625,0.925537109375,-0.271240234375,-0.4882812201976776,-1.0986326932907104,0.3356933295726776,100.0,152019.0,1.0
1208928.1564888,315420.84375,321882.40625,349716.65625,338300.03125,327101.0625,320245.34375,306247.625,328006.15625,-0.054931640625,0.93115234375,-0.2734375,-0.3051757514476776,-0.9765624403953552,0.2136230319738388,100.0,152020.0,1.0
1208928.1565215,311737.125,318278.84375,346432.375,334238.09375,324566.3125,319160.84375,304658.125,324721.34375,-0.055419921875,0.935791015625,-0.273681640625,-0.1220703050494194,-1.0986326932907104,0.2136230319738388,100.0,152021.0,1.0
1208928.1583873,313007.75,319009.84375,347439.28125,335169.4375,325157.90625,319906.75,305460.375,325486.9375,-0.0576171875,0.940673828125,-0.271240234375,-0.1525878757238388,-1.1291502714157104,0.2136230319738388,100.0,152022.0,1.0
1208928.16714,317535.5,323156.96875,351403.9375,339875.46875,328115.84375,321477.03125,307578.15625,329316.40625,-0.057861328125,0.9462890625,-0.2705078125,-0.2136230319738388,-1.1596678495407104,0.2441406100988388,100.0,152023.0,1.0
1208928.1714847,318958.4375,324829.34375,352721.53125,341723.6875,329247.75,321633.65625,307991.5,330761.03125,-0.060546875,0.946533203125,-0.26806640625,-0.3662109076976776,-1.0375975370407104,0.2136230319738388,100.0,152024.0,1.0
1208928.17152,315405.40625,321872.5625,349701.03125,338290.375,327103.65625,320235.96875,306232.3125,327991.9375,-0.058349609375,0.94580078125,-0.269287109375,-0.5493163466453552,-1.0070799589157104,0.1525878757238388,100.0,152025.0,1.0
1208928.177162,311731.375,318282.5,346427.5625,334239.96875,324577.375,319157.71875,304653.9375,324718.46875,-0.0576171875,0.944580078125,-0.268798828125,-0.7629393935203552,-1.0375975370407104,0.2441406100988388,100.0,152026.0,1.0
1208928.1864079,313004.8125,319016.625,347435.625,335175.40625,325168.8125,319902.46875,305453.9375,325484.59375,-0.05517578125,0.94482421875,-0.270751953125,-0.9460448622703552,-1.0681151151657104,0.2746581733226776,100.0,152027.0,1.0
1208928.1864367,317534.875,323163.15625,351407.53125,339882.34375,328124.6875,321475.21875,307577.09375,329320.15625,-0.05419921875,0.945068359375,-0.2705078125,-1.0986326932907104,-1.0986326932907104,0.2441406100988388,100.0,152028.0,1.0
1208928.1883908,318955.5625,324836.5625,352728.59375,341729.21875,329257.21875,321635.1875,307998.28125,330766.59375,-0.05419921875,0.9443359375,-0.273193359375,-1.1901854276657104,-0.9765624403953552,0.4272460639476776,100.0,152029.0,1.0
1208928.1946387,315398.78125,321876.21875,349705.21875,338290.71875,327110.03125,320238.1875,306238.03125,327991.84375,-0.052978515625,0.94677734375,-0.2705078125,-1.3122557401657104,-0.9155272841453552,0.4272460639476776,100.0,152030.0,1.0
1208928.1989856,311718.15625,318273.9375,346425.0625,334233.25,324577.375,319151.28125,304651.96875,324711.75,-0.052978515625,0.9443359375,-0.270263671875,-1.2512205839157104,-0.7934569716453552,0.4577636420726776,100.0,152031.0,1.0
1208928.1990173,313005.0,319014.65625,347443.65625,335180.78125,325176.6875,319898.0,305461.28125,325491.75,-0.05322265625,0.943359375,-0.266845703125,-1.4343260526657104,-0.7629393935203552,0.6408690810203552,100.0,152032.0,1.0
1208928.200889,317540.875,323166.625,351414.6875,339891.46875,328134.4375,321468.96875,307579.78125,329327.9375,-0.055419921875,0.94140625,-0.264892578125,-1.6174315214157104,-0.7324218153953552,0.7629393935203552,100.0,152033.0,1.0
1208928.2152073,318948.9375,324829.6875,352721.4375,341724.40625,329255.4375,321619.96875,307987.03125,330759.96875,-0.055908203125,0.9365234375,-0.262451171875,-1.8310545682907104,-0.6713866591453552,0.8544921278953552,100.0,152034.0,1.0
1208928.2152394,315385.09375,321860.03125,349690.1875,338280.625,327105.53125,320227.65625,306229.5625,327982.4375,-0.057373046875,0.933349609375,-0.2646484375,-1.7700194120407104,-0.7019042372703552,0.9155272841453552,100.0,152035.0,1.0
1208928.2177105,311712.09375,318266.59375,346422.28125,334232.28125,324584.09375,319156.0,304658.40625,324715.875,-0.05908203125,0.93212890625,-0.269775390625,-1.7395018339157104,-0.7629393935203552,0.8544921278953552,100.0,152036.0,1.0
1208928.2177465,313004.53125,319016.28125,347443.9375,335178.90625,325180.34375,319900.96875,305466.5625,325493.0,-0.059814453125,0.9306640625,-0.2724609375,-1.6784666776657104,-0.8239745497703552,0.7019042372703552,100.0,152037.0,1.0
1208928.2283936,317541.6875,323168.5,351414.3125,339888.25,328138.71875,321469.15625,307582.375,329326.40625,-0.060791015625,0.93212890625,-0.270751953125,-1.4648436307907104,-0.8239745497703552,0.5798339247703552,100.0,152038.0,1.0
1208928.2307382,318948.9375,324827.46875,352724.9375,341723.84375,329265.25,321627.125,307993.71875,330762.375,-0.061767578125,0.935791015625,-0.27197265625,-1.2512205839157104,-0.8850097060203552,0.4882812201976776,100.0,152039.0,1.0
1208928.2377402,315363.09375,321840.1875,349679.75,338263.53125,327098.125,320221.9375,306219.71875,327967.0625,-0.060546875,0.9365234375,-0.27099609375,-1.0986326932907104,-0.9765624403953552,0.3662109076976776,100.0,152040.0,1.0
1208928.2377723,311686.25,318241.65625,346402.78125,334209.75,324568.96875,319138.75,304637.125,324691.125,-0.060302734375,0.93994140625,-0.267333984375,-1.0681151151657104,-1.0986326932907104,0.3051757514476776,100.0,152041.0,1.0
1208928.2396382,312995.875,319004.375,347439.09375,335174.09375,325181.78125,319896.9375,305457.34375,325482.0,-0.060546875,0.94091796875,-0.26708984375,-1.1901854276657104,-1.1291502714157104,0.3051757514476776,100.0,152042.0,1.0
1208928.2458976,317544.90625,323165.65625,351425.3125,339899.875,328152.40625,321475.9375,307583.34375,329329.1875,-0.06201171875,0.942138671875,-0.27197265625,-1.3427733182907104,-1.2512205839157104,0.2746581733226776,100.0,152043.0,1.0
1208928.260233,318944.03125,324818.34375,352723.15625,341722.78125,329267.5,321623.90625,307986.75,330753.09375,-0.065185546875,0.94189453125,-0.2705078125,-1.4038084745407104,-1.3732908964157104,0.1831054538488388,100.0,152044.0,1.0
1208928.2602653,315358.4375,321832.78125,349676.15625,338257.90625,327102.96875,320229.6875,306219.625,327958.21875,-0.06689453125,0.942626953125,-0.271728515625,-1.4038084745407104,-1.5563963651657104,0.1831054538488388,100.0,152045.0,1.0
1208928.2627138,311690.4375,318242.625,346407.4375,334212.78125,324580.5,319162.4375,304650.96875,324691.65625,-0.06884765625,0.94091796875,-0.271240234375,-1.5563963651657104,-1.7700194120407104,0.0915527269244194,100.0,152046.0,1.0
1208928.2627461,313003.65625,319012.15625,347447.875,335183.375,325196.0,319911.6875,305470.03125,325489.25,-0.06982421875,0.9404296875,-0.270263671875,-1.4648436307907104,-1.9836424589157104,-0.0915527269244194,100.0,152047.0,1.0
1208928.2646423,317552.40625,323179.59375,351426.21875,339902.375,328163.78125,321482.125,307589.25,329333.21875,-0.06884765625,0.941162109375,-0.26904296875,-1.5563963651657104,-2.258300542831421,-0.2441406100988388,100.0,152048.0,1.0
1208928.2764574,318946.34375,324832.90625,352723.59375,341723.59375,329283.59375,321639.125,307994.71875,330760.25,-0.06689453125,0.94189453125,-0.2705078125,-1.6174315214157104,-2.441406011581421,-0.4272460639476776,100.0,152049.0,1.0
1208928.2764893,315352.1875,321841.09375,349669.8125,338253.25,327115.03125,320238.8125,306222.84375,327961.625,-0.0654296875,0.9443359375,-0.269775390625,-1.5258787870407104,-2.593993902206421,-0.3967284858226776,100.0,152050.0,1.0
1208928.2789879,311665.40625,318228.25,346386.15625,334194.0,324579.34375,319149.40625,304633.625,324684.21875,-0.061767578125,0.9453125,-0.266845703125,-1.6174315214157104,-2.716064214706421,-0.3356933295726776,100.0,152051.0,1.0
1208928.2790172,312991.21875,319014.40625,347437.15625,335178.8125,325208.25,319906.0625,305459.03125,325496.3125,-0.05908203125,0.950439453125,-0.268310546875,-1.7395018339157104,-2.746581792831421,-0.2441406100988388,100.0,152052.0,1.0
1208928.2871351,317546.40625,323194.625,351425.84375,339910.5,328183.4375,321486.3125,307591.59375,329353.3125,-0.055908203125,0.954833984375,-0.26708984375,-1.8615721464157104,-2.716064214706421,-0.1525878757238388,100.0,152053.0,1.0
1208928.2964556,318931.5,324845.96875,352716.1875,341725.90625,329298.25,321636.15625,307994.71875,330777.75,-0.056884765625,0.955322265625,-0.265380859375,-2.075195074081421,-2.716064214706421,0.0915527269244194,100.0,152054.0,1.0
1208928.2964907,315335.84375,321855.21875,349658.8125,338255.125,327133.09375,320233.5625,306223.21875,327980.21875,-0.0546875,0.953857421875,-0.263916015625,-2.258300542831421,-2.655029058456421,0.3967284858226776,100.0,152055.0,1.0
1208928.2990257,311667.90625,318271.6875,346388.5,334210.28125,324610.1875,319159.78125,304647.59375,324716.59375,-0.052001953125,0.953857421875,-0.265380859375,-2.502441167831421,-2.502441167831421,0.5798339247703552,100.0,152056.0,1.0
1208928.2990541,313005.71875,319071.53125,347448.40625,335204.9375,325244.0,319926.875,305476.375,325538.875,-0.049560546875,0.948974609375,-0.26416015625,-2.716064214706421,-2.380370855331421,0.7629393935203552,100.0,152057.0,1.0
1208928.3071454,317565.65625,323256.03125,351436.3125,339935.0,328220.90625,321502.40625,307601.40625,329398.03125,-0.048095703125,0.947265625,-0.263916015625,-2.838134527206421,-2.258300542831421,1.0070799589157104,100.0,152058.0,1.0
1208928.3364353,318946.1875,324905.5,352719.75,341741.46875,329329.1875,321650.03125,307998.75,330816.375,-0.04736328125,0.943603515625,-0.262939453125,-2.716064214706421,-2.075195074081421,1.2817381620407104,100.0,152059.0,1.0
1208928.3364677,315338.25,321905.375,349650.5,338255.75,327149.71875,320246.96875,306218.65625,328007.5,-0.04931640625,0.940185546875,-0.261962890625,-2.807616949081421,-1.9226073026657104,1.5258787870407104,100.0,152060.0,1.0
1208928.3421831,311669.875,318323.1875,346378.21875,334209.8125,324623.96875,319178.71875,304643.90625,324741.34375,-0.050537109375,0.939208984375,-0.261962890625,-2.716064214706421,-1.7395018339157104,1.8005369901657104,100.0,152061.0,1.0
1208928.3422365,313024.9375,319141.53125,347452.59375,335220.03125,325268.15625,319957.8125,305484.96875,325576.15625,-0.053466796875,0.9384765625,-0.259521484375,-2.655029058456421,-1.6784666776657104,1.9531248807907104,100.0,152062.0,1.0
1208928.3422523,317602.46875,323345.1875,351457.875,339965.03125,328255.6875,321545.3125,307623.5,329446.75,-0.057373046875,0.937744140625,-0.2587890625,-2.563476324081421,-1.5563963651657104,1.9836424589157104,100.0,152063.0,1.0
1208928.3459308,318980.875,324994.03125,352737.53125,341765.6875,329362.4375,321688.03125,308020.1875,330859.125,-0.06201171875,0.93701171875,-0.259521484375,-2.502441167831421,-1.4038084745407104,2.075195074081421,100.0,152064.0,1.0
1208928.3459734,315363.09375,321986.5625,349658.90625,338265.78125,327176.4375,320273.78125,306233.5,328039.9375,-0.06201171875,0.93408203125,-0.260498046875,-2.410888433456421,-1.5563963651657104,2.136230230331421,100.0,152065.0,1.0
1208928.3459857,311688.9375,318393.65625,346385.96875,334219.125,324649.8125,319196.875,304657.96875,324774.09375,-0.0615234375,0.932373046875,-0.25732421875,-2.380370855331421,-1.6479490995407104,2.197265386581421,100.0,152066.0,1.0
1208928.3483701,313046.9375,319212.0625,347465.125,335237.65625,325295.59375,319973.09375,305504.65625,325616.28125,-0.062744140625,0.933349609375,-0.258544921875,-2.288818120956421,-1.7089842557907104,2.044677495956421,100.0,152067.0,1.0
1208928.3510095,317619.03125,323407.75,351460.0,339978.46875,328275.96875,321553.375,307635.03125,329480.03125,-0.060302734375,0.93115234375,-0.256103515625,-2.288818120956421,-1.8615721464157104,1.9836424589157104,100.0,152068.0,1.0
1208928.3536007,318982.65625,325041.6875,352728.96875,341769.90625,329372.375,321690.25,308021.4375,330886.03125,-0.060302734375,0.93310546875,-0.25634765625,-2.136230230331421,-1.9531248807907104,1.9836424589157104,100.0,152069.0,1.0
1208928.3559957,315357.125,322025.96875,349652.03125,338270.6875,327187.96875,320280.65625,306238.9375,328068.5625,-0.05859375,0.931640625,-0.2578125,-2.075195074081421,-2.014159917831421,1.8920897245407104,100.0,152070.0,1.0
1208928.3584862,311687.21875,318430.5625,346381.875,334227.25,324663.84375,319205.09375,304665.75,324805.09375,-0.058837890625,0.93359375,-0.259521484375,-2.044677495956421,-2.105712652206421,1.7700194120407104,100.0,152071.0,1.0
1208928.3647423,313054.0,319250.53125,347466.75,335253.46875,325313.90625,319975.59375,305508.03125,325646.875,-0.05859375,0.93408203125,-0.25830078125,-2.014159917831421,-2.136230230331421,1.6174315214157104,100.0,152072.0,1.0
1208928.3690568,317632.53125,323453.375,351472.34375,340001.0625,328301.375,321558.375,307643.0625,329514.4375,-0.058349609375,0.935791015625,-0.255615234375,-2.136230230331421,-2.258300542831421,1.4648436307907104,100.0,152073.0,1.0
1208928.3691205,318987.84375,325080.03125,352734.25,341779.90625,329393.84375,321691.59375,308025.5625,330906.3125,-0.059814453125,0.93701171875,-0.257080078125,-1.9836424589157104,-2.288818120956421,1.4038084745407104,100.0,152074.0,1.0
1208928.3708842,315355.5,322051.90625,349645.125,338267.03125,327201.65625,320272.25,306231.96875,328074.28125,-0.05615234375,0.93994140625,-0.259765625,-1.9531248807907104,-2.380370855331421,1.1901854276657104,100.0,152075.0,1.0
1208928.3847463,311694.28125,318465.0625,346384.8125,334231.8125,324688.0625,319201.53125,304663.3125,324815.375,-0.05615234375,0.939208984375,-0.25732421875,-1.9531248807907104,-2.380370855331421,1.1596678495407104,100.0,152076.0,1.0
1208928.3878157,313068.5625,319294.25,347480.5,335268.21875,325350.21875,319983.21875,305514.3125,325666.1875,-0.0556640625,0.93896484375,-0.26025390625,-1.9836424589157104,-2.471923589706421,1.0375975370407104,100.0,152077.0,1.0
1208928.38786,317635.28125,323483.5,351477.96875,340007.6875,328331.59375,321555.6875,307638.4375,329522.75,-0.055419921875,0.939453125,-0.25634765625,-2.075195074081421,-2.410888433456421,0.9155272841453552,100.0,152078.0,1.0
1208928.3897966,318989.71875,325106.0625,352741.65625,341785.625,329424.125,321685.15625,308020.5625,330911.4375,-0.05615234375,0.9404296875,-0.255859375,-2.075195074081421,-2.410888433456421,0.8850097060203552,100.0,152079.0,1.0
1208928.3934406,315355.9375,322074.71875,349654.0,338270.59375,327229.65625,320266.90625,306233.3125,328077.75,-0.0537109375,0.939208984375,-0.2607421875,-2.044677495956421,-2.471923589706421,0.8544921278953552,100.0,152080.0,1.0
1208928.4027881,311689.71875,318478.9375,346391.875,334236.90625,324710.875,319196.6875,304667.25,324818.96875,-0.053955078125,0.9384765625,-0.261474609375,-2.075195074081421,-2.410888433456421,0.7019042372703552,100.0,152081.0,1.0
1208928.4028295,313072.75,319309.53125,347493.90625,335282.09375,325375.875,319976.6875,305518.15625,325677.8125,-0.052734375,0.935302734375,-0.257080078125,-2.044677495956421,-2.319335699081421,0.8239745497703552,100.0,152082.0,1.0
1208928.4053045,317647.8125,323500.46875,351495.6875,340026.09375,328358.21875,321548.625,307639.6875,329539.125,-0.0537109375,0.933837890625,-0.259033203125,-1.8920897245407104,-2.258300542831421,0.7934569716453552,100.0,152083.0,1.0
1208928.4053459,318993.90625,325112.65625,352751.59375,341797.09375,329444.25,321675.875,308017.25,330922.6875,-0.054931640625,0.93408203125,-0.26123046875,-1.7395018339157104,-2.166747808456421,0.5187987685203552,100.0,152084.0,1.0
1208928.4111018,315352.09375,322074.15625,349660.78125,338279.28125,327246.09375,320260.5625,306229.09375,328088.125,-0.05615234375,0.934326171875,-0.25927734375,-1.6174315214157104,-2.197265386581421,0.5798339247703552,100.0,152085.0,1.0
1208928.417223,311689.09375,318473.5625,346402.875,334246.46875,324726.53125,319193.5625,304664.9375,324830.5,-0.056396484375,0.933837890625,-0.2587890625,-1.6174315214157104,-2.197265386581421,0.4272460639476776,100.0,152086.0,1.0
1208928.4235024,313084.84375,319316.84375,347518.3125,335303.1875,325399.21875,319983.3125,305527.71875,325698.09375,-0.058837890625,0.936767578125,-0.260498046875,-1.4953612089157104,-2.166747808456421,0.3967284858226776,100.0,152087.0,1.0
1208928.4279029,317663.375,323518.09375,351520.625,340048.46875,328380.9375,321556.9375,307650.84375,329558.25,-0.057861328125,0.937744140625,-0.260986328125,-1.4953612089157104,-2.136230230331421,0.3051757514476776,100.0,152088.0,1.0
1208928.4279507,318990.875,325114.46875,352761.15625,341799.84375,329453.90625,321670.21875,308014.90625,330924.03125,-0.059326171875,0.937255859375,-0.259521484375,-1.4038084745407104,-2.197265386581421,0.1831054538488388,100.0,152089.0,1.0
1208928.4335623,315338.15625,322061.28125,349659.625,338267.90625,327250.75,320249.375,306223.03125,328080.53125,-0.059814453125,0.93994140625,-0.258544921875,-1.2512205839157104,-2.197265386581421,0.1831054538488388,100.0,152090.0,1.0
1208928.4453545,311679.625,318466.59375,346400.03125,334235.5625,324733.125,319181.6875,304659.46875,324827.46875,-0.058837890625,0.941650390625,-0.259033203125,-1.0681151151657104,-2.197265386581421,0.1220703050494194,100.0,152091.0,1.0
1208928.4453982,313083.03125,319315.34375,347517.15625,335297.71875,325407.96875,319969.625,305520.90625,325699.1875,-0.060546875,0.9423828125,-0.2587890625,-1.0986326932907104,-2.288818120956421,0.0915527269244194,100.0,152092.0,1.0
1208928.4478357,317672.5625,323526.125,351531.53125,340055.34375,328404.28125,321552.9375,307655.5,329569.6875,-0.061767578125,0.940673828125,-0.25634765625,-1.2207030057907104,-2.349853277206421,0.0,100.0,152093.0,1.0
1208928.4478797,318999.90625,325125.71875,352769.46875,341805.40625,329477.15625,321669.875,308021.1875,330933.96875,-0.061279296875,0.939697265625,-0.25634765625,-1.0070799589157104,-2.349853277206421,0.0,100.0,152094.0,1.0
1208928.4496477,315334.65625,322064.34375,349654.4375,338261.84375,327262.28125,320241.78125,306216.5,328074.375,-0.06005859375,0.939697265625,-0.259033203125,-1.0070799589157104,-2.380370855331421,0.0610351525247097,100.0,152095.0,1.0
1208928.4586049,311682.21875,318476.4375,346403.15625,334237.71875,324750.21875,319183.71875,304659.65625,324824.25,-0.060546875,0.937255859375,-0.2587890625,-0.9155272841453552,-2.532958745956421,0.1220703050494194,100.0,152096.0,1.0
1208928.4609992,313086.8125,319325.0,347524.5,335303.28125,325424.6875,319975.96875,305521.90625,325699.4375,-0.063232421875,0.93505859375,-0.258056640625,-0.8239745497703552,-2.563476324081421,0.1525878757238388,100.0,152097.0,1.0
1208928.4647516,317674.53125,323531.15625,351535.8125,340057.5,328413.21875,321555.4375,307652.5625,329568.4375,-0.063232421875,0.936279296875,-0.255859375,-0.6103515028953552,-2.532958745956421,0.0610351525247097,100.0,152098.0,1.0
1208928.4740507,318998.5625,325126.15625,352768.03125,341801.8125,329481.53125,321668.96875,308014.75,330929.03125,-0.062744140625,0.935302734375,-0.251953125,-0.4577636420726776,-2.624511480331421,0.0610351525247097,100.0,152099.0,1.0
1208928.474094,315321.09375,322048.96875,349643.71875,338247.28125,327258.25,320235.5,306208.53125,328066.03125,-0.059814453125,0.931396484375,-0.251708984375,-0.3967284858226776,-2.624511480331421,0.1831054538488388,100.0,152100.0,1.0
1208928.4761184,311664.0625,318449.625,346389.1875,334220.8125,324742.53125,319175.0625,304651.15625,324817.25,-0.05810546875,0.932373046875,-0.25439453125,-0.2746581733226776,-2.716064214706421,0.1220703050494194,100.0,152101.0,1.0
1208928.4872057,313087.0625,319315.53125,347523.78125,335300.21875,325427.8125,319971.40625,305522.53125,325704.53125,-0.057373046875,0.934326171875,-0.2587890625,-0.0915527269244194,-2.685546636581421,0.2441406100988388,100.0,152102.0,1.0
1208928.4903457,317680.34375,323531.78125,351543.59375,340059.375,328422.5,321554.71875,307658.0,329577.46875,-0.05712890625,0.935546875,-0.259765625,0.0,-2.716064214706421,0.3662109076976776,100.0,152103.0,1.0
1208928.4903916,318991.875,325111.78125,352770.53125,341795.125,329487.4375,321670.5,308020.1875,330929.65625,-0.05859375,0.93701171875,-0.256591796875,0.0915527269244194,-2.685546636581421,0.5493163466453552,100.0,152104.0,1.0
1208928.4922423,315311.96875,322030.8125,349642.1875,338235.8125,327258.96875,320233.8125,306210.25,328058.71875,-0.05859375,0.9384765625,-0.253662109375,0.2136230319738388,-2.655029058456421,0.6713866591453552,100.0,152105.0,1.0
1208928.5011009,311660.40625,318436.65625,346392.5,334213.03125,324742.34375,319166.21875,304651.6875,324809.3125,-0.057373046875,0.938720703125,-0.257080078125,0.3662109076976776,-2.655029058456421,0.7324218153953552,100.0,152106.0,1.0
1208928.5040392,313089.21875,319306.84375,347533.96875,335301.5,325432.125,319962.1875,305526.71875,325702.3125,-0.056640625,0.940185546875,-0.255126953125,0.3662109076976776,-2.655029058456421,0.7934569716453552,100.0,152107.0,1.0
1208928.5040821,317678.90625,323514.34375,351549.25,340060.96875,328427.34375,321543.71875,307661.5,329575.0625,-0.05908203125,0.940185546875,-0.256103515625,0.3967284858226776,-2.716064214706421,0.9765624403953552,100.0,152108.0,1.0
1208928.5122009,318988.1875,325096.84375,352771.6875,341788.0625,329489.40625,321663.625,308023.0625,330922.34375,-0.060546875,0.93994140625,-0.25732421875,0.2136230319738388,-2.624511480331421,1.0070799589157104,100.0,152109.0,1.0
1208928.5190656,315301.59375,322012.03125,349637.28125,338219.46875,327254.6875,320231.03125,306210.40625,328042.4375,-0.062255859375,0.94091796875,-0.259033203125,0.3662109076976776,-2.746581792831421,0.9460448622703552,100.0,152110.0,1.0
1208928.5191144,311646.0,318407.21875,346383.5625,334196.3125,324735.53125,319164.78125,304648.375,324792.40625,-0.0634765625,0.94140625,-0.256103515625,0.5187987685203552,-2.807616949081421,0.8850097060203552,100.0,152111.0,1.0
1208928.5216284,313090.46875,319290.84375,347541.5625,335300.84375,325436.75,319969.0,305533.875,325701.5,-0.06640625,0.940673828125,-0.258056640625,0.4272460639476776,-2.899169683456421,0.8239745497703552,100.0,152112.0,1.0
1208928.5216652,317687.6875,323510.9375,351558.34375,340058.46875,328432.0,321546.03125,307664.28125,329571.65625,-0.067138671875,0.9423828125,-0.256103515625,0.3967284858226776,-3.051757574081421,0.7019042372703552,100.0,152113.0,1.0
1208928.532244,318980.875,325075.65625,352765.0,341769.46875,329479.46875,321653.5,308012.25,330903.8125,-0.06884765625,0.942626953125,-0.254150390625,0.4272460639476776,-3.143310308456421,0.4882812201976776,100.0,152114.0,1.0
1208928.5352636,315288.96875,321985.5625,349631.71875,338201.125,327245.75,320221.46875,306204.4375,328030.0,-0.06494140625,0.944580078125,-0.2578125,0.3662109076976776,-3.265380620956421,0.4577636420726776,100.0,152115.0,1.0
1208928.5353147,311641.90625,318389.34375,346387.9375,334186.40625,324732.96875,319160.40625,304650.0,324787.21875,-0.064208984375,0.944580078125,-0.2587890625,0.3051757514476776,-3.326415777206421,0.3051757514476776,100.0,152116.0,1.0
1208928.5484908,313094.9375,319284.40625,347548.0,335299.25,325436.125,319965.6875,305536.1875,325698.71875,-0.061279296875,0.9443359375,-0.261962890625,0.3662109076976776,-3.509521245956421,0.2136230319738388,100.0,152117.0,1.0
1208928.5541945,317685.625,323497.625,351557.90625,340056.59375,328426.34375,321542.09375,307663.09375,329566.125,-0.0595703125,0.943115234375,-0.260009765625,0.3051757514476776,-3.509521245956421,0.0915527269244194,100.0,152118.0,1.0
1208928.5542404,318976.03125,325058.125,352765.1875,341768.84375,329474.375,321651.8125,308014.5625,330900.6875,-0.05615234375,0.94189453125,-0.261962890625,0.3051757514476776,-3.509521245956421,0.2136230319738388,100.0,152119.0,1.0
1208928.5559487,315284.25,321964.1875,349631.1875,338200.96875,327242.34375,320226.03125,306212.125,328027.96875,-0.056640625,0.943603515625,-0.260009765625,0.2441406100988388,-3.387450933456421,0.2746581733226776,100.0,152120.0,1.0
1208928.5584716,311643.25,318374.0625,346387.3125,334188.46875,324732.78125,319168.09375,304659.03125,324788.75,-0.055908203125,0.9443359375,-0.258544921875,0.2746581733226776,-3.356933355331421,0.3356933295726776,100.0,152121.0,1.0
1208928.5610023,313098.875,319266.78125,347547.46875,335302.90625,325437.65625,319967.28125,305539.5,325702.3125,-0.0556640625,0.94384765625,-0.260009765625,0.3051757514476776,-3.234863042831421,0.3356933295726776,100.0,152122.0,1.0
1208928.5636027,317697.25,323488.21875,351570.6875,340070.71875,328439.15625,321547.28125,307674.375,329577.375,-0.056640625,0.942138671875,-0.260986328125,0.4272460639476776,-3.051757574081421,0.3356933295726776,100.0,152123.0,1.0
1208928.5747418,318973.4375,325035.40625,352764.71875,341765.625,329477.25,321648.3125,308016.1875,330893.28125,-0.0576171875,0.94287109375,-0.263427734375,0.4272460639476776,-3.021239995956421,0.2746581733226776,100.0,152124.0,1.0
1208928.5777553,315264.84375,321922.71875,349611.15625,338174.9375,327227.21875,320206.625,306194.5,327999.0,-0.0576171875,0.94189453125,-0.26220703125,0.7019042372703552,-2.990722417831421,0.2441406100988388,100.0,152125.0,1.0
1208928.5778049,311629.03125,318335.25,346371.5,334169.15625,324719.90625,319149.65625,304645.53125,324766.9375,-0.058349609375,0.945556640625,-0.26318359375,0.6713866591453552,-2.929687261581421,0.0610351525247097,100.0,152126.0,1.0
1208928.5797425,313097.4375,319243.71875,347542.5625,335294.34375,325434.34375,319963.4375,305537.53125,325693.0,-0.058837890625,0.948486328125,-0.26123046875,0.7324218153953552,-2.807616949081421,0.03051757626235485,100.0,152127.0,1.0
1208928.5886758,317691.34375,323466.0625,351557.1875,340051.21875,328426.625,321545.59375,307666.0625,329561.46875,-0.058349609375,0.9501953125,-0.259521484375,0.6408690810203552,-2.777099370956421,0.03051757626235485,100.0,152128.0,1.0
1208928.5915366,318966.75,325017.1875,352747.90625,341745.03125,329465.09375,321653.25,308011.78125,330880.40625,-0.06201171875,0.948486328125,-0.25830078125,0.5798339247703552,-2.655029058456421,0.0610351525247097,100.0,152129.0,1.0
1208928.5915801,315251.34375,321895.90625,349593.09375,338157.6875,327216.5,320213.6875,306196.84375,327989.875,-0.062255859375,0.9443359375,-0.25634765625,0.3662109076976776,-2.532958745956421,0.03051757626235485,100.0,152130.0,1.0
1208928.5933668,311613.375,318302.625,346351.46875,334150.09375,324702.90625,319155.5625,304647.125,324753.59375,-0.06103515625,0.94287109375,-0.25732421875,0.3356933295726776,-2.471923589706421,-0.03051757626235485,100.0,152131.0,1.0
1208928.6072717,313091.0,319220.75,347532.4375,335286.09375,325421.125,319969.15625,305540.59375,325685.75,-0.06201171875,0.943115234375,-0.257568359375,0.2746581733226776,-2.502441167831421,0.0,100.0,152132.0,1.0
1208928.6104482,317689.46875,323442.53125,351550.3125,340047.65625,328418.5625,321544.0625,307667.5,329558.6875,-0.063720703125,0.9404296875,-0.2587890625,0.3051757514476776,-2.502441167831421,-0.1220703050494194,100.0,152133.0,1.0
1208928.6104936,318947.59375,324974.53125,352724.3125,341721.4375,329442.1875,321637.5,307997.5625,330860.46875,-0.06201171875,0.939697265625,-0.26025390625,0.3662109076976776,-2.502441167831421,-0.1525878757238388,100.0,152134.0,1.0
1208928.6122501,315231.84375,321857.1875,349563.15625,338124.15625,327189.78125,320197.6875,306174.9375,327960.8125,-0.0625,0.939697265625,-0.2626953125,0.4882812201976776,-2.258300542831421,-0.2136230319738388,100.0,152135.0,1.0
1208928.6159994,311602.03125,318271.0625,346327.34375,334125.59375,324686.71875,319142.96875,304626.3125,324731.625,-0.061767578125,0.940185546875,-0.2626953125,0.5187987685203552,-2.258300542831421,-0.1831054538488388,100.0,152136.0,1.0
1208928.6246383,313091.0,319192.84375,347517.34375,335274.65625,325412.53125,319960.59375,305527.25,325674.0625,-0.0615234375,0.935791015625,-0.260498046875,0.6103515028953552,-2.197265386581421,-0.0915527269244194,100.0,152137.0,1.0
1208928.6290757,317696.1875,323421.53125,351542.1875,340041.40625,328415.625,321542.65625,307662.9375,329552.96875,-0.0625,0.935302734375,-0.25732421875,0.5187987685203552,-2.075195074081421,0.0610351525247097,100.0,152138.0,1.0
1208928.6291083,318957.875,324960.0625,352721.625,341717.15625,329445.40625,321642.59375,308002.6875,330858.9375,-0.061767578125,0.939208984375,-0.257080078125,0.7019042372703552,-1.9226073026657104,0.03051757626235485,100.0,152139.0,1.0
1208928.6346397,315239.90625,321838.125,349562.4375,338120.3125,327194.3125,320205.03125,306184.3125,327958.65625,-0.06298828125,0.938232421875,-0.2607421875,0.7019042372703552,-1.9226073026657104,0.1220703050494194,100.0,152140.0,1.0
1208928.6439406,311615.0625,318254.53125,346330.8125,334124.4375,324690.03125,319149.65625,304636.6875,324728.125,-0.064208984375,0.939697265625,-0.261474609375,0.7324218153953552,-1.8005369901657104,0.0610351525247097,100.0,152141.0,1.0
1208928.643973,313109.6875,319184.96875,347529.21875,335280.28125,325420.59375,319964.4375,305538.4375,325676.09375,-0.06396484375,0.940185546875,-0.261474609375,0.7324218153953552,-1.7395018339157104,0.1525878757238388,100.0,152142.0,1.0
1208928.6458779,317708.4375,323417.15625,351551.75,340044.875,328423.5,321542.375,307669.8125,329552.25,-0.065185546875,0.939697265625,-0.260009765625,0.6713866591453552,-1.6784666776657104,0.1831054538488388,100.0,152143.0,1.0
1208928.6545913,318952.78125,324946.8125,352721.375,341708.75,329446.65625,321639.125,307998.46875,330850.09375,-0.066650390625,0.93798828125,-0.26025390625,0.6713866591453552,-1.6174315214157104,0.2441406100988388,100.0,152144.0,1.0
1208928.6621147,315226.75,321815.34375,349554.375,338102.15625,327188.53125,320199.125,306176.28125,327945.34375,-0.065185546875,0.94091796875,-0.261474609375,0.7019042372703552,-1.5563963651657104,0.2746581733226776,100.0,152145.0,1.0
1208928.6621472,311607.46875,318233.78125,346327.4375,334112.71875,324688.96875,319149.65625,304636.3125,324722.59375,-0.0634765625,0.93994140625,-0.26416015625,0.7629393935203552,-1.6174315214157104,0.2746581733226776,100.0,152146.0,1.0
1208928.6621545,313107.375,319167.375,347529.84375,335274.46875,325423.625,319970.59375,305540.21875,325673.78125,-0.06298828125,0.938720703125,-0.264404296875,0.7629393935203552,-1.6174315214157104,0.1831054538488388,100.0,152147.0,1.0
1208928.6665095,317715.59375,323410.09375,351559.59375,340048.1875,328430.46875,321553.5625,307675.25,329557.53125,-0.06201171875,0.940185546875,-0.263427734375,0.5798339247703552,-1.4343260526657104,0.3051757514476776,100.0,152148.0,1.0
1208928.6665383,318955.46875,324932.15625,352721.625,341708.375,329450.34375,321645.5625,308004.625,330850.28125,-0.06201171875,0.942626953125,-0.26416015625,0.4882812201976776,-1.3427733182907104,0.2136230319738388,100.0,152149.0,1.0
1208928.6746674,315221.9375,321792.625,349550.8125,338100.625,327189.59375,320202.25,306180.1875,327939.625,-0.064453125,0.946044921875,-0.263671875,0.4272460639476776,-1.2207030057907104,0.2441406100988388,100.0,152150.0,1.0
1208928.6789543,311606.3125,318212.15625,346331.1875,334120.40625,324694.0625,319150.125,304639.4375,324722.125,-0.06494140625,0.947509765625,-0.263671875,0.3662109076976776,-1.2207030057907104,0.3051757514476776,100.0,152151.0,1.0
1208928.6789901,313118.90625,319160.125,347542.71875,335292.375,325435.25,319973.09375,305549.4375,325684.5,-0.06396484375,0.947021484375,-0.262451171875,0.2136230319738388,-1.1291502714157104,0.2441406100988388,100.0,152152.0,1.0
1208928.684674,317720.125,323399.0,351565.40625,340054.625,328438.34375,321551.59375,307676.34375,329558.96875,-0.0654296875,0.94677734375,-0.26171875,0.0610351525247097,-1.0986326932907104,0.2136230319738388,100.0,152153.0,1.0
1208928.6939842,318947.53125,324914.0,352717.53125,341700.0,329448.28125,321638.59375,307995.6875,330839.625,-0.068115234375,0.9453125,-0.265869140625,-0.2136230319738388,-1.0986326932907104,0.2441406100988388,100.0,152154.0,1.0
1208928.6940229,315204.84375,321768.9375,349539.53125,338081.25,327181.09375,320191.875,306165.625,327924.5,-0.067626953125,0.9443359375,-0.264892578125,-0.3356933295726776,-0.9765624403953552,0.3051757514476776,100.0,152155.0,1.0
1208928.7138918,311595.84375,318197.46875,346322.78125,334103.53125,324688.6875,319145.03125,304629.25,324712.3125,-0.06640625,0.945556640625,-0.264892578125,-0.3967284858226776,-1.0375975370407104,0.1831054538488388,100.0,152156.0,1.0
1208928.7139177,313112.5625,319154.84375,347540.6875,335286.46875,325436.84375,319972.75,305545.59375,325682.375,-0.06640625,0.947998046875,-0.262939453125,-0.5798339247703552,-0.9460448622703552,0.1525878757238388,100.0,152157.0,1.0
1208928.7139236,317715.84375,323400.875,351570.4375,340060.53125,328446.21875,321557.65625,307683.75,329567.625,-0.06640625,0.94580078125,-0.263916015625,-0.7324218153953552,-1.0375975370407104,0.1525878757238388,100.0,152158.0,1.0
1208928.7139296,318942.5,324912.40625,352723.34375,341708.375,329462.9375,321649.03125,308006.78125,330854.1875,-0.06396484375,0.94482421875,-0.26318359375,-0.8850097060203552,-0.9765624403953552,0.1220703050494194,100.0,152159.0,1.0
1208928.7165807,315199.9375,321762.6875,349537.75,338084.375,327197.09375,320198.40625,306169.84375,327930.59375,-0.064697265625,0.946044921875,-0.265625,-0.9765624403953552,-0.9155272841453552,0.1831054538488388,100.0,152160.0,1.0
1208928.7166105,311591.8125,318187.75,346320.90625,334107.90625,324704.53125,319146.625,304629.96875,324711.75,-0.06396484375,0.9462890625,-0.26318359375,-1.0681151151657104,-0.7629393935203552,0.2441406100988388,100.0,152161.0,1.0
1208928.7221014,313124.625,319152.4375,347551.84375,335303.375,325461.71875,319979.8125,305553.09375,325692.46875,-0.062744140625,0.94482421875,-0.26318359375,-1.2207030057907104,-0.6408690810203552,0.2746581733226776,100.0,152162.0,1.0
1208928.7315035,317727.28125,323393.28125,351578.125,340075.90625,328469.8125,321561.5,307687.15625,329574.4375,-0.061767578125,0.9453125,-0.26318359375,-1.3427733182907104,-0.6103515028953552,0.3356933295726776,100.0,152163.0,1.0
1208928.7315531,318943.59375,324896.03125,352722.4375,341714.28125,329479.65625,321649.03125,308008.46875,330851.34375,-0.062255859375,0.944580078125,-0.261962890625,-1.4038084745407104,-0.5187987685203552,0.3967284858226776,100.0,152164.0,1.0
1208928.7378542,315189.90625,321735.75,349530.4375,338080.34375,327202.65625,320197.34375,306172.59375,327922.625,-0.061767578125,0.943115234375,-0.266357421875,-1.5258787870407104,-0.2746581733226776,0.4882812201976776,100.0,152165.0,1.0
1208928.7378991,311582.53125,318163.5,346314.28125,334101.90625,324707.5625,319149.3125,304634.53125,324708.1875,-0.0625,0.942138671875,-0.26318359375,-1.7395018339157104,-0.1525878757238388,0.6408690810203552,100.0,152166.0,1.0
1208928.7442146,313123.90625,319141.71875,347553.5625,335305.96875,325471.28125,319989.46875,305562.9375,325698.625,-0.063232421875,0.942138671875,-0.26220703125,-1.7395018339157104,0.0,0.7324218153953552,100.0,152167.0,1.0
1208928.7442624,317732.84375,323390.96875,351585.625,340082.96875,328483.3125,321578.40625,307701.375,329590.25,-0.06103515625,0.941162109375,-0.263671875,-1.7395018339157104,0.2136230319738388,0.8544921278953552,100.0,152168.0,1.0
1208928.7590882,318941.625,324888.25,352723.34375,341710.8125,329487.0,321658.96875,308015.53125,330861.625,-0.057861328125,0.9404296875,-0.2626953125,-1.7395018339157104,0.3967284858226776,0.8544921278953552,100.0,152169.0,1.0
1208928.759156,315183.9375,321724.3125,349528.71875,338074.53125,327209.625,320202.625,306175.90625,327928.0,-0.059814453125,0.94140625,-0.263427734375,-1.7089842557907104,0.5798339247703552,0.7934569716453552,100.0,152170.0,1.0
1208928.761543,311583.34375,318154.84375,346317.3125,334102.53125,324716.0625,319153.875,304637.40625,324712.65625,-0.06103515625,0.941650390625,-0.264404296875,-1.8310545682907104,0.6713866591453552,0.9155272841453552,100.0,152171.0,1.0
1208928.7615857,313129.625,319136.875,347560.25,335312.46875,325479.21875,319987.5,305561.25,325705.0625,-0.062255859375,0.94189453125,-0.263427734375,-1.8920897245407104,0.7324218153953552,0.9155272841453552,100.0,152172.0,1.0
1208928.7753546,317740.875,323390.5,351593.75,340090.84375,328493.6875,321568.03125,307697.34375,329597.3125,-0.06201171875,0.943115234375,-0.262451171875,-1.8310545682907104,0.8544921278953552,1.0681151151657104,100.0,152173.0,1.0
1208928.7754016,318938.3125,324882.09375,352722.0625,341707.5,329490.46875,321644.84375,308005.53125,330858.125,-0.06103515625,0.942626953125,-0.26171875,-2.075195074081421,1.0681151151657104,1.0681151151657104,100.0,152174.0,1.0
1208928.7779487,315177.6875,321717.875,349524.4375,338066.5625,327211.6875,320193.3125,306166.4375,327921.03125,-0.06005859375,0.943603515625,-0.261474609375,-2.227782964706421,1.1901854276657104,1.1291502714157104,100.0,152175.0,1.0
1208928.7779944,311589.59375,318158.78125,346324.75,334105.9375,324730.8125,319158.25,304640.34375,324719.0,-0.061767578125,0.943115234375,-0.262939453125,-2.319335699081421,1.2207030057907104,1.1596678495407104,100.0,152176.0,1.0
1208928.7796452,313148.5,319157.71875,347579.75,335328.5625,325507.84375,319998.84375,305574.125,325723.125,-0.06201171875,0.942138671875,-0.261962890625,-2.410888433456421,1.3732908964157104,1.3122557401657104,100.0,152177.0,1.0
1208928.7834929,317760.375,323417.96875,351618.25,340116.21875,328530.6875,321583.5,307716.21875,329624.0625,-0.06103515625,0.94140625,-0.26318359375,-2.532958745956421,1.6479490995407104,1.3122557401657104,100.0,152178.0,1.0
1208928.7922637,318944.375,324896.5625,352730.3125,341722.59375,329515.96875,321654.40625,308014.46875,330873.25,-0.06005859375,0.940185546875,-0.261474609375,-2.410888433456421,1.6479490995407104,1.2207030057907104,100.0,152179.0,1.0
1208928.7954705,315173.125,321715.1875,349520.78125,338070.875,327227.6875,320198.5,306168.5,327924.34375,-0.059326171875,0.940185546875,-0.262939453125,-2.441406011581421,1.7700194120407104,1.2512205839157104,100.0,152180.0,1.0
1208928.7955187,311593.4375,318164.5,346324.46875,334116.03125,324751.71875,319163.875,304643.90625,324724.46875,-0.0595703125,0.939453125,-0.26220703125,-2.502441167831421,1.9226073026657104,1.2512205839157104,100.0,152181.0,1.0
1208928.8010275,313168.25,319178.09375,347594.9375,335356.8125,325541.8125,320013.875,305589.3125,325744.3125,-0.0595703125,0.9404296875,-0.25927734375,-2.441406011581421,2.105712652206421,1.2817381620407104,100.0,152182.0,1.0
1208928.8103396,317777.0,323433.5,351629.25,340138.21875,328557.0625,321594.9375,307724.875,329639.96875,-0.06298828125,0.940185546875,-0.259521484375,-2.502441167831421,2.166747808456421,1.3427733182907104,100.0,152183.0,1.0
1208928.8103839,318960.03125,324910.875,352742.375,341740.9375,329545.71875,321663.875,308022.0625,330890.9375,-0.061279296875,0.938232421875,-0.260498046875,-2.563476324081421,2.197265386581421,1.3427733182907104,100.0,152184.0,1.0
1208928.8127958,315182.3125,321727.28125,349526.59375,338077.40625,327253.59375,320198.0625,306167.3125,327931.9375,-0.063232421875,0.93896484375,-0.26123046875,-2.563476324081421,2.105712652206421,1.3427733182907104,100.0,152185.0,1.0
1208928.8128467,311594.40625,318171.28125,346327.4375,334119.875,324772.90625,319157.96875,304641.96875,324727.21875,-0.06396484375,0.938720703125,-0.25927734375,-2.532958745956421,2.136230230331421,1.2817381620407104,100.0,152186.0,1.0
1208928.8211067,313169.5,319185.0625,347597.625,335362.90625,325559.96875,320005.65625,305586.625,325747.71875,-0.062744140625,0.938232421875,-0.260498046875,-2.532958745956421,2.105712652206421,1.2207030057907104,100.0,152187.0,1.0
1208928.8234371,317774.0625,323436.8125,351632.125,340148.0625,328575.75,321587.0,307719.96875,329644.96875,-0.063232421875,0.93896484375,-0.260009765625,-2.593993902206421,2.197265386581421,1.1596678495407104,100.0,152188.0,1.0
1208928.8322472,318948.5,324904.625,352741.75,341745.9375,329557.4375,321658.6875,308018.6875,330894.4375,-0.060302734375,0.937255859375,-0.257080078125,-2.532958745956421,2.136230230331421,1.1291502714157104,100.0,152189.0,1.0
1208928.8353901,315173.8125,321724.84375,349528.09375,338084.0,327264.4375,320194.21875,306170.71875,327942.5625,-0.059814453125,0.9375,-0.256103515625,-2.441406011581421,2.105712652206421,1.0986326932907104,100.0,152190.0,1.0
1208928.8354367,311595.9375,318170.65625,346331.09375,334132.03125,324786.40625,319154.59375,304645.25,324740.8125,-0.058837890625,0.934326171875,-0.25634765625,-2.319335699081421,2.105712652206421,0.9460448622703552,100.0,152191.0,1.0
1208928.8486032,313180.21875,319187.3125,347606.84375,335382.5,325579.28125,320003.15625,305587.875,325767.46875,-0.06103515625,0.9306640625,-0.25634765625,-2.197265386581421,2.044677495956421,0.9765624403953552,100.0,152192.0,1.0
1208928.851607,317794.0,323448.4375,351647.84375,340171.21875,328601.40625,321584.75,307726.6875,329670.625,-0.06103515625,0.929931640625,-0.2587890625,-1.8615721464157104,2.136230230331421,0.8850097060203552,100.0,152193.0,1.0
1208928.8516507,318959.59375,324911.6875,352749.53125,341761.40625,329581.9375,321653.6875,308022.25,330909.625,-0.06103515625,0.929443359375,-0.2587890625,-1.6479490995407104,2.044677495956421,0.8544921278953552,100.0,152194.0,1.0
1208928.853345,315174.375,321721.375,349525.59375,338087.9375,327283.09375,320192.875,306169.5625,327945.34375,-0.060302734375,0.930419921875,-0.258056640625,-1.3427733182907104,2.136230230331421,0.8850097060203552,100.0,152195.0,1.0
1208928.8647678,311604.78125,318180.40625,346337.0625,334138.46875,324807.34375,319160.5,304648.375,324746.09375,-0.06201171875,0.93212890625,-0.253173828125,-1.2512205839157104,2.044677495956421,0.7934569716453552,100.0,152196.0,1.0
1208928.8679449,313197.9375,319210.375,347624.28125,335401.53125,325605.46875,320014.15625,305597.4375,325781.6875,-0.06201171875,0.9326171875,-0.253173828125,-1.1901854276657104,1.9836424589157104,0.7934569716453552,100.0,152197.0,1.0
1208928.8679902,317805.0625,323464.0,351661.625,340193.46875,328625.8125,321595.46875,307735.96875,329686.71875,-0.0615234375,0.931396484375,-0.2529296875,-0.9460448622703552,1.9836424589157104,0.9460448622703552,100.0,152198.0,1.0
1208928.8696358,318958.15625,324915.34375,352752.9375,341773.65625,329595.625,321656.90625,308024.75,330917.875,-0.06005859375,0.93505859375,-0.254150390625,-0.7324218153953552,1.8005369901657104,0.9460448622703552,100.0,152199.0,1.0
1208928.8734377,315173.125,321728.25,349529.53125,338096.625,327292.5,320197.78125,306172.78125,327949.5625,-0.061767578125,0.93505859375,-0.253662109375,-0.6103515028953552,1.8310545682907104,0.9155272841453552,100.0,152200.0,1.0
1208928.8828466,311612.65625,318194.25,346351.28125,334155.8125,324824.40625,319174.0625,304658.21875,324758.6875,-0.063720703125,0.93701171875,-0.253662109375,-0.5798339247703552,1.8920897245407104,0.9155272841453552,100.0,152201.0,1.0
1208928.8828919,313219.125,319233.96875,347647.78125,335432.09375,325633.09375,320036.0625,305613.53125,325805.375,-0.064208984375,0.93603515625,-0.255126953125,-0.4272460639476776,1.8615721464157104,0.8544921278953552,100.0,152202.0,1.0
1208928.8854941,317821.25,323483.65625,351677.1875,340218.4375,328648.71875,321608.8125,307743.9375,329704.4375,-0.06298828125,0.934326171875,-0.2548828125,-0.1831054538488388,1.7700194120407104,0.7629393935203552,100.0,152203.0,1.0
1208928.8855419,318965.5,324927.875,352759.09375,341786.25,329606.78125,321659.40625,308023.0625,330923.03125,-0.062744140625,0.933837890625,-0.255859375,-0.0610351525247097,1.7089842557907104,0.8544921278953552,100.0,152204.0,1.0
1208928.8959945,315175.34375,321730.65625,349529.09375,338101.1875,327296.875,320194.21875,306164.8125,327947.03125,-0.06298828125,0.935302734375,-0.25537109375,0.0915527269244194,1.6174315214157104,0.8239745497703552,100.0,152205.0,1.0
1208928.8991003,311614.96875,318194.53125,346347.71875,334158.59375,324826.84375,319166.28125,304646.59375,324752.34375,-0.0625,0.9365234375,-0.2548828125,0.3051757514476776,1.5563963651657104,0.6713866591453552,100.0,152206.0,1.0
1208928.8991435,313228.6875,319240.5,347651.53125,335442.03125,325642.21875,320031.9375,305610.40625,325805.3125,-0.062744140625,0.9384765625,-0.256591796875,0.3356933295726776,1.5563963651657104,0.6713866591453552,100.0,152207.0,1.0
1208928.9009096,317849.6875,323508.0,351692.28125,340239.53125,328666.9375,321615.59375,307751.09375,329712.03125,-0.0625,0.94140625,-0.254638671875,0.4272460639476776,1.3732908964157104,0.7019042372703552,100.0,152208.0,1.0
1208928.909865,319004.03125,324959.78125,352778.9375,341810.125,329635.3125,321675.78125,308037.90625,330937.625,-0.062255859375,0.9443359375,-0.25732421875,0.3967284858226776,1.2512205839157104,0.5798339247703552,100.0,152209.0,1.0
1208928.912262,315208.875,321753.1875,349542.21875,338116.375,327321.28125,320209.40625,306176.4375,327954.28125,-0.064208984375,0.947509765625,-0.258056640625,0.4272460639476776,1.1291502714157104,0.6408690810203552,100.0,152210.0,1.0
1208928.9159589,311663.875,318228.78125,346372.5625,334183.28125,324856.5,319185.6875,304662.4375,324767.28125,-0.063720703125,0.9482421875,-0.259033203125,0.3051757514476776,1.0070799589157104,0.6408690810203552,100.0,152211.0,1.0
1208928.9278433,313303.625,319304.34375,347695.34375,335487.8125,325684.59375,320057.0625,305633.65625,325839.09375,-0.06591796875,0.947265625,-0.256103515625,0.3967284858226776,0.8850097060203552,0.8239745497703552,100.0,152212.0,1.0
1208928.9278868,317910.75,323558.78125,351731.71875,340279.03125,328702.34375,321634.46875,307766.46875,329744.03125,-0.064453125,0.942138671875,-0.2529296875,0.2441406100988388,0.7019042372703552,0.7934569716453552,100.0,152213.0,1.0
1208928.9297978,319039.0625,324983.28125,352800.5625,341829.625,329652.21875,321687.75,308042.0,330952.09375,-0.06494140625,0.938720703125,-0.253173828125,0.1525878757238388,0.6103515028953552,0.8239745497703552,100.0,152214.0,1.0
1208928.9322301,315234.8125,321772.6875,349558.5,338126.46875,327330.9375,320221.21875,306178.15625,327959.03125,-0.064697265625,0.937744140625,-0.254638671875,0.0915527269244194,0.5187987685203552,0.7629393935203552,100.0,152215.0,1.0
1208928.9359528,311692.21875,318254.34375,346388.03125,334194.4375,324867.25,319197.0625,304665.8125,324771.5625,-0.067138671875,0.939453125,-0.25927734375,0.3356933295726776,0.3662109076976776,0.8239745497703552,100.0,152216.0,1.0
1208928.9503864,313324.625,319320.0625,347708.3125,335497.09375,325692.65625,320059.84375,305633.84375,325843.5625,-0.066162109375,0.943603515625,-0.25830078125,0.4577636420726776,0.2136230319738388,0.8544921278953552,100.0,152217.0,1.0
1208928.9504305,317922.8125,323565.46875,351735.84375,340280.46875,328705.65625,321626.5,307762.0625,329741.34375,-0.0634765625,0.944580078125,-0.255615234375,0.6103515028953552,0.0610351525247097,0.9460448622703552,100.0,152218.0,1.0
1208928.9754464,319044.25,324989.375,352796.1875,341821.84375,329652.46875,321676.65625,308034.78125,330943.53125,-0.06298828125,0.94384765625,-0.256591796875,0.5187987685203552,-0.0915527269244194,1.0375975370407104,100.0,152219.0,1.0
1208928.9754919,315245.09375,321784.84375,349558.3125,338124.25,327338.4375,320218.34375,306181.4375,327958.125,-0.0615234375,0.9423828125,-0.2529296875,0.5493163466453552,-0.2441406100988388,1.0070799589157104,100.0,152220.0,1.0
1208928.9771889,311708.78125,318271.34375,346395.5625,334199.1875,324876.1875,319196.59375,304675.40625,324778.09375,-0.059814453125,0.93798828125,-0.25244140625,0.3967284858226776,-0.3662109076976776,1.0375975370407104,100.0,152221.0,1.0
1208928.979762,313341.875,319337.78125,347717.0625,335504.53125,325699.1875,320055.34375,305640.0,325849.03125,-0.060546875,0.93359375,-0.256103515625,0.3356933295726776,-0.3662109076976776,1.1596678495407104,100.0,152222.0,1.0
1208928.982257,317936.875,323581.84375,351745.03125,340291.125,328711.9375,321628.28125,307767.8125,329750.65625,-0.05908203125,0.9345703125,-0.2578125,0.3967284858226776,-0.3967284858226776,1.2207030057907104,100.0,152223.0,1.0
1208928.9848109,319043.375,324990.90625,352794.9375,341820.40625,329649.8125,321672.09375,308033.59375,330943.875,-0.058837890625,0.935791015625,-0.2578125,0.7019042372703552,-0.5187987685203552,1.2207030057907104,100.0,152224.0,1.0
1208928.9872442,315233.5625,321778.0625,349550.53125,338111.375,327326.5625,320207.34375,306171.25,327949.90625,-0.05908203125,0.93896484375,-0.26025390625,0.8544921278953552,-0.4577636420726776,1.1901854276657104,100.0,152225.0,1.0
1208928.98976,311707.6875,318279.375,346404.65625,334204.90625,324880.75,319199.46875,304679.6875,324786.15625,-0.058837890625,0.94384765625,-0.261962890625,0.9460448622703552,-0.4882812201976776,1.2817381620407104,100.0,152226.0,1.0
1208928.992249,313352.96875,319365.75,347741.84375,335527.25,325723.84375,320075.3125,305660.46875,325876.375,-0.057373046875,0.947998046875,-0.258544921875,1.0070799589157104,-0.4882812201976776,1.2817381620407104,100.0,152227.0,1.0
1208928.994877,317939.53125,323603.28125,351758.90625,340305.59375,328732.40625,321638.59375,307782.09375,329769.6875,-0.05712890625,0.9462890625,-0.255859375,0.8239745497703552,-0.3967284858226776,1.2817381620407104,100.0,152228.0,1.0
1208928.9972906,319036.375,325001.25,352798.53125,341827.03125,329665.09375,321677.03125,308041.75,330954.59375,-0.057373046875,0.946044921875,-0.255126953125,0.7019042372703552,-0.5493163466453552,1.3427733182907104,100.0,152229.0,1.0
1208929.0003115,315223.8125,321783.15625,349553.6875,338118.78125,327344.34375,320216.5625,306180.28125,327961.0,-0.057373046875,0.943603515625,-0.25390625,0.6103515028953552,-0.5493163466453552,1.3732908964157104,100.0,152230.0,1.0
1208929.000355,311697.59375,318282.6875,346404.40625,334208.84375,324892.71875,319203.21875,304681.5625,324791.96875,-0.0576171875,0.93798828125,-0.2568359375,0.5187987685203552,-0.5798339247703552,1.4038084745407104,100.0,152231.0,1.0
1208929.0022017,313343.125,319365.6875,347738.53125,335531.09375,325727.15625,320068.59375,305653.40625,325878.25,-0.053955078125,0.934326171875,-0.259765625,0.4272460639476776,-0.5798339247703552,1.3122557401657104,100.0,152232.0,1.0
1208929.0061342,317929.0,323601.0625,351756.9375,340307.84375,328733.28125,321628.03125,307774.6875,329770.40625,-0.054931640625,0.933837890625,-0.260986328125,0.5493163466453552,-0.6408690810203552,1.2817381620407104,100.0,152233.0,1.0
1208929.0178408,319017.15625,324988.21875,352788.40625,341815.9375,329655.0625,321658.53125,308028.0625,330943.625,-0.05517578125,0.933837890625,-0.259765625,0.7324218153953552,-0.6103515028953552,1.2817381620407104,100.0,152234.0,1.0
1208929.0178848,315210.46875,321776.09375,349546.625,338110.375,327334.96875,320199.03125,306171.96875,327953.40625,-0.0546875,0.933837890625,-0.26318359375,0.8850097060203552,-0.7019042372703552,1.1291502714157104,100.0,152235.0,1.0
1208929.0203103,311697.0625,318287.5,346409.3125,334213.65625,324894.5,319192.9375,304681.28125,324799.5625,-0.05419921875,0.9365234375,-0.261474609375,1.0375975370407104,-0.6713866591453552,1.0681151151657104,100.0,152236.0,1.0
1208929.0203537,313345.8125,319376.40625,347746.3125,335539.3125,325730.75,320059.46875,305653.9375,325888.09375,-0.05322265625,0.93505859375,-0.260498046875,1.1291502714157104,-0.6103515028953552,0.9155272841453552,100.0,152237.0,1.0
1208929.0222704,317923.90625,323603.65625,351755.5,340308.90625,328730.34375,321621.84375,307769.59375,329771.125,-0.0546875,0.93603515625,-0.2587890625,1.0986326932907104,-0.6103515028953552,0.7629393935203552,100.0,152238.0,1.0
1208929.0311285,319006.09375,324985.09375,352782.0625,341810.3125,329648.90625,321657.625,308022.4375,330939.21875,-0.0517578125,0.933349609375,-0.256591796875,0.9155272841453552,-0.6408690810203552,0.6713866591453552,100.0,152239.0,1.0
1208929.0341787,315195.1875,321766.0625,349536.25,338098.40625,327326.84375,320197.59375,306162.9375,327943.1875,-0.05029296875,0.934814453125,-0.25634765625,0.8239745497703552,-0.6103515028953552,0.6103515028953552,100.0,152240.0,1.0
1208929.0342224,311691.15625,318278.21875,346405.03125,334208.125,324891.65625,319193.21875,304677.8125,324792.84375,-0.05224609375,0.933349609375,-0.259521484375,0.8850097060203552,-0.4272460639476776,0.5798339247703552,100.0,152241.0,1.0
1208929.0422744,313355.46875,319375.59375,347753.1875,335543.875,325733.875,320065.46875,305657.78125,325891.21875,-0.0537109375,0.9326171875,-0.26171875,0.9765624403953552,-0.4882812201976776,0.4882812201976776,100.0,152242.0,1.0
1208929.0491854,317932.375,323601.0625,351760.59375,340312.3125,328731.78125,321622.65625,307773.53125,329774.53125,-0.05419921875,0.933837890625,-0.263916015625,1.1596678495407104,-0.4272460639476776,0.4882812201976776,100.0,152243.0,1.0
1208929.0492296,318995.0,324961.5625,352770.53125,341798.59375,329638.90625,321645.0,308013.59375,330926.8125,-0.053955078125,0.93701171875,-0.2666015625,1.1901854276657104,-0.6103515028953552,0.4272460639476776,100.0,152244.0,1.0
1208929.0516975,315180.96875,321743.8125,349521.9375,338081.25,327313.875,320179.09375,306150.4375,327924.96875,-0.0537109375,0.93994140625,-0.2646484375,1.2207030057907104,-0.5798339247703552,0.3356933295726776,100.0,152245.0,1.0
1208929.0517431,311686.6875,318274.90625,346399.65625,334200.875,324886.09375,319177.75,304668.34375,324781.21875,-0.054443359375,0.94482421875,-0.26416015625,1.1901854276657104,-0.6103515028953552,0.1831054538488388,100.0,152246.0,1.0
1208929.0622679,313354.5,319382.40625,347757.40625,335551.90625,325742.8125,320053.5625,305654.5625,325888.375,-0.055419921875,0.94921875,-0.2646484375,1.1291502714157104,-0.4882812201976776,0.03051757626235485,100.0,152247.0,1.0
1208929.0653412,317915.125,323591.9375,351754.15625,340309.53125,328736.59375,321601.46875,307759.84375,329759.9375,-0.055908203125,0.9521484375,-0.262451171875,0.9155272841453552,-0.4882812201976776,-0.03051757626235485,100.0,152248.0,1.0
1208929.0653871,318973.0,324952.1875,352759.90625,341788.5,329641.40625,321633.84375,308003.125,330908.375,-0.056884765625,0.953369140625,-0.262451171875,0.6408690810203552,-0.4882812201976776,-0.0915527269244194,100.0,152249.0,1.0
1208929.0747814,315157.90625,321737.0,349510.5,338071.125,327317.0,320176.15625,306147.03125,327910.03125,-0.0625,0.953369140625,-0.262939453125,0.2746581733226776,-0.5493163466453552,-0.2136230319738388,100.0,152250.0,1.0
1208929.0773762,311665.5,318268.21875,346390.71875,334194.1875,324892.71875,319174.78125,304665.375,324773.625,-0.067138671875,0.953125,-0.263671875,-0.1220703050494194,-0.5187987685203552,-0.3051757514476776,100.0,152251.0,1.0
1208929.0797619,313346.78125,319383.28125,347755.15625,335554.59375,325756.84375,320058.3125,305654.65625,325890.59375,-0.06640625,0.9521484375,-0.263427734375,-0.2441406100988388,-0.6713866591453552,-0.5187987685203552,100.0,152252.0,1.0
1208929.088489,317917.0,323608.40625,351755.5,340315.15625,328754.03125,321619.34375,307764.21875,329763.15625,-0.06591796875,0.95166015625,-0.26318359375,-0.3356933295726776,-0.8544921278953552,-0.6103515028953552,100.0,152253.0,1.0
1208929.0928255,318962.53125,324961.5625,352750.6875,341782.875,329650.34375,321644.21875,307999.375,330901.15625,-0.063720703125,0.951171875,-0.262451171875,-0.3967284858226776,-0.9765624403953552,-0.6408690810203552,100.0,152254.0,1.0
1208929.092871,315137.09375,321731.75,349493.40625,338055.5625,327317.09375,320179.1875,306133.8125,327896.96875,-0.06201171875,0.95263671875,-0.261962890625,-0.5187987685203552,-0.9765624403953552,-0.7934569716453552,100.0,152255.0,1.0
1208929.0948822,311650.5625,318270.0,346378.65625,334185.78125,324891.65625,319182.3125,304656.15625,324766.125,-0.059326171875,0.955810546875,-0.26123046875,-0.7934569716453552,-1.0681151151657104,-0.7019042372703552,100.0,152256.0,1.0
1208929.1060191,313344.5625,319405.09375,347755.25,335561.3125,325762.21875,320070.1875,305655.75,325898.375,-0.055908203125,0.953369140625,-0.260009765625,-0.9460448622703552,-0.9765624403953552,-0.6408690810203552,100.0,152257.0,1.0
1208929.1090845,317906.0,323622.96875,351751.5625,340319.0,328754.75,321618.625,307763.5,329773.4375,-0.055419921875,0.952392578125,-0.261962890625,-1.0986326932907104,-0.8850097060203552,-0.5187987685203552,100.0,152258.0,1.0
1208929.109129,318936.875,324958.875,352734.3125,341769.90625,329638.09375,321626.34375,307990.59375,330901.78125,-0.0537109375,0.95068359375,-0.2607421875,-1.4038084745407104,-0.8239745497703552,-0.2441406100988388,100.0,152259.0,1.0
1208929.1110164,315116.4375,321740.9375,349479.03125,338043.15625,327306.0,320164.15625,306129.96875,327899.21875,-0.052978515625,0.94921875,-0.260498046875,-1.4343260526657104,-0.7019042372703552,-0.1220703050494194,100.0,152260.0,1.0
1208929.1173742,311647.875,318300.3125,346372.40625,334182.5625,324888.78125,319178.625,304657.0625,324777.65625,-0.0537109375,0.94873046875,-0.260986328125,-1.5869139432907104,-0.5187987685203552,0.1831054538488388,100.0,152261.0,1.0
1208929.1216034,313353.84375,319447.9375,347756.3125,335566.40625,325763.90625,320073.15625,305656.625,325917.0625,-0.056396484375,0.946044921875,-0.2607421875,-1.5563963651657104,-0.4577636420726776,0.3662109076976776,100.0,152262.0,1.0
1208929.1216475,317910.84375,323665.6875,351748.78125,340321.6875,328750.625,321622.21875,307756.96875,329788.65625,-0.0556640625,0.94189453125,-0.260498046875,-1.6784666776657104,-0.4272460639476776,0.4272460639476776,100.0,152263.0,1.0
1208929.1347755,318946.53125,325013.875,352729.5,341772.40625,329634.875,321642.0625,307988.625,330918.03125,-0.0546875,0.940185546875,-0.258544921875,-1.7700194120407104,-0.3356933295726776,0.6103515028953552,100.0,152264.0,1.0
1208929.1378613,315121.71875,321792.625,349467.03125,338037.78125,327298.40625,320186.59375,306130.84375,327913.59375,-0.056884765625,0.94091796875,-0.255615234375,-1.6479490995407104,-0.2136230319738388,0.7019042372703552,100.0,152265.0,1.0
1208929.1379128,311655.21875,318355.1875,346368.28125,334183.71875,324886.8125,319210.46875,304667.625,324800.90625,-0.057373046875,0.94189453125,-0.2578125,-1.5563963651657104,-0.1831054538488388,0.8850097060203552,100.0,152266.0,1.0
1208929.1398875,313363.4375,319509.625,347754.09375,335570.96875,325762.375,320099.09375,305668.34375,325945.5,-0.059326171875,0.94091796875,-0.2548828125,-1.6784666776657104,-0.1525878757238388,1.0681151151657104,100.0,152267.0,1.0
1208929.1510341,317924.625,323730.78125,351741.1875,340323.28125,328745.375,321642.5,307764.125,329814.125,-0.06005859375,0.940185546875,-0.253662109375,-1.8005369901657104,-0.1220703050494194,1.1901854276657104,100.0,152268.0,1.0
1208929.1541075,318947.59375,325063.3125,352710.8125,341764.09375,329621.5625,321654.03125,307983.8125,330932.625,-0.060791015625,0.937744140625,-0.252197265625,-1.8005369901657104,-0.1220703050494194,1.1901854276657104,100.0,152269.0,1.0
1208929.1541543,315118.3125,321836.71875,349449.0625,338031.53125,327289.46875,320195.0,306123.78125,327927.28125,-0.0615234375,0.938232421875,-0.255859375,-1.8005369901657104,-0.1831054538488388,1.1596678495407104,100.0,152270.0,1.0
1208929.1603391,311655.125,318403.21875,346353.0,334181.3125,324879.21875,319211.4375,304660.5625,324816.5625,-0.06103515625,0.93994140625,-0.25341796875,-1.7700194120407104,-0.1525878757238388,1.1291502714157104,100.0,152271.0,1.0
1208929.1603902,313377.09375,319569.0625,347752.9375,335582.03125,325764.25,320104.09375,305666.90625,325969.0,-0.0615234375,0.9423828125,-0.25244140625,-1.7089842557907104,-0.2441406100988388,1.1901854276657104,100.0,152272.0,1.0
1208929.1691643,317944.28125,323791.59375,351750.5,340344.03125,328752.875,321648.40625,307764.40625,329838.8125,-0.060791015625,0.94384765625,-0.252685546875,-1.8005369901657104,-0.3356933295726776,1.0681151151657104,100.0,152273.0,1.0
1208929.1692086,318958.4375,325114.375,352718.59375,341781.6875,329626.8125,321655.5625,307984.0625,330951.84375,-0.060302734375,0.94287109375,-0.252197265625,-1.8310545682907104,-0.3051757514476776,0.9765624403953552,100.0,152274.0,1.0
1208929.1715684,315121.0625,321880.34375,349447.90625,338036.53125,327285.0625,320192.59375,306120.375,327935.0625,-0.059814453125,0.943115234375,-0.25341796875,-1.9226073026657104,-0.4577636420726776,0.9460448622703552,100.0,152275.0,1.0
1208929.1716113,311665.9375,318451.9375,346359.78125,334191.9375,324882.96875,319215.28125,304661.4375,324829.25,-0.059814453125,0.941650390625,-0.254638671875,-2.014159917831421,-0.5187987685203552,1.0375975370407104,100.0,152276.0,1.0
1208929.2040899,313394.71875,319620.65625,347764.46875,335599.65625,325774.53125,320109.28125,305668.875,325988.40625,-0.060546875,0.938720703125,-0.25537109375,-2.075195074081421,-0.5493163466453552,1.0681151151657104,100.0,152277.0,1.0
1208929.2041341,317960.1875,323835.5625,351760.25,340361.125,328769.78125,321653.0625,307770.5625,329863.75,-0.0576171875,0.935791015625,-0.25390625,-1.9836424589157104,-0.5798339247703552,1.0681151151657104,100.0,152278.0,1.0
1208929.2060183,318966.375,325150.03125,352723.78125,341790.03125,329643.28125,321662.0,307992.5625,330975.09375,-0.056396484375,0.9365234375,-0.25341796875,-1.8615721464157104,-0.6408690810203552,1.0070799589157104,100.0,152279.0,1.0
1208929.2216103,315118.75,321905.71875,349445.40625,338033.6875,327295.34375,320191.96875,306123.53125,327951.59375,-0.0556640625,0.93505859375,-0.25341796875,-1.7395018339157104,-0.5493163466453552,1.0375975370407104,100.0,152280.0,1.0
1208929.2216572,311659.6875,318469.375,346355.40625,334187.21875,324888.875,319208.125,304661.1875,324841.59375,-0.051513671875,0.933837890625,-0.255126953125,-1.6174315214157104,-0.4882812201976776,0.9460448622703552,100.0,152281.0,1.0
1208929.2216686,313399.8125,319643.46875,347770.375,335608.6875,325790.0,320103.71875,305676.125,326008.6875,-0.05322265625,0.9326171875,-0.256591796875,-1.3122557401657104,-0.5187987685203552,0.9155272841453552,100.0,152282.0,1.0
1208929.2216796,317968.40625,323862.40625,351767.84375,340371.125,328784.25,321645.8125,307775.75,329882.96875,-0.0537109375,0.936279296875,-0.25634765625,-1.2207030057907104,-0.5493163466453552,0.9155272841453552,100.0,152283.0,1.0
1208929.224635,318963.875,325165.3125,352718.5,341783.84375,329645.5,321645.5625,307981.40625,330975.4375,-0.052978515625,0.93701171875,-0.255126953125,-1.0681151151657104,-0.3967284858226776,0.9460448622703552,100.0,152284.0,1.0
1208929.2246848,315109.625,321910.28125,349437.0,338022.84375,327292.59375,320178.375,306105.90625,327940.0625,-0.053466796875,0.936767578125,-0.253173828125,-0.9460448622703552,-0.4272460639476776,0.9460448622703552,100.0,152285.0,1.0
1208929.2246989,311662.09375,318480.8125,346359.78125,334188.625,324894.34375,319203.59375,304653.65625,324837.03125,-0.05419921875,0.936767578125,-0.25146484375,-0.8850097060203552,-0.5187987685203552,0.9155272841453552,100.0,152286.0,1.0
1208929.2278551,313406.6875,319656.25,347784.40625,335616.5625,325798.0625,320103.28125,305671.84375,326009.78125,-0.054931640625,0.9375,-0.255126953125,-0.7629393935203552,-0.4882812201976776,0.8544921278953552,100.0,152287.0,1.0
1208929.2278988,317977.375,323878.21875,351783.84375,340378.71875,328791.9375,321644.3125,307772.1875,329881.0,-0.055908203125,0.937255859375,-0.257080078125,-0.7324218153953552,-0.3662109076976776,0.8544921278953552,100.0,152288.0,1.0
1208929.229732,318968.25,325175.34375,352730.125,341786.71875,329651.3125,321639.84375,307977.5625,330966.21875,-0.05712890625,0.93603515625,-0.25732421875,-0.5493163466453552,-0.3662109076976776,0.7934569716453552,100.0,152289.0,1.0
1208929.232312,315114.375,321919.9375,349450.6875,338026.34375,327302.15625,320174.53125,306110.03125,327935.25,-0.0576171875,0.93798828125,-0.25634765625,-0.3967284858226776,-0.3967284858226776,0.7629393935203552,100.0,152290.0,1.0
1208929.235974,311665.9375,318490.46875,346372.5625,334190.875,324903.0,319199.5625,304659.03125,324833.53125,-0.056884765625,0.939697265625,-0.25439453125,-0.3051757514476776,-0.3967284858226776,0.8239745497703552,100.0,152291.0,1.0
1208929.2503068,313417.34375,319674.84375,347801.75,335625.75,325810.03125,320102.84375,305679.875,326009.6875,-0.059326171875,0.939453125,-0.253173828125,-0.3051757514476776,-0.4577636420726776,0.6408690810203552,100.0,152292.0,1.0
1208929.2503506,317991.75,323902.09375,351807.0,340397.59375,328811.0,321650.46875,307786.5,329888.34375,-0.05810546875,0.9404296875,-0.251220703125,-0.2441406100988388,-0.5187987685203552,0.4882812201976776,100.0,152293.0,1.0
1208929.2528042,318974.6875,325196.09375,352745.78125,341798.78125,329664.375,321648.5,307991.5,330970.25,-0.05712890625,0.94189453125,-0.253662109375,-0.3051757514476776,-0.5493163466453552,0.5493163466453552,100.0,152294.0,1.0
1208929.2528404,315113.5625,321935.40625,349458.8125,338027.6875,327306.625,320182.3125,306118.34375,327929.25,-0.055419921875,0.9423828125,-0.254638671875,-0.3051757514476776,-0.6103515028953552,0.4577636420726776,100.0,152295.0,1.0
1208929.2548746,311677.5625,318518.46875,346391.15625,334201.78125,324917.3125,319214.5625,304669.9375,324834.625,-0.055908203125,0.9443359375,-0.25634765625,-0.3662109076976776,-0.6713866591453552,0.5798339247703552,100.0,152296.0,1.0
1208929.2609458,313432.09375,319705.15625,347820.875,335640.4375,325826.40625,320111.5,305686.75,326013.875,-0.0576171875,0.946044921875,-0.258544921875,-0.3662109076976776,-0.6408690810203552,0.4882812201976776,100.0,152297.0,1.0
1208929.2703049,317993.1875,323916.21875,351815.03125,340402.59375,328817.25,321646.8125,307782.46875,329881.1875,-0.05712890625,0.9482421875,-0.2607421875,-0.2746581733226776,-0.5798339247703552,0.4272460639476776,100.0,152298.0,1.0
1208929.2703484,318963.625,325189.1875,352744.875,341795.21875,329664.375,321636.96875,307981.40625,330953.4375,-0.05712890625,0.949462890625,-0.26123046875,-0.2441406100988388,-0.6713866591453552,0.3662109076976776,100.0,152299.0,1.0
1208929.2728356,315103.65625,321927.09375,349453.625,338021.96875,327303.6875,320163.625,306105.375,327911.09375,-0.057373046875,0.951904296875,-0.256591796875,-0.3967284858226776,-0.7629393935203552,0.4882812201976776,100.0,152300.0,1.0
1208929.2728794,311668.53125,318514.0625,346384.03125,334199.53125,324912.65625,319191.34375,304655.09375,324817.71875,-0.056396484375,0.95263671875,-0.256103515625,-0.6713866591453552,-0.6713866591453552,0.4272460639476776,100.0,152301.0,1.0
1208929.2810924,313438.71875,319720.53125,347829.90625,335656.0625,325836.0625,320102.75,305684.15625,326012.09375,-0.058837890625,0.954833984375,-0.25634765625,-0.8850097060203552,-0.7324218153953552,0.3967284858226776,100.0,152302.0,1.0
1208929.2853139,318010.96875,323946.25,351834.0,340427.1875,328837.28125,321649.75,307785.25,329890.125,-0.057373046875,0.95556640625,-0.257568359375,-1.0070799589157104,-0.7019042372703552,0.3967284858226776,100.0,152303.0,1.0
1208929.285361,318973.09375,325215.9375,352756.40625,341808.15625,329680.8125,321641.71875,307980.59375,330958.53125,-0.056396484375,0.954345703125,-0.253173828125,-1.1596678495407104,-0.6103515028953552,0.4577636420726776,100.0,152304.0,1.0
1208929.2910118,315107.40625,321953.125,349461.5,338027.78125,327322.09375,320175.96875,306107.875,327915.21875,-0.059326171875,0.953125,-0.25146484375,-1.2817381620407104,-0.7019042372703552,0.3967284858226776,100.0,152305.0,1.0
1208929.29352,311676.9375,318537.59375,346396.8125,334204.46875,324935.46875,319205.90625,304660.625,324825.65625,-0.057861328125,0.952392578125,-0.249267578125,-1.5869139432907104,-0.7629393935203552,0.4272460639476776,100.0,152306.0,1.0
1208929.3023405,313454.8125,319746.71875,347856.28125,335672.96875,325866.09375,320119.5625,305695.96875,326032.9375,-0.055419921875,0.944580078125,-0.25244140625,-1.8615721464157104,-0.7629393935203552,0.6408690810203552,100.0,152307.0,1.0
1208929.3053109,318016.875,323961.375,351850.1875,340435.78125,328857.03125,321654.3125,307790.78125,329903.09375,-0.0537109375,0.944091796875,-0.25537109375,-1.8615721464157104,-0.6103515028953552,0.7629393935203552,100.0,152308.0,1.0
1208929.3053542,318969.5,325221.125,352762.75,341805.84375,329690.125,321637.15625,307981.9375,330962.5625,-0.05126953125,0.94287109375,-0.25390625,-1.7395018339157104,-0.5493163466453552,0.7934569716453552,100.0,152309.0,1.0
1208929.3072262,315095.15625,321942.46875,349462.9375,338017.21875,327319.3125,320163.4375,306105.28125,327909.125,-0.052490234375,0.941162109375,-0.257080078125,-1.6784666776657104,-0.3967284858226776,0.9460448622703552,100.0,152310.0,1.0
1208929.3209405,311671.9375,318531.3125,346406.09375,334203.46875,324934.3125,319198.40625,304667.0625,324828.34375,-0.0556640625,0.939453125,-0.252197265625,-1.4953612089157104,-0.3356933295726776,1.0070799589157104,100.0,152311.0,1.0
1208929.3241883,313453.5625,319738.59375,347863.4375,335674.84375,325863.15625,320112.59375,305702.0625,326038.84375,-0.054443359375,0.9384765625,-0.248779296875,-1.4953612089157104,-0.4272460639476776,0.9155272841453552,100.0,152312.0,1.0
1208929.3242348,318011.78125,323948.21875,351854.84375,340435.5,328850.9375,321646.1875,307791.84375,329906.3125,-0.05322265625,0.9365234375,-0.25,-1.4953612089157104,-0.2746581733226776,0.8850097060203552,100.0,152313.0,1.0
1208929.3260091,318957.53125,325206.1875,352761.15625,341799.125,329680.8125,321630.25,307980.0625,330957.65625,-0.054931640625,0.932373046875,-0.24853515625,-1.4038084745407104,-0.3662109076976776,0.9460448622703552,100.0,152314.0,1.0
1208929.3285059,315079.6875,321923.53125,349458.375,338009.4375,327309.9375,320157.8125,306101.4375,327902.34375,-0.058349609375,0.9326171875,-0.25439453125,-1.2207030057907104,-0.3356933295726776,0.9155272841453552,100.0,152315.0,1.0
1208929.3372823,311655.9375,318508.0,346399.5625,334194.09375,324922.59375,319187.40625,304658.21875,324815.46875,-0.061767578125,0.930908203125,-0.254638671875,-0.9155272841453552,-0.4272460639476776,0.9155272841453552,100.0,152316.0,1.0
1208929.3415539,313444.25,319722.75,347864.34375,335674.40625,325855.28125,320099.4375,305697.9375,326027.5625,-0.065185546875,0.929931640625,-0.256591796875,-0.7629393935203552,-0.5493163466453552,0.6408690810203552,100.0,152317.0,1.0
1208929.3416089,318012.15625,323942.3125,351863.40625,340442.84375,328852.03125,321641.0,307795.96875,329901.5625,-0.065185546875,0.93408203125,-0.256103515625,-0.6713866591453552,-0.6713866591453552,0.4272460639476776,100.0,152318.0,1.0
1208929.3471972,318952.625,325189.65625,352764.375,341795.375,329675.1875,321620.6875,307975.75,330944.25,-0.06591796875,0.935302734375,-0.25439453125,-0.4882812201976776,-0.7934569716453552,0.1831054538488388,100.0,152319.0,1.0
1208929.3565748,315061.09375,321893.125,349448.1875,337989.6875,327294.5625,320143.4375,306089.0,327876.78125,-0.0654296875,0.937255859375,-0.254150390625,-0.3356933295726776,-0.9765624403953552,0.0,100.0,152320.0,1.0
1208929.3566176,311650.46875,318491.90625,346401.53125,334189.8125,324921.78125,319189.4375,304662.53125,324806.90625,-0.06298828125,0.939453125,-0.253173828125,-0.3356933295726776,-1.1291502714157104,-0.1220703050494194,100.0,152321.0,1.0
1208929.3585325,313456.6875,319726.625,347877.125,335682.90625,325866.90625,320109.625,305710.09375,326031.9375,-0.06298828125,0.941650390625,-0.253173828125,-0.2441406100988388,-1.2207030057907104,-0.1831054538488388,100.0,152322.0,1.0
1208929.3679737,318013.84375,323935.4375,351863.875,340438.375,328851.9375,321637.0625,307795.25,329892.90625,-0.060546875,0.944580078125,-0.254638671875,-0.3051757514476776,-1.3732908964157104,-0.1831054538488388,100.0,152323.0,1.0
1208929.36802,318943.0625,325176.875,352755.59375,341783.5,329671.09375,321614.875,307974.78125,330929.125,-0.056396484375,0.943603515625,-0.255859375,-0.2136230319738388,-1.3732908964157104,-0.2441406100988388,100.0,152324.0,1.0
1208929.369756,315054.375,321883.09375,349448.34375,337985.3125,327298.75,320145.125,306095.71875,327868.28125,-0.056640625,0.944091796875,-0.2578125,-0.3051757514476776,-1.3427733182907104,-0.2136230319738388,100.0,152325.0,1.0
1208929.3735219,311642.25,318480.71875,346399.46875,334181.21875,324920.0,319181.84375,304659.125,324792.40625,-0.055419921875,0.94677734375,-0.255859375,-0.2136230319738388,-1.2817381620407104,-0.0915527269244194,100.0,152326.0,1.0
1208929.3878607,313456.0625,319723.9375,347878.0,335679.0625,325870.03125,320103.46875,305705.1875,326022.84375,-0.05419921875,0.94482421875,-0.260009765625,-0.1220703050494194,-1.3732908964157104,-0.0915527269244194,100.0,152327.0,1.0
1208929.3879048,318019.65625,323937.9375,351872.09375,340444.875,328866.25,321644.9375,307800.0,329894.6875,-0.0546875,0.94580078125,-0.260498046875,-0.1525878757238388,-1.2512205839157104,-0.0610351525247097,100.0,152328.0,1.0
1208929.3896424,318937.15625,325168.1875,352752.46875,341779.125,329677.4375,321620.53125,307971.375,330920.1875,-0.053955078125,0.944091796875,-0.258544921875,-0.1525878757238388,-1.1901854276657104,0.0915527269244194,100.0,152329.0,1.0
1208929.392084,315041.40625,321871.03125,349434.03125,337969.21875,327293.5625,320141.28125,306083.1875,327849.59375,-0.055908203125,0.944091796875,-0.2568359375,-0.03051757626235485,-1.0986326932907104,0.2441406100988388,100.0,152330.0,1.0
1208929.3996299,311637.6875,318474.1875,346390.09375,334172.375,324916.5,319180.5,304648.75,324777.21875,-0.056640625,0.94384765625,-0.25634765625,0.0610351525247097,-0.9460448622703552,0.3051757514476776,100.0,152331.0,1.0
1208929.4027008,313461.0625,319721.0625,347879.71875,335681.8125,325870.21875,320104.09375,305699.625,326014.5,-0.0595703125,0.946044921875,-0.256591796875,0.0,-1.0070799589157104,0.3356933295726776,100.0,152332.0,1.0
1208929.4027361,318019.21875,323928.46875,351870.125,340442.65625,328860.6875,321633.9375,307789.34375,329883.5,-0.060546875,0.9423828125,-0.255615234375,0.0,-0.9155272841453552,0.3967284858226776,100.0,152333.0,1.0
1208929.4161364,318932.21875,325152.09375,352746.84375,341770.78125,329671.0,321608.4375,307961.71875,330907.40625,-0.060546875,0.944580078125,-0.2548828125,0.0915527269244194,-0.9765624403953552,0.5493163466453552,100.0,152334.0,1.0
1208929.4190706,315036.84375,321854.6875,349425.65625,337955.625,327288.28125,320134.5,306075.9375,327834.40625,-0.06201171875,0.943359375,-0.256103515625,0.03051757626235485,-1.0070799589157104,0.5187987685203552,100.0,152335.0,1.0
1208929.4191141,311637.5,318465.96875,346387.59375,334164.59375,324917.125,319183.0,304650.90625,324770.40625,-0.0625,0.9443359375,-0.256591796875,0.03051757626235485,-0.9460448622703552,0.5798339247703552,100.0,152336.0,1.0
1208929.4208736,313461.59375,319720.25,347879.625,335675.125,325872.53125,320104.34375,305700.1875,326009.40625,-0.060791015625,0.944580078125,-0.255615234375,0.0610351525247097,-1.0070799589157104,0.7019042372703552,100.0,152337.0,1.0
1208929.4347717,318024.375,323939.65625,351871.375,340434.875,328862.5625,321634.8125,307786.40625,329875.09375,-0.060546875,0.943359375,-0.256591796875,-0.0610351525247097,-0.9765624403953552,0.6408690810203552,100.0,152338.0,1.0
1208929.4390424,318930.53125,325155.125,352742.90625,341757.65625,329665.09375,321608.34375,307956.8125,330894.53125,-0.06005859375,0.944580078125,-0.2568359375,-0.0915527269244194,-1.0375975370407104,0.6103515028953552,100.0,152339.0,1.0
1208929.4390775,315024.4375,321843.21875,349417.3125,337941.0625,327278.625,320131.71875,306069.96875,327822.15625,-0.05810546875,0.9443359375,-0.256591796875,-0.1220703050494194,-1.0070799589157104,0.7019042372703552,100.0,152340.0,1.0
1208929.4390878,311629.8125,318448.96875,346381.78125,334155.90625,324908.46875,319173.71875,304641.25,324758.0,-0.058837890625,0.9443359375,-0.258056640625,-0.3051757514476776,-1.0681151151657104,0.6103515028953552,100.0,152341.0,1.0
