Time,FZ,C3,CZ,C4,PZ,PO7,OZ,PO8,AccX,AccY,AccZ,Gyro1,Gyro2,Gyro3,Battery,Counter,Validation
510277.0446245,241503.375,288735.75,309540.03125,284838.84375,294332.625,277503.28125,253491.953125,263749.96875,-0.06591796875,0.87060546875,-0.49755859375,-1.3732908964157104,1.8005369901657104,2.105712652206421,100.0,93975.0,1.0
510277.0446486,241497.734375,288503.53125,309474.125,284572.9375,296296.875,277119.90625,253706.265625,263915.8125,-0.06591796875,0.87255859375,-0.50048828125,-1.4648436307907104,1.7700194120407104,1.9226073026657104,100.0,93976.0,1.0
510277.0446529,241384.09375,287157.625,307744.71875,281568.6875,288488.78125,274874.25,251899.515625,261469.28125,-0.06787109375,0.871826171875,-0.49853515625,-1.6174315214157104,1.7700194120407104,1.8615721464157104,100.0,93977.0,1.0
510277.0446566,241305.78125,286614.1875,306830.28125,280157.59375,282148.21875,273992.0,250659.8125,259929.25,-0.069091796875,0.872802734375,-0.498046875,-1.6479490995407104,1.7700194120407104,1.9531248807907104,100.0,93978.0,1.0
510277.0446602,241364.609375,287539.90625,307872.40625,282057.46875,285525.03125,275545.6875,251580.96875,261256.40625,-0.069580078125,0.875,-0.4970703125,-1.6784666776657104,1.7089842557907104,1.8920897245407104,100.0,93979.0,1.0
510277.0446638,241507.75,288716.15625,309515.25,284761.96875,294060.0,277481.8125,253440.546875,263683.0,-0.070068359375,0.874267578125,-0.49560546875,-1.8615721464157104,1.8005369901657104,1.7395018339157104,100.0,93980.0,1.0
510277.0446676,241533.765625,288512.40625,309480.3125,284532.09375,296014.71875,277124.1875,253681.671875,263871.5625,-0.070556640625,0.876953125,-0.493408203125,-1.9531248807907104,1.7395018339157104,1.6174315214157104,100.0,93981.0,1.0
510277.0446714,241407.609375,287169.3125,307750.8125,281580.9375,288260.71875,274874.0625,251862.421875,261436.828125,-0.069091796875,0.875,-0.494140625,-2.014159917831421,1.8005369901657104,1.4648436307907104,100.0,93982.0,1.0
510277.0446751,241328.578125,286636.71875,306844.40625,280198.1875,281983.28125,274000.40625,250630.484375,259917.625,-0.07080078125,0.87646484375,-0.4931640625,-2.075195074081421,1.8005369901657104,1.3427733182907104,100.0,93983.0,1.0
510277.0446788,241399.75,287562.0,307892.0,282061.59375,285340.5,275556.875,251568.8125,261245.328125,-0.073486328125,0.875732421875,-0.490966796875,-2.044677495956421,1.7089842557907104,1.3122557401657104,100.0,93984.0,1.0
510277.0446825,241512.046875,288687.375,309486.46875,284680.59375,293737.96875,277445.34375,253378.9375,263603.625,-0.072998046875,0.87548828125,-0.49169921875,-2.105712652206421,1.6174315214157104,1.1596678495407104,100.0,93985.0,1.0
510277.0446861,241532.15625,288481.1875,309446.40625,284463.15625,295673.0,277085.8125,253599.328125,263780.625,-0.075927734375,0.87255859375,-0.488525390625,-2.227782964706421,1.5258787870407104,0.9460448622703552,100.0,93986.0,1.0
510277.0446898,241440.6875,287194.375,307769.5,281614.375,288063.3125,274887.40625,251833.1875,261424.9375,-0.076171875,0.8720703125,-0.4921875,-2.258300542831421,1.4343260526657104,0.7934569716453552,100.0,93987.0,1.0
510277.0446934,241366.75,286675.53125,306878.65625,280265.6875,281881.53125,274019.625,250624.21875,259946.859375,-0.075927734375,0.8720703125,-0.4921875,-2.319335699081421,1.3732908964157104,0.6408690810203552,100.0,93988.0,1.0
510277.0446972,241393.125,287547.4375,307876.78125,282051.5,285170.8125,275531.21875,251520.796875,261225.203125,-0.077880859375,0.87353515625,-0.489013671875,-2.166747808456421,1.3427733182907104,0.4577636420726776,100.0,93989.0,1.0
510277.044701,241506.859375,288660.90625,309465.46875,284623.8125,293494.4375,277416.71875,253325.828125,263563.5625,-0.07958984375,0.8720703125,-0.487548828125,-2.288818120956421,1.1291502714157104,0.3967284858226776,100.0,93990.0,1.0
510277.0447047,241514.09375,288436.03125,309414.40625,284404.0625,295420.78125,277043.53125,253536.65625,263733.0625,-0.0771484375,0.8701171875,-0.48583984375,-2.227782964706421,1.0986326932907104,0.3051757514476776,100.0,93991.0,1.0
510277.0447086,241444.09375,287182.65625,307771.71875,281638.78125,287952.71875,274878.375,251802.15625,261428.78125,-0.07666015625,0.8662109375,-0.4853515625,-2.166747808456421,0.9155272841453552,0.1220703050494194,100.0,93992.0,1.0
510277.0447123,241366.578125,286671.0625,306888.9375,280312.96875,281870.8125,274016.84375,250605.796875,259969.046875,-0.075927734375,0.86376953125,-0.485595703125,-2.014159917831421,0.7934569716453552,0.1525878757238388,100.0,93993.0,1.0
510277.0447165,241387.3125,287525.53125,307875.34375,282055.6875,285124.15625,275510.84375,251498.4375,261226.453125,-0.074951171875,0.860107421875,-0.482421875,-1.8005369901657104,0.7324218153953552,0.1220703050494194,100.0,93994.0,1.0
510277.066074,241486.734375,288601.1875,309428.1875,284567.59375,293329.46875,277364.15625,253268.609375,263511.25,-0.077392578125,0.860595703125,-0.486328125,-1.8615721464157104,0.7324218153953552,0.0915527269244194,100.0,93995.0,1.0
510277.0661142,241504.703125,288399.5625,309385.09375,284369.09375,295264.78125,277012.25,253483.453125,263685.96875,-0.077880859375,0.862060546875,-0.4892578125,-1.8005369901657104,0.7019042372703552,0.0915527269244194,100.0,93996.0,1.0
510277.066123,241460.546875,287205.90625,307787.65625,281679.375,287934.46875,274894.46875,251792.234375,261438.171875,-0.07958984375,0.866943359375,-0.488525390625,-1.6479490995407104,0.7019042372703552,0.0610351525247097,100.0,93997.0,1.0
510277.0661307,241390.53125,286716.9375,306927.8125,280388.53125,281962.25,274061.28125,250637.1875,260023.484375,-0.0810546875,0.87158203125,-0.489013671875,-1.5258787870407104,0.5187987685203552,-0.03051757626235485,100.0,93998.0,1.0
510277.0661386,241402.34375,287545.09375,307895.28125,282097.1875,285177.25,275538.28125,251521.234375,261265.53125,-0.08154296875,0.874267578125,-0.490966796875,-1.2512205839157104,0.3051757514476776,-0.1831054538488388,100.0,93999.0,1.0
510277.1285204,241469.75,288574.28125,309408.96875,284553.0,293276.4375,277361.1875,253269.6875,263514.28125,-0.083251953125,0.876708984375,-0.489990234375,-1.1901854276657104,0.1220703050494194,-0.1831054538488388,100.0,94000.0,1.0
510277.1285592,241476.640625,288360.0625,309359.59375,284356.125,295193.6875,277003.3125,253481.671875,263687.9375,-0.08203125,0.87744140625,-0.488037109375,-1.2817381620407104,-0.03051757626235485,-0.2441406100988388,100.0,94001.0,1.0
510277.1310859,241451.875,287196.5,307794.875,281723.375,287984.4375,274915.84375,251823.171875,261483.140625,-0.080810546875,0.874755859375,-0.48486328125,-1.3122557401657104,0.0,-0.2441406100988388,100.0,94002.0,1.0
510277.1336101,241386.25,286706.65625,306937.75,280443.5,282062.125,274083.09375,250667.3125,260072.75,-0.08154296875,0.871337890625,-0.486083984375,-1.2817381620407104,0.0,-0.2136230319738388,100.0,94003.0,1.0
510277.1353432,241354.5,287478.40625,307853.09375,282092.25,285207.28125,275509.59375,251505.234375,261267.859375,-0.079345703125,0.87548828125,-0.48681640625,-1.2512205839157104,-0.03051757626235485,-0.2136230319738388,100.0,94004.0,1.0
510277.2174256,241406.71875,288472.875,309336.28125,284507.5,293216.71875,277291.90625,253221.671875,263487.28125,-0.080322265625,0.874755859375,-0.489013671875,-1.0070799589157104,-0.1220703050494194,-0.2441406100988388,100.0,94005.0,1.0
510277.2174646,241458.671875,288293.25,309327.25,284363.65625,295158.28125,276967.0,253458.6875,263694.8125,-0.0791015625,0.876708984375,-0.489501953125,-0.9155272841453552,-0.0915527269244194,-0.1831054538488388,100.0,94006.0,1.0
510277.2198604,241425.9375,287126.0625,307766.5625,281755.09375,288001.25,274882.84375,251791.78125,261500.578125,-0.0791015625,0.87646484375,-0.489501953125,-0.8544921278953552,-0.0610351525247097,-0.1525878757238388,100.0,94007.0,1.0
510277.2311721,241326.25,286598.90625,306885.0,280463.09375,282108.4375,274021.125,250623.328125,260085.890625,-0.077880859375,0.87646484375,-0.48828125,-0.7324218153953552,-0.1525878757238388,-0.1831054538488388,100.0,94008.0,1.0
510277.2312152,241290.125,287330.4375,307788.90625,282110.84375,285211.3125,275425.28125,251471.265625,261290.75,-0.078857421875,0.876708984375,-0.488525390625,-0.6103515028953552,-0.1220703050494194,-0.2136230319738388,100.0,94009.0,1.0
510277.2312255,241327.953125,288271.0,309243.8125,284507.40625,293112.125,277175.0625,253164.8125,263491.0625,-0.076904296875,0.876953125,-0.4853515625,-0.5798339247703552,-0.1525878757238388,-0.0915527269244194,100.0,94010.0,1.0
510277.2312355,241372.75,288076.28125,309219.21875,284355.40625,295002.71875,276842.8125,253382.25,263689.25,-0.0791015625,0.874755859375,-0.484619140625,-0.4577636420726776,-0.1831054538488388,0.03051757626235485,100.0,94011.0,1.0
510277.3223707,241365.5,286959.125,307688.21875,281783.28125,287914.4375,274797.8125,251742.703125,261525.53125,-0.078125,0.876220703125,-0.486572265625,-0.3662109076976776,-0.1220703050494194,0.1220703050494194,100.0,94012.0,1.0
510277.3223906,241365.5,286959.125,307688.21875,281783.28125,287914.4375,274797.8125,251742.703125,261525.53125,-0.078125,0.876220703125,-0.486572265625,-0.3662109076976776,-0.1220703050494194,0.1220703050494194,100.0,94013.0,0.0
510277.3223911,241365.5,286959.125,307688.21875,281783.28125,287914.4375,274797.8125,251742.703125,261525.53125,-0.078125,0.876220703125,-0.486572265625,-0.3662109076976776,-0.1220703050494194,0.1220703050494194,100.0,94014.0,0.0
510277.3223916,241365.5,286959.125,307688.21875,281783.28125,287914.4375,274797.8125,251742.703125,261525.53125,-0.078125,0.876220703125,-0.486572265625,-0.3662109076976776,-0.1220703050494194,0.1220703050494194,100.0,94015.0,0.0
510277.322392,241365.5,286959.125,307688.21875,281783.28125,287914.4375,274797.8125,251742.703125,261525.53125,-0.078125,0.876220703125,-0.486572265625,-0.3662109076976776,-0.1220703050494194,0.1220703050494194,100.0,94016.0,0.0
510277.3223924,241365.5,286959.125,307688.21875,281783.28125,287914.4375,274797.8125,251742.703125,261525.53125,-0.078125,0.876220703125,-0.486572265625,-0.3662109076976776,-0.1220703050494194,0.1220703050494194,100.0,94017.0,0.0
510277.3223928,241365.5,286959.125,307688.21875,281783.28125,287914.4375,274797.8125,251742.703125,261525.53125,-0.078125,0.876220703125,-0.486572265625,-0.3662109076976776,-0.1220703050494194,0.1220703050494194,100.0,94018.0,0.0
510277.3223932,241365.5,286959.125,307688.21875,281783.28125,287914.4375,274797.8125,251742.703125,261525.53125,-0.078125,0.876220703125,-0.486572265625,-0.3662109076976776,-0.1220703050494194,0.1220703050494194,100.0,94019.0,0.0
510277.3223936,241365.5,286959.125,307688.21875,281783.28125,287914.4375,274797.8125,251742.703125,261525.53125,-0.078125,0.876220703125,-0.486572265625,-0.3662109076976776,-0.1220703050494194,0.1220703050494194,100.0,94020.0,0.0
510277.322394,241365.5,286959.125,307688.21875,281783.28125,287914.4375,274797.8125,251742.703125,261525.53125,-0.078125,0.876220703125,-0.486572265625,-0.3662109076976776,-0.1220703050494194,0.1220703050494194,100.0,94021.0,0.0
510277.3223944,241365.5,286959.125,307688.21875,281783.28125,287914.4375,274797.8125,251742.703125,261525.53125,-0.078125,0.876220703125,-0.486572265625,-0.3662109076976776,-0.1220703050494194,0.1220703050494194,100.0,94022.0,0.0
510277.3223948,241365.5,286959.125,307688.21875,281783.28125,287914.4375,274797.8125,251742.703125,261525.53125,-0.078125,0.876220703125,-0.486572265625,-0.3662109076976776,-0.1220703050494194,0.1220703050494194,100.0,94023.0,0.0
510277.3223952,241365.5,286959.125,307688.21875,281783.28125,287914.4375,274797.8125,251742.703125,261525.53125,-0.078125,0.876220703125,-0.486572265625,-0.3662109076976776,-0.1220703050494194,0.1220703050494194,100.0,94024.0,0.0
510277.3223956,241365.5,286959.125,307688.21875,281783.28125,287914.4375,274797.8125,251742.703125,261525.53125,-0.078125,0.876220703125,-0.486572265625,-0.3662109076976776,-0.1220703050494194,0.1220703050494194,100.0,94025.0,0.0
510277.322396,241365.5,286959.125,307688.21875,281783.28125,287914.4375,274797.8125,251742.703125,261525.53125,-0.078125,0.876220703125,-0.486572265625,-0.3662109076976776,-0.1220703050494194,0.1220703050494194,100.0,94026.0,0.0
510277.3223964,241365.5,286959.125,307688.21875,281783.28125,287914.4375,274797.8125,251742.703125,261525.53125,-0.078125,0.876220703125,-0.486572265625,-0.3662109076976776,-0.1220703050494194,0.1220703050494194,100.0,94027.0,0.0
510277.3223967,241365.5,286959.125,307688.21875,281783.28125,287914.4375,274797.8125,251742.703125,261525.53125,-0.078125,0.876220703125,-0.486572265625,-0.3662109076976776,-0.1220703050494194,0.1220703050494194,100.0,94028.0,0.0
510277.3223971,241365.5,286959.125,307688.21875,281783.28125,287914.4375,274797.8125,251742.703125,261525.53125,-0.078125,0.876220703125,-0.486572265625,-0.3662109076976776,-0.1220703050494194,0.1220703050494194,100.0,94029.0,0.0
510277.3223975,241365.5,286959.125,307688.21875,281783.28125,287914.4375,274797.8125,251742.703125,261525.53125,-0.078125,0.876220703125,-0.486572265625,-0.3662109076976776,-0.1220703050494194,0.1220703050494194,100.0,94030.0,0.0
510277.3223979,241365.5,286959.125,307688.21875,281783.28125,287914.4375,274797.8125,251742.703125,261525.53125,-0.078125,0.876220703125,-0.486572265625,-0.3662109076976776,-0.1220703050494194,0.1220703050494194,100.0,94031.0,0.0
510277.3223983,241365.5,286959.125,307688.21875,281783.28125,287914.4375,274797.8125,251742.703125,261525.53125,-0.078125,0.876220703125,-0.486572265625,-0.3662109076976776,-0.1220703050494194,0.1220703050494194,100.0,94032.0,0.0
510277.3223987,241365.5,286959.125,307688.21875,281783.28125,287914.4375,274797.8125,251742.703125,261525.53125,-0.078125,0.876220703125,-0.486572265625,-0.3662109076976776,-0.1220703050494194,0.1220703050494194,100.0,94033.0,0.0
510277.3223991,241365.5,286959.125,307688.21875,281783.28125,287914.4375,274797.8125,251742.703125,261525.53125,-0.078125,0.876220703125,-0.486572265625,-0.3662109076976776,-0.1220703050494194,0.1220703050494194,100.0,94034.0,0.0
510277.3223994,241365.5,286959.125,307688.21875,281783.28125,287914.4375,274797.8125,251742.703125,261525.53125,-0.078125,0.876220703125,-0.486572265625,-0.3662109076976776,-0.1220703050494194,0.1220703050494194,100.0,94035.0,0.0
510277.3223998,241365.5,286959.125,307688.21875,281783.28125,287914.4375,274797.8125,251742.703125,261525.53125,-0.078125,0.876220703125,-0.486572265625,-0.3662109076976776,-0.1220703050494194,0.1220703050494194,100.0,94036.0,0.0
510277.3224002,241365.5,286959.125,307688.21875,281783.28125,287914.4375,274797.8125,251742.703125,261525.53125,-0.078125,0.876220703125,-0.486572265625,-0.3662109076976776,-0.1220703050494194,0.1220703050494194,100.0,94037.0,0.0
510277.3224006,241365.5,286959.125,307688.21875,281783.28125,287914.4375,274797.8125,251742.703125,261525.53125,-0.078125,0.876220703125,-0.486572265625,-0.3662109076976776,-0.1220703050494194,0.1220703050494194,100.0,94038.0,0.0
510277.322401,241365.5,286959.125,307688.21875,281783.28125,287914.4375,274797.8125,251742.703125,261525.53125,-0.078125,0.876220703125,-0.486572265625,-0.3662109076976776,-0.1220703050494194,0.1220703050494194,100.0,94039.0,0.0
510277.3224013,241365.5,286959.125,307688.21875,281783.28125,287914.4375,274797.8125,251742.703125,261525.53125,-0.078125,0.876220703125,-0.486572265625,-0.3662109076976776,-0.1220703050494194,0.1220703050494194,100.0,94040.0,0.0
510277.3224017,240886.015625,287013.75,308578.71875,284107.3125,293208.3125,276262.65625,252745.671875,263421.9375,-0.083984375,0.858642578125,-0.51220703125,4.058837413787842,-0.5798339247703552,2.319335699081421,100.0,94041.0,1.0
510277.3224048,240986.859375,286059.6875,307197.125,281775.59375,286488.3125,274367.40625,251205.546875,261423.78125,-0.079345703125,0.8525390625,-0.51318359375,4.272460460662842,-0.5798339247703552,2.471923589706421,100.0,94042.0,1.0
510277.3247326,240936.53125,285625.90625,306383.0625,280566.09375,280837.875,273570.25,250084.109375,260090.359375,-0.078369140625,0.8447265625,-0.513916015625,4.547118663787842,-0.5187987685203552,2.563476324081421,100.0,94043.0,1.0
510277.324741,240812.4375,286217.40625,307147.21875,281981.5,283548.6875,274834.65625,250806.4375,261140.359375,-0.078369140625,0.84033203125,-0.513671875,4.882812023162842,-0.6713866591453552,2.685546636581421,100.0,94044.0,1.0
510277.3270338,240762.984375,286998.5625,308440.40625,284120.09375,290805.875,276443.34375,252338.328125,263137.8125,-0.07568359375,0.83642578125,-0.515625,5.126952648162842,-0.6103515028953552,2.807616949081421,100.0,94045.0,1.0
510277.3935801,240842.46875,286879.5625,308447.90625,284002.25,292560.125,276159.46875,252528.046875,263317.6875,-0.078125,0.833984375,-0.5185546875,5.523681163787842,-0.6408690810203552,2.990722417831421,100.0,94046.0,1.0
510277.3961407,240992.234375,286066.75,307139.28125,281708.53125,285999.34375,274336.03125,251030.046875,261345.453125,-0.076171875,0.83544921875,-0.5234375,5.920409679412842,-0.5798339247703552,3.112792730331421,100.0,94047.0,1.0
510277.3984504,241009.9375,285783.25,306422.75,280548.125,280567.875,273634.375,250004.8125,260076.328125,-0.07421875,0.8349609375,-0.525390625,6.134032726287842,-0.4577636420726776,3.143310308456421,100.0,94048.0,1.0
510277.4009927,240934.375,286453.0,307237.09375,281961.09375,283344.9375,274944.4375,250773.703125,261130.078125,-0.072509765625,0.8369140625,-0.524658203125,6.439208507537842,-0.5493163466453552,3.326415777206421,100.0,94049.0,1.0
510277.4061868,240878.59375,287234.3125,308514.78125,284037.75,290522.625,276527.40625,252277.265625,263066.1875,-0.072509765625,0.839599609375,-0.526123046875,6.652831554412842,-0.3967284858226776,3.387450933456421,100.0,94050.0,1.0
510277.408554,240973.8125,287149.75,308541.875,283918.75,292282.96875,276255.3125,252475.390625,263235.34375,-0.072998046875,0.842529296875,-0.52294921875,6.866454601287842,-0.2441406100988388,3.570556402206421,100.0,94051.0,1.0
510277.4109896,241163.625,286409.0,307294.125,281687.96875,285867.75,274489.625,251031.109375,261309.25,-0.07470703125,0.84716796875,-0.523193359375,6.927489757537842,-0.1525878757238388,3.631591558456421,100.0,94052.0,1.0
510277.4185784,241183.828125,286139.1875,306590.3125,280542.375,280524.6875,273793.78125,250021.171875,260045.65625,-0.07275390625,0.854248046875,-0.52001953125,6.927489757537842,-0.1831054538488388,3.753661870956421,100.0,94053.0,1.0
510277.4260831,241054.453125,286736.3125,307344.8125,281885.28125,283188.03125,275034.90625,250756.453125,261053.28125,-0.0751953125,0.86376953125,-0.522216796875,6.835937023162842,-0.03051757626235485,3.875732183456421,100.0,94054.0,1.0
510277.4285666,240968.359375,287448.8125,308573.53125,283910.1875,290160.875,276567.0,252236.59375,262955.3125,-0.076904296875,0.869384765625,-0.521728515625,6.652831554412842,0.0,3.906249761581421,100.0,94055.0,1.0
510277.4311054,241063.390625,287351.90625,308598.125,283802.09375,291852.8125,276307.625,252441.328125,263122.4375,-0.07666015625,0.875,-0.51806640625,6.439208507537842,-0.1525878757238388,4.180907726287842,100.0,94056.0,1.0
510277.4335964,241261.34375,286644.5,307379.3125,281622.6875,285570.8125,274587.875,251029.5,261227.890625,-0.076171875,0.880859375,-0.513671875,6.042479991912842,-0.2136230319738388,4.394530773162842,100.0,94057.0,1.0
510277.4374713,241302.5625,286425.46875,306730.15625,280554.8125,280479.625,273935.9375,250071.953125,260029.921875,-0.07666015625,0.885009765625,-0.513671875,5.432128429412842,-0.2136230319738388,4.394530773162842,100.0,94058.0,1.0
510277.4375116,241161.03125,287013.125,307491.25,281912.03125,283302.03125,275178.40625,250825.125,261054.890625,-0.0791015625,0.88916015625,-0.5048828125,4.913329601287842,-0.1831054538488388,4.425048351287842,100.0,94059.0,1.0
510277.4375213,241055.171875,287683.6875,308698.875,283914.65625,290292.59375,276689.125,252303.109375,262943.34375,-0.080810546875,0.89013671875,-0.50146484375,4.333495616912842,-0.2136230319738388,4.547118663787842,100.0,94060.0,1.0
510277.4421909,241165.140625,287593.90625,308737.78125,283833.28125,292042.53125,276439.5,252527.703125,263140.125,-0.07958984375,0.892578125,-0.497314453125,3.540038824081421,-0.3356933295726776,4.608153820037842,100.0,94061.0,1.0
510277.444849,241410.75,286939.46875,307575.75,281732.5,285942.21875,274766.96875,251165.3125,261309.875,-0.07666015625,0.892578125,-0.49755859375,2.593993902206421,-0.3662109076976776,4.730224132537842,100.0,94062.0,1.0
510277.4471285,241452.3125,286714.5,306930.78125,280673.0,280918.96875,274128.15625,250233.515625,260126.484375,-0.076904296875,0.888916015625,-0.4951171875,1.8005369901657104,-0.4882812201976776,4.882812023162842,100.0,94063.0,1.0
510277.4723341,241259.734375,287223.3125,307628.59375,281969.15625,283640.34375,275302.0625,250941.078125,261104.953125,-0.07470703125,0.88037109375,-0.49609375,1.1291502714157104,-0.7019042372703552,4.882812023162842,100.0,94064.0,1.0
510277.4723745,241140.5625,287866.875,308818.875,283967.21875,290592.625,276784.53125,252413.703125,262988.125,-0.069580078125,0.872314453125,-0.497802734375,0.7019042372703552,-0.7934569716453552,4.882812023162842,100.0,94065.0,1.0
510277.4723838,241247.75,287779.53125,308869.75,283909.71875,292415.28125,276546.4375,252648.3125,263199.03125,-0.065673828125,0.868408203125,-0.49951171875,0.3356933295726776,-0.6713866591453552,4.882812023162842,100.0,94066.0,1.0
510277.4723917,241499.609375,287152.0625,307739.625,281847.46875,286485.53125,274907.4375,251327.3125,261412.421875,-0.063232421875,0.86767578125,-0.4951171875,0.1220703050494194,-0.6103515028953552,4.852294445037842,100.0,94067.0,1.0
510277.4723994,241542.703125,286929.1875,307101.375,280803.5625,281565.65625,274273.96875,250414.46875,260253.0,-0.061279296875,0.870361328125,-0.494384765625,-0.1831054538488388,-0.6103515028953552,4.943847179412842,100.0,94068.0,1.0
510277.4724072,241350.125,287421.625,307791.5,282096.71875,284278.875,275441.90625,251131.34375,261236.109375,-0.061279296875,0.867431640625,-0.493408203125,-0.6408690810203552,-0.4272460639476776,4.974364757537842,100.0,94069.0,1.0
510277.472415,241193.03125,288007.15625,308930.53125,284047.0625,291127.5625,276879.21875,252559.796875,263078.34375,-0.0595703125,0.865966796875,-0.495849609375,-0.9765624403953552,-0.1220703050494194,5.004882335662842,100.0,94070.0,1.0
510277.4724227,241314.546875,287927.59375,308988.5625,283998.0625,292935.28125,276653.71875,252807.71875,263300.96875,-0.059814453125,0.8642578125,-0.49755859375,-1.1901854276657104,-0.03051757626235485,5.096435070037842,100.0,94071.0,1.0
510277.4724305,241565.6875,287309.59375,307861.40625,281933.75,287031.1875,275021.6875,251493.25,261515.875,-0.06201171875,0.85986328125,-0.502197265625,-1.4343260526657104,0.0610351525247097,5.035399913787842,100.0,94072.0,1.0
510277.4724382,241578.375,287057.75,307192.375,280853.34375,282094.59375,274359.53125,250558.953125,260328.984375,-0.062744140625,0.8564453125,-0.5068359375,-1.5258787870407104,0.1525878757238388,5.096435070037842,100.0,94073.0,1.0
510277.4724465,241397.515625,287549.75,307883.9375,282146.34375,284763.125,275531.75,251283.234375,261320.34375,-0.0625,0.853515625,-0.5087890625,-1.5258787870407104,0.2746581733226776,5.004882335662842,100.0,94074.0,1.0
510277.4724545,241252.3125,288131.78125,309024.0625,284095.6875,291540.875,276976.40625,252722.421875,263169.8125,-0.061279296875,0.8515625,-0.509765625,-1.4343260526657104,0.3356933295726776,4.821776866912842,100.0,94075.0,1.0
510277.4724626,241327.421875,288000.71875,309029.96875,283998.78125,293265.53125,276704.875,252919.390625,263341.46875,-0.058837890625,0.85107421875,-0.5107421875,-1.3122557401657104,0.3356933295726776,4.669188976287842,100.0,94076.0,1.0
510277.4724706,241590.890625,287403.21875,307923.1875,281959.03125,287413.125,275095.09375,251613.234375,261571.5625,-0.0556640625,0.852783203125,-0.51171875,-1.0986326932907104,0.4272460639476776,4.516601085662842,100.0,94077.0,1.0
510277.4724784,241620.84375,287174.59375,307283.75,280906.09375,282524.375,274458.4375,250694.3125,260403.828125,-0.05419921875,0.85546875,-0.51318359375,-0.8850097060203552,0.6103515028953552,4.455565929412842,100.0,94078.0,1.0
510277.4724862,241392.5,287618.5,307936.15625,282156.71875,285136.5625,275587.0,251385.078125,261351.71875,-0.051513671875,0.858642578125,-0.51025390625,-0.6713866591453552,0.8544921278953552,4.272460460662842,100.0,94079.0,1.0
510277.4760788,241208.6875,288164.15625,309040.96875,284070.46875,291839.9375,276989.1875,252785.09375,263160.25,-0.05126953125,0.8603515625,-0.51416015625,-0.5798339247703552,1.1291502714157104,4.119872570037842,100.0,94080.0,1.0
510277.4761098,241321.25,288086.71875,309097.1875,284026.40625,293627.8125,276765.65625,253026.046875,263381.15625,-0.048583984375,0.8564453125,-0.51318359375,-0.4882812201976776,1.3427733182907104,3.936767339706421,100.0,94081.0,1.0
510277.47612,241619.515625,287532.5,308029.59375,282027.96875,287877.53125,275201.03125,251758.34375,261651.59375,-0.048583984375,0.853515625,-0.512451171875,-0.2136230319738388,1.6479490995407104,3.784179449081421,100.0,94082.0,1.0
510277.4784524,241661.625,287309.25,307393.90625,280976.09375,283038.8125,274562.84375,250848.359375,260493.59375,-0.046630859375,0.85546875,-0.514404296875,0.0,1.9531248807907104,3.631591558456421,100.0,94083.0,1.0
510277.4874802,241437.125,287756.0,308043.96875,282217.34375,285662.5625,275686.0625,251542.515625,261441.484375,-0.044189453125,0.85595703125,-0.513916015625,0.2136230319738388,2.197265386581421,3.509521245956421,100.0,94084.0,1.0
510277.4875215,241265.28125,288304.71875,309152.0,284136.8125,292360.5625,277101.65625,252950.0625,263255.0,-0.042724609375,0.85546875,-0.5126953125,0.4272460639476776,2.502441167831421,3.417968511581421,100.0,94085.0,1.0
510277.4875307,241368.359375,288215.125,309193.5625,284080.5,294134.40625,276870.34375,253185.734375,263464.84375,-0.042236328125,0.858154296875,-0.513671875,0.7324218153953552,2.807616949081421,3.448486089706421,100.0,94086.0,1.0
510277.4875391,241641.234375,287646.5,308106.125,282072.40625,288401.96875,275278.09375,251895.859375,261716.3125,-0.043701171875,0.861083984375,-0.511962890625,0.8239745497703552,3.173827886581421,3.387450933456421,100.0,94087.0,1.0
510277.4875469,241685.578125,287434.875,307481.4375,281034.40625,283582.84375,274644.75,250990.25,260562.875,-0.04248046875,0.8642578125,-0.512939453125,0.8239745497703552,3.356933355331421,3.295898199081421,100.0,94088.0,1.0
510277.4875547,241442.84375,287857.9375,308110.125,282247.90625,286132.03125,275753.125,251666.625,261492.359375,-0.040283203125,0.869140625,-0.5146484375,0.9765624403953552,3.723144292831421,3.295898199081421,100.0,94089.0,1.0
510277.4875625,241235.59375,288361.3125,309176.84375,284123.5,292735.28125,277129.375,253044.203125,263271.8125,-0.040283203125,0.873291015625,-0.51318359375,1.0070799589157104,4.058837413787842,3.265380620956421,100.0,94090.0,1.0
510277.4875702,241348.34375,288273.40625,309224.59375,284084.6875,294513.3125,276903.25,253275.046875,263485.15625,-0.03857421875,0.874755859375,-0.514892578125,0.8850097060203552,4.455565929412842,3.173827886581421,100.0,94091.0,1.0
510277.487578,241660.015625,287741.34375,308177.8125,282119.96875,288848.75,275348.28125,252016.640625,261774.34375,-0.036376953125,0.87744140625,-0.5107421875,0.8239745497703552,4.821776866912842,3.082275152206421,100.0,94092.0,1.0
510277.4896951,241719.546875,287541.4375,307563.15625,281094.21875,284054.75,274723.59375,251124.625,260633.78125,-0.033935546875,0.878173828125,-0.5107421875,0.7629393935203552,5.157470226287842,3.143310308456421,100.0,94093.0,1.0
510277.4922528,241465.8125,287943.40625,308169.59375,282288.78125,286563.78125,275808.375,251784.453125,261543.5,-0.032958984375,0.880859375,-0.512451171875,0.6408690810203552,5.554198741912842,3.021239995956421,100.0,94094.0,1.0
510277.4922936,241263.125,288443.65625,309232.28125,284151.5625,293121.3125,277180.34375,253154.625,263315.375,-0.0361328125,0.883056640625,-0.51171875,0.5798339247703552,5.828856945037842,2.929687261581421,100.0,94095.0,1.0
510277.4948065,241386.421875,288366.9375,309287.375,284113.40625,294883.53125,276967.53125,253390.390625,263531.5625,-0.03759765625,0.886962890625,-0.513916015625,0.4882812201976776,6.195067882537842,2.777099370956421,100.0,94096.0,1.0
510277.4973676,241722.140625,287865.28125,308268.84375,282180.78125,289268.59375,275441.46875,252159.96875,261846.765625,-0.0390625,0.88916015625,-0.510986328125,0.3051757514476776,6.530761241912842,2.716064214706421,100.0,94097.0,1.0
510277.5022924,241767.296875,287643.28125,307632.34375,281130.25,284440.625,274794.40625,251241.046875,260678.84375,-0.040771484375,0.88818359375,-0.510986328125,0.0610351525247097,6.744384288787842,2.563476324081421,100.0,94098.0,1.0
510277.5073586,241767.296875,287643.28125,307632.34375,281130.25,284440.625,274794.40625,251241.046875,260678.84375,-0.040771484375,0.88818359375,-0.510986328125,0.0610351525247097,6.744384288787842,2.563476324081421,100.0,94099.0,0.0
510277.5073667,241767.296875,287643.28125,307632.34375,281130.25,284440.625,274794.40625,251241.046875,260678.84375,-0.040771484375,0.88818359375,-0.510986328125,0.0610351525247097,6.744384288787842,2.563476324081421,100.0,94100.0,0.0
510277.5073681,241767.296875,287643.28125,307632.34375,281130.25,284440.625,274794.40625,251241.046875,260678.84375,-0.040771484375,0.88818359375,-0.510986328125,0.0610351525247097,6.744384288787842,2.563476324081421,100.0,94101.0,0.0
510277.5073695,241767.296875,287643.28125,307632.34375,281130.25,284440.625,274794.40625,251241.046875,260678.84375,-0.040771484375,0.88818359375,-0.510986328125,0.0610351525247097,6.744384288787842,2.563476324081421,100.0,94102.0,0.0
510277.5073708,241767.296875,287643.28125,307632.34375,281130.25,284440.625,274794.40625,251241.046875,260678.84375,-0.040771484375,0.88818359375,-0.510986328125,0.0610351525247097,6.744384288787842,2.563476324081421,100.0,94103.0,0.0
510277.5073721,241767.296875,287643.28125,307632.34375,281130.25,284440.625,274794.40625,251241.046875,260678.84375,-0.040771484375,0.88818359375,-0.510986328125,0.0610351525247097,6.744384288787842,2.563476324081421,100.0,94104.0,0.0
510277.5073734,241767.296875,287643.28125,307632.34375,281130.25,284440.625,274794.40625,251241.046875,260678.84375,-0.040771484375,0.88818359375,-0.510986328125,0.0610351525247097,6.744384288787842,2.563476324081421,100.0,94105.0,0.0
510277.5073747,241767.296875,287643.28125,307632.34375,281130.25,284440.625,274794.40625,251241.046875,260678.84375,-0.040771484375,0.88818359375,-0.510986328125,0.0610351525247097,6.744384288787842,2.563476324081421,100.0,94106.0,0.0
510277.507376,241767.296875,287643.28125,307632.34375,281130.25,284440.625,274794.40625,251241.046875,260678.84375,-0.040771484375,0.88818359375,-0.510986328125,0.0610351525247097,6.744384288787842,2.563476324081421,100.0,94107.0,0.0
510277.5073773,241767.296875,287643.28125,307632.34375,281130.25,284440.625,274794.40625,251241.046875,260678.84375,-0.040771484375,0.88818359375,-0.510986328125,0.0610351525247097,6.744384288787842,2.563476324081421,100.0,94108.0,0.0
510277.5073786,241767.296875,287643.28125,307632.34375,281130.25,284440.625,274794.40625,251241.046875,260678.84375,-0.040771484375,0.88818359375,-0.510986328125,0.0610351525247097,6.744384288787842,2.563476324081421,100.0,94109.0,0.0
510277.5073799,241767.296875,287643.28125,307632.34375,281130.25,284440.625,274794.40625,251241.046875,260678.84375,-0.040771484375,0.88818359375,-0.510986328125,0.0610351525247097,6.744384288787842,2.563476324081421,100.0,94110.0,0.0
510277.5073812,241767.296875,287643.28125,307632.34375,281130.25,284440.625,274794.40625,251241.046875,260678.84375,-0.040771484375,0.88818359375,-0.510986328125,0.0610351525247097,6.744384288787842,2.563476324081421,100.0,94111.0,0.0
510277.5073826,241767.296875,287643.28125,307632.34375,281130.25,284440.625,274794.40625,251241.046875,260678.84375,-0.040771484375,0.88818359375,-0.510986328125,0.0610351525247097,6.744384288787842,2.563476324081421,100.0,94112.0,0.0
510277.5073839,241767.296875,287643.28125,307632.34375,281130.25,284440.625,274794.40625,251241.046875,260678.84375,-0.040771484375,0.88818359375,-0.510986328125,0.0610351525247097,6.744384288787842,2.563476324081421,100.0,94113.0,0.0
510277.5073852,241767.296875,287643.28125,307632.34375,281130.25,284440.625,274794.40625,251241.046875,260678.84375,-0.040771484375,0.88818359375,-0.510986328125,0.0610351525247097,6.744384288787842,2.563476324081421,100.0,94114.0,0.0
510277.5073865,241767.296875,287643.28125,307632.34375,281130.25,284440.625,274794.40625,251241.046875,260678.84375,-0.040771484375,0.88818359375,-0.510986328125,0.0610351525247097,6.744384288787842,2.563476324081421,100.0,94115.0,0.0
510277.5073878,241767.296875,287643.28125,307632.34375,281130.25,284440.625,274794.40625,251241.046875,260678.84375,-0.040771484375,0.88818359375,-0.510986328125,0.0610351525247097,6.744384288787842,2.563476324081421,100.0,94116.0,0.0
510277.5073891,241767.296875,287643.28125,307632.34375,281130.25,284440.625,274794.40625,251241.046875,260678.84375,-0.040771484375,0.88818359375,-0.510986328125,0.0610351525247097,6.744384288787842,2.563476324081421,100.0,94117.0,0.0
510277.5073904,241767.296875,287643.28125,307632.34375,281130.25,284440.625,274794.40625,251241.046875,260678.84375,-0.040771484375,0.88818359375,-0.510986328125,0.0610351525247097,6.744384288787842,2.563476324081421,100.0,94118.0,0.0
510277.5073917,241767.296875,287643.28125,307632.34375,281130.25,284440.625,274794.40625,251241.046875,260678.84375,-0.040771484375,0.88818359375,-0.510986328125,0.0610351525247097,6.744384288787842,2.563476324081421,100.0,94119.0,0.0
510277.507393,241767.296875,287643.28125,307632.34375,281130.25,284440.625,274794.40625,251241.046875,260678.84375,-0.040771484375,0.88818359375,-0.510986328125,0.0610351525247097,6.744384288787842,2.563476324081421,100.0,94120.0,0.0
510277.5073943,241767.296875,287643.28125,307632.34375,281130.25,284440.625,274794.40625,251241.046875,260678.84375,-0.040771484375,0.88818359375,-0.510986328125,0.0610351525247097,6.744384288787842,2.563476324081421,100.0,94121.0,0.0
510277.5073956,241767.296875,287643.28125,307632.34375,281130.25,284440.625,274794.40625,251241.046875,260678.84375,-0.040771484375,0.88818359375,-0.510986328125,0.0610351525247097,6.744384288787842,2.563476324081421,100.0,94122.0,0.0
510277.5073969,241767.296875,287643.28125,307632.34375,281130.25,284440.625,274794.40625,251241.046875,260678.84375,-0.040771484375,0.88818359375,-0.510986328125,0.0610351525247097,6.744384288787842,2.563476324081421,100.0,94123.0,0.0
510277.5073982,241767.296875,287643.28125,307632.34375,281130.25,284440.625,274794.40625,251241.046875,260678.84375,-0.040771484375,0.88818359375,-0.510986328125,0.0610351525247097,6.744384288787842,2.563476324081421,100.0,94124.0,0.0
510277.5073995,241767.296875,287643.28125,307632.34375,281130.25,284440.625,274794.40625,251241.046875,260678.84375,-0.040771484375,0.88818359375,-0.510986328125,0.0610351525247097,6.744384288787842,2.563476324081421,100.0,94125.0,0.0
510277.5074008,241767.296875,287643.28125,307632.34375,281130.25,284440.625,274794.40625,251241.046875,260678.84375,-0.040771484375,0.88818359375,-0.510986328125,0.0610351525247097,6.744384288787842,2.563476324081421,100.0,94126.0,0.0
510277.5074021,241767.296875,287643.28125,307632.34375,281130.25,284440.625,274794.40625,251241.046875,260678.84375,-0.040771484375,0.88818359375,-0.510986328125,0.0610351525247097,6.744384288787842,2.563476324081421,100.0,94127.0,0.0
510277.5074034,241767.296875,287643.28125,307632.34375,281130.25,284440.625,274794.40625,251241.046875,260678.84375,-0.040771484375,0.88818359375,-0.510986328125,0.0610351525247097,6.744384288787842,2.563476324081421,100.0,94128.0,0.0
510277.5074047,241767.296875,287643.28125,307632.34375,281130.25,284440.625,274794.40625,251241.046875,260678.84375,-0.040771484375,0.88818359375,-0.510986328125,0.0610351525247097,6.744384288787842,2.563476324081421,100.0,94129.0,0.0
510277.507406,241767.296875,287643.28125,307632.34375,281130.25,284440.625,274794.40625,251241.046875,260678.84375,-0.040771484375,0.88818359375,-0.510986328125,0.0610351525247097,6.744384288787842,2.563476324081421,100.0,94130.0,0.0
510277.5074073,241767.296875,287643.28125,307632.34375,281130.25,284440.625,274794.40625,251241.046875,260678.84375,-0.040771484375,0.88818359375,-0.510986328125,0.0610351525247097,6.744384288787842,2.563476324081421,100.0,94131.0,0.0
510277.5074086,241767.296875,287643.28125,307632.34375,281130.25,284440.625,274794.40625,251241.046875,260678.84375,-0.040771484375,0.88818359375,-0.510986328125,0.0610351525247097,6.744384288787842,2.563476324081421,100.0,94132.0,0.0
510277.5074099,241767.296875,287643.28125,307632.34375,281130.25,284440.625,274794.40625,251241.046875,260678.84375,-0.040771484375,0.88818359375,-0.510986328125,0.0610351525247097,6.744384288787842,2.563476324081421,100.0,94133.0,0.0
510277.5074112,241767.296875,287643.28125,307632.34375,281130.25,284440.625,274794.40625,251241.046875,260678.84375,-0.040771484375,0.88818359375,-0.510986328125,0.0610351525247097,6.744384288787842,2.563476324081421,100.0,94134.0,0.0
510277.5074125,241767.296875,287643.28125,307632.34375,281130.25,284440.625,274794.40625,251241.046875,260678.84375,-0.040771484375,0.88818359375,-0.510986328125,0.0610351525247097,6.744384288787842,2.563476324081421,100.0,94135.0,0.0
510277.5074138,241767.296875,287643.28125,307632.34375,281130.25,284440.625,274794.40625,251241.046875,260678.84375,-0.040771484375,0.88818359375,-0.510986328125,0.0610351525247097,6.744384288787842,2.563476324081421,100.0,94136.0,0.0
510277.5074151,241767.296875,287643.28125,307632.34375,281130.25,284440.625,274794.40625,251241.046875,260678.84375,-0.040771484375,0.88818359375,-0.510986328125,0.0610351525247097,6.744384288787842,2.563476324081421,100.0,94137.0,0.0
510277.5074164,241767.296875,287643.28125,307632.34375,281130.25,284440.625,274794.40625,251241.046875,260678.84375,-0.040771484375,0.88818359375,-0.510986328125,0.0610351525247097,6.744384288787842,2.563476324081421,100.0,94138.0,0.0
510277.5074177,241767.296875,287643.28125,307632.34375,281130.25,284440.625,274794.40625,251241.046875,260678.84375,-0.040771484375,0.88818359375,-0.510986328125,0.0610351525247097,6.744384288787842,2.563476324081421,100.0,94139.0,0.0
510277.5074191,241767.296875,287643.28125,307632.34375,281130.25,284440.625,274794.40625,251241.046875,260678.84375,-0.040771484375,0.88818359375,-0.510986328125,0.0610351525247097,6.744384288787842,2.563476324081421,100.0,94140.0,0.0
510277.5074204,241767.296875,287643.28125,307632.34375,281130.25,284440.625,274794.40625,251241.046875,260678.84375,-0.040771484375,0.88818359375,-0.510986328125,0.0610351525247097,6.744384288787842,2.563476324081421,100.0,94141.0,0.0
510277.5074217,241767.296875,287643.28125,307632.34375,281130.25,284440.625,274794.40625,251241.046875,260678.84375,-0.040771484375,0.88818359375,-0.510986328125,0.0610351525247097,6.744384288787842,2.563476324081421,100.0,94142.0,0.0
510277.507423,241767.296875,287643.28125,307632.34375,281130.25,284440.625,274794.40625,251241.046875,260678.84375,-0.040771484375,0.88818359375,-0.510986328125,0.0610351525247097,6.744384288787842,2.563476324081421,100.0,94143.0,0.0
510277.5074243,241767.296875,287643.28125,307632.34375,281130.25,284440.625,274794.40625,251241.046875,260678.84375,-0.040771484375,0.88818359375,-0.510986328125,0.0610351525247097,6.744384288787842,2.563476324081421,100.0,94144.0,0.0
510277.5074256,241767.296875,287643.28125,307632.34375,281130.25,284440.625,274794.40625,251241.046875,260678.84375,-0.040771484375,0.88818359375,-0.510986328125,0.0610351525247097,6.744384288787842,2.563476324081421,100.0,94145.0,0.0
510277.5074269,241767.296875,287643.28125,307632.34375,281130.25,284440.625,274794.40625,251241.046875,260678.84375,-0.040771484375,0.88818359375,-0.510986328125,0.0610351525247097,6.744384288787842,2.563476324081421,100.0,94146.0,0.0
510277.5074282,241813.34375,287722.21875,307920.40625,281524.875,285490.4375,275058.625,251515.34375,260990.875,-0.05859375,0.8603515625,-0.50634765625,0.1831054538488388,-4.425048351287842,-0.4272460639476776,100.0,94147.0,1.0
510277.5122153,241897.5625,287556.71875,307353.75,280561.15625,280828.125,274451.0,250640.9375,259905.03125,-0.06005859375,0.87353515625,-0.513671875,0.1220703050494194,-4.119872570037842,-0.3662109076976776,100.0,94148.0,1.0
510277.5122473,241585.53125,287870.46875,307871.5,281625.03125,283036.75,275466.21875,251213.859375,260726.5,-0.06396484375,0.88330078125,-0.5166015625,-0.0915527269244194,-3.967284917831421,-0.3967284858226776,100.0,94149.0,1.0
510277.5161286,241284.328125,288227.53125,308789.28125,283317.40625,289097.21875,276744.65625,252434.4375,262347.90625,-0.06298828125,0.88525390625,-0.511474609375,-0.4272460639476776,-4.058837413787842,-0.5798339247703552,100.0,94150.0,1.0
510277.5161337,241399.75,288131.625,308840.875,283307.40625,290720.46875,276538.125,252624.53125,262554.25,-0.061279296875,0.875244140625,-0.5009765625,-0.8850097060203552,-3.967284917831421,-0.5798339247703552,100.0,94151.0,1.0
510277.5161353,241809.046875,287724.71875,307940.8125,281560.8125,285421.0625,275096.0625,251459.46875,260997.484375,-0.059814453125,0.8701171875,-0.491943359375,-1.2207030057907104,-3.784179449081421,-0.6103515028953552,100.0,94152.0,1.0
510277.5161368,241902.03125,287566.5625,307383.34375,280609.4375,280842.875,274492.40625,250609.5625,259928.53125,-0.05908203125,0.8701171875,-0.490966796875,-1.3122557401657104,-3.326415777206421,-0.4272460639476776,100.0,94153.0,1.0
510277.5184295,241608.15625,287895.59375,307920.78125,281689.3125,283112.46875,275525.125,251210.109375,260766.015625,-0.060302734375,0.87841796875,-0.49267578125,-1.4038084745407104,-2.929687261581421,-0.4272460639476776,100.0,94154.0,1.0
510277.5210229,241316.328125,288272.53125,308852.03125,283377.65625,289215.75,276812.6875,252456.265625,262395.53125,-0.062744140625,0.88427734375,-0.49853515625,-1.6174315214157104,-2.563476324081421,-0.3662109076976776,100.0,94155.0,1.0
510277.530981,241426.921875,288174.34375,308901.40625,283364.53125,290886.875,276601.59375,252654.390625,262597.0625,-0.0712890625,0.88623046875,-0.503173828125,-1.9226073026657104,-2.502441167831421,-0.5187987685203552,100.0,94156.0,1.0
510277.5309934,241833.09375,287750.03125,307988.71875,281600.78125,285549.1875,275136.03125,251471.703125,261014.828125,-0.081787109375,0.884033203125,-0.505126953125,-2.166747808456421,-2.532958745956421,-0.6713866591453552,100.0,94157.0,1.0
510277.5309984,241833.09375,287750.03125,307988.71875,281600.78125,285549.1875,275136.03125,251471.703125,261014.828125,-0.081787109375,0.884033203125,-0.505126953125,-2.166747808456421,-2.532958745956421,-0.6713866591453552,100.0,94158.0,0.0
510277.5309987,241833.09375,287750.03125,307988.71875,281600.78125,285549.1875,275136.03125,251471.703125,261014.828125,-0.081787109375,0.884033203125,-0.505126953125,-2.166747808456421,-2.532958745956421,-0.6713866591453552,100.0,94159.0,0.0
510277.530999,241833.09375,287750.03125,307988.71875,281600.78125,285549.1875,275136.03125,251471.703125,261014.828125,-0.081787109375,0.884033203125,-0.505126953125,-2.166747808456421,-2.532958745956421,-0.6713866591453552,100.0,94160.0,0.0
510277.5309992,241833.09375,287750.03125,307988.71875,281600.78125,285549.1875,275136.03125,251471.703125,261014.828125,-0.081787109375,0.884033203125,-0.505126953125,-2.166747808456421,-2.532958745956421,-0.6713866591453552,100.0,94161.0,0.0
510277.5309995,241833.09375,287750.03125,307988.71875,281600.78125,285549.1875,275136.03125,251471.703125,261014.828125,-0.081787109375,0.884033203125,-0.505126953125,-2.166747808456421,-2.532958745956421,-0.6713866591453552,100.0,94162.0,0.0
510277.5309997,241833.09375,287750.03125,307988.71875,281600.78125,285549.1875,275136.03125,251471.703125,261014.828125,-0.081787109375,0.884033203125,-0.505126953125,-2.166747808456421,-2.532958745956421,-0.6713866591453552,100.0,94163.0,0.0
510277.531,241833.09375,287750.03125,307988.71875,281600.78125,285549.1875,275136.03125,251471.703125,261014.828125,-0.081787109375,0.884033203125,-0.505126953125,-2.166747808456421,-2.532958745956421,-0.6713866591453552,100.0,94164.0,0.0
510277.5310003,241833.09375,287750.03125,307988.71875,281600.78125,285549.1875,275136.03125,251471.703125,261014.828125,-0.081787109375,0.884033203125,-0.505126953125,-2.166747808456421,-2.532958745956421,-0.6713866591453552,100.0,94165.0,0.0
510277.5310005,241833.09375,287750.03125,307988.71875,281600.78125,285549.1875,275136.03125,251471.703125,261014.828125,-0.081787109375,0.884033203125,-0.505126953125,-2.166747808456421,-2.532958745956421,-0.6713866591453552,100.0,94166.0,0.0
510277.5310008,241833.09375,287750.03125,307988.71875,281600.78125,285549.1875,275136.03125,251471.703125,261014.828125,-0.081787109375,0.884033203125,-0.505126953125,-2.166747808456421,-2.532958745956421,-0.6713866591453552,100.0,94167.0,0.0
510277.531001,241833.09375,287750.03125,307988.71875,281600.78125,285549.1875,275136.03125,251471.703125,261014.828125,-0.081787109375,0.884033203125,-0.505126953125,-2.166747808456421,-2.532958745956421,-0.6713866591453552,100.0,94168.0,0.0
510277.5310013,241833.09375,287750.03125,307988.71875,281600.78125,285549.1875,275136.03125,251471.703125,261014.828125,-0.081787109375,0.884033203125,-0.505126953125,-2.166747808456421,-2.532958745956421,-0.6713866591453552,100.0,94169.0,0.0
510277.5310016,241833.09375,287750.03125,307988.71875,281600.78125,285549.1875,275136.03125,251471.703125,261014.828125,-0.081787109375,0.884033203125,-0.505126953125,-2.166747808456421,-2.532958745956421,-0.6713866591453552,100.0,94170.0,0.0
510277.5310018,241833.09375,287750.03125,307988.71875,281600.78125,285549.1875,275136.03125,251471.703125,261014.828125,-0.081787109375,0.884033203125,-0.505126953125,-2.166747808456421,-2.532958745956421,-0.6713866591453552,100.0,94171.0,0.0
510277.5310021,241833.09375,287750.03125,307988.71875,281600.78125,285549.1875,275136.03125,251471.703125,261014.828125,-0.081787109375,0.884033203125,-0.505126953125,-2.166747808456421,-2.532958745956421,-0.6713866591453552,100.0,94172.0,0.0
510277.5310023,241833.09375,287750.03125,307988.71875,281600.78125,285549.1875,275136.03125,251471.703125,261014.828125,-0.081787109375,0.884033203125,-0.505126953125,-2.166747808456421,-2.532958745956421,-0.6713866591453552,100.0,94173.0,0.0
510277.5310026,241833.09375,287750.03125,307988.71875,281600.78125,285549.1875,275136.03125,251471.703125,261014.828125,-0.081787109375,0.884033203125,-0.505126953125,-2.166747808456421,-2.532958745956421,-0.6713866591453552,100.0,94174.0,0.0
510277.5310029,241833.09375,287750.03125,307988.71875,281600.78125,285549.1875,275136.03125,251471.703125,261014.828125,-0.081787109375,0.884033203125,-0.505126953125,-2.166747808456421,-2.532958745956421,-0.6713866591453552,100.0,94175.0,0.0
510277.5310031,241833.09375,287750.03125,307988.71875,281600.78125,285549.1875,275136.03125,251471.703125,261014.828125,-0.081787109375,0.884033203125,-0.505126953125,-2.166747808456421,-2.532958745956421,-0.6713866591453552,100.0,94176.0,0.0
510277.5310034,241833.09375,287750.03125,307988.71875,281600.78125,285549.1875,275136.03125,251471.703125,261014.828125,-0.081787109375,0.884033203125,-0.505126953125,-2.166747808456421,-2.532958745956421,-0.6713866591453552,100.0,94177.0,0.0
510277.5310037,241833.09375,287750.03125,307988.71875,281600.78125,285549.1875,275136.03125,251471.703125,261014.828125,-0.081787109375,0.884033203125,-0.505126953125,-2.166747808456421,-2.532958745956421,-0.6713866591453552,100.0,94178.0,0.0
510277.5310039,241833.09375,287750.03125,307988.71875,281600.78125,285549.1875,275136.03125,251471.703125,261014.828125,-0.081787109375,0.884033203125,-0.505126953125,-2.166747808456421,-2.532958745956421,-0.6713866591453552,100.0,94179.0,0.0
510277.5310042,241833.09375,287750.03125,307988.71875,281600.78125,285549.1875,275136.03125,251471.703125,261014.828125,-0.081787109375,0.884033203125,-0.505126953125,-2.166747808456421,-2.532958745956421,-0.6713866591453552,100.0,94180.0,0.0
510277.5310045,241833.09375,287750.03125,307988.71875,281600.78125,285549.1875,275136.03125,251471.703125,261014.828125,-0.081787109375,0.884033203125,-0.505126953125,-2.166747808456421,-2.532958745956421,-0.6713866591453552,100.0,94181.0,0.0
510277.5310047,241833.09375,287750.03125,307988.71875,281600.78125,285549.1875,275136.03125,251471.703125,261014.828125,-0.081787109375,0.884033203125,-0.505126953125,-2.166747808456421,-2.532958745956421,-0.6713866591453552,100.0,94182.0,0.0
510277.531005,241833.09375,287750.03125,307988.71875,281600.78125,285549.1875,275136.03125,251471.703125,261014.828125,-0.081787109375,0.884033203125,-0.505126953125,-2.166747808456421,-2.532958745956421,-0.6713866591453552,100.0,94183.0,0.0
510277.5310053,241833.09375,287750.03125,307988.71875,281600.78125,285549.1875,275136.03125,251471.703125,261014.828125,-0.081787109375,0.884033203125,-0.505126953125,-2.166747808456421,-2.532958745956421,-0.6713866591453552,100.0,94184.0,0.0
510277.5310055,241833.09375,287750.03125,307988.71875,281600.78125,285549.1875,275136.03125,251471.703125,261014.828125,-0.081787109375,0.884033203125,-0.505126953125,-2.166747808456421,-2.532958745956421,-0.6713866591453552,100.0,94185.0,0.0
510277.5310058,241833.09375,287750.03125,307988.71875,281600.78125,285549.1875,275136.03125,251471.703125,261014.828125,-0.081787109375,0.884033203125,-0.505126953125,-2.166747808456421,-2.532958745956421,-0.6713866591453552,100.0,94186.0,0.0
510277.5310061,241833.09375,287750.03125,307988.71875,281600.78125,285549.1875,275136.03125,251471.703125,261014.828125,-0.081787109375,0.884033203125,-0.505126953125,-2.166747808456421,-2.532958745956421,-0.6713866591453552,100.0,94187.0,0.0
510277.5310063,241833.09375,287750.03125,307988.71875,281600.78125,285549.1875,275136.03125,251471.703125,261014.828125,-0.081787109375,0.884033203125,-0.505126953125,-2.166747808456421,-2.532958745956421,-0.6713866591453552,100.0,94188.0,0.0
510277.5310066,241833.09375,287750.03125,307988.71875,281600.78125,285549.1875,275136.03125,251471.703125,261014.828125,-0.081787109375,0.884033203125,-0.505126953125,-2.166747808456421,-2.532958745956421,-0.6713866591453552,100.0,94189.0,0.0
510277.5310069,241833.09375,287750.03125,307988.71875,281600.78125,285549.1875,275136.03125,251471.703125,261014.828125,-0.081787109375,0.884033203125,-0.505126953125,-2.166747808456421,-2.532958745956421,-0.6713866591453552,100.0,94190.0,0.0
510277.5310071,241833.09375,287750.03125,307988.71875,281600.78125,285549.1875,275136.03125,251471.703125,261014.828125,-0.081787109375,0.884033203125,-0.505126953125,-2.166747808456421,-2.532958745956421,-0.6713866591453552,100.0,94191.0,0.0
510277.5310074,241833.09375,287750.03125,307988.71875,281600.78125,285549.1875,275136.03125,251471.703125,261014.828125,-0.081787109375,0.884033203125,-0.505126953125,-2.166747808456421,-2.532958745956421,-0.6713866591453552,100.0,94192.0,0.0
510277.5310077,241833.09375,287750.03125,307988.71875,281600.78125,285549.1875,275136.03125,251471.703125,261014.828125,-0.081787109375,0.884033203125,-0.505126953125,-2.166747808456421,-2.532958745956421,-0.6713866591453552,100.0,94193.0,0.0
510277.5310079,241512.484375,287611.0,307776.75,281777.375,280899.84375,275320.21875,250499.40625,260648.078125,-0.07861328125,0.8466796875,-0.530517578125,0.8544921278953552,8.941649436950684,-2.563476324081421,100.0,94194.0,1.0
510277.5310096,241300.6875,288154.3125,308824.6875,283571.5,287566.1875,276762.8125,251891.296875,262402.0625,-0.08056640625,0.84375,-0.5322265625,1.0986326932907104,8.911131858825684,-2.929687261581421,100.0,94195.0,1.0
510277.5310112,241482.09375,288217.625,308997.78125,283668.59375,289886.9375,276686.09375,252246.515625,262736.46875,-0.080810546875,0.84326171875,-0.529052734375,1.2207030057907104,8.758543968200684,-3.112792730331421,100.0,94196.0,1.0
510277.5310131,241888.171875,287845.96875,308134.5625,281942.5,285023.125,275248.6875,251180.25,261238.34375,-0.0810546875,0.842529296875,-0.524658203125,1.1901854276657104,8.575438499450684,-3.112792730331421,100.0,94197.0,1.0
510277.5359295,241927.34375,287594.0,307545.1875,280997.46875,280688.03125,274602.90625,250375.84375,260196.9375,-0.08154296875,0.845458984375,-0.5234375,1.1596678495407104,8.605956077575684,-3.173827886581421,100.0,94198.0,1.0
510277.5359376,241627.828125,287926.5,308114.15625,282169.25,283470.90625,275706.0,251086.546875,261139.46875,-0.08056640625,0.84814453125,-0.523681640625,0.9460448622703552,8.636473655700684,-3.265380620956421,100.0,94199.0,1.0
510277.5383961,241339.671875,288316.25,309078.0625,283924.21875,290084.1875,277052.65625,252445.703125,262867.34375,-0.0830078125,0.851318359375,-0.5263671875,0.7934569716453552,8.514403343200684,-3.326415777206421,100.0,94200.0,1.0
510277.5510474,241395.0,288111.3125,309084.125,283913.21875,291965.90625,276781.3125,252666.8125,263091.40625,-0.0830078125,0.8515625,-0.5263671875,0.7019042372703552,8.300780296325684,-3.356933355331421,100.0,94201.0,1.0
510277.5535381,241713.46875,287519.34375,308086.09375,282124.53125,286682.40625,275193.53125,251465.71875,261500.21875,-0.08203125,0.853271484375,-0.52880859375,0.5493163466453552,8.270262718200684,-3.387450933456421,100.0,94202.0,1.0
510277.5535528,241763.1875,287247.90625,307445.9375,281105.75,281975.75,274488.90625,250576.125,260383.890625,-0.085205078125,0.8515625,-0.526611328125,0.3662109076976776,8.087157249450684,-3.417968511581421,100.0,94203.0,1.0
510277.5560378,241487.984375,287595.25,307968.0625,282167.375,284269.6875,275531.40625,251186.140625,261217.15625,-0.08935546875,0.855224609375,-0.524658203125,0.3051757514476776,7.904052257537842,-3.448486089706421,100.0,94204.0,1.0
510277.5647746,241252.40625,288078.40625,308968.0,283931.4375,290691.25,276936.15625,252534.21875,262934.9375,-0.08984375,0.857666015625,-0.52197265625,0.03051757626235485,7.629394054412842,-3.356933355331421,100.0,94205.0,1.0
510277.5672725,241346.8125,287978.46875,309037.5625,283969.90625,292666.5,276751.625,252800.390625,263207.4375,-0.093017578125,0.860107421875,-0.52099609375,-0.2136230319738388,7.324218273162842,-3.173827886581421,100.0,94206.0,1.0
510277.5747778,241674.140625,287411.09375,308054.09375,282179.96875,287347.875,275181.5625,251607.78125,261623.6875,-0.093994140625,0.86328125,-0.517333984375,-0.5493163466453552,7.110595226287842,-2.960204839706421,100.0,94207.0,1.0
510277.5773671,241703.8125,287110.84375,307383.0,281126.40625,282496.125,274447.53125,250684.03125,260469.0,-0.095947265625,0.864013671875,-0.51611328125,-1.0070799589157104,6.744384288787842,-2.685546636581421,100.0,94208.0,1.0
510277.577387,241389.109375,287398.375,307850.5,282128.75,284586.8125,275441.71875,251234.0625,261243.890625,-0.097900390625,0.865478515625,-0.51708984375,-1.4953612089157104,6.286620616912842,-2.532958745956421,100.0,94209.0,1.0
510277.579734,241131.796875,287844.53125,308814.65625,283860.65625,290846.53125,276821.375,252538.0625,262921.4375,-0.099365234375,0.8671875,-0.513671875,-1.8920897245407104,5.950927257537842,-2.441406011581421,100.0,94210.0,1.0
510277.5797551,241209.21875,287728.125,308863.40625,283878.875,292733.03125,276628.875,252777.328125,263170.96875,-0.100830078125,0.86572265625,-0.51416015625,-2.380370855331421,5.401610851287842,-2.197265386581421,100.0,94211.0,1.0
510277.5821197,241564.078125,287198.84375,307904.9375,282102.8125,287410.46875,275074.875,251585.34375,261587.84375,-0.10205078125,0.86376953125,-0.51611328125,-2.777099370956421,5.004882335662842,-2.014159917831421,100.0,94212.0,1.0
510277.5998576,241626.21875,286946.34375,307271.9375,281065.15625,282597.9375,274369.5625,250667.3125,260440.578125,-0.103271484375,0.861328125,-0.517822265625,-3.082275152206421,4.516601085662842,-1.9531248807907104,100.0,94213.0,1.0
510277.5999008,241341.71875,287301.65625,307790.34375,282100.5625,284813.8125,275422.0625,251268.9375,261259.453125,-0.10205078125,0.8583984375,-0.519775390625,-3.326415777206421,3.936767339706421,-1.7395018339157104,100.0,94214.0,1.0
510277.6022587,241081.09375,287765.5,308767.28125,283842.65625,291176.375,276820.65625,252585.546875,262951.3125,-0.100341796875,0.853271484375,-0.5224609375,-3.173827886581421,3.601073980331421,-1.2817381620407104,100.0,94215.0,1.0
510277.6022964,241188.296875,287681.09375,308853.5625,283891.84375,293148.3125,276655.96875,252848.125,263221.84375,-0.097412109375,0.85107421875,-0.5244140625,-3.112792730331421,3.143310308456421,-1.2207030057907104,100.0,94216.0,1.0
510277.6048374,241543.875,287155.1875,307902.28125,282102.4375,287855.625,275099.75,251657.859375,261630.671875,-0.10302734375,0.8486328125,-0.52587890625,-2.838134527206421,2.532958745956421,-1.2817381620407104,100.0,94217.0,1.0
510277.6071895,241602.15625,286895.65625,307264.4375,281052.625,283049.0,274393.15625,250746.625,260481.25,-0.098388671875,0.850830078125,-0.523681640625,-2.655029058456421,1.9836424589157104,-1.6479490995407104,100.0,94218.0,1.0
510277.6096915,241297.28125,287212.0625,307755.09375,282075.4375,285219.0,275426.15625,251325.34375,261282.609375,-0.09033203125,0.853271484375,-0.52001953125,-2.655029058456421,1.6784666776657104,-1.5563963651657104,100.0,94219.0,1.0
510277.6123862,241019.765625,287651.40625,308721.5,283829.875,291583.09375,276826.0,252639.359375,262982.15625,-0.084228515625,0.854248046875,-0.515380859375,-2.685546636581421,1.5563963651657104,-1.2512205839157104,100.0,94220.0,1.0
510277.6124275,241130.1875,287570.125,308830.3125,283930.125,293649.46875,276682.25,252929.578125,263296.40625,-0.08203125,0.855712890625,-0.51171875,-2.899169683456421,1.2512205839157104,-0.9155272841453552,100.0,94221.0,1.0
510277.6148207,241470.5625,287011.6875,307884.3125,282192.9375,288453.03125,275126.84375,251752.265625,261745.90625,-0.085205078125,0.857666015625,-0.50830078125,-3.204345464706421,1.1596678495407104,-0.9155272841453552,100.0,94222.0,1.0
510277.6198421,241484.328125,286665.6875,307213.46875,281173.6875,283683.78125,274387.4375,250829.59375,260620.28125,-0.084716796875,0.858642578125,-0.51611328125,-3.631591558456421,1.0070799589157104,-0.8850097060203552,100.0,94223.0,1.0
510277.6223459,241162.90625,286944.65625,307685.1875,282218.15625,285884.0,275403.09375,251401.96875,261436.65625,-0.0859375,0.861328125,-0.513916015625,-3.967284917831421,1.0681151151657104,-0.6713866591453552,100.0,94224.0,1.0
510277.6247979,240930.453125,287458.46875,308680.46875,283979.65625,292279.125,276825.21875,252734.21875,263149.4375,-0.089111328125,0.86181640625,-0.512939453125,-4.302978038787842,0.9460448622703552,-0.5798339247703552,100.0,94225.0,1.0
510277.6248366,241115.515625,287518.71875,308837.09375,284038.375,294327.59375,276722.03125,253041.25,263448.59375,-0.088134765625,0.8603515625,-0.51416015625,-4.669188976287842,0.7324218153953552,-0.6713866591453552,100.0,94226.0,1.0
510277.627309,241560.765625,287169.0625,307962.96875,282248.8125,289074.15625,275220.875,251882.359375,261860.171875,-0.084228515625,0.857666015625,-0.516845703125,-4.669188976287842,0.7934569716453552,-0.4882812201976776,100.0,94227.0,1.0
510277.6322037,241689.328125,287061.15625,307379.5,281180.75,284234.625,274539.59375,250973.71875,260685.375,-0.08056640625,0.85400390625,-0.52294921875,-4.547118663787842,0.7019042372703552,-0.3356933295726776,100.0,94228.0,1.0
510277.6387917,241459.5625,287527.65625,307929.90625,282184.78125,286354.125,275619.90625,251584.1875,261473.40625,-0.07470703125,0.86083984375,-0.52001953125,-3.936767339706421,0.6103515028953552,-0.2441406100988388,100.0,94229.0,1.0
510277.6494911,241238.359375,288077.78125,308932.9375,283889.78125,292602.78125,277037.46875,252904.1875,263131.375,-0.072265625,0.864990234375,-0.521484375,-3.784179449081421,0.4577636420726776,0.1831054538488388,100.0,94230.0,1.0
510277.6495314,241400.28125,288099.6875,309067.34375,283922.875,294486.5625,276898.875,253181.796875,263379.46875,-0.063720703125,0.87109375,-0.519287109375,-3.570556402206421,0.5798339247703552,0.6713866591453552,100.0,94231.0,1.0
510277.6873646,241828.1875,287694.3125,308183.09375,282150.1875,289100.25,275373.5,252010.390625,261781.765625,-0.06201171875,0.876953125,-0.517578125,-3.204345464706421,0.5187987685203552,1.2207030057907104,100.0,94232.0,1.0
510277.687406,241919.015625,287503.625,307567.53125,281082.40625,284153.375,274659.59375,251077.6875,260590.328125,-0.065673828125,0.8779296875,-0.514892578125,-3.387450933456421,0.5798339247703552,1.6784666776657104,100.0,94233.0,1.0
510277.6898596,241653.21875,287898.71875,308090.75,282079.28125,286239.40625,275724.6875,251675.828125,261381.046875,-0.07177734375,0.875,-0.51171875,-3.509521245956421,0.6103515028953552,1.8310545682907104,100.0,94234.0,1.0
510277.6973651,241386.328125,288380.34375,309059.46875,283765.34375,292488.9375,277130.8125,252984.125,263029.96875,-0.06689453125,0.876953125,-0.51123046875,-3.997802495956421,1.0375975370407104,1.8005369901657104,100.0,94235.0,1.0
510277.6974071,241515.34375,288346.625,309175.875,283804.9375,294417.71875,276981.65625,253254.9375,263287.375,-0.066162109375,0.89208984375,-0.502197265625,-4.364013195037842,1.5563963651657104,2.136230230331421,100.0,94236.0,1.0
510277.6998473,241908.5625,287872.6875,308256.84375,282038.4375,289025.78125,275419.46875,252068.40625,261690.84375,-0.077880859375,0.896240234375,-0.49169921875,-5.584716320037842,1.6479490995407104,2.380370855331421,100.0,94237.0,1.0
510277.702288,241974.984375,287617.0,307605.875,280966.96875,284010.21875,274674.0,251121.234375,260498.328125,-0.079345703125,0.891357421875,-0.4853515625,-6.896972179412842,1.2512205839157104,2.227782964706421,100.0,94238.0,1.0
510277.7048188,241633.984375,287886.71875,308040.65625,281888.0625,285922.46875,275666.03125,251647.9375,261221.984375,-0.077392578125,0.881103515625,-0.487060546875,-7.598876476287842,1.1291502714157104,2.410888433456421,100.0,94239.0,1.0
510277.7073487,241355.125,288318.75,308981.9375,283533.5,292021.8125,277056.9375,252935.125,262847.21875,-0.078857421875,0.861083984375,-0.49658203125,-7.720946788787842,1.4038084745407104,2.258300542831421,100.0,94240.0,1.0
510277.7097246,241478.328125,288249.8125,309075.90625,283566.40625,293783.9375,276886.1875,253174.109375,263081.03125,-0.0712890625,0.8525390625,-0.51123046875,-7.232665538787842,1.1901854276657104,2.075195074081421,100.0,94241.0,1.0
510277.7136999,241884.875,287779.96875,308160.75,281846.84375,288298.1875,275319.78125,251965.6875,261492.09375,-0.0673828125,0.85205078125,-0.52294921875,-6.744384288787842,1.2817381620407104,2.258300542831421,100.0,94242.0,1.0
510277.7137391,241962.03125,287548.5,307525.0625,280806.59375,283237.5625,274585.75,251012.96875,260317.09375,-0.065185546875,0.85595703125,-0.51611328125,-6.195067882537842,1.0986326932907104,2.380370855331421,100.0,94243.0,1.0
510277.7137493,241650.0,287872.78125,307992.5625,281738.46875,285154.375,275620.53125,251551.375,261047.828125,-0.0703125,0.852294921875,-0.514404296875,-6.042479991912842,0.8850097060203552,2.288818120956421,100.0,94244.0,1.0
510277.7159864,241375.515625,288320.875,308946.71875,283379.71875,291277.5625,277044.0,252847.953125,262671.71875,-0.07421875,0.845703125,-0.503173828125,-5.615233898162842,0.8850097060203552,1.6784666776657104,100.0,94245.0,1.0
510277.7185858,241466.171875,288218.25,309015.84375,283415.75,293050.25,276858.8125,253057.171875,262885.40625,-0.0703125,0.840087890625,-0.498779296875,-5.249022960662842,1.2207030057907104,1.1901854276657104,100.0,94246.0,1.0
510277.7186279,241860.109375,287743.21875,308099.9375,281747.15625,287641.3125,275304.9375,251855.796875,261329.71875,-0.072998046875,0.83935546875,-0.494384765625,-4.455565929412842,1.4648436307907104,1.0070799589157104,100.0,94247.0,1.0
510277.7211564,241943.421875,287520.59375,307473.65625,280743.90625,282693.96875,274609.0625,250925.25,260184.421875,-0.063720703125,0.852294921875,-0.493896484375,-3.723144292831421,1.6784666776657104,0.6103515028953552,100.0,94248.0,1.0
510277.7211972,241620.046875,287833.96875,307929.09375,281638.96875,284659.40625,275656.21875,251469.65625,260908.078125,-0.05712890625,0.85791015625,-0.500732421875,-3.448486089706421,1.8615721464157104,0.3967284858226776,100.0,94249.0,1.0
510277.7236174,241316.6875,288248.125,308849.28125,283214.9375,290745.96875,277037.625,252719.109375,262472.15625,-0.0556640625,0.863037109375,-0.4970703125,-3.021239995956421,2.288818120956421,0.3356933295726776,100.0,94250.0,1.0
510277.7236578,241432.296875,288170.875,308948.6875,283293.4375,292556.09375,276841.9375,252948.359375,262712.40625,-0.047119140625,0.8828125,-0.49609375,-3.112792730331421,2.410888433456421,0.3051757514476776,100.0,94251.0,1.0
510277.7260214,241843.203125,287688.0625,308053.90625,281708.53125,287107.625,275186.46875,251738.140625,261197.21875,-0.040771484375,0.89599609375,-0.5,-3.265380620956421,2.777099370956421,0.5187987685203552,100.0,94252.0,1.0
510277.7299504,241925.015625,287453.375,307435.90625,280756.34375,282118.90625,274403.25,250791.328125,260091.265625,-0.044677734375,0.904541015625,-0.490966796875,-3.631591558456421,3.082275152206421,0.8239745497703552,100.0,94253.0,1.0
510277.7299917,241613.25,287782.5625,307912.09375,281662.21875,284136.09375,275463.1875,251336.796875,260837.625,-0.056396484375,0.892333984375,-0.487548828125,-4.455565929412842,3.173827886581421,1.1901854276657104,100.0,94254.0,1.0
510277.7300018,241343.328125,288252.40625,308882.15625,283260.625,290372.6875,276935.71875,252642.140625,262461.875,-0.0625,0.87060546875,-0.490478515625,-4.821776866912842,3.540038824081421,1.2817381620407104,100.0,94255.0,1.0
510277.7300115,241485.84375,288230.75,309028.0,283401.8125,292417.0625,276844.96875,252950.0625,262781.59375,-0.073486328125,0.855224609375,-0.495849609375,-4.577636241912842,3.906249761581421,1.4648436307907104,100.0,94256.0,1.0
510277.7324078,241933.140625,287841.75,308212.59375,281948.75,287479.3125,275390.9375,251878.515625,261405.8125,-0.07421875,0.858154296875,-0.5,-3.845214605331421,3.814697027206421,1.0681151151657104,100.0,94257.0,1.0
510277.7324484,242059.921875,287715.0625,307696.0,281132.46875,283184.1875,274814.8125,251117.296875,260474.1875,-0.058837890625,0.878173828125,-0.496826171875,-3.601073980331421,3.723144292831421,0.9765624403953552,100.0,94258.0,1.0
510277.7348484,241759.875,288175.78125,308302.1875,282195.25,286277.03125,276090.375,251876.359375,261422.96875,-0.0556640625,0.87548828125,-0.48583984375,-3.997802495956421,3.784179449081421,1.4953612089157104,100.0,94259.0,1.0
510277.7398539,241512.671875,288776.59375,309419.0625,283963.90625,293761.3125,277740.5625,253431.25,263265.375,-0.04931640625,0.863525390625,-0.486083984375,-4.241942882537842,3.875732183456421,1.8310545682907104,100.0,94260.0,1.0
510277.7425667,241623.625,288657.3125,309507.40625,284053.21875,295971.0,277485.65625,253744.96875,263568.5625,-0.052490234375,0.845947265625,-0.488525390625,-3.753661870956421,4.211425304412842,2.014159917831421,100.0,94261.0,1.0
510277.7448773,242035.703125,288143.59375,308590.78125,282528.46875,290777.96875,275814.5625,252595.640625,262117.9375,-0.0419921875,0.853515625,-0.4912109375,-2.807616949081421,4.547118663787842,2.014159917831421,100.0,94262.0,1.0
510277.7472488,242093.8125,287872.59375,307926.0625,281561.28125,285978.4375,275022.03125,251686.828125,261032.796875,-0.033935546875,0.869140625,-0.501708984375,-2.166747808456421,4.913329601287842,2.593993902206421,100.0,94263.0,1.0
510277.7472823,241755.859375,288155.5625,308348.0625,282377.125,287972.28125,276024.46875,252221.03125,261727.140625,-0.0400390625,0.873291015625,-0.5048828125,-1.8920897245407104,5.310058116912842,3.112792730331421,100.0,94264.0,1.0
510277.7498243,241459.109375,288576.0625,309272.53125,283893.90625,294082.1875,277411.96875,253478.265625,263269.40625,-0.04345703125,0.86767578125,-0.505126953125,-1.7700194120407104,5.371093273162842,3.112792730331421,100.0,94265.0,1.0
510277.754864,241589.46875,288518.46875,309405.03125,284042.6875,296082.21875,277237.90625,253760.171875,263571.78125,-0.041259765625,0.866455078125,-0.498046875,-1.3122557401657104,5.493163585662842,3.173827886581421,100.0,94266.0,1.0
510277.7549038,242013.875,288078.78125,308558.875,282614.5,291108.15625,275664.71875,252667.703125,262210.03125,-0.0302734375,0.881103515625,-0.493896484375,-0.9765624403953552,6.103515148162842,3.540038824081421,100.0,94267.0,1.0
510277.7573038,242097.828125,287884.21875,307969.3125,281733.8125,286638.15625,274968.59375,251832.46875,261217.25,-0.037841796875,0.87451171875,-0.498046875,-1.2817381620407104,6.744384288787842,3.784179449081421,100.0,94268.0,1.0
510277.7573385,241781.78125,288238.53125,308458.75,282585.53125,288978.3125,276068.8125,252433.109375,261973.0,-0.04296875,0.865478515625,-0.49951171875,-1.0681151151657104,7.324218273162842,3.723144292831421,100.0,94269.0,1.0
510277.7597057,241510.25,288722.6875,309442.21875,284116.25,295393.53125,277545.28125,253768.9375,263564.1875,-0.04248046875,0.853515625,-0.49658203125,-0.7019042372703552,7.263183116912842,3.509521245956421,100.0,94270.0,1.0
510277.76365,241651.34375,288688.0,309599.03125,284272.09375,297578.71875,277406.96875,254102.328125,263893.75,-0.042724609375,0.843505859375,-0.505615234375,-0.7019042372703552,7.171630382537842,3.570556402206421,100.0,94271.0,1.0
510277.7636893,242077.890625,288239.96875,308753.0625,282847.65625,292695.9375,275829.125,253037.671875,262546.09375,-0.0458984375,0.8583984375,-0.509521484375,0.0,7.476806163787842,3.723144292831421,100.0,94272.0,1.0
510277.7636992,242164.984375,288020.84375,308145.90625,281924.34375,288165.40625,275111.0,252192.59375,261526.328125,-0.05615234375,0.845703125,-0.515869140625,0.3967284858226776,7.537841320037842,3.173827886581421,100.0,94273.0,1.0
510277.7721764,241811.734375,288322.75,308568.53125,282661.4375,290298.5625,276170.65625,252729.046875,262181.15625,-0.055908203125,0.84130859375,-0.515625,1.3427733182907104,7.415771007537842,2.441406011581421,100.0,94274.0,1.0
510277.7764768,241509.8125,288767.28125,309500.96875,284101.3125,296514.9375,277631.65625,254000.40625,263676.9375,-0.055908203125,0.834228515625,-0.51025390625,2.105712652206421,7.476806163787842,2.227782964706421,100.0,94275.0,1.0
510277.8023513,241634.53125,288709.09375,309635.25,284217.09375,298600.0,277482.875,254303.046875,263953.90625,-0.0556640625,0.840576171875,-0.50048828125,2.655029058456421,7.232665538787842,2.380370855331421,100.0,94276.0,1.0
510277.8023927,242041.953125,288226.46875,308762.4375,282774.0,293647.5625,275862.90625,253218.28125,262576.0625,-0.055908203125,0.849365234375,-0.500244140625,2.838134527206421,7.080077648162842,2.349853277206421,100.0,94277.0,1.0
510277.8072444,242136.546875,288017.34375,308158.5,281852.65625,289132.15625,275154.28125,252395.28125,261563.96875,-0.05908203125,0.853759765625,-0.496337890625,3.051757574081421,7.202147960662842,2.197265386581421,100.0,94278.0,1.0
510277.8097106,241839.09375,288390.8125,308640.6875,282631.46875,291412.75,276316.84375,253001.109375,262269.03125,-0.063720703125,0.859375,-0.502685546875,2.746581792831421,7.324218273162842,2.105712652206421,100.0,94279.0,1.0
510277.8124117,241559.421875,288882.8125,309604.40625,284084.34375,297792.5625,277851.5,254308.859375,263778.03125,-0.06396484375,0.85791015625,-0.506591796875,2.685546636581421,7.324218273162842,2.105712652206421,100.0,94280.0,1.0
510277.8124507,241692.90625,288844.28125,309753.15625,284221.03125,300009.6875,277727.21875,254635.375,264075.9375,-0.066162109375,0.859375,-0.507568359375,2.563476324081421,7.263183116912842,2.288818120956421,100.0,94281.0,1.0
510277.8146938,242110.703125,288350.46875,308876.8125,282795.1875,295065.40625,276075.15625,253541.578125,262699.0,-0.07470703125,0.8310546875,-0.510498046875,2.899169683456421,6.683349132537842,2.166747808456421,100.0,94282.0,1.0
510277.8198187,242190.734375,288095.75,308223.875,281831.8125,290348.09375,275290.34375,252662.609375,261638.171875,-0.070068359375,0.85107421875,-0.517578125,3.753661870956421,6.256103038787842,2.075195074081421,100.0,94283.0,1.0
510277.8223574,241857.328125,288410.375,308627.0,282514.71875,292273.65625,276370.5625,253173.484375,262243.09375,-0.0654296875,0.885986328125,-0.517578125,3.906249761581421,6.072997570037842,1.9226073026657104,100.0,94284.0,1.0
510277.8247335,241560.59375,288861.25,309536.53125,283893.8125,298244.625,277857.15625,254391.03125,263659.75,-0.070068359375,0.888671875,-0.5185546875,3.356933355331421,5.950927257537842,1.9226073026657104,100.0,94285.0,1.0
510277.8271932,241680.578125,288782.59375,309647.03125,284000.21875,300075.21875,277659.0,254630.90625,263890.25,-0.078125,0.8818359375,-0.519775390625,3.143310308456421,5.493163585662842,1.6174315214157104,100.0,94286.0,1.0
510277.8322229,242093.90625,288278.59375,308761.75,282606.0,294917.34375,275956.625,253503.3125,262519.90625,-0.078857421875,0.866455078125,-0.52392578125,3.051757574081421,5.004882335662842,1.0070799589157104,100.0,94287.0,1.0
510277.837197,242152.828125,288023.25,308110.21875,281661.78125,290145.875,275161.0625,252607.453125,261464.015625,-0.0810546875,0.85693359375,-0.519287109375,3.540038824081421,4.699706554412842,0.4272460639476776,100.0,94288.0,1.0
510277.8425425,241817.71875,288362.71875,308534.1875,282343.3125,292051.40625,276271.5,253110.625,262063.3125,-0.078857421875,0.856689453125,-0.516357421875,3.784179449081421,4.302978038787842,-0.1831054538488388,100.0,94289.0,1.0
510277.8448465,241534.390625,288857.78125,309482.8125,283724.125,298005.8125,277792.5,254333.890625,263477.28125,-0.069580078125,0.861328125,-0.51318359375,3.875732183456421,4.058837413787842,-0.6103515028953552,100.0,94290.0,1.0
510277.8471903,241682.359375,288824.4375,309644.625,283877.8125,299851.625,277621.375,254590.671875,263733.0625,-0.06640625,0.86181640625,-0.513427734375,3.723144292831421,3.814697027206421,-0.8239745497703552,100.0,94291.0,1.0
510277.8496957,242102.125,288330.90625,308786.40625,282529.5625,294725.03125,275911.90625,253459.140625,262382.5,-0.0703125,0.8564453125,-0.510009765625,3.570556402206421,3.662109136581421,-0.9155272841453552,100.0,94292.0,1.0
510277.8522309,242179.015625,288092.0,308152.4375,281607.3125,289956.40625,275120.9375,252558.0,261339.109375,-0.07666015625,0.849853515625,-0.510986328125,3.662109136581421,3.265380620956421,-0.9155272841453552,100.0,94293.0,1.0
510277.8548794,241887.109375,288497.03125,308613.78125,282298.78125,291834.125,276281.875,253080.671875,261953.34375,-0.072509765625,0.86572265625,-0.5068359375,3.265380620956421,3.051757574081421,-1.1596678495407104,100.0,94294.0,1.0
510277.8549206,241610.296875,289002.09375,309565.875,283683.53125,297712.09375,277832.8125,254310.296875,263372.6875,-0.06396484375,0.86865234375,-0.509033203125,2.380370855331421,3.112792730331421,-1.0986326932907104,100.0,94295.0,1.0
510277.8573516,241662.875,288827.90625,309639.90625,283812.53125,299453.3125,277591.34375,254518.609375,263603.34375,-0.06494140625,0.844482421875,-0.517822265625,1.8005369901657104,3.448486089706421,-0.4272460639476776,100.0,94296.0,1.0
510277.8573927,242049.640625,288265.46875,308736.15625,282473.75,294283.15625,275833.15625,253371.609375,262261.34375,-0.07275390625,0.84765625,-0.528076171875,1.8920897245407104,3.967284917831421,0.0,100.0,94297.0,1.0
510277.8596928,242140.75,288031.21875,308101.1875,281576.46875,289495.6875,275044.5625,252473.15625,261238.625,-0.082275390625,0.851806640625,-0.531005859375,2.136230230331421,4.089354991912842,-0.3051757514476776,100.0,94298.0,1.0
510277.8622222,241834.078125,288415.21875,308537.9375,282249.25,291282.9375,276194.96875,252959.890625,261826.46875,-0.08984375,0.87060546875,-0.531494140625,2.227782964706421,3.814697027206421,-0.5798339247703552,100.0,94299.0,1.0
510277.878538,241575.515625,288948.0,309489.6875,283605.84375,297036.8125,277750.84375,254156.25,263212.0,-0.0869140625,0.885009765625,-0.5302734375,1.7700194120407104,3.692626714706421,-0.6408690810203552,100.0,94300.0,1.0
510277.8834998,241779.09375,288964.09375,309701.6875,283835.34375,298834.6875,277629.34375,254470.6875,263535.3125,-0.094970703125,0.875,-0.525146484375,0.9460448622703552,3.723144292831421,-0.5798339247703552,100.0,94301.0,1.0
510277.8835389,242214.59375,288453.3125,308859.375,282573.71875,293755.125,275920.0625,253382.78125,262265.1875,-0.107177734375,0.857177734375,-0.51708984375,0.2746581733226776,3.295898199081421,-0.7019042372703552,100.0,94302.0,1.0
510277.8885783,242241.421875,288132.25,308164.21875,281645.9375,288939.0625,275078.28125,252440.25,261219.671875,-0.1123046875,0.846923828125,-0.515869140625,-0.4577636420726776,2.441406011581421,-0.7934569716453552,100.0,94303.0,1.0
510277.8911869,241918.21875,288492.8125,308581.3125,282299.25,290674.34375,276226.53125,252913.671875,261806.359375,-0.10546875,0.86279296875,-0.519287109375,-0.6103515028953552,1.4038084745407104,-0.6408690810203552,100.0,94304.0,1.0
510277.8912286,241649.546875,289017.53125,309521.4375,283629.15625,296355.34375,277766.75,254072.296875,263170.34375,-0.092529296875,0.876953125,-0.5205078125,-1.1596678495407104,1.0986326932907104,-0.7324218153953552,100.0,94305.0,1.0
510277.8949292,241807.53125,288993.40625,309693.8125,283813.0625,298092.90625,277597.40625,254319.953125,263436.25,-0.090576171875,0.88525390625,-0.520263671875,-1.9836424589157104,1.2817381620407104,-0.7019042372703552,100.0,94306.0,1.0
510277.8949685,242225.234375,288469.46875,308836.40625,282540.71875,293042.1875,275862.03125,253218.8125,262160.84375,-0.09765625,0.86865234375,-0.5234375,-2.349853277206421,1.3427733182907104,-0.4882812201976776,100.0,94307.0,1.0
510277.8949793,242300.078125,288203.5,308183.0,281648.09375,288277.53125,275055.125,252319.640625,261160.484375,-0.0947265625,0.87158203125,-0.5283203125,-2.227782964706421,0.9765624403953552,-0.4272460639476776,100.0,94308.0,1.0
510277.8973227,241995.375,288574.90625,308610.8125,282298.25,289954.53125,276189.34375,252793.59375,261739.921875,-0.08447265625,0.878173828125,-0.53564453125,-2.349853277206421,0.8850097060203552,-0.3051757514476776,100.0,94309.0,1.0
510277.902197,241720.984375,289091.03125,309554.40625,283630.6875,295574.84375,277706.65625,253937.015625,263089.25,-0.0810546875,0.880126953125,-0.53759765625,-2.593993902206421,1.0986326932907104,0.0610351525247097,100.0,94310.0,1.0
510277.9048603,241849.28125,289031.5,309716.4375,283830.59375,297339.28125,277515.875,254174.125,263370.34375,-0.088134765625,0.8828125,-0.53173828125,-3.051757574081421,1.3122557401657104,-0.03051757626235485,100.0,94311.0,1.0
510277.9048999,242212.015625,288417.1875,308815.75,282555.65625,292294.75,275739.09375,253050.734375,262088.4375,-0.098388671875,0.889892578125,-0.52685546875,-4.486083507537842,1.6174315214157104,-0.7019042372703552,100.0,94312.0,1.0
510277.9073186,242234.09375,288059.46875,308102.1875,281609.28125,287395.25,274869.34375,252121.96875,261056.046875,-0.10693359375,0.843017578125,-0.52392578125,-4.699706554412842,0.7934569716453552,-0.7019042372703552,100.0,94313.0,1.0
510277.9096977,241882.453125,288358.875,308451.0625,282160.21875,288749.0625,275911.75,252520.453125,261545.1875,-0.078857421875,0.841064453125,-0.522216796875,-3.723144292831421,-0.0915527269244194,-0.3967284858226776,100.0,94314.0,1.0
510277.9122303,241559.96875,288796.96875,309313.125,283400.09375,293961.75,277335.53125,253586.1875,262802.625,-0.0654296875,0.854248046875,-0.525146484375,-2.807616949081421,0.4577636420726776,0.0,100.0,94315.0,1.0
510277.9148381,241672.53125,288681.375,309428.71875,283562.8125,295370.1875,277099.15625,253760.625,263034.28125,-0.06103515625,0.901123046875,-0.52099609375,-2.593993902206421,0.9765624403953552,0.3967284858226776,100.0,94316.0,1.0
510277.9172409,242057.25,288085.46875,308535.34375,282317.46875,290215.40625,275358.40625,252636.0625,261782.578125,-0.0556640625,0.921630859375,-0.52685546875,-4.089354991912842,1.5258787870407104,0.9765624403953552,100.0,94317.0,1.0
510277.917275,242083.984375,287740.8125,307819.03125,281389.34375,285293.75,274507.25,251689.953125,260756.625,-0.060302734375,0.911376953125,-0.533203125,-5.584716320037842,2.319335699081421,1.6479490995407104,100.0,94318.0,1.0
510277.9198235,241746.203125,288064.28125,308177.28125,281943.40625,286566.90625,275550.0,252062.953125,261248.8125,-0.064697265625,0.894287109375,-0.535888671875,-6.286620616912842,3.051757574081421,1.9531248807907104,100.0,94319.0,1.0
510277.9486048,241493.53125,288591.78125,309104.0625,283219.5,291710.5,276998.84375,253137.0,262529.84375,-0.071044921875,0.87939453125,-0.52880859375,-7.019042491912842,3.448486089706421,2.471923589706421,100.0,94320.0,1.0
510277.9524661,241686.828125,288588.5625,309305.0625,283445.0625,293189.46875,276817.0625,253345.0625,262800.5625,-0.07763671875,0.856201171875,-0.533203125,-7.354735851287842,3.570556402206421,2.868652105331421,100.0,94321.0,1.0
510277.9525069,242132.703125,288087.1875,308478.0625,282242.71875,288189.5625,275130.40625,252243.734375,261574.96875,-0.0888671875,0.83203125,-0.533203125,-6.805419445037842,3.601073980331421,3.204345464706421,100.0,94322.0,1.0
510277.952516,242220.859375,287851.40625,307822.0625,281330.78125,283402.15625,274313.125,251323.203125,260563.15625,-0.08642578125,0.83154296875,-0.527099609375,-5.828856945037842,3.112792730331421,3.204345464706421,100.0,94323.0,1.0
510277.9525258,241893.546875,288200.09375,308211.15625,281909.96875,284717.34375,275359.75,251719.90625,261070.625,-0.09130859375,0.81884765625,-0.526123046875,-4.913329601287842,3.051757574081421,3.051757574081421,100.0,94324.0,1.0
510277.9573775,241541.1875,288591.78125,309081.71875,283192.9375,289838.5625,276767.90625,252774.1875,262349.84375,-0.09375,0.824951171875,-0.518798828125,-3.692626714706421,3.173827886581421,2.593993902206421,100.0,94325.0,1.0
510277.9574193,241595.375,288407.875,309181.5,283391.53125,291334.09375,276526.3125,252938.703125,262599.46875,-0.09228515625,0.842529296875,-0.510498046875,-3.631591558456421,3.265380620956421,2.258300542831421,100.0,94326.0,1.0
510277.9623308,242005.5625,287855.875,308337.6875,282216.34375,286508.25,274865.9375,251885.671875,261424.5,-0.080322265625,0.8681640625,-0.499755859375,-4.058837413787842,3.387450933456421,2.227782964706421,100.0,94327.0,1.0
510277.9648485,242103.921875,287604.65625,307690.90625,281345.90625,281865.71875,274078.28125,251011.984375,260470.078125,-0.08154296875,0.864501953125,-0.495849609375,-5.126952648162842,3.173827886581421,2.532958745956421,100.0,94328.0,1.0
510277.9672262,241777.3125,287953.59375,308063.75,281898.6875,283207.625,275089.09375,251396.078125,260965.390625,-0.080078125,0.8515625,-0.50048828125,-5.462646007537842,2.929687261581421,2.899169683456421,100.0,94329.0,1.0
510277.9935124,241505.96875,288459.75,308986.40625,283175.875,288362.90625,276491.4375,252463.234375,262244.90625,-0.066162109375,0.87939453125,-0.501953125,-5.432128429412842,3.204345464706421,2.868652105331421,100.0,94330.0,1.0
510277.9935518,241671.90625,288433.09375,309187.125,283426.9375,290046.0,276315.21875,252688.09375,262548.96875,-0.068603515625,0.8984375,-0.503173828125,-6.439208507537842,3.540038824081421,3.326415777206421,100.0,94331.0,1.0
510277.9996958,242106.953125,287926.15625,308384.71875,282289.9375,285519.21875,274718.78125,251674.390625,261420.03125,-0.089599609375,0.855712890625,-0.510498046875,-6.805419445037842,3.173827886581421,3.356933355331421,100.0,94332.0,1.0
510277.9997342,242193.859375,287669.90625,307751.15625,281448.0,281178.25,273982.40625,250854.890625,260509.140625,-0.076416015625,0.85986328125,-0.515380859375,-6.195067882537842,3.021239995956421,2.685546636581421,100.0,94333.0,1.0
510277.999743,241883.4375,288030.3125,308146.4375,282024.40625,282710.15625,275013.71875,251287.890625,261039.15625,-0.065673828125,0.87353515625,-0.510986328125,-5.523681163787842,3.204345464706421,2.471923589706421,100.0,94334.0,1.0
510277.9997514,241580.34375,288506.3125,309043.90625,283277.4375,287937.5,276368.34375,252335.734375,262286.90625,-0.070068359375,0.853759765625,-0.507080078125,-5.249022960662842,3.021239995956421,2.471923589706421,100.0,94335.0,1.0
510277.9997606,241703.1875,288439.71875,309230.6875,283530.0,289735.21875,276195.6875,252571.421875,262590.09375,-0.058349609375,0.85205078125,-0.49609375,-4.577636241912842,2.838134527206421,2.349853277206421,100.0,94336.0,1.0
510278.004856,242108.46875,287899.5,308423.34375,282418.0625,285377.6875,274653.15625,251606.71875,261494.859375,-0.048583984375,0.875,-0.482177734375,-4.089354991912842,3.204345464706421,2.624511480331421,100.0,94337.0,1.0
510278.0048971,242137.984375,287567.375,307741.34375,281553.0625,281104.84375,273908.40625,250790.875,260584.34375,-0.042724609375,0.91064453125,-0.46875,-4.608153820037842,3.662109136581421,3.295898199081421,100.0,94338.0,1.0
510278.006294,241737.53125,287805.375,308047.09375,282069.28125,282567.625,274863.09375,251173.53125,261070.4375,-0.049560546875,0.907958984375,-0.466064453125,-6.042479991912842,3.845214605331421,3.875732183456421,100.0,94339.0,1.0
510278.0502122,241398.40625,288212.875,308899.59375,283296.125,287734.90625,276183.875,252200.46875,262308.8125,-0.050537109375,0.9072265625,-0.46337890625,-6.927489757537842,4.089354991912842,4.364013195037842,100.0,94340.0,1.0
510278.0548636,241509.359375,288121.5,309056.15625,283516.15625,289517.6875,276001.15625,252405.125,262587.3125,-0.05712890625,0.909912109375,-0.458984375,-7.812499523162842,4.455565929412842,4.821776866912842,100.0,94341.0,1.0
510278.0571816,241964.078125,287649.625,308284.9375,282418.96875,285290.25,274512.15625,251457.859375,261515.78125,-0.0830078125,0.869873046875,-0.475830078125,-8.514403343200684,4.272460460662842,4.669188976287842,100.0,94342.0,1.0
510278.05971,242044.640625,287399.625,307636.375,281545.09375,281125.875,273799.59375,250650.0625,260602.671875,-0.083740234375,0.849609375,-0.482666015625,-8.056639671325684,3.906249761581421,3.997802495956421,100.0,94343.0,1.0
510278.0621785,241692.828125,287711.125,307968.6875,282033.6875,282577.46875,274751.21875,251028.96875,261061.765625,-0.070556640625,0.862548828125,-0.4853515625,-7.171630382537842,4.028319835662842,4.028319835662842,100.0,94344.0,1.0
510278.0671709,241383.921875,288166.40625,308842.28125,283243.5625,287671.78125,276056.5,252040.875,262270.28125,-0.0703125,0.870849609375,-0.482421875,-6.683349132537842,3.997802495956421,4.241942882537842,100.0,94345.0,1.0
510278.0698236,241529.203125,288129.125,309042.21875,283494.15625,289480.6875,275917.71875,252282.453125,262580.15625,-0.0693359375,0.882080078125,-0.485595703125,-6.591796398162842,3.479003667831421,4.241942882537842,100.0,94346.0,1.0
510278.0723599,241980.09375,287653.1875,308271.15625,282389.625,285247.96875,274463.15625,251345.734375,261502.09375,-0.072509765625,0.878173828125,-0.486328125,-6.225585460662842,3.143310308456421,4.272460460662842,100.0,94347.0,1.0
510278.0771828,242042.140625,287365.5625,307595.875,281495.125,280998.1875,273748.4375,250531.328125,260566.015625,-0.06298828125,0.89111328125,-0.481689453125,-6.134032726287842,2.990722417831421,4.211425304412842,100.0,94348.0,1.0
510278.0789098,241655.984375,287625.5625,307880.4375,281953.0625,282291.0,274659.84375,250878.3125,260983.71875,-0.0634765625,0.869873046875,-0.487060546875,-5.737304210662842,3.021239995956421,4.333495616912842,100.0,94349.0,1.0
510278.0860444,241328.046875,288046.3125,308724.625,283149.0625,287214.9375,275927.46875,251863.140625,262164.59375,-0.062255859375,0.83740234375,-0.490478515625,-4.638671398162842,2.990722417831421,4.333495616912842,100.0,94350.0,1.0
510278.0860845,241451.875,287976.40625,308902.375,283388.125,288908.5625,275762.5,252080.296875,262453.125,-0.061767578125,0.822021484375,-0.48876953125,-3.082275152206421,2.929687261581421,4.333495616912842,100.0,94351.0,1.0
510278.0884722,241882.0,287473.5,308110.75,282276.875,284646.875,274291.3125,251128.75,261362.359375,-0.066162109375,0.82763671875,-0.486083984375,-1.6784666776657104,2.746581792831421,4.241942882537842,100.0,94352.0,1.0
510278.0910722,241923.21875,287146.0,307405.96875,281360.28125,280333.625,273543.0,250292.875,260407.578125,-0.072509765625,0.841552734375,-0.484619140625,-0.8850097060203552,2.288818120956421,3.723144292831421,100.0,94353.0,1.0
510278.0934479,241536.453125,287381.21875,307680.8125,281811.625,281507.625,274421.5,250623.234375,260816.96875,-0.068359375,0.850341796875,-0.487548828125,-0.1525878757238388,1.8920897245407104,2.990722417831421,100.0,94354.0,1.0
510278.0973104,241196.25,287776.125,308507.1875,282987.84375,286278.75,275642.09375,251581.328125,261974.609375,-0.06298828125,0.850341796875,-0.48828125,0.6103515028953552,1.6784666776657104,2.716064214706421,100.0,94355.0,1.0
510278.0973539,241336.171875,287711.3125,308685.84375,283223.71875,287818.59375,275446.90625,251770.78125,262244.0,-0.060546875,0.8466796875,-0.489990234375,1.4038084745407104,1.4343260526657104,2.441406011581421,100.0,94356.0,1.0
510278.0973646,241780.625,287201.15625,307883.75,282088.15625,283340.03125,273923.875,250772.453125,261121.046875,-0.056396484375,0.841796875,-0.491455078125,2.197265386581421,1.0070799589157104,2.044677495956421,100.0,94357.0,1.0
510278.099698,241835.96875,286855.0625,307157.96875,281134.09375,278709.28125,273101.21875,249871.765625,260112.890625,-0.052734375,0.838623046875,-0.494873046875,2.899169683456421,1.0681151151657104,1.8005369901657104,100.0,94358.0,1.0
510278.1020699,241441.40625,287040.75,307382.0,281521.3125,279454.40625,273865.75,250100.390625,260433.6875,-0.052978515625,0.832275390625,-0.498046875,3.692626714706421,1.1291502714157104,1.5563963651657104,100.0,94359.0,1.0
510278.1045978,241107.03125,287407.9375,308180.9375,282668.03125,283849.09375,275011.3125,250974.421875,261532.765625,-0.056396484375,0.82958984375,-0.498291015625,4.486083507537842,1.0986326932907104,1.1901854276657104,100.0,94360.0,1.0
510278.1072784,241259.46875,287338.65625,308355.03125,282905.0625,285166.53125,274825.96875,251121.5,261781.671875,-0.056640625,0.830078125,-0.505126953125,5.432128429412842,1.1596678495407104,0.8239745497703552,100.0,94361.0,1.0
510278.1097595,241707.21875,286830.65625,307549.8125,281778.96875,280622.5,273382.3125,250111.203125,260657.921875,-0.05810546875,0.8310546875,-0.5068359375,6.408690929412842,1.0375975370407104,0.4577636420726776,100.0,94362.0,1.0
510278.1173136,241745.390625,286492.4375,306813.125,280820.53125,276026.09375,272663.84375,249215.96875,259656.296875,-0.060791015625,0.82958984375,-0.508544921875,7.354735851287842,0.9155272841453552,0.1220703050494194,100.0,94363.0,1.0
510278.1173273,241337.25,286685.375,307029.5625,281199.625,276807.9375,273504.53125,249450.578125,259978.421875,-0.064697265625,0.83251953125,-0.508056640625,8.453368186950684,0.4272460639476776,-0.2441406100988388,100.0,94364.0,1.0
510278.1197872,241017.0,287082.0625,307850.21875,282366.375,281234.21875,274715.46875,250344.109375,261094.578125,-0.061767578125,0.833984375,-0.511474609375,9.552000999450684,-0.3662109076976776,-0.6713866591453552,100.0,94365.0,1.0
510278.1223126,241173.359375,287047.46875,308051.40625,282624.9375,282664.09375,274604.15625,250520.234375,261370.3125,-0.05810546875,0.83935546875,-0.515869140625,10.650633811950684,-0.6408690810203552,-1.0986326932907104,100.0,94366.0,1.0
510278.1247161,241638.015625,286620.46875,307304.21875,281540.875,278416.125,273289.96875,249592.203125,260315.484375,-0.056884765625,0.84326171875,-0.5205078125,11.718749046325684,-0.7934569716453552,-1.5258787870407104,100.0,94367.0,1.0
510278.1272721,241711.953125,286365.125,306629.90625,280626.875,274124.84375,272664.21875,248780.109375,259376.359375,-0.050537109375,0.849609375,-0.526123046875,12.542723655700684,-0.9765624403953552,-2.044677495956421,100.0,94368.0,1.0
510278.1272883,241338.234375,286623.75,306894.28125,281029.9375,275115.5625,273534.5,249072.75,259734.078125,-0.044189453125,0.848876953125,-0.530029296875,12.969969749450684,-0.5798339247703552,-2.593993902206421,100.0,94369.0,1.0
510278.1296807,241031.203125,287056.6875,307737.75,282192.5625,279686.59375,274735.6875,249984.6875,260852.65625,-0.040771484375,0.852294921875,-0.529296875,13.641356468200684,-0.4272460639476776,-2.593993902206421,100.0,94370.0,1.0
510278.1296977,241202.25,287048.53125,307968.4375,282477.96875,281270.625,274645.1875,250199.359375,261150.828125,-0.027587890625,0.86767578125,-0.526611328125,13.854979515075684,-0.2136230319738388,-2.532958745956421,100.0,94371.0,1.0
510278.1433639,241646.859375,286582.375,307198.1875,281400.25,277064.5625,273317.5,249279.890625,260094.828125,-0.015625,0.894287109375,-0.51611328125,13.397215843200684,0.3356933295726776,-1.9531248807907104,100.0,94372.0,1.0
510278.1460018,241692.203125,286288.40625,306499.90625,280492.3125,272813.5,272689.59375,248479.171875,259166.078125,0.00341796875,0.91943359375,-0.515869140625,11.932372093200684,1.0375975370407104,-0.7629393935203552,100.0,94373.0,1.0
510278.1460251,241292.546875,286531.59375,306764.9375,280921.84375,273922.53125,273571.40625,248783.515625,259546.0625,0.011474609375,0.924560546875,-0.524169921875,9.918211936950684,2.624511480331421,0.5493163466453552,100.0,94374.0,1.0
510278.1485442,240986.5,287007.40625,307665.59375,282164.21875,278780.28125,274849.84375,249787.90625,260766.453125,0.0009765625,0.912353515625,-0.529296875,8.178709983825684,4.119872570037842,1.6174315214157104,100.0,94375.0,1.0
510278.1485664,241154.859375,287059.53125,307951.8125,282524.71875,280828.40625,274858.34375,250101.28125,261172.8125,-0.001220703125,0.896240234375,-0.53564453125,7.202147960662842,4.547118663787842,2.349853277206421,100.0,94376.0,1.0
510278.1684476,241603.421875,286675.25,307248.71875,281521.84375,277253.1875,273644.375,249289.109375,260221.4375,-0.009033203125,0.87255859375,-0.5458984375,6.927489757537842,5.249022960662842,2.746581792831421,100.0,94377.0,1.0
510278.171152,241692.46875,286467.03125,306633.21875,280687.5,273554.875,273081.03125,248609.703125,259398.171875,-0.008056640625,0.871826171875,-0.547607421875,7.324218273162842,5.706786632537842,2.838134527206421,100.0,94378.0,1.0
510278.1711952,241318.03125,286735.53125,306935.59375,281141.5,274973.84375,273940.5,248982.890625,259825.453125,-0.010009765625,0.86962890625,-0.54833984375,7.293700695037842,5.950927257537842,3.295898199081421,100.0,94379.0,1.0
510278.1762343,241010.640625,287184.96875,307836.03125,282385.59375,279989.84375,275163.3125,249991.21875,261032.984375,-0.01904296875,0.861572265625,-0.54296875,7.385253429412842,6.378173351287842,3.479003667831421,100.0,94380.0,1.0
510278.1762751,241190.265625,287239.5,308143.75,282767.71875,282177.71875,275159.71875,250340.796875,261465.625,-0.017333984375,0.86083984375,-0.5361328125,7.598876476287842,6.500243663787842,3.417968511581421,100.0,94381.0,1.0
510278.1762856,241673.59375,286887.25,307482.59375,281804.5625,278749.96875,273982.40625,249599.625,260567.171875,-0.023681640625,0.861083984375,-0.52880859375,7.568358898162842,6.835937023162842,3.326415777206421,100.0,94382.0,1.0
510278.1797629,241769.984375,286684.90625,306874.34375,280970.46875,275142.75,273439.4375,248953.828125,259745.703125,-0.037353515625,0.8515625,-0.5302734375,7.751464366912842,6.958007335662842,3.143310308456421,100.0,94383.0,1.0
510278.1798042,241392.421875,286935.4375,307166.1875,281400.25,276555.71875,274286.6875,249334.703125,260159.46875,-0.035400390625,0.856689453125,-0.527099609375,7.537841320037842,6.896972179412842,2.655029058456421,100.0,94384.0,1.0
510278.1826694,241059.8125,287324.4375,308025.1875,282601.34375,281453.34375,275455.40625,250319.609375,261335.171875,-0.040283203125,0.858642578125,-0.52392578125,7.415771007537842,7.141112804412842,2.532958745956421,100.0,94385.0,1.0
510278.1910864,241210.109375,287302.90625,308281.4375,282957.90625,283524.84375,275407.75,250635.046875,261726.515625,-0.041015625,0.8701171875,-0.5185546875,6.866454601287842,7.019042491912842,2.685546636581421,100.0,94386.0,1.0
510278.218507,241670.203125,286896.53125,307581.9375,281986.9375,280057.34375,274224.53125,249879.8125,260815.359375,-0.046630859375,0.865478515625,-0.524658203125,5.889892101287842,6.683349132537842,3.051757574081421,100.0,94387.0,1.0
510278.2185471,241714.015625,286608.65625,306906.90625,281126.3125,276371.1875,273641.4375,249190.578125,259971.453125,-0.03857421875,0.873291015625,-0.5263671875,5.096435070037842,6.683349132537842,3.112792730331421,100.0,94388.0,1.0
510278.2223062,241339.21875,286847.46875,307187.28125,281568.875,277748.34375,274481.03125,249578.78125,260404.359375,-0.055419921875,0.8662109375,-0.5341796875,4.394530773162842,6.805419445037842,3.326415777206421,100.0,94389.0,1.0
510278.222343,241031.390625,287278.40625,308071.59375,282796.25,282699.78125,275667.9375,250587.46875,261604.109375,-0.06103515625,0.85498046875,-0.537109375,4.028319835662842,6.530761241912842,2.868652105331421,100.0,94390.0,1.0
510278.2223533,241210.296875,287329.71875,308368.4375,283171.40625,284902.6875,275641.46875,250925.875,262025.84375,-0.063232421875,0.849853515625,-0.535400390625,4.028319835662842,6.195067882537842,2.288818120956421,100.0,94391.0,1.0
510278.2247501,241692.109375,286985.0625,307695.90625,282201.6875,281534.90625,274479.0,250187.203125,261122.125,-0.067626953125,0.856201171875,-0.529541015625,3.723144292831421,6.042479991912842,2.136230230331421,100.0,94392.0,1.0
510278.2247834,241778.203125,286767.8125,307056.46875,281339.46875,277877.34375,273920.1875,249532.296875,260284.46875,-0.08544921875,0.85107421875,-0.533447265625,3.479003667831421,5.554198741912842,1.5563963651657104,100.0,94393.0,1.0
510278.2272078,241422.640625,287033.59375,307350.8125,281756.90625,279211.375,274741.3125,249904.234375,260681.609375,-0.076904296875,0.8623046875,-0.52880859375,3.570556402206421,4.699706554412842,0.2441406100988388,100.0,94394.0,1.0
510278.2321932,241158.4375,287518.8125,308280.375,282994.1875,284179.90625,275939.8125,250923.015625,261883.421875,-0.066162109375,0.87353515625,-0.528076171875,3.204345464706421,4.211425304412842,0.2136230319738388,100.0,94395.0,1.0
510278.2348578,241399.828125,287651.125,308643.4375,283405.1875,286476.40625,275973.34375,251318.46875,262328.125,-0.07958984375,0.8681640625,-0.531494140625,2.593993902206421,3.997802495956421,-0.0610351525247097,100.0,94396.0,1.0
510278.2371916,241913.921875,287352.15625,307996.9375,282424.0625,283149.9375,274817.46875,250582.828125,261408.84375,-0.087158203125,0.865966796875,-0.534423828125,2.349853277206421,3.204345464706421,-1.4038084745407104,100.0,94397.0,1.0
510278.2411549,242018.265625,287166.375,307368.6875,281524.53125,279489.1875,274227.84375,249896.453125,260532.484375,-0.069091796875,0.86962890625,-0.535888671875,2.410888433456421,2.716064214706421,-2.593993902206421,100.0,94398.0,1.0
510278.2411967,241692.015625,287474.125,307691.4375,281940.1875,280842.625,275043.6875,250288.046875,260925.421875,-0.053955078125,0.882080078125,-0.53515625,1.6174315214157104,2.868652105331421,-2.532958745956421,100.0,94399.0,1.0
510278.2473315,241412.796875,287947.0,308609.3125,283156.21875,285791.90625,276208.3125,251303.453125,262099.25,-0.058837890625,0.882080078125,-0.533935546875,0.9460448622703552,2.929687261581421,-2.136230230331421,100.0,94400.0,1.0
510278.247372,241600.546875,288015.65625,308928.46875,283532.78125,288040.5,276202.125,251670.90625,262517.59375,-0.068359375,0.86962890625,-0.538330078125,0.2136230319738388,2.471923589706421,-2.838134527206421,100.0,94401.0,1.0
510278.2709829,242071.90625,287660.09375,308247.375,282537.34375,284686.84375,275042.4375,250940.28125,261599.375,-0.071044921875,0.859375,-0.5341796875,0.3051757514476776,1.9836424589157104,-3.875732183456421,100.0,94402.0,1.0
510278.2736159,242147.28125,287423.59375,307586.84375,281629.125,280988.625,274460.125,250272.046875,260723.8125,-0.064697265625,0.859375,-0.531982421875,0.3967284858226776,1.4648436307907104,-4.486083507537842,100.0,94403.0,1.0
510278.273658,241771.5,287663.65625,307860.4375,282020.5625,282282.78125,275256.375,250642.28125,261094.40625,-0.0517578125,0.86328125,-0.537109375,0.1831054538488388,1.3122557401657104,-4.455565929412842,100.0,94404.0,1.0
510278.2760758,241462.15625,288107.84375,308760.21875,283233.375,287251.03125,276415.90625,251641.3125,262266.8125,-0.047607421875,0.86474609375,-0.541015625,0.1831054538488388,1.5869139432907104,-4.119872570037842,100.0,94405.0,1.0
510278.2785997,241661.53125,288203.40625,309106.84375,283643.46875,289613.90625,276447.8125,252037.828125,262715.875,-0.051513671875,0.865234375,-0.541259765625,-0.1220703050494194,1.9836424589157104,-3.936767339706421,100.0,94406.0,1.0
510278.2809935,242139.40625,287857.21875,308431.46875,282659.28125,286326.5625,275308.40625,251333.21875,261811.53125,-0.0634765625,0.86328125,-0.53857421875,-0.1220703050494194,2.136230230331421,-3.967284917831421,100.0,94407.0,1.0
510278.2834453,242197.96875,287588.09375,307739.09375,281721.9375,282586.3125,274701.6875,250644.0625,260914.703125,-0.064208984375,0.86474609375,-0.5322265625,-0.3051757514476776,1.9836424589157104,-4.150390148162842,100.0,94408.0,1.0
510278.2860794,241834.796875,287828.875,308015.375,282108.8125,283832.75,275484.90625,251004.5625,261280.546875,-0.069580078125,0.8583984375,-0.52734375,-0.6103515028953552,1.7700194120407104,-4.211425304412842,100.0,94409.0,1.0
510278.2884667,241542.53125,288276.0,308926.4375,283330.5625,288750.65625,276635.125,252008.59375,262453.65625,-0.072265625,0.85302734375,-0.523681640625,-0.7019042372703552,1.5869139432907104,-4.302978038787842,100.0,94410.0,1.0
510278.2907454,241709.09375,288317.03125,309229.6875,283708.28125,290984.9375,276602.40625,252354.609375,262863.5,-0.072021484375,0.850830078125,-0.521484375,-0.7324218153953552,1.3732908964157104,-4.302978038787842,100.0,94411.0,1.0
510278.290785,242187.25,287964.40625,308551.28125,282730.96875,287628.78125,275456.90625,251636.3125,261958.078125,-0.070068359375,0.85009765625,-0.519775390625,-0.7019042372703552,1.2512205839157104,-4.394530773162842,100.0,94412.0,1.0
510278.2984388,242263.5,287712.65625,307876.53125,281815.625,283832.03125,274868.0,250961.203125,261076.34375,-0.062744140625,0.8525390625,-0.524169921875,-0.8850097060203552,0.9765624403953552,-4.425048351287842,100.0,94413.0,1.0
510278.3023336,241861.53125,287906.84375,308105.3125,282149.9375,284923.15625,275598.28125,251276.09375,261393.65625,-0.058837890625,0.858154296875,-0.523681640625,-0.6713866591453552,1.0375975370407104,-4.180907726287842,100.0,94414.0,1.0
510278.3084572,241551.640625,288328.3125,308990.09375,283339.65625,289705.0,276721.21875,252246.875,262530.5625,-0.05810546875,0.87109375,-0.521728515625,-0.9460448622703552,1.0681151151657104,-3.570556402206421,100.0,94415.0,1.0
510278.3084954,241718.484375,288371.5,309288.78125,283712.75,291862.9375,276698.25,252587.859375,262925.0,-0.066162109375,0.869873046875,-0.51611328125,-1.6174315214157104,1.1291502714157104,-2.960204839706421,100.0,94416.0,1.0
510278.3210252,242176.609375,287990.71875,308579.875,282714.0,288391.59375,275530.78125,251849.90625,261995.8125,-0.0751953125,0.85986328125,-0.5146484375,-2.044677495956421,0.8850097060203552,-2.716064214706421,100.0,94417.0,1.0
510278.3235259,242239.1875,287713.09375,307873.03125,281772.4375,284467.53125,274916.09375,251150.65625,261093.6875,-0.081787109375,0.84765625,-0.513916015625,-2.014159917831421,0.6103515028953552,-2.807616949081421,100.0,94418.0,1.0
510278.3235403,241836.140625,287896.75,308083.3125,282091.46875,285445.5625,275637.875,251433.265625,261389.53125,-0.080810546875,0.84375,-0.5126953125,-2.014159917831421,0.3967284858226776,-2.655029058456421,100.0,94419.0,1.0
510278.3260344,241540.5625,288348.15625,308986.3125,283302.75,290225.53125,276789.09375,252402.53125,262540.75,-0.081787109375,0.845947265625,-0.5126953125,-1.8920897245407104,0.1220703050494194,-2.471923589706421,100.0,94420.0,1.0
510278.3285458,241732.25,288433.53125,309327.25,283714.28125,292464.8125,276803.5625,252774.1875,262975.25,-0.085205078125,0.846435546875,-0.51611328125,-1.7395018339157104,-0.3356933295726776,-2.502441167831421,100.0,94421.0,1.0
510278.3436518,242201.375,288061.6875,308633.78125,282730.0,289017.53125,275644.0625,252038.109375,262054.1875,-0.0859375,0.842041015625,-0.511474609375,-1.5563963651657104,-1.0070799589157104,-2.838134527206421,100.0,94422.0,1.0
510278.3511188,242263.78125,287786.9375,307928.1875,281783.8125,285077.125,275011.75,251315.609375,261135.796875,-0.078369140625,0.85205078125,-0.506103515625,-1.6174315214157104,-1.4343260526657104,-2.685546636581421,100.0,94423.0,1.0
510278.3511448,241867.25,287989.375,308150.71875,282105.65625,286074.625,275741.0625,251597.78125,261431.109375,-0.08154296875,0.855224609375,-0.5087890625,-2.166747808456421,-1.6784666776657104,-2.258300542831421,100.0,94424.0,1.0
510278.3535682,241569.890625,288444.53125,309058.5625,283313.125,290878.28125,276900.03125,252579.015625,262588.3125,-0.085205078125,0.854248046875,-0.509033203125,-2.502441167831421,-2.136230230331421,-2.197265386581421,100.0,94425.0,1.0
510278.3584565,241757.828125,288521.53125,309397.875,283740.75,293136.09375,276910.5,252943.4375,263027.65625,-0.083740234375,0.84814453125,-0.50927734375,-2.563476324081421,-2.288818120956421,-2.166747808456421,100.0,94426.0,1.0
510278.3609706,242232.03125,288155.9375,308712.5625,282780.0625,289730.125,275755.8125,252218.96875,262129.015625,-0.084228515625,0.845458984375,-0.510986328125,-2.349853277206421,-2.227782964706421,-1.9531248807907104,100.0,94427.0,1.0
510278.3635747,242260.90625,287835.0625,307965.125,281805.1875,285721.125,275099.84375,251471.703125,261179.15625,-0.0849609375,0.850830078125,-0.51123046875,-2.319335699081421,-2.349853277206421,-1.6479490995407104,100.0,94428.0,1.0
510278.3685612,241842.84375,288001.0,308151.34375,282100.5,286609.625,275805.59375,251729.921875,261448.09375,-0.086181640625,0.857177734375,-0.506591796875,-2.502441167831421,-2.624511480331421,-1.2207030057907104,100.0,94429.0,1.0
510278.3711596,241523.9375,288419.6875,309022.34375,283273.15625,291276.78125,276926.40625,252671.015625,262571.9375,-0.087890625,0.861328125,-0.506103515625,-2.838134527206421,-3.021239995956421,-0.9765624403953552,100.0,94430.0,1.0
510278.3711998,241693.984375,288465.46875,309329.03125,283666.09375,293384.8125,276908.25,253007.546875,262980.09375,-0.089111328125,0.861083984375,-0.500244140625,-3.326415777206421,-3.356933355331421,-0.7629393935203552,100.0,94431.0,1.0
510278.3750492,242154.875,288067.40625,308604.75,282678.3125,289798.34375,275721.21875,252241.0625,262051.6875,-0.08837890625,0.860595703125,-0.49951171875,-3.692626714706421,-3.753661870956421,-0.7934569716453552,100.0,94432.0,1.0
510278.4085633,242197.609375,287741.25,307845.125,281698.5,285627.59375,275048.96875,251476.265625,261100.65625,-0.088623046875,0.86376953125,-0.498046875,-3.997802495956421,-3.997802495956421,-0.9155272841453552,100.0,94433.0,1.0
510278.4101787,241793.40625,287908.0,308031.09375,281988.8125,286374.40625,275750.90625,251723.84375,261365.578125,-0.086669921875,0.86474609375,-0.496826171875,-4.241942882537842,-4.150390148162842,-0.9765624403953552,100.0,94434.0,1.0
510278.4486055,241477.890625,288323.125,308902.8125,283159.4375,290927.5625,276872.6875,252648.65625,262483.96875,-0.083251953125,0.867431640625,-0.495849609375,-4.669188976287842,-4.333495616912842,-1.0070799589157104,100.0,94435.0,1.0
510278.4509847,241657.59375,288367.375,309211.8125,283560.5,292933.5625,276849.34375,252968.921875,262893.1875,-0.083251953125,0.869873046875,-0.500244140625,-5.035399913787842,-4.394530773162842,-1.0681151151657104,100.0,94436.0,1.0
510278.4534425,242095.953125,287934.75,308454.625,282542.875,289203.15625,275620.8125,252158.09375,261924.546875,-0.07958984375,0.871337890625,-0.499755859375,-5.340575695037842,-4.394530773162842,-1.2512205839157104,100.0,94437.0,1.0
510278.4560783,242150.046875,287613.84375,307693.5,281566.71875,284933.34375,274944.53125,251375.59375,260961.8125,-0.078369140625,0.8720703125,-0.499755859375,-5.615233898162842,-4.394530773162842,-1.4343260526657104,100.0,94438.0,1.0
510278.4610152,241740.125,287784.53125,307873.9375,281848.0,285616.3125,275636.90625,251612.796875,261215.109375,-0.07568359375,0.87158203125,-0.498291015625,-5.981444835662842,-4.364013195037842,-1.4953612089157104,100.0,94439.0,1.0
510278.4635606,241417.71875,288188.3125,308738.5,283016.5625,290117.15625,276735.0,252512.40625,262318.84375,-0.075927734375,0.873046875,-0.496826171875,-6.072997570037842,-4.333495616912842,-1.6174315214157104,100.0,94440.0,1.0
510278.4660956,241591.53125,288216.71875,309046.15625,283426.03125,292089.84375,276698.15625,252812.453125,262728.75,-0.075439453125,0.876708984375,-0.49365234375,-6.317138195037842,-4.211425304412842,-1.7395018339157104,100.0,94441.0,1.0
510278.4710769,242050.890625,287796.96875,308311.125,282440.84375,288353.0,275485.625,252011.734375,261793.5625,-0.07470703125,0.877685546875,-0.4912109375,-6.439208507537842,-4.089354991912842,-1.9836424589157104,100.0,94442.0,1.0
510278.4861036,242106.859375,287481.1875,307557.15625,281475.53125,284081.21875,274812.3125,251228.96875,260842.640625,-0.071044921875,0.88427734375,-0.49365234375,-7.019042491912842,-3.814697027206421,-2.197265386581421,100.0,94443.0,1.0
510278.4886102,241707.75,287679.03125,307762.4375,281784.0625,284829.28125,275534.09375,251475.734375,261117.5625,-0.072265625,0.883544921875,-0.494384765625,-7.171630382537842,-3.387450933456421,-2.105712652206421,100.0,94444.0,1.0
510278.493445,241379.71875,288106.9375,308644.625,282963.96875,289457.0625,276662.21875,252384.375,262227.28125,-0.069580078125,0.880615234375,-0.49072265625,-6.927489757537842,-3.204345464706421,-1.7395018339157104,100.0,94445.0,1.0
510278.4960949,241568.28125,288189.375,308993.46875,283404.125,291631.625,276676.25,252730.734375,262671.625,-0.07080078125,0.87939453125,-0.49072265625,-7.080077648162842,-2.899169683456421,-1.6784666776657104,100.0,94446.0,1.0
510278.4986327,242056.34375,287829.59375,308313.0,282469.75,288129.46875,275516.375,251994.828125,261787.84375,-0.0732421875,0.881591796875,-0.488525390625,-7.202147960662842,-2.716064214706421,-1.4953612089157104,100.0,94447.0,1.0
510278.5009954,242140.75,287556.0,307601.9375,281542.9375,284037.9375,274884.09375,251259.640625,260875.8125,-0.076904296875,0.87939453125,-0.48779296875,-7.263183116912842,-2.532958745956421,-1.3122557401657104,100.0,94448.0,1.0
510278.5051872,241762.109375,287772.1875,307832.0,281870.34375,284910.375,275628.9375,251536.53125,261173.703125,-0.080810546875,0.877685546875,-0.4873046875,-7.598876476287842,-2.319335699081421,-1.1596678495407104,100.0,94449.0,1.0
510278.514704,241445.515625,288219.78125,308735.8125,283068.3125,289661.1875,276786.125,252488.625,262318.5625,-0.08154296875,0.876708984375,-0.4873046875,-7.751464366912842,-2.105712652206421,-0.9765624403953552,100.0,94450.0,1.0
510278.5173515,241630.59375,288282.4375,309081.46875,283515.875,291900.28125,276792.3125,252849.5625,262774.0,-0.082763671875,0.87548828125,-0.484375,-7.690429210662842,-1.9836424589157104,-0.8850097060203552,100.0,94451.0,1.0
510278.5198337,242121.53125,287889.0625,308387.21875,282579.34375,288365.21875,275594.6875,252097.828125,261886.546875,-0.086181640625,0.875244140625,-0.482666015625,-7.812499523162842,-1.9226073026657104,-0.7934569716453552,100.0,94452.0,1.0
510278.5248306,242181.875,287570.59375,307641.90625,281616.625,284195.1875,274911.09375,251327.9375,260947.421875,-0.087158203125,0.875732421875,-0.479736328125,-7.965087413787842,-1.9836424589157104,-0.6103515028953552,100.0,94453.0,1.0
510278.5248713,241794.65625,287783.1875,307865.4375,281933.5625,285043.84375,275642.0,251591.515625,261233.515625,-0.086669921875,0.876220703125,-0.479736328125,-8.117674827575684,-1.7700194120407104,-0.2746581733226776,100.0,94454.0,1.0
510278.529888,241470.46875,288230.59375,308769.0625,283126.4375,289822.75,276795.625,252532.25,262368.09375,-0.089599609375,0.873291015625,-0.4775390625,-8.148192405700684,-1.7089842557907104,-0.03051757626235485,100.0,94455.0,1.0
510278.5299284,241669.484375,288331.625,309146.71875,283587.59375,292169.15625,276832.8125,252924.03125,262851.875,-0.09033203125,0.875,-0.475341796875,-8.453368186950684,-1.7700194120407104,-0.03051757626235485,100.0,94456.0,1.0
510278.5322586,242167.84375,287973.71875,308475.0,282654.0,288758.28125,275659.6875,252209.5,261988.5625,-0.088134765625,0.871826171875,-0.47802734375,-8.483885765075684,-1.7395018339157104,0.1831054538488388,100.0,94457.0,1.0
510278.5322933,242222.828125,287637.8125,307710.75,281679.28125,284571.34375,274954.1875,251425.21875,261034.0625,-0.08984375,0.872314453125,-0.476318359375,-8.514403343200684,-1.5869139432907104,0.3051757514476776,100.0,94458.0,1.0
510278.534806,241828.359375,287855.25,307928.90625,281988.28125,285445.5625,275703.3125,251697.734375,261322.65625,-0.090576171875,0.870361328125,-0.48046875,-8.483885765075684,-1.5258787870407104,0.4882812201976776,100.0,94459.0,1.0
510278.5371835,241525.625,288373.375,308880.375,283212.1875,290431.34375,276939.125,252700.875,262502.75,-0.08837890625,0.869873046875,-0.476806640625,-8.422850608825684,-1.4343260526657104,0.5798339247703552,100.0,94460.0,1.0
510278.5396753,241702.921875,288475.90625,309257.3125,283674.21875,292960.125,276990.53125,253101.234375,262990.46875,-0.08740234375,0.870361328125,-0.47900390625,-8.331297874450684,-1.3427733182907104,0.7019042372703552,100.0,94461.0,1.0
510278.5423724,242183.3125,288054.90625,308557.0,282738.6875,289530.65625,275770.5625,252370.703125,262117.671875,-0.08740234375,0.870849609375,-0.47900390625,-8.270262718200684,-1.3427733182907104,0.5493163466453552,100.0,94462.0,1.0
510278.547178,242229.53125,287667.5,307761.53125,281742.9375,285205.40625,275013.46875,251573.90625,261148.5,-0.087646484375,0.8701171875,-0.481201171875,-8.117674827575684,-1.3732908964157104,0.5493163466453552,100.0,94463.0,1.0
510278.5497932,241804.671875,287794.71875,307908.53125,281992.21875,285777.625,275669.53125,251770.59375,261367.0,-0.083251953125,0.871826171875,-0.48193359375,-7.995604991912842,-1.1901854276657104,0.6408690810203552,100.0,94464.0,1.0
510278.5574325,241475.828125,288230.40625,308793.46875,283170.34375,290388.78125,276823.78125,252700.34375,262493.34375,-0.08056640625,0.8701171875,-0.47998046875,-7.537841320037842,-0.9155272841453552,0.7019042372703552,100.0,94465.0,1.0
510278.557475,241632.65625,288265.1875,309116.3125,283596.4375,292571.46875,276798.03125,253027.296875,262923.40625,-0.078125,0.8701171875,-0.480712890625,-7.141112804412842,-0.5798339247703552,0.8850097060203552,100.0,94466.0,1.0
510278.5574855,242109.546875,287829.0625,308397.9375,282643.71875,288950.5,275547.5,252250.53125,262016.8125,-0.0771484375,0.87060546875,-0.482177734375,-6.805419445037842,-0.2441406100988388,1.0375975370407104,100.0,94467.0,1.0
510278.5598812,242185.09375,287504.59375,307641.75,281680.09375,284655.90625,274843.59375,251464.375,261067.21875,-0.07568359375,0.87109375,-0.480712890625,-6.408690929412842,-0.03051757626235485,1.0986326932907104,100.0,94468.0,1.0
510278.5621909,241790.28125,287720.875,307842.8125,281968.0,285397.625,275586.125,251699.703125,261320.34375,-0.077880859375,0.87353515625,-0.4775390625,-6.134032726287842,0.1831054538488388,1.1596678495407104,100.0,94469.0,1.0
510278.5648259,241461.34375,288198.59375,308751.71875,283151.375,290175.0,276782.90625,252639.71875,262442.65625,-0.07666015625,0.873779296875,-0.476806640625,-6.042479991912842,0.2746581733226776,1.0986326932907104,100.0,94470.0,1.0
510278.5697467,241636.765625,288273.59375,309109.875,283602.78125,292491.53125,276798.21875,253007.1875,262906.875,-0.07470703125,0.875,-0.4814453125,-5.706786632537842,0.4577636420726776,1.0375975370407104,100.0,94471.0,1.0
510278.5697873,242135.828125,287851.0625,308414.9375,282670.71875,288926.1875,275547.03125,252250.09375,262021.734375,-0.074462890625,0.872802734375,-0.48193359375,-5.249022960662842,0.8850097060203552,1.2512205839157104,100.0,94472.0,1.0
510278.5723231,242207.0,287506.3125,307653.53125,281697.96875,284607.46875,274815.96875,251454.640625,261059.171875,-0.077392578125,0.870361328125,-0.481201171875,-4.760741710662842,1.1596678495407104,1.4953612089157104,100.0,94473.0,1.0
510278.5762054,241808.609375,287714.71875,307850.6875,281971.21875,285315.21875,275550.625,251683.609375,261298.796875,-0.07861328125,0.86962890625,-0.48095703125,-4.455565929412842,1.3427733182907104,1.4953612089157104,100.0,94474.0,1.0
510278.5762458,241495.234375,288217.34375,308776.75,283161.9375,290096.34375,276765.75,252639.015625,262434.15625,-0.080322265625,0.871826171875,-0.480224609375,-4.058837413787842,1.4648436307907104,1.5563963651657104,100.0,94475.0,1.0
510278.5762558,241680.03125,288299.96875,309149.125,283629.6875,292429.0625,276787.125,253014.421875,262906.875,-0.080810546875,0.871337890625,-0.48291015625,-3.692626714706421,1.6174315214157104,1.7089842557907104,100.0,94476.0,1.0
510278.57844,242173.65625,287854.625,308442.28125,282698.53125,288823.1875,275513.34375,252242.21875,262017.4375,-0.083740234375,0.87060546875,-0.4794921875,-3.356933355331421,1.7089842557907104,1.8005369901657104,100.0,94477.0,1.0
510278.5811576,242226.671875,287477.34375,307653.71875,281701.09375,284426.6875,274738.1875,251410.734375,261037.625,-0.0859375,0.870849609375,-0.480712890625,-2.960204839706421,1.9836424589157104,1.6479490995407104,100.0,94478.0,1.0
510278.5812002,241836.59375,287701.03125,307856.3125,281977.8125,285090.625,275481.0625,251635.0625,261284.65625,-0.0888671875,0.86767578125,-0.480712890625,-2.532958745956421,1.8920897245407104,1.5869139432907104,100.0,94479.0,1.0
510278.5835817,241494.875,288188.9375,308758.875,283148.59375,289840.4375,276692.96875,252566.234375,262402.875,-0.086669921875,0.866943359375,-0.47802734375,-2.288818120956421,1.9531248807907104,1.6174315214157104,100.0,94480.0,1.0
510278.5885747,241653.484375,288249.8125,309113.1875,283601.71875,292171.8125,276702.8125,252930.65625,262870.28125,-0.08154296875,0.86279296875,-0.477294921875,-1.9531248807907104,2.044677495956421,1.6479490995407104,100.0,94481.0,1.0
510278.5911244,242115.71875,287758.4375,308381.03125,282655.78125,288556.28125,275394.25,252139.578125,261967.640625,-0.078125,0.861572265625,-0.481689453125,-1.6784666776657104,2.075195074081421,1.5869139432907104,100.0,94482.0,1.0
510278.5935334,242174.8125,287370.03125,307589.0625,281664.71875,284122.25,274617.21875,251307.296875,260987.390625,-0.075439453125,0.862060546875,-0.482177734375,-1.1901854276657104,2.197265386581421,1.6479490995407104,100.0,94483.0,1.0
510278.5935737,241777.578125,287594.46875,307783.28125,281928.03125,284761.3125,275371.8125,251538.765625,261235.484375,-0.073486328125,0.86474609375,-0.484130859375,-0.6713866591453552,2.380370855331421,1.6784666776657104,100.0,94484.0,1.0
510278.596086,241458.84375,288117.40625,308708.53125,283115.15625,289516.09375,276618.3125,252493.71875,262370.34375,-0.072998046875,0.866455078125,-0.487548828125,-0.2136230319738388,2.655029058456421,1.6784666776657104,100.0,94485.0,1.0
510278.6011292,241620.765625,288178.5625,309062.15625,283572.125,291822.6875,276622.53125,252853.765625,262835.875,-0.072509765625,0.865478515625,-0.4892578125,0.0610351525247097,2.838134527206421,1.7700194120407104,100.0,94486.0,1.0
510278.6034947,242066.625,287647.28125,308302.71875,282614.5,288137.875,275273.28125,252036.5,261915.609375,-0.0693359375,0.86376953125,-0.487548828125,0.3356933295726776,2.899169683456421,1.8005369901657104,100.0,94487.0,1.0
510278.6085901,242123.3125,287232.96875,307493.3125,281620.625,283633.1875,274479.4375,251189.1875,260927.921875,-0.06640625,0.862548828125,-0.484619140625,0.7324218153953552,3.143310308456421,1.8615721464157104,100.0,94488.0,1.0
