Time,FZ,C3,CZ,C4,PZ,PO7,OZ,PO8,AccX,AccY,AccZ,Gyro1,Gyro2,Gyro3,Battery,Counter,Validation
515273.0545112,289708.75,311884.28125,316403.625,288130.28125,294833.90625,299995.125,258467.359375,303034.3125,0.012939453125,0.94482421875,-0.32666015625,-6.988524913787842,-2.746581792831421,2.166747808456421,80.0,901539.0,1.0
515273.054525,285417.75,311056.625,316566.625,288666.71875,297732.75,301313.25,258978.140625,303858.46875,0.0126953125,0.944580078125,-0.324462890625,-7.141112804412842,-2.044677495956421,2.410888433456421,80.0,901540.0,1.0
515273.0545267,283351.125,311466.75,317743.125,292634.3125,302174.78125,303047.03125,259689.90625,305701.34375,0.014404296875,0.945556640625,-0.322509765625,-7.141112804412842,-1.3732908964157104,2.746581792831421,80.0,901541.0,1.0
515273.0545284,286698.875,312654.0625,318348.59375,294430.25,301899.5625,302789.25,259611.328125,305963.3125,0.013916015625,0.9501953125,-0.318603515625,-7.415771007537842,-0.6713866591453552,3.021239995956421,80.0,901542.0,1.0
515273.0545299,290688.5625,312961.53125,317575.21875,291715.84375,297458.375,300954.1875,258872.734375,304347.96875,0.016357421875,0.950439453125,-0.316650390625,-7.568358898162842,0.03051757626235485,3.234863042831421,80.0,901543.0,1.0
515273.0545313,289803.53125,311946.5,316459.0625,288089.40625,294879.6875,300041.6875,258476.75,303042.375,0.01904296875,0.953857421875,-0.310791015625,-7.873534679412842,0.7019042372703552,3.479003667831421,80.0,901544.0,1.0
515273.0545328,285443.6875,311064.25,316572.59375,288552.28125,297684.84375,301307.59375,258959.359375,303836.125,0.021484375,0.95751953125,-0.309326171875,-8.209227561950684,1.4038084745407104,3.723144292831421,80.0,901545.0,1.0
515273.0569851,283274.75,311394.15625,317709.59375,292463.03125,302066.5,302997.03125,259642.796875,305650.46875,0.025390625,0.957275390625,-0.311279296875,-8.483885765075684,2.105712652206421,3.936767339706421,80.0,901546.0,1.0
515273.1232173,286650.84375,312610.15625,318358.6875,294354.0625,301865.59375,302778.34375,259563.578125,305948.90625,0.0263671875,0.95849609375,-0.30810546875,-8.789061546325684,2.929687261581421,4.058837413787842,80.0,901547.0,1.0
515273.1232452,290745.59375,312988.0,317630.46875,291780.9375,297513.34375,300991.90625,258827.3125,304374.53125,0.02490234375,0.958251953125,-0.305908203125,-9.216307640075684,3.692626714706421,4.089354991912842,80.0,901548.0,1.0
515273.1232542,290745.59375,312988.0,317630.46875,291780.9375,297513.34375,300991.90625,258827.3125,304374.53125,0.02490234375,0.958251953125,-0.305908203125,-9.216307640075684,3.692626714706421,4.089354991912842,80.0,901549.0,0.0
515273.1232552,290745.59375,312988.0,317630.46875,291780.9375,297513.34375,300991.90625,258827.3125,304374.53125,0.02490234375,0.958251953125,-0.305908203125,-9.216307640075684,3.692626714706421,4.089354991912842,80.0,901550.0,0.0
515273.1232561,290745.59375,312988.0,317630.46875,291780.9375,297513.34375,300991.90625,258827.3125,304374.53125,0.02490234375,0.958251953125,-0.305908203125,-9.216307640075684,3.692626714706421,4.089354991912842,80.0,901551.0,0.0
515273.1232569,290745.59375,312988.0,317630.46875,291780.9375,297513.34375,300991.90625,258827.3125,304374.53125,0.02490234375,0.958251953125,-0.305908203125,-9.216307640075684,3.692626714706421,4.089354991912842,80.0,901552.0,0.0
515273.1232577,290745.59375,312988.0,317630.46875,291780.9375,297513.34375,300991.90625,258827.3125,304374.53125,0.02490234375,0.958251953125,-0.305908203125,-9.216307640075684,3.692626714706421,4.089354991912842,80.0,901553.0,0.0
515273.1232585,290745.59375,312988.0,317630.46875,291780.9375,297513.34375,300991.90625,258827.3125,304374.53125,0.02490234375,0.958251953125,-0.305908203125,-9.216307640075684,3.692626714706421,4.089354991912842,80.0,901554.0,0.0
515273.1232593,290745.59375,312988.0,317630.46875,291780.9375,297513.34375,300991.90625,258827.3125,304374.53125,0.02490234375,0.958251953125,-0.305908203125,-9.216307640075684,3.692626714706421,4.089354991912842,80.0,901555.0,0.0
515273.1232601,290745.59375,312988.0,317630.46875,291780.9375,297513.34375,300991.90625,258827.3125,304374.53125,0.02490234375,0.958251953125,-0.305908203125,-9.216307640075684,3.692626714706421,4.089354991912842,80.0,901556.0,0.0
515273.123261,290745.59375,312988.0,317630.46875,291780.9375,297513.34375,300991.90625,258827.3125,304374.53125,0.02490234375,0.958251953125,-0.305908203125,-9.216307640075684,3.692626714706421,4.089354991912842,80.0,901557.0,0.0
515273.1232618,290745.59375,312988.0,317630.46875,291780.9375,297513.34375,300991.90625,258827.3125,304374.53125,0.02490234375,0.958251953125,-0.305908203125,-9.216307640075684,3.692626714706421,4.089354991912842,80.0,901558.0,0.0
515273.1232626,290745.59375,312988.0,317630.46875,291780.9375,297513.34375,300991.90625,258827.3125,304374.53125,0.02490234375,0.958251953125,-0.305908203125,-9.216307640075684,3.692626714706421,4.089354991912842,80.0,901559.0,0.0
515273.1232634,290745.59375,312988.0,317630.46875,291780.9375,297513.34375,300991.90625,258827.3125,304374.53125,0.02490234375,0.958251953125,-0.305908203125,-9.216307640075684,3.692626714706421,4.089354991912842,80.0,901560.0,0.0
515273.1232642,282936.25,311023.71875,317514.40625,292159.40625,301643.96875,302832.71875,259585.9375,305476.21875,0.00830078125,0.968017578125,-0.275390625,-12.512206077575684,9.613036155700684,1.1291502714157104,80.0,901561.0,1.0
515273.1232692,286429.21875,312334.875,318301.65625,294230.875,301680.4375,302749.375,259570.28125,305873.90625,0.010009765625,0.968505859375,-0.272216796875,-12.969969749450684,9.765624046325684,0.7629393935203552,80.0,901562.0,1.0
515273.1232744,290919.21875,312939.90625,317758.84375,292025.8125,297595.53125,301086.5,258861.28125,304407.15625,0.013427734375,0.963623046875,-0.272216796875,-13.397215843200684,10.070799827575684,0.4882812201976776,80.0,901563.0,1.0
515273.1232793,290186.53125,311960.53125,316603.4375,288462.40625,294938.34375,300108.75,258425.515625,303060.4375,0.0166015625,0.958740234375,-0.271240234375,-13.610838890075684,10.314940452575684,0.1831054538488388,80.0,901564.0,1.0
515273.1232841,285425.53125,310800.21875,316451.625,288448.28125,297340.25,301156.59375,258821.046875,303670.0,0.01953125,0.958740234375,-0.272216796875,-13.641356468200684,10.742186546325684,-0.1220703050494194,80.0,901565.0,1.0
515273.1233025,282810.65625,310889.71875,317439.59375,291965.46875,301533.625,302774.40625,259483.921875,305395.84375,0.0205078125,0.962890625,-0.26904296875,-13.580321311950684,11.138915061950684,-0.2746581733226776,80.0,901566.0,1.0
515273.1252892,286327.75,312222.6875,318264.8125,294092.09375,301628.21875,302722.125,259483.109375,305815.40625,0.022216796875,0.962890625,-0.269287109375,-13.763426780700684,11.627196311950684,-0.3356933295726776,80.0,901567.0,1.0
515273.1253204,290974.9375,312914.6875,317798.90625,292037.8125,297639.34375,301110.75,258810.328125,304406.375,0.023193359375,0.965087890625,-0.267333984375,-13.885497093200684,11.962889671325684,-0.3662109076976776,80.0,901568.0,1.0
515273.1332394,290314.46875,311968.9375,316655.9375,288513.03125,294980.53125,300132.0,258379.109375,303076.15625,0.0234375,0.967529296875,-0.264404296875,-13.916014671325684,12.298583030700684,-0.5493163466453552,80.0,901569.0,1.0
515273.1332671,285455.65625,310749.0,316443.84375,288381.40625,297293.3125,301133.34375,258779.390625,303647.03125,0.022705078125,0.96923828125,-0.260498046875,-14.190672874450684,12.725829124450684,-0.3967284858226776,80.0,901570.0,1.0
515273.1332906,285455.65625,310749.0,316443.84375,288381.40625,297293.3125,301133.34375,258779.390625,303647.03125,0.022705078125,0.96923828125,-0.260498046875,-14.190672874450684,12.725829124450684,-0.3967284858226776,80.0,901571.0,0.0
515273.1332921,285455.65625,310749.0,316443.84375,288381.40625,297293.3125,301133.34375,258779.390625,303647.03125,0.022705078125,0.96923828125,-0.260498046875,-14.190672874450684,12.725829124450684,-0.3967284858226776,80.0,901572.0,0.0
515273.1332935,285455.65625,310749.0,316443.84375,288381.40625,297293.3125,301133.34375,258779.390625,303647.03125,0.022705078125,0.96923828125,-0.260498046875,-14.190672874450684,12.725829124450684,-0.3967284858226776,80.0,901573.0,0.0
515273.1332949,285455.65625,310749.0,316443.84375,288381.40625,297293.3125,301133.34375,258779.390625,303647.03125,0.022705078125,0.96923828125,-0.260498046875,-14.190672874450684,12.725829124450684,-0.3967284858226776,80.0,901574.0,0.0
515273.1332962,285455.65625,310749.0,316443.84375,288381.40625,297293.3125,301133.34375,258779.390625,303647.03125,0.022705078125,0.96923828125,-0.260498046875,-14.190672874450684,12.725829124450684,-0.3967284858226776,80.0,901575.0,0.0
515273.1332975,285455.65625,310749.0,316443.84375,288381.40625,297293.3125,301133.34375,258779.390625,303647.03125,0.022705078125,0.96923828125,-0.260498046875,-14.190672874450684,12.725829124450684,-0.3967284858226776,80.0,901576.0,0.0
515273.1332989,285455.65625,310749.0,316443.84375,288381.40625,297293.3125,301133.34375,258779.390625,303647.03125,0.022705078125,0.96923828125,-0.260498046875,-14.190672874450684,12.725829124450684,-0.3967284858226776,80.0,901577.0,0.0
515273.1333002,285455.65625,310749.0,316443.84375,288381.40625,297293.3125,301133.34375,258779.390625,303647.03125,0.022705078125,0.96923828125,-0.260498046875,-14.190672874450684,12.725829124450684,-0.3967284858226776,80.0,901578.0,0.0
515273.1333015,285455.65625,310749.0,316443.84375,288381.40625,297293.3125,301133.34375,258779.390625,303647.03125,0.022705078125,0.96923828125,-0.260498046875,-14.190672874450684,12.725829124450684,-0.3967284858226776,80.0,901579.0,0.0
515273.1333028,285455.65625,310749.0,316443.84375,288381.40625,297293.3125,301133.34375,258779.390625,303647.03125,0.022705078125,0.96923828125,-0.260498046875,-14.190672874450684,12.725829124450684,-0.3967284858226776,80.0,901580.0,0.0
515273.1333042,285455.65625,310749.0,316443.84375,288381.40625,297293.3125,301133.34375,258779.390625,303647.03125,0.022705078125,0.96923828125,-0.260498046875,-14.190672874450684,12.725829124450684,-0.3967284858226776,80.0,901581.0,0.0
515273.1333055,285455.65625,310749.0,316443.84375,288381.40625,297293.3125,301133.34375,258779.390625,303647.03125,0.022705078125,0.96923828125,-0.260498046875,-14.190672874450684,12.725829124450684,-0.3967284858226776,80.0,901582.0,0.0
515273.1333068,285455.65625,310749.0,316443.84375,288381.40625,297293.3125,301133.34375,258779.390625,303647.03125,0.022705078125,0.96923828125,-0.260498046875,-14.190672874450684,12.725829124450684,-0.3967284858226776,80.0,901583.0,0.0
515273.1333081,285455.65625,310749.0,316443.84375,288381.40625,297293.3125,301133.34375,258779.390625,303647.03125,0.022705078125,0.96923828125,-0.260498046875,-14.190672874450684,12.725829124450684,-0.3967284858226776,80.0,901584.0,0.0
515273.1333095,285455.65625,310749.0,316443.84375,288381.40625,297293.3125,301133.34375,258779.390625,303647.03125,0.022705078125,0.96923828125,-0.260498046875,-14.190672874450684,12.725829124450684,-0.3967284858226776,80.0,901585.0,0.0
515273.1333108,285455.65625,310749.0,316443.84375,288381.40625,297293.3125,301133.34375,258779.390625,303647.03125,0.022705078125,0.96923828125,-0.260498046875,-14.190672874450684,12.725829124450684,-0.3967284858226776,80.0,901586.0,0.0
515273.1333122,285455.65625,310749.0,316443.84375,288381.40625,297293.3125,301133.34375,258779.390625,303647.03125,0.022705078125,0.96923828125,-0.260498046875,-14.190672874450684,12.725829124450684,-0.3967284858226776,80.0,901587.0,0.0
515273.1333135,285455.65625,310749.0,316443.84375,288381.40625,297293.3125,301133.34375,258779.390625,303647.03125,0.022705078125,0.96923828125,-0.260498046875,-14.190672874450684,12.725829124450684,-0.3967284858226776,80.0,901588.0,0.0
515273.1333148,285455.65625,310749.0,316443.84375,288381.40625,297293.3125,301133.34375,258779.390625,303647.03125,0.022705078125,0.96923828125,-0.260498046875,-14.190672874450684,12.725829124450684,-0.3967284858226776,80.0,901589.0,0.0
515273.1333162,285455.65625,310749.0,316443.84375,288381.40625,297293.3125,301133.34375,258779.390625,303647.03125,0.022705078125,0.96923828125,-0.260498046875,-14.190672874450684,12.725829124450684,-0.3967284858226776,80.0,901590.0,0.0
515273.1333175,285455.65625,310749.0,316443.84375,288381.40625,297293.3125,301133.34375,258779.390625,303647.03125,0.022705078125,0.96923828125,-0.260498046875,-14.190672874450684,12.725829124450684,-0.3967284858226776,80.0,901591.0,0.0
515273.1333188,285455.65625,310749.0,316443.84375,288381.40625,297293.3125,301133.34375,258779.390625,303647.03125,0.022705078125,0.96923828125,-0.260498046875,-14.190672874450684,12.725829124450684,-0.3967284858226776,80.0,901592.0,0.0
515273.1333202,285455.65625,310749.0,316443.84375,288381.40625,297293.3125,301133.34375,258779.390625,303647.03125,0.022705078125,0.96923828125,-0.260498046875,-14.190672874450684,12.725829124450684,-0.3967284858226776,80.0,901593.0,0.0
515273.1333215,285455.65625,310749.0,316443.84375,288381.40625,297293.3125,301133.34375,258779.390625,303647.03125,0.022705078125,0.96923828125,-0.260498046875,-14.190672874450684,12.725829124450684,-0.3967284858226776,80.0,901594.0,0.0
515273.1333229,285455.65625,310749.0,316443.84375,288381.40625,297293.3125,301133.34375,258779.390625,303647.03125,0.022705078125,0.96923828125,-0.260498046875,-14.190672874450684,12.725829124450684,-0.3967284858226776,80.0,901595.0,0.0
515273.1333242,285455.65625,310749.0,316443.84375,288381.40625,297293.3125,301133.34375,258779.390625,303647.03125,0.022705078125,0.96923828125,-0.260498046875,-14.190672874450684,12.725829124450684,-0.3967284858226776,80.0,901596.0,0.0
515273.1333255,285455.65625,310749.0,316443.84375,288381.40625,297293.3125,301133.34375,258779.390625,303647.03125,0.022705078125,0.96923828125,-0.260498046875,-14.190672874450684,12.725829124450684,-0.3967284858226776,80.0,901597.0,0.0
515273.1333269,285455.65625,310749.0,316443.84375,288381.40625,297293.3125,301133.34375,258779.390625,303647.03125,0.022705078125,0.96923828125,-0.260498046875,-14.190672874450684,12.725829124450684,-0.3967284858226776,80.0,901598.0,0.0
515273.1333282,291063.53125,312232.78125,316904.9375,288955.0625,295254.125,300255.1875,258363.5625,303149.125,0.030517578125,0.948974609375,-0.206298828125,-16.845701217651367,17.120359420776367,4.608153820037842,80.0,901599.0,1.0
515273.135699,285630.8125,310743.8125,316379.21875,288195.625,297144.65625,301093.75,258698.5625,303524.71875,0.031005859375,0.9462890625,-0.202392578125,-16.204832077026367,16.784666061401367,4.486083507537842,80.0,901600.0,1.0
515273.1357349,282169.59375,310491.59375,317108.15625,291045.75,301109.5625,302654.0,259368.84375,305112.40625,0.033935546875,0.94677734375,-0.203369140625,-15.502928733825684,16.571043014526367,4.272460460662842,80.0,901601.0,1.0
515273.1405761,285880.6875,311989.78125,318178.625,293524.28125,301610.0625,302798.28125,259456.5625,305700.96875,0.038330078125,0.951171875,-0.205078125,-14.831542015075684,16.326902389526367,4.211425304412842,80.0,901602.0,1.0
515273.1406089,291456.9375,313127.03125,318093.15625,292292.96875,298064.625,301345.96875,258830.171875,304513.28125,0.038818359375,0.954345703125,-0.205078125,-13.946532249450684,16.113279342651367,3.967284917831421,80.0,901603.0,1.0
515273.1431227,291160.8125,312321.75,316945.34375,288925.1875,295304.75,300288.28125,258318.765625,303159.75,0.0419921875,0.95703125,-0.20703125,-13.214110374450684,15.960692405700684,3.631591558456421,80.0,901604.0,1.0
515273.1456198,285655.9375,310800.75,316370.1875,288098.4375,297135.53125,301095.90625,258580.734375,303502.5625,0.041748046875,0.958984375,-0.205322265625,-12.664793968200684,15.838622093200684,3.479003667831421,80.0,901605.0,1.0
515273.2107704,282105.75,310517.15625,317074.34375,290905.375,301086.0625,302652.65625,259238.046875,305077.375,0.041259765625,0.96142578125,-0.203369140625,-12.054442405700684,15.594481468200684,3.417968511581421,80.0,901606.0,1.0
515273.2156789,285842.53125,312040.46875,318175.9375,293453.375,301637.625,302821.4375,259354.28125,305696.5,0.043212890625,0.964111328125,-0.203125,-11.505125999450684,15.411375999450684,3.265380620956421,80.0,901607.0,1.0
515273.2182955,291533.5625,313229.75,318136.5,292345.09375,298142.5,301389.40625,258768.65625,304549.59375,0.04541015625,0.966064453125,-0.20166015625,-10.894774436950684,15.258788108825684,3.173827886581421,80.0,901608.0,1.0
515273.220649,291284.1875,312431.28125,316981.5625,289018.09375,295362.40625,300310.28125,258297.9375,303194.1875,0.044189453125,0.97119140625,-0.204345703125,-10.406493186950684,15.197752952575684,3.143310308456421,80.0,901609.0,1.0
515273.2231019,285717.28125,310870.21875,316363.3125,288132.25,297130.34375,301091.0625,258593.875,303506.21875,0.044921875,0.97705078125,-0.203857421875,-10.070799827575684,15.106200218200684,3.173827886581421,80.0,901610.0,1.0
515273.3031869,282082.25,310551.9375,317054.59375,290897.40625,301065.40625,302655.25,259248.78125,305080.59375,0.042724609375,0.979248046875,-0.20068359375,-9.765624046325684,14.953612327575684,3.143310308456421,80.0,901611.0,1.0
515273.3032283,285807.125,312063.53125,318168.875,293482.4375,301653.875,302833.78125,259347.21875,305711.0,0.040771484375,0.9814453125,-0.201416015625,-9.552000999450684,14.770506858825684,3.051757574081421,80.0,901612.0,1.0
515273.3032374,291580.5625,313293.5,318165.5625,292468.03125,298213.21875,301415.25,258755.875,304591.53125,0.037353515625,0.979248046875,-0.19873046875,-9.521483421325684,14.343260765075684,3.112792730331421,80.0,901613.0,1.0
515273.3032452,291379.78125,312509.5,317024.65625,289169.4375,295430.0,300338.71875,258274.234375,303241.03125,0.038330078125,0.97705078125,-0.20166015625,-9.277342796325684,14.160155296325684,3.051757574081421,80.0,901614.0,1.0
515273.3032529,285776.375,310927.34375,316383.5,288229.25,297155.1875,301111.1875,258561.859375,303537.40625,0.041259765625,0.971435546875,-0.20654296875,-9.094237327575684,13.946532249450684,3.143310308456421,80.0,901615.0,1.0
515273.3032606,282053.90625,310567.03125,317036.1875,290919.21875,301063.09375,302660.0625,259203.8125,305082.46875,0.046142578125,0.9677734375,-0.210693359375,-8.789061546325684,13.824461936950684,3.326415777206421,80.0,901616.0,1.0
515273.3032688,285773.875,312089.28125,318169.40625,293535.0,301688.5625,302859.09375,259329.78125,305732.4375,0.05078125,0.967041015625,-0.212158203125,-8.331297874450684,13.671874046325684,3.295898199081421,80.0,901617.0,1.0
515273.3032766,291605.78125,313332.5,318187.8125,292585.96875,298261.15625,301440.65625,258748.71875,304619.6875,0.05029296875,0.973388671875,-0.212646484375,-7.904052257537842,13.702391624450684,3.326415777206421,80.0,901618.0,1.0
515273.3032846,291445.125,312544.8125,317039.03125,289299.625,295441.4375,300340.03125,258245.0,303248.46875,0.047119140625,0.97802734375,-0.210693359375,-7.598876476287842,13.671874046325684,3.417968511581421,80.0,901619.0,1.0
515273.3032924,285803.09375,310928.53125,316368.03125,288298.625,297124.71875,301090.71875,258515.453125,303515.34375,0.040771484375,0.983154296875,-0.2109375,-7.629394054412842,13.488768577575684,3.570556402206421,80.0,901620.0,1.0
515273.3056766,282007.6875,310532.71875,317000.40625,290934.25,301029.46875,302639.40625,259159.453125,305053.125,0.037109375,0.98388671875,-0.20947265625,-7.568358898162842,13.244627952575684,3.570556402206421,80.0,901621.0,1.0
515273.3057121,285732.5625,312064.25,318151.09375,293576.6875,301695.1875,302853.09375,259285.796875,305722.4375,0.029541015625,0.984130859375,-0.21044921875,-7.751464366912842,13.122557640075684,3.601073980331421,80.0,901622.0,1.0
515273.3120725,291635.5625,313343.65625,318205.71875,292699.25,298307.5625,301455.125,258728.875,304642.59375,0.02392578125,0.979736328125,-0.214111328125,-7.995604991912842,12.878417015075684,3.570556402206421,80.0,901623.0,1.0
515273.312111,291505.28125,312570.84375,317060.125,289417.46875,295476.3125,300350.6875,258241.96875,303278.5,0.0244140625,0.9755859375,-0.215087890625,-8.117674827575684,12.420653343200684,3.570556402206421,80.0,901624.0,1.0
515273.3121201,285850.46875,310970.71875,316377.4375,288359.5,297135.15625,301107.34375,258513.84375,303543.59375,0.0224609375,0.970947265625,-0.216796875,-8.148192405700684,11.840819358825684,3.601073980331421,80.0,901625.0,1.0
515273.3121279,282028.4375,310607.71875,317017.40625,290959.03125,301055.3125,302688.59375,259177.4375,305097.65625,0.0244140625,0.966552734375,-0.215576171875,-8.087157249450684,11.260985374450684,3.723144292831421,80.0,901626.0,1.0
515273.3121357,285743.5625,312152.5,318183.28125,293601.4375,301748.9375,302917.46875,259324.6875,305780.09375,0.025146484375,0.96142578125,-0.216552734375,-8.239745140075684,10.681151390075684,3.875732183456421,80.0,901627.0,1.0
515273.3121437,291709.9375,313464.8125,318260.5,292750.46875,298383.09375,301512.875,258760.078125,304709.09375,0.02783203125,0.961181640625,-0.21533203125,-8.453368186950684,10.162352561950684,3.997802495956421,80.0,901628.0,1.0
515273.3121514,291599.0,312678.9375,317092.78125,289418.28125,295513.84375,300372.0625,258225.25,303306.46875,0.03125,0.962646484375,-0.218994140625,-8.270262718200684,9.765624046325684,4.028319835662842,80.0,901629.0,1.0
515273.3143575,285856.84375,311006.5625,316352.375,288224.25,297091.625,301075.15625,258452.609375,303498.09375,0.034912109375,0.967041015625,-0.218017578125,-8.087157249450684,9.552000999450684,3.723144292831421,80.0,901630.0,1.0
515273.3927459,281912.8125,310571.875,316941.84375,290706.34375,300966.53125,302619.21875,259106.34375,305003.875,0.043212890625,0.971923828125,-0.21923828125,-7.659911632537842,9.277342796325684,3.356933355331421,80.0,901631.0,1.0
515273.3927647,285593.78125,312116.03125,318110.75,293342.15625,301684.90625,302851.75,259261.46875,305686.3125,0.05029296875,0.9755859375,-0.216552734375,-7.354735851287842,9.185790061950684,3.082275152206421,80.0,901632.0,1.0
515273.3927683,291614.09375,313459.90625,318215.28125,292534.1875,298345.90625,301457.53125,258692.9375,304628.4375,0.05712890625,0.982177734375,-0.208740234375,-7.354735851287842,9.155272483825684,2.655029058456421,80.0,901633.0,1.0
515273.392773,291614.09375,313459.90625,318215.28125,292534.1875,298345.90625,301457.53125,258692.9375,304628.4375,0.05712890625,0.982177734375,-0.208740234375,-7.354735851287842,9.155272483825684,2.655029058456421,80.0,901634.0,0.0
515273.3927736,291614.09375,313459.90625,318215.28125,292534.1875,298345.90625,301457.53125,258692.9375,304628.4375,0.05712890625,0.982177734375,-0.208740234375,-7.354735851287842,9.155272483825684,2.655029058456421,80.0,901635.0,0.0
515273.3927741,291614.09375,313459.90625,318215.28125,292534.1875,298345.90625,301457.53125,258692.9375,304628.4375,0.05712890625,0.982177734375,-0.208740234375,-7.354735851287842,9.155272483825684,2.655029058456421,80.0,901636.0,0.0
515273.3927747,291614.09375,313459.90625,318215.28125,292534.1875,298345.90625,301457.53125,258692.9375,304628.4375,0.05712890625,0.982177734375,-0.208740234375,-7.354735851287842,9.155272483825684,2.655029058456421,80.0,901637.0,0.0
515273.3927752,291614.09375,313459.90625,318215.28125,292534.1875,298345.90625,301457.53125,258692.9375,304628.4375,0.05712890625,0.982177734375,-0.208740234375,-7.354735851287842,9.155272483825684,2.655029058456421,80.0,901638.0,0.0
515273.3927758,291614.09375,313459.90625,318215.28125,292534.1875,298345.90625,301457.53125,258692.9375,304628.4375,0.05712890625,0.982177734375,-0.208740234375,-7.354735851287842,9.155272483825684,2.655029058456421,80.0,901639.0,0.0
515273.3927763,291614.09375,313459.90625,318215.28125,292534.1875,298345.90625,301457.53125,258692.9375,304628.4375,0.05712890625,0.982177734375,-0.208740234375,-7.354735851287842,9.155272483825684,2.655029058456421,80.0,901640.0,0.0
515273.3927768,291614.09375,313459.90625,318215.28125,292534.1875,298345.90625,301457.53125,258692.9375,304628.4375,0.05712890625,0.982177734375,-0.208740234375,-7.354735851287842,9.155272483825684,2.655029058456421,80.0,901641.0,0.0
515273.3927773,291614.09375,313459.90625,318215.28125,292534.1875,298345.90625,301457.53125,258692.9375,304628.4375,0.05712890625,0.982177734375,-0.208740234375,-7.354735851287842,9.155272483825684,2.655029058456421,80.0,901642.0,0.0
515273.3927778,291658.8125,313514.0,318251.9375,292710.5,298447.3125,301478.71875,258685.953125,304679.875,0.045654296875,0.978271484375,-0.188720703125,-8.148192405700684,11.474608421325684,-0.7629393935203552,80.0,901643.0,1.0
515273.392781,291715.125,312793.0,317118.59375,289489.96875,295572.34375,300341.21875,258171.875,303304.96875,0.042236328125,0.9775390625,-0.186279296875,-8.056639671325684,11.505125999450684,-1.1901854276657104,80.0,901644.0,1.0
515273.392784,285932.90625,311114.65625,316341.125,288228.34375,297078.03125,301040.28125,258442.421875,303489.75,0.036376953125,0.97705078125,-0.188232421875,-7.904052257537842,11.505125999450684,-1.7395018339157104,80.0,901645.0,1.0
515273.3927876,281807.15625,310620.25,316883.28125,290611.59375,300924.0625,302597.65625,259113.5,304982.25,0.033203125,0.981201171875,-0.18603515625,-7.873534679412842,11.444090843200684,-2.319335699081421,80.0,901646.0,1.0
515273.3980243,285459.15625,312153.03125,318081.96875,293335.53125,301725.59375,302871.25,259268.890625,305705.375,0.027587890625,0.98095703125,-0.182861328125,-7.843017101287842,11.352538108825684,-2.593993902206421,80.0,901647.0,1.0
515273.4007222,291661.84375,313558.6875,318259.96875,292731.34375,298472.0625,301504.75,258713.59375,304700.25,0.01904296875,0.976806640625,-0.181640625,-7.873534679412842,11.108397483825684,-2.838134527206421,80.0,901648.0,1.0
515273.4030324,291756.4375,312842.8125,317130.0625,289501.5,295572.5,300355.96875,258198.953125,303318.625,0.010986328125,0.972900390625,-0.18115234375,-7.904052257537842,10.711668968200684,-2.960204839706421,80.0,901649.0,1.0
515273.4682189,285983.6875,311167.15625,316345.25,288200.0,297055.6875,301059.5,258448.5,303498.34375,0.0068359375,0.9697265625,-0.1845703125,-7.812499523162842,10.253905296325684,-2.960204839706421,80.0,901650.0,1.0
515273.4682584,281830.21875,310673.71875,316882.125,290558.03125,300923.875,302638.78125,259111.453125,304994.03125,0.003173828125,0.9677734375,-0.183349609375,-7.476806163787842,9.674071311950684,-2.960204839706421,80.0,901651.0,1.0
515273.468267,285449.03125,312188.875,318083.75,293299.25,301743.65625,302916.125,259258.703125,305717.6875,-0.00048828125,0.96875,-0.177734375,-7.171630382537842,9.002684593200684,-2.838134527206421,80.0,901652.0,1.0
515273.472155,291667.9375,313592.21875,318280.8125,292752.0,298493.96875,301549.09375,258691.234375,304725.0,-0.00341796875,0.971435546875,-0.178955078125,-6.805419445037842,8.331297874450684,-2.807616949081421,80.0,901653.0,1.0
515273.4721963,291805.96875,312896.375,317162.78125,289565.625,295590.03125,300401.5625,258152.296875,303350.5625,-0.00634765625,0.9736328125,-0.17822265625,-6.530761241912842,7.476806163787842,-2.502441167831421,80.0,901654.0,1.0
515273.4722051,286009.90625,311200.03125,316346.59375,288224.6875,297034.84375,301082.46875,258379.390625,303494.9375,-0.009033203125,0.972900390625,-0.1787109375,-6.256103038787842,6.591796398162842,-2.258300542831421,80.0,901655.0,1.0
515273.4722131,281795.25,310672.53125,316859.0625,290546.84375,300883.375,302650.15625,259033.390625,304968.1875,-0.0078125,0.96923828125,-0.1796875,-5.981444835662842,5.737304210662842,-2.075195074081421,80.0,901656.0,1.0
515273.4745794,285391.65625,312188.0,318072.75,293317.125,301734.0,302934.8125,259215.78125,305709.125,-0.00146484375,0.96533203125,-0.179443359375,-5.584716320037842,4.882812023162842,-1.8920897245407104,80.0,901657.0,1.0
515273.478264,291631.28125,313600.71875,318282.875,292809.375,298507.125,301558.9375,258693.109375,304722.5,0.003662109375,0.96630859375,-0.180908203125,-5.004882335662842,4.150390148162842,-1.6174315214157104,80.0,901658.0,1.0
515273.4783001,291793.625,312905.9375,317160.09375,289620.15625,295587.15625,300390.75,258172.859375,303334.8125,0.0087890625,0.970703125,-0.178466796875,-4.669188976287842,3.417968511581421,-1.3427733182907104,80.0,901659.0,1.0
515273.4783089,286003.375,311208.8125,316335.65625,288246.21875,297010.09375,301063.71875,258406.46875,303469.125,0.011962890625,0.973876953125,-0.177490234375,-4.302978038787842,2.777099370956421,-0.9460448622703552,80.0,901660.0,1.0
515273.4803831,281768.34375,310678.53125,316847.71875,290540.40625,300867.28125,302635.84375,259112.515625,304948.34375,0.013671875,0.9765625,-0.17578125,-4.028319835662842,2.227782964706421,-0.5493163466453552,80.0,901661.0,1.0
515273.4804154,285347.84375,312185.84375,318068.90625,293314.1875,301747.75,302923.0,259340.6875,305703.125,0.0166015625,0.978515625,-0.177734375,-3.814697027206421,1.7089842557907104,-0.0610351525247097,80.0,901662.0,1.0
515273.4870719,285347.84375,312185.84375,318068.90625,293314.1875,301747.75,302923.0,259340.6875,305703.125,0.0166015625,0.978515625,-0.177734375,-3.814697027206421,1.7089842557907104,-0.0610351525247097,80.0,901663.0,0.0
515273.4870792,285347.84375,312185.84375,318068.90625,293314.1875,301747.75,302923.0,259340.6875,305703.125,0.0166015625,0.978515625,-0.177734375,-3.814697027206421,1.7089842557907104,-0.0610351525247097,80.0,901664.0,0.0
515273.4870806,285347.84375,312185.84375,318068.90625,293314.1875,301747.75,302923.0,259340.6875,305703.125,0.0166015625,0.978515625,-0.177734375,-3.814697027206421,1.7089842557907104,-0.0610351525247097,80.0,901665.0,0.0
515273.4870821,285347.84375,312185.84375,318068.90625,293314.1875,301747.75,302923.0,259340.6875,305703.125,0.0166015625,0.978515625,-0.177734375,-3.814697027206421,1.7089842557907104,-0.0610351525247097,80.0,901666.0,0.0
515273.4870834,285347.84375,312185.84375,318068.90625,293314.1875,301747.75,302923.0,259340.6875,305703.125,0.0166015625,0.978515625,-0.177734375,-3.814697027206421,1.7089842557907104,-0.0610351525247097,80.0,901667.0,0.0
515273.4870848,285347.84375,312185.84375,318068.90625,293314.1875,301747.75,302923.0,259340.6875,305703.125,0.0166015625,0.978515625,-0.177734375,-3.814697027206421,1.7089842557907104,-0.0610351525247097,80.0,901668.0,0.0
515273.4870861,285347.84375,312185.84375,318068.90625,293314.1875,301747.75,302923.0,259340.6875,305703.125,0.0166015625,0.978515625,-0.177734375,-3.814697027206421,1.7089842557907104,-0.0610351525247097,80.0,901669.0,0.0
515273.4870874,285347.84375,312185.84375,318068.90625,293314.1875,301747.75,302923.0,259340.6875,305703.125,0.0166015625,0.978515625,-0.177734375,-3.814697027206421,1.7089842557907104,-0.0610351525247097,80.0,901670.0,0.0
515273.4870888,285347.84375,312185.84375,318068.90625,293314.1875,301747.75,302923.0,259340.6875,305703.125,0.0166015625,0.978515625,-0.177734375,-3.814697027206421,1.7089842557907104,-0.0610351525247097,80.0,901671.0,0.0
515273.4870901,285347.84375,312185.84375,318068.90625,293314.1875,301747.75,302923.0,259340.6875,305703.125,0.0166015625,0.978515625,-0.177734375,-3.814697027206421,1.7089842557907104,-0.0610351525247097,80.0,901672.0,0.0
515273.4870914,285347.84375,312185.84375,318068.90625,293314.1875,301747.75,302923.0,259340.6875,305703.125,0.0166015625,0.978515625,-0.177734375,-3.814697027206421,1.7089842557907104,-0.0610351525247097,80.0,901673.0,0.0
515273.4870927,285347.84375,312185.84375,318068.90625,293314.1875,301747.75,302923.0,259340.6875,305703.125,0.0166015625,0.978515625,-0.177734375,-3.814697027206421,1.7089842557907104,-0.0610351525247097,80.0,901674.0,0.0
515273.487094,285347.84375,312185.84375,318068.90625,293314.1875,301747.75,302923.0,259340.6875,305703.125,0.0166015625,0.978515625,-0.177734375,-3.814697027206421,1.7089842557907104,-0.0610351525247097,80.0,901675.0,0.0
515273.4870953,285347.84375,312185.84375,318068.90625,293314.1875,301747.75,302923.0,259340.6875,305703.125,0.0166015625,0.978515625,-0.177734375,-3.814697027206421,1.7089842557907104,-0.0610351525247097,80.0,901676.0,0.0
515273.4870966,285347.84375,312185.84375,318068.90625,293314.1875,301747.75,302923.0,259340.6875,305703.125,0.0166015625,0.978515625,-0.177734375,-3.814697027206421,1.7089842557907104,-0.0610351525247097,80.0,901677.0,0.0
515273.4870979,285347.84375,312185.84375,318068.90625,293314.1875,301747.75,302923.0,259340.6875,305703.125,0.0166015625,0.978515625,-0.177734375,-3.814697027206421,1.7089842557907104,-0.0610351525247097,80.0,901678.0,0.0
515273.4870992,285347.84375,312185.84375,318068.90625,293314.1875,301747.75,302923.0,259340.6875,305703.125,0.0166015625,0.978515625,-0.177734375,-3.814697027206421,1.7089842557907104,-0.0610351525247097,80.0,901679.0,0.0
515273.4871006,285347.84375,312185.84375,318068.90625,293314.1875,301747.75,302923.0,259340.6875,305703.125,0.0166015625,0.978515625,-0.177734375,-3.814697027206421,1.7089842557907104,-0.0610351525247097,80.0,901680.0,0.0
515273.4871019,285347.84375,312185.84375,318068.90625,293314.1875,301747.75,302923.0,259340.6875,305703.125,0.0166015625,0.978515625,-0.177734375,-3.814697027206421,1.7089842557907104,-0.0610351525247097,80.0,901681.0,0.0
515273.4871032,285347.84375,312185.84375,318068.90625,293314.1875,301747.75,302923.0,259340.6875,305703.125,0.0166015625,0.978515625,-0.177734375,-3.814697027206421,1.7089842557907104,-0.0610351525247097,80.0,901682.0,0.0
515273.4871045,285347.84375,312185.84375,318068.90625,293314.1875,301747.75,302923.0,259340.6875,305703.125,0.0166015625,0.978515625,-0.177734375,-3.814697027206421,1.7089842557907104,-0.0610351525247097,80.0,901683.0,0.0
515273.4871058,285347.84375,312185.84375,318068.90625,293314.1875,301747.75,302923.0,259340.6875,305703.125,0.0166015625,0.978515625,-0.177734375,-3.814697027206421,1.7089842557907104,-0.0610351525247097,80.0,901684.0,0.0
515273.4871071,285347.84375,312185.84375,318068.90625,293314.1875,301747.75,302923.0,259340.6875,305703.125,0.0166015625,0.978515625,-0.177734375,-3.814697027206421,1.7089842557907104,-0.0610351525247097,80.0,901685.0,0.0
515273.4871085,285347.84375,312185.84375,318068.90625,293314.1875,301747.75,302923.0,259340.6875,305703.125,0.0166015625,0.978515625,-0.177734375,-3.814697027206421,1.7089842557907104,-0.0610351525247097,80.0,901686.0,0.0
515273.4871098,285347.84375,312185.84375,318068.90625,293314.1875,301747.75,302923.0,259340.6875,305703.125,0.0166015625,0.978515625,-0.177734375,-3.814697027206421,1.7089842557907104,-0.0610351525247097,80.0,901687.0,0.0
515273.4871111,285347.84375,312185.84375,318068.90625,293314.1875,301747.75,302923.0,259340.6875,305703.125,0.0166015625,0.978515625,-0.177734375,-3.814697027206421,1.7089842557907104,-0.0610351525247097,80.0,901688.0,0.0
515273.4871124,285347.84375,312185.84375,318068.90625,293314.1875,301747.75,302923.0,259340.6875,305703.125,0.0166015625,0.978515625,-0.177734375,-3.814697027206421,1.7089842557907104,-0.0610351525247097,80.0,901689.0,0.0
515273.4871138,286189.78125,311322.34375,316375.0,288309.625,296999.8125,301020.96875,258423.546875,303482.4375,0.01513671875,0.966552734375,-0.1904296875,0.0610351525247097,-4.913329601287842,1.9836424589157104,80.0,901690.0,1.0
515273.5560319,281729.09375,310682.65625,316830.1875,290534.96875,300835.375,302579.25,259037.421875,304943.78125,0.01953125,0.966796875,-0.193603515625,0.2136230319738388,-5.126952648162842,2.105712652206421,80.0,901691.0,1.0
515273.5560658,285154.8125,312169.84375,318060.40625,293346.625,301830.0,302925.78125,259215.515625,305731.46875,0.021484375,0.969970703125,-0.197265625,0.3356933295726776,-5.126952648162842,2.441406011581421,80.0,901692.0,1.0
515273.5560737,291583.71875,313690.65625,318349.125,292958.78125,298711.0625,301603.1875,258664.40625,304800.125,0.0234375,0.972412109375,-0.20068359375,0.3051757514476776,-5.065917491912842,2.685546636581421,80.0,901693.0,1.0
515273.5560813,292010.71875,313079.8125,317256.5625,289801.46875,295735.3125,300408.96875,258109.28125,303405.1875,0.023681640625,0.975830078125,-0.201171875,0.3051757514476776,-5.096435070037842,3.082275152206421,80.0,901694.0,1.0
515273.5560883,286233.40625,311327.625,316379.46875,288331.25,297013.84375,301001.21875,258285.140625,303484.5,0.022705078125,0.978271484375,-0.202392578125,0.1831054538488388,-5.004882335662842,3.479003667831421,80.0,901695.0,1.0
515273.5560952,281737.84375,310674.6875,316831.875,290554.1875,300853.5,302559.75,258941.3125,304957.28125,0.02392578125,0.980224609375,-0.204833984375,-0.1831054538488388,-4.882812023162842,3.906249761581421,80.0,901696.0,1.0
515273.5561021,285124.9375,312142.84375,318055.875,293355.5625,301856.65625,302910.21875,259150.515625,305745.40625,0.025390625,0.98095703125,-0.20654296875,-0.4577636420726776,-4.730224132537842,4.180907726287842,80.0,901697.0,1.0
515273.5561096,291573.6875,313670.375,318345.28125,292959.84375,298742.78125,301595.5,258649.296875,304801.0,0.026123046875,0.9794921875,-0.210205078125,-0.7019042372703552,-4.638671398162842,4.455565929412842,80.0,901698.0,1.0
515273.5561178,292031.28125,313068.65625,317252.28125,289791.625,295746.75,300394.0625,258127.171875,303400.28125,0.025390625,0.97802734375,-0.211181640625,-0.8239745497703552,-4.516601085662842,4.547118663787842,80.0,901699.0,1.0
515273.5578331,286243.78125,311299.71875,316360.71875,288295.59375,296987.28125,300963.40625,258316.34375,303470.71875,0.024658203125,0.9833984375,-0.213134765625,-1.0375975370407104,-4.302978038787842,4.638671398162842,80.0,901700.0,1.0
515273.5578701,286243.78125,311299.71875,316360.71875,288295.59375,296987.28125,300963.40625,258316.34375,303470.71875,0.024658203125,0.9833984375,-0.213134765625,-1.0375975370407104,-4.302978038787842,4.638671398162842,80.0,901701.0,0.0
515273.5578716,286243.78125,311299.71875,316360.71875,288295.59375,296987.28125,300963.40625,258316.34375,303470.71875,0.024658203125,0.9833984375,-0.213134765625,-1.0375975370407104,-4.302978038787842,4.638671398162842,80.0,901702.0,0.0
515273.5578728,286243.78125,311299.71875,316360.71875,288295.59375,296987.28125,300963.40625,258316.34375,303470.71875,0.024658203125,0.9833984375,-0.213134765625,-1.0375975370407104,-4.302978038787842,4.638671398162842,80.0,901703.0,0.0
515273.557874,286243.78125,311299.71875,316360.71875,288295.59375,296987.28125,300963.40625,258316.34375,303470.71875,0.024658203125,0.9833984375,-0.213134765625,-1.0375975370407104,-4.302978038787842,4.638671398162842,80.0,901704.0,0.0
515273.5578752,286243.78125,311299.71875,316360.71875,288295.59375,296987.28125,300963.40625,258316.34375,303470.71875,0.024658203125,0.9833984375,-0.213134765625,-1.0375975370407104,-4.302978038787842,4.638671398162842,80.0,901705.0,0.0
515273.5578764,286243.78125,311299.71875,316360.71875,288295.59375,296987.28125,300963.40625,258316.34375,303470.71875,0.024658203125,0.9833984375,-0.213134765625,-1.0375975370407104,-4.302978038787842,4.638671398162842,80.0,901706.0,0.0
515273.5578776,286243.78125,311299.71875,316360.71875,288295.59375,296987.28125,300963.40625,258316.34375,303470.71875,0.024658203125,0.9833984375,-0.213134765625,-1.0375975370407104,-4.302978038787842,4.638671398162842,80.0,901707.0,0.0
515273.5578788,286243.78125,311299.71875,316360.71875,288295.59375,296987.28125,300963.40625,258316.34375,303470.71875,0.024658203125,0.9833984375,-0.213134765625,-1.0375975370407104,-4.302978038787842,4.638671398162842,80.0,901708.0,0.0
515273.55788,286243.78125,311299.71875,316360.71875,288295.59375,296987.28125,300963.40625,258316.34375,303470.71875,0.024658203125,0.9833984375,-0.213134765625,-1.0375975370407104,-4.302978038787842,4.638671398162842,80.0,901709.0,0.0
515273.5578812,286286.0625,311264.875,316362.21875,288292.28125,296945.53125,300945.25,258257.4375,303468.40625,0.03076171875,0.9990234375,-0.20751953125,-6.530761241912842,-1.6479490995407104,4.364013195037842,80.0,901710.0,1.0
515273.6355183,281615.09375,310508.3125,316764.125,290466.75,300721.375,302464.53125,258898.484375,304911.25,0.0341796875,0.998291015625,-0.20751953125,-7.171630382537842,-1.3122557401657104,4.394530773162842,80.0,901711.0,1.0
515273.6507143,284949.8125,311995.84375,318015.71875,293320.71875,301787.8125,302863.375,259112.875,305730.3125,0.039794921875,0.998779296875,-0.20703125,-7.598876476287842,-1.0070799589157104,4.364013195037842,80.0,901712.0,1.0
515273.6507344,291561.0,313644.78125,318379.875,293036.125,298760.21875,301612.3125,258607.375,304828.28125,0.04736328125,0.998046875,-0.1982421875,-8.209227561950684,-0.5493163466453552,4.241942882537842,80.0,901713.0,1.0
515273.6507376,292169.40625,313117.8125,317319.5,289936.90625,295770.28125,300419.53125,258078.4375,303437.375,0.048095703125,0.99755859375,-0.19775390625,-8.880614280700684,-0.1525878757238388,4.150390148162842,80.0,901714.0,1.0
515273.6507403,286330.34375,311302.6875,316376.25,288407.6875,296925.3125,300937.46875,258238.75,303479.3125,0.051513671875,0.995361328125,-0.194580078125,-9.460448265075684,0.3967284858226776,4.150390148162842,80.0,901715.0,1.0
515273.650743,281573.0625,310500.4375,316732.09375,290530.40625,300674.4375,302423.40625,258846.625,304897.75,0.055908203125,0.992919921875,-0.1953125,-9.948729515075684,1.0986326932907104,4.150390148162842,80.0,901716.0,1.0
515273.6507457,284868.625,311960.4375,317982.0,293371.65625,301765.28125,302826.90625,259058.25,305707.78125,0.0595703125,0.990966796875,-0.192626953125,-10.284422874450684,1.7089842557907104,4.058837413787842,80.0,901717.0,1.0
515273.6507484,291563.40625,313658.5625,318391.125,293146.625,298798.40625,301615.78125,258582.25,304834.625,0.0625,0.988525390625,-0.190185546875,-10.589598655700684,2.319335699081421,3.936767339706421,80.0,901718.0,1.0
515273.6532637,292222.59375,313148.75,317331.5625,290057.0,295799.6875,300413.71875,258051.171875,303436.03125,0.06982421875,0.986572265625,-0.18505859375,-10.772704124450684,2.990722417831421,3.723144292831421,80.0,901719.0,1.0
515273.6571735,286350.0,311309.125,316363.5625,288481.0,296909.21875,300907.34375,258227.296875,303459.1875,0.0732421875,0.984619140625,-0.1826171875,-10.864256858825684,3.875732183456421,3.662109136581421,80.0,901720.0,1.0
515273.6571956,281508.53125,310464.5,316700.8125,290537.09375,300631.5,302389.53125,258867.09375,304862.875,0.07275390625,0.98388671875,-0.1787109375,-10.955809593200684,4.699706554412842,3.509521245956421,80.0,901721.0,1.0
515273.6571996,284809.875,311948.28125,317974.78125,293395.4375,301765.8125,302831.1875,259131.921875,305704.09375,0.07470703125,0.98486328125,-0.177001953125,-11.138915061950684,5.584716320037842,3.326415777206421,80.0,901722.0,1.0
515273.6572058,291560.90625,313664.1875,318398.46875,293193.21875,298817.28125,301623.75,258663.78125,304832.03125,0.076416015625,0.983154296875,-0.173583984375,-11.077879905700684,6.469726085662842,3.173827886581421,80.0,901723.0,1.0
515273.659517,292270.625,313167.71875,317348.46875,290102.6875,295815.4375,300419.0,258119.828125,303428.6875,0.07568359375,0.980224609375,-0.169921875,-11.077879905700684,7.354735851287842,2.929687261581421,80.0,901724.0,1.0
515273.768248,292270.625,313167.71875,317348.46875,290102.6875,295815.4375,300419.0,258119.828125,303428.6875,0.07568359375,0.980224609375,-0.169921875,-11.077879905700684,7.354735851287842,2.929687261581421,80.0,901725.0,0.0
515273.7682561,292270.625,313167.71875,317348.46875,290102.6875,295815.4375,300419.0,258119.828125,303428.6875,0.07568359375,0.980224609375,-0.169921875,-11.077879905700684,7.354735851287842,2.929687261581421,80.0,901726.0,0.0
515273.7682575,292270.625,313167.71875,317348.46875,290102.6875,295815.4375,300419.0,258119.828125,303428.6875,0.07568359375,0.980224609375,-0.169921875,-11.077879905700684,7.354735851287842,2.929687261581421,80.0,901727.0,0.0
515273.7682588,292270.625,313167.71875,317348.46875,290102.6875,295815.4375,300419.0,258119.828125,303428.6875,0.07568359375,0.980224609375,-0.169921875,-11.077879905700684,7.354735851287842,2.929687261581421,80.0,901728.0,0.0
515273.7682602,292270.625,313167.71875,317348.46875,290102.6875,295815.4375,300419.0,258119.828125,303428.6875,0.07568359375,0.980224609375,-0.169921875,-11.077879905700684,7.354735851287842,2.929687261581421,80.0,901729.0,0.0
515273.7682616,292270.625,313167.71875,317348.46875,290102.6875,295815.4375,300419.0,258119.828125,303428.6875,0.07568359375,0.980224609375,-0.169921875,-11.077879905700684,7.354735851287842,2.929687261581421,80.0,901730.0,0.0
515273.7682629,281444.34375,310422.46875,316672.75,290305.71875,300570.90625,302397.40625,258898.5625,304808.59375,0.05078125,0.962890625,-0.153564453125,-8.941649436950684,11.810301780700684,1.9531248807907104,80.0,901731.0,1.0
515273.7707798,284710.0,311906.0,317972.0,293174.34375,301762.4375,302873.21875,259168.40625,305677.65625,0.047119140625,0.964111328125,-0.150634765625,-8.270262718200684,12.237547874450684,1.8615721464157104,80.0,901732.0,1.0
515273.775723,291565.90625,313657.5,318443.625,293061.25,298866.1875,301678.65625,258687.296875,304831.3125,0.043212890625,0.971923828125,-0.1533203125,-7.598876476287842,12.329100608825684,1.8005369901657104,80.0,901733.0,1.0
515273.7782451,292382.8125,313196.78125,317404.96875,290010.6875,295850.65625,300467.90625,258156.3125,303432.71875,0.039794921875,0.978515625,-0.146728515625,-6.927489757537842,12.329100608825684,1.9531248807907104,80.0,901734.0,1.0
515273.7806907,286461.21875,311334.96875,316379.46875,288299.96875,296866.6875,300933.09375,258308.390625,303409.5625,0.033203125,0.984130859375,-0.144287109375,-6.378173351287842,12.237547874450684,2.105712652206421,80.0,901735.0,1.0
515273.8019889,281436.8125,310433.8125,316653.875,290214.625,300551.21875,302415.09375,258922.53125,304785.53125,0.02880859375,0.986328125,-0.138916015625,-5.950927257537842,11.932372093200684,2.471923589706421,80.0,901736.0,1.0
515273.8020285,284668.875,311900.90625,317950.375,293113.46875,301758.65625,302885.1875,259166.078125,305656.375,0.023681640625,0.986572265625,-0.135009765625,-5.676269054412842,11.718749046325684,2.899169683456421,80.0,901737.0,1.0
515273.8020371,291570.75,313672.59375,318453.09375,293093.6875,298896.5625,301699.21875,258696.0625,304839.1875,0.01708984375,0.986328125,-0.137451171875,-5.279540538787842,11.016844749450684,3.448486089706421,80.0,901738.0,1.0
515273.8132157,292425.90625,313214.46875,317420.71875,290095.0,295871.125,300475.59375,258153.625,303441.3125,0.01123046875,0.984375,-0.136474609375,-4.638671398162842,10.314940452575684,3.936767339706421,80.0,901739.0,1.0
515273.813248,286487.59375,311330.84375,316377.25,288374.09375,296856.21875,300932.5625,258302.5,303406.0,0.002685546875,0.981201171875,-0.1337890625,-4.211425304412842,9.307860374450684,4.455565929412842,80.0,901740.0,1.0
515273.8132576,281427.34375,310424.09375,316643.6875,290293.28125,300546.3125,302428.5,258949.796875,304788.3125,0.00146484375,0.9755859375,-0.129638671875,-3.662109136581421,8.178709983825684,5.065917491912842,80.0,901741.0,1.0
515273.8132654,284630.53125,311889.1875,317943.65625,293235.21875,301779.84375,302908.8125,259226.96875,305674.5,0.000244140625,0.970947265625,-0.130126953125,-2.929687261581421,6.958007335662842,5.615233898162842,80.0,901742.0,1.0
515273.8132732,291546.4375,313666.25,318451.03125,293270.625,298925.09375,301711.90625,258761.859375,304869.21875,0.000732421875,0.96826171875,-0.130615234375,-2.136230230331421,5.615233898162842,6.042479991912842,80.0,901743.0,1.0
515273.813281,292440.65625,313224.03125,317423.9375,290303.75,295888.90625,300476.75,258199.578125,303471.15625,0.006103515625,0.963623046875,-0.134033203125,-1.3732908964157104,4.333495616912842,6.500243663787842,80.0,901744.0,1.0
515273.8132888,286523.09375,311353.03125,316376.09375,288581.5,296859.6875,300929.25,258321.8125,303422.4375,0.01611328125,0.9609375,-0.13671875,-0.5798339247703552,3.173827886581421,6.866454601287842,80.0,901745.0,1.0
515273.8156755,281430.8125,310433.46875,316631.96875,290474.0,300553.1875,302423.84375,258936.5625,304796.28125,0.027587890625,0.95947265625,-0.139404296875,0.2441406100988388,2.044677495956421,7.080077648162842,80.0,901746.0,1.0
515273.819557,281430.8125,310433.46875,316631.96875,290474.0,300553.1875,302423.84375,258936.5625,304796.28125,0.027587890625,0.95947265625,-0.139404296875,0.2441406100988388,2.044677495956421,7.080077648162842,80.0,901747.0,0.0
515273.819562,281430.8125,310433.46875,316631.96875,290474.0,300553.1875,302423.84375,258936.5625,304796.28125,0.027587890625,0.95947265625,-0.139404296875,0.2441406100988388,2.044677495956421,7.080077648162842,80.0,901748.0,0.0
515273.8195635,281430.8125,310433.46875,316631.96875,290474.0,300553.1875,302423.84375,258936.5625,304796.28125,0.027587890625,0.95947265625,-0.139404296875,0.2441406100988388,2.044677495956421,7.080077648162842,80.0,901749.0,0.0
515273.8195649,281430.8125,310433.46875,316631.96875,290474.0,300553.1875,302423.84375,258936.5625,304796.28125,0.027587890625,0.95947265625,-0.139404296875,0.2441406100988388,2.044677495956421,7.080077648162842,80.0,901750.0,0.0
515273.8195661,281430.8125,310433.46875,316631.96875,290474.0,300553.1875,302423.84375,258936.5625,304796.28125,0.027587890625,0.95947265625,-0.139404296875,0.2441406100988388,2.044677495956421,7.080077648162842,80.0,901751.0,0.0
515273.8195675,281430.8125,310433.46875,316631.96875,290474.0,300553.1875,302423.84375,258936.5625,304796.28125,0.027587890625,0.95947265625,-0.139404296875,0.2441406100988388,2.044677495956421,7.080077648162842,80.0,901752.0,0.0
515273.8195687,281430.8125,310433.46875,316631.96875,290474.0,300553.1875,302423.84375,258936.5625,304796.28125,0.027587890625,0.95947265625,-0.139404296875,0.2441406100988388,2.044677495956421,7.080077648162842,80.0,901753.0,0.0
515273.81957,292477.78125,313266.40625,317459.875,290435.8125,295960.1875,300492.21875,258218.890625,303490.3125,0.07275390625,0.969970703125,-0.14794921875,4.882812023162842,-1.5869139432907104,7.110595226287842,80.0,901754.0,1.0
515273.8195942,286615.28125,311407.5625,316428.65625,288667.34375,296923.625,300938.4375,258353.8125,303444.15625,0.07421875,0.969482421875,-0.151611328125,5.371093273162842,-1.5258787870407104,6.500243663787842,80.0,901755.0,1.0
515273.8196036,281529.34375,310499.90625,316697.84375,290533.0,300635.71875,302434.125,258969.921875,304834.8125,0.075439453125,0.970458984375,-0.151611328125,5.920409679412842,-1.5563963651657104,5.920409679412842,80.0,901756.0,1.0
515273.8380845,284609.6875,311928.09375,317969.59375,293373.90625,301889.28125,302913.71875,259225.359375,305715.375,0.076171875,0.970458984375,-0.1513671875,6.225585460662842,-1.5258787870407104,5.432128429412842,80.0,901757.0,1.0
515273.8380937,291491.53125,313697.71875,318459.625,293281.8125,299018.6875,301718.25,258756.234375,304889.34375,0.07421875,0.968505859375,-0.150390625,6.591796398162842,-1.4038084745407104,4.882812023162842,80.0,901758.0,1.0
515273.8380954,292459.96875,313271.6875,317431.09375,290201.28125,295938.28125,300463.59375,258200.21875,303466.34375,0.07421875,0.968994140625,-0.151611328125,6.896972179412842,-1.2512205839157104,4.241942882537842,80.0,901759.0,1.0
515273.8380968,286631.53125,311417.75,316404.5,288416.8125,296891.53125,300903.75,258320.734375,303408.9375,0.07763671875,0.97021484375,-0.154541015625,7.324218273162842,-1.1596678495407104,3.570556402206421,80.0,901760.0,1.0
515273.8380982,281546.4375,310515.46875,316687.21875,290307.25,300626.25,302415.28125,258936.75,304804.75,0.079345703125,0.969970703125,-0.155517578125,7.751464366912842,-1.0070799589157104,2.960204839706421,80.0,901761.0,1.0
515273.8380997,284566.34375,311914.9375,317937.03125,293138.9375,301872.75,302882.15625,259167.5,305672.1875,0.08056640625,0.970703125,-0.15478515625,8.178709983825684,-0.7019042372703552,2.380370855331421,80.0,901762.0,1.0
515273.8381012,291408.03125,313663.75,318408.5625,293016.09375,298979.1875,301682.75,258677.109375,304837.65625,0.0771484375,0.970703125,-0.15625,8.636473655700684,-0.3051757514476776,1.8615721464157104,80.0,901763.0,1.0
515273.8381026,292427.96875,313273.84375,317411.6875,289969.09375,295914.21875,300465.75,258133.15625,303446.03125,0.071533203125,0.972412109375,-0.15625,9.033202171325684,0.0,1.3122557401657104,80.0,901764.0,1.0
515273.8429524,286680.09375,311464.34375,316425.71875,288269.65625,296902.09375,300937.90625,258281.125,303421.625,0.062744140625,0.978271484375,-0.156005859375,9.490965843200684,0.1220703050494194,0.9765624403953552,80.0,901765.0,1.0
515273.8467908,286680.09375,311464.34375,316425.71875,288269.65625,296902.09375,300937.90625,258281.125,303421.625,0.062744140625,0.978271484375,-0.156005859375,9.490965843200684,0.1220703050494194,0.9765624403953552,80.0,901766.0,0.0
515273.8467919,286680.09375,311464.34375,316425.71875,288269.65625,296902.09375,300937.90625,258281.125,303421.625,0.062744140625,0.978271484375,-0.156005859375,9.490965843200684,0.1220703050494194,0.9765624403953552,80.0,901767.0,0.0
515273.8467922,286680.09375,311464.34375,316425.71875,288269.65625,296902.09375,300937.90625,258281.125,303421.625,0.062744140625,0.978271484375,-0.156005859375,9.490965843200684,0.1220703050494194,0.9765624403953552,80.0,901768.0,0.0
515273.8467924,286680.09375,311464.34375,316425.71875,288269.65625,296902.09375,300937.90625,258281.125,303421.625,0.062744140625,0.978271484375,-0.156005859375,9.490965843200684,0.1220703050494194,0.9765624403953552,80.0,901769.0,0.0
515273.8467926,286680.09375,311464.34375,316425.71875,288269.65625,296902.09375,300937.90625,258281.125,303421.625,0.062744140625,0.978271484375,-0.156005859375,9.490965843200684,0.1220703050494194,0.9765624403953552,80.0,901770.0,0.0
515273.8467929,286680.09375,311464.34375,316425.71875,288269.65625,296902.09375,300937.90625,258281.125,303421.625,0.062744140625,0.978271484375,-0.156005859375,9.490965843200684,0.1220703050494194,0.9765624403953552,80.0,901771.0,0.0
515273.8467931,286680.09375,311464.34375,316425.71875,288269.65625,296902.09375,300937.90625,258281.125,303421.625,0.062744140625,0.978271484375,-0.156005859375,9.490965843200684,0.1220703050494194,0.9765624403953552,80.0,901772.0,0.0
515273.8467934,286680.09375,311464.34375,316425.71875,288269.65625,296902.09375,300937.90625,258281.125,303421.625,0.062744140625,0.978271484375,-0.156005859375,9.490965843200684,0.1220703050494194,0.9765624403953552,80.0,901773.0,0.0
515273.8467936,286680.09375,311464.34375,316425.71875,288269.65625,296902.09375,300937.90625,258281.125,303421.625,0.062744140625,0.978271484375,-0.156005859375,9.490965843200684,0.1220703050494194,0.9765624403953552,80.0,901774.0,0.0
515273.8467939,286680.09375,311464.34375,316425.71875,288269.65625,296902.09375,300937.90625,258281.125,303421.625,0.062744140625,0.978271484375,-0.156005859375,9.490965843200684,0.1220703050494194,0.9765624403953552,80.0,901775.0,0.0
515273.8467941,286680.09375,311464.34375,316425.71875,288269.65625,296902.09375,300937.90625,258281.125,303421.625,0.062744140625,0.978271484375,-0.156005859375,9.490965843200684,0.1220703050494194,0.9765624403953552,80.0,901776.0,0.0
515273.8467943,284616.5,312016.59375,317976.90625,293547.1875,301962.25,302967.53125,259181.0,305769.5625,0.02685546875,0.97314453125,-0.16796875,10.986327171325684,-4.699706554412842,1.4038084745407104,80.0,901777.0,1.0
515273.8467995,291299.9375,313695.9375,318385.0625,293355.125,298995.1875,301730.40625,258691.953125,304903.65625,0.033935546875,0.968994140625,-0.169677734375,11.383055686950684,-5.249022960662842,1.6174315214157104,80.0,901778.0,1.0
515273.8492767,292339.65625,313289.9375,317374.125,290303.125,295873.8125,300480.875,258139.765625,303481.375,0.039794921875,0.968505859375,-0.172119140625,11.901854515075684,-5.676269054412842,1.8920897245407104,80.0,901779.0,1.0
515273.8694987,286761.625,311540.25,316442.96875,288730.71875,296900.75,300956.96875,258275.84375,303470.90625,0.04541015625,0.96875,-0.17236328125,12.420653343200684,-6.072997570037842,2.197265386581421,80.0,901780.0,1.0
515273.8695112,281799.0,310704.71875,316792.375,290845.21875,300748.8125,302508.625,258899.640625,304919.03125,0.049560546875,0.96826171875,-0.17431640625,12.786864280700684,-6.286620616912842,2.532958745956421,80.0,901781.0,1.0
515273.8695129,284632.40625,312043.15625,317984.15625,293667.15625,302002.84375,302965.46875,259121.640625,305784.9375,0.052734375,0.96728515625,-0.1748046875,13.153075218200684,-6.347655773162842,2.838134527206421,80.0,901782.0,1.0
515273.8695143,291260.0625,313688.96875,318351.875,293366.46875,298997.96875,301710.46875,258627.046875,304894.4375,0.054443359375,0.966552734375,-0.180908203125,13.458250999450684,-6.530761241912842,3.143310308456421,80.0,901783.0,1.0
515273.8695157,292310.5,313274.09375,317337.03125,290240.625,295855.84375,300457.09375,258090.0625,303458.28125,0.0546875,0.96240234375,-0.181640625,13.824461936950684,-6.774901866912842,3.479003667831421,80.0,901784.0,1.0
515273.8695172,286800.4375,311546.75,316440.8125,288673.5,296906.625,300943.46875,258256.359375,303459.46875,0.055419921875,0.959716796875,-0.186279296875,14.251708030700684,-6.744384288787842,3.845214605331421,80.0,901785.0,1.0
515273.8695186,281874.65625,310725.03125,316811.40625,290810.6875,300788.96875,302495.375,258904.734375,304921.875,0.0546875,0.95703125,-0.19091796875,14.495848655700684,-6.683349132537842,4.180907726287842,80.0,901786.0,1.0
515273.8718,284659.84375,312043.96875,317983.875,293583.75,302034.21875,302948.3125,259139.96875,305784.75,0.057373046875,0.95654296875,-0.18994140625,14.923094749450684,-6.835937023162842,4.394530773162842,80.0,901787.0,1.0
515273.8758138,291231.25,313662.3125,318320.875,293174.0625,298990.4375,301689.03125,258633.921875,304877.4375,0.05810546875,0.95703125,-0.1962890625,15.441893577575684,-6.835937023162842,4.486083507537842,80.0,901788.0,1.0
515273.8758274,292284.03125,313239.59375,317298.84375,289981.09375,295826.59375,300432.21875,258082.015625,303429.0625,0.0576171875,0.959228515625,-0.202880859375,15.747069358825684,-6.927489757537842,4.669188976287842,80.0,901789.0,1.0
515273.8758296,292284.03125,313239.59375,317298.84375,289981.09375,295826.59375,300432.21875,258082.015625,303429.0625,0.0576171875,0.959228515625,-0.202880859375,15.747069358825684,-6.927489757537842,4.669188976287842,80.0,901790.0,0.0
515273.8758299,292284.03125,313239.59375,317298.84375,289981.09375,295826.59375,300432.21875,258082.015625,303429.0625,0.0576171875,0.959228515625,-0.202880859375,15.747069358825684,-6.927489757537842,4.669188976287842,80.0,901791.0,0.0
515273.8758302,292284.03125,313239.59375,317298.84375,289981.09375,295826.59375,300432.21875,258082.015625,303429.0625,0.0576171875,0.959228515625,-0.202880859375,15.747069358825684,-6.927489757537842,4.669188976287842,80.0,901792.0,0.0
515273.8758305,292284.03125,313239.59375,317298.84375,289981.09375,295826.59375,300432.21875,258082.015625,303429.0625,0.0576171875,0.959228515625,-0.202880859375,15.747069358825684,-6.927489757537842,4.669188976287842,80.0,901793.0,0.0
515273.8758308,292265.0625,313193.03125,317272.375,289730.21875,295805.0625,300442.25,258071.28125,303404.75,0.0615234375,0.97119140625,-0.22119140625,16.387937545776367,-7.110595226287842,5.096435070037842,80.0,901794.0,1.0
515273.8758324,286890.03125,311527.0,316453.0625,288277.71875,296916.65625,300965.0,258260.65625,303446.3125,0.060546875,0.9736328125,-0.2275390625,16.296384811401367,-7.110595226287842,5.187987804412842,80.0,901795.0,1.0
515273.8758342,282033.875,310749.96875,316882.21875,290589.40625,300883.65625,302550.625,258919.84375,304950.59375,0.062744140625,0.970458984375,-0.232177734375,16.143796920776367,-7.232665538787842,5.249022960662842,80.0,901796.0,1.0
515273.8794869,284727.625,312039.40625,318022.875,293394.28125,302127.375,303004.71875,259133.4375,305809.53125,0.064208984375,0.9697265625,-0.2314453125,16.052244186401367,-7.110595226287842,5.493163585662842,80.0,901797.0,1.0
515273.879501,291185.84375,313599.375,318293.59375,292888.6875,299002.53125,301725.59375,258608.4375,304868.0625,0.06689453125,0.9677734375,-0.232421875,15.777586936950684,-7.049560070037842,5.615233898162842,80.0,901798.0,1.0
515273.884432,292270.4375,313188.53125,317259.34375,289684.0625,295794.25,300452.6875,258023.984375,303411.90625,0.066650390625,0.965087890625,-0.23583984375,15.502928733825684,-6.958007335662842,5.737304210662842,80.0,901799.0,1.0
515273.886952,286946.25,311547.03125,316450.65625,288305.59375,296906.1875,300965.34375,258185.734375,303454.625,0.0703125,0.96337890625,-0.23876953125,15.106200218200684,-6.805419445037842,5.828856945037842,80.0,901800.0,1.0
515273.8919428,282097.71875,310773.40625,316894.03125,290710.03125,300888.5625,302544.03125,258839.296875,304960.875,0.072021484375,0.962646484375,-0.2421875,14.953612327575684,-6.683349132537842,6.011962413787842,80.0,901801.0,1.0
515273.8994824,284749.96875,312055.40625,318025.1875,293557.0,302138.46875,302995.25,259074.875,305823.5625,0.069091796875,0.95947265625,-0.24560546875,14.678954124450684,-6.561278820037842,6.256103038787842,80.0,901802.0,1.0
515273.8994991,291192.46875,313626.90625,318280.1875,293047.46875,299000.65625,301717.375,258574.640625,304879.40625,0.069091796875,0.95751953125,-0.2470703125,14.648436546325684,-6.347655773162842,6.317138195037842,80.0,901803.0,1.0
515273.8995022,292265.25,313203.125,317242.25,289828.8125,295776.96875,300445.1875,258009.328125,303401.96875,0.069580078125,0.956298828125,-0.250244140625,14.678954124450684,-6.286620616912842,6.408690929412842,80.0,901804.0,1.0
515273.902752,286951.53125,311553.1875,316441.53125,288473.78125,296888.21875,300948.90625,258166.328125,303437.375,0.068359375,0.95654296875,-0.252685546875,14.617918968200684,-6.286620616912842,6.530761241912842,80.0,901805.0,1.0
515273.902768,282103.875,310779.375,316888.125,290906.0,300882.03125,302523.625,258811.75,304947.375,0.068115234375,0.9580078125,-0.253173828125,14.465331077575684,-6.225585460662842,6.622313976287842,80.0,901806.0,1.0
515273.9027708,284725.28125,312057.46875,318010.875,293740.46875,302142.59375,302981.84375,259055.921875,305816.03125,0.0673828125,0.9599609375,-0.256103515625,14.434813499450684,-6.134032726287842,6.652831554412842,80.0,901807.0,1.0
515273.902774,291138.1875,313612.5,318245.5,293178.8125,298988.5625,301704.03125,258561.0625,304866.28125,0.06494140625,0.96142578125,-0.259521484375,14.251708030700684,-6.072997570037842,6.713866710662842,80.0,901808.0,1.0
515273.9094828,292233.15625,313189.8125,317206.75,289927.8125,295746.75,300432.40625,258016.03125,303396.6875,0.06396484375,0.962890625,-0.260986328125,13.977049827575684,-6.103515148162842,6.896972179412842,80.0,901809.0,1.0
515273.9095091,292233.15625,313189.8125,317206.75,289927.8125,295746.75,300432.40625,258016.03125,303396.6875,0.06396484375,0.962890625,-0.260986328125,13.977049827575684,-6.103515148162842,6.896972179412842,80.0,901810.0,0.0
515273.9095098,292233.15625,313189.8125,317206.75,289927.8125,295746.75,300432.40625,258016.03125,303396.6875,0.06396484375,0.962890625,-0.260986328125,13.977049827575684,-6.103515148162842,6.896972179412842,80.0,901811.0,0.0
515273.9095105,292233.15625,313189.8125,317206.75,289927.8125,295746.75,300432.40625,258016.03125,303396.6875,0.06396484375,0.962890625,-0.260986328125,13.977049827575684,-6.103515148162842,6.896972179412842,80.0,901812.0,0.0
515273.9095111,292233.15625,313189.8125,317206.75,289927.8125,295746.75,300432.40625,258016.03125,303396.6875,0.06396484375,0.962890625,-0.260986328125,13.977049827575684,-6.103515148162842,6.896972179412842,80.0,901813.0,0.0
515273.9095117,292233.15625,313189.8125,317206.75,289927.8125,295746.75,300432.40625,258016.03125,303396.6875,0.06396484375,0.962890625,-0.260986328125,13.977049827575684,-6.103515148162842,6.896972179412842,80.0,901814.0,0.0
515273.9095122,292233.15625,313189.8125,317206.75,289927.8125,295746.75,300432.40625,258016.03125,303396.6875,0.06396484375,0.962890625,-0.260986328125,13.977049827575684,-6.103515148162842,6.896972179412842,80.0,901815.0,0.0
515273.9095128,292233.15625,313189.8125,317206.75,289927.8125,295746.75,300432.40625,258016.03125,303396.6875,0.06396484375,0.962890625,-0.260986328125,13.977049827575684,-6.103515148162842,6.896972179412842,80.0,901816.0,0.0
515273.9095133,292233.15625,313189.8125,317206.75,289927.8125,295746.75,300432.40625,258016.03125,303396.6875,0.06396484375,0.962890625,-0.260986328125,13.977049827575684,-6.103515148162842,6.896972179412842,80.0,901817.0,0.0
515273.9095138,292233.15625,313189.8125,317206.75,289927.8125,295746.75,300432.40625,258016.03125,303396.6875,0.06396484375,0.962890625,-0.260986328125,13.977049827575684,-6.103515148162842,6.896972179412842,80.0,901818.0,0.0
515273.9095144,292233.15625,313189.8125,317206.75,289927.8125,295746.75,300432.40625,258016.03125,303396.6875,0.06396484375,0.962890625,-0.260986328125,13.977049827575684,-6.103515148162842,6.896972179412842,80.0,901819.0,0.0
515273.9095149,292233.15625,313189.8125,317206.75,289927.8125,295746.75,300432.40625,258016.03125,303396.6875,0.06396484375,0.962890625,-0.260986328125,13.977049827575684,-6.103515148162842,6.896972179412842,80.0,901820.0,0.0
515273.9095154,292233.15625,313189.8125,317206.75,289927.8125,295746.75,300432.40625,258016.03125,303396.6875,0.06396484375,0.962890625,-0.260986328125,13.977049827575684,-6.103515148162842,6.896972179412842,80.0,901821.0,0.0
515273.909516,292233.15625,313189.8125,317206.75,289927.8125,295746.75,300432.40625,258016.03125,303396.6875,0.06396484375,0.962890625,-0.260986328125,13.977049827575684,-6.103515148162842,6.896972179412842,80.0,901822.0,0.0
515273.9095165,292233.15625,313189.8125,317206.75,289927.8125,295746.75,300432.40625,258016.03125,303396.6875,0.06396484375,0.962890625,-0.260986328125,13.977049827575684,-6.103515148162842,6.896972179412842,80.0,901823.0,0.0
515273.909517,292233.15625,313189.8125,317206.75,289927.8125,295746.75,300432.40625,258016.03125,303396.6875,0.06396484375,0.962890625,-0.260986328125,13.977049827575684,-6.103515148162842,6.896972179412842,80.0,901824.0,0.0
515273.9095176,292233.15625,313189.8125,317206.75,289927.8125,295746.75,300432.40625,258016.03125,303396.6875,0.06396484375,0.962890625,-0.260986328125,13.977049827575684,-6.103515148162842,6.896972179412842,80.0,901825.0,0.0
515273.9095181,292233.15625,313189.8125,317206.75,289927.8125,295746.75,300432.40625,258016.03125,303396.6875,0.06396484375,0.962890625,-0.260986328125,13.977049827575684,-6.103515148162842,6.896972179412842,80.0,901826.0,0.0
515273.9095187,292233.15625,313189.8125,317206.75,289927.8125,295746.75,300432.40625,258016.03125,303396.6875,0.06396484375,0.962890625,-0.260986328125,13.977049827575684,-6.103515148162842,6.896972179412842,80.0,901827.0,0.0
515273.9095192,292233.15625,313189.8125,317206.75,289927.8125,295746.75,300432.40625,258016.03125,303396.6875,0.06396484375,0.962890625,-0.260986328125,13.977049827575684,-6.103515148162842,6.896972179412842,80.0,901828.0,0.0
515273.9095197,292233.15625,313189.8125,317206.75,289927.8125,295746.75,300432.40625,258016.03125,303396.6875,0.06396484375,0.962890625,-0.260986328125,13.977049827575684,-6.103515148162842,6.896972179412842,80.0,901829.0,0.0
515273.9095203,292233.15625,313189.8125,317206.75,289927.8125,295746.75,300432.40625,258016.03125,303396.6875,0.06396484375,0.962890625,-0.260986328125,13.977049827575684,-6.103515148162842,6.896972179412842,80.0,901830.0,0.0
515273.9095208,292233.15625,313189.8125,317206.75,289927.8125,295746.75,300432.40625,258016.03125,303396.6875,0.06396484375,0.962890625,-0.260986328125,13.977049827575684,-6.103515148162842,6.896972179412842,80.0,901831.0,0.0
515273.9095213,292233.15625,313189.8125,317206.75,289927.8125,295746.75,300432.40625,258016.03125,303396.6875,0.06396484375,0.962890625,-0.260986328125,13.977049827575684,-6.103515148162842,6.896972179412842,80.0,901832.0,0.0
515273.9095219,292233.15625,313189.8125,317206.75,289927.8125,295746.75,300432.40625,258016.03125,303396.6875,0.06396484375,0.962890625,-0.260986328125,13.977049827575684,-6.103515148162842,6.896972179412842,80.0,901833.0,0.0
515273.9095224,292233.15625,313189.8125,317206.75,289927.8125,295746.75,300432.40625,258016.03125,303396.6875,0.06396484375,0.962890625,-0.260986328125,13.977049827575684,-6.103515148162842,6.896972179412842,80.0,901834.0,0.0
515273.9095229,292233.15625,313189.8125,317206.75,289927.8125,295746.75,300432.40625,258016.03125,303396.6875,0.06396484375,0.962890625,-0.260986328125,13.977049827575684,-6.103515148162842,6.896972179412842,80.0,901835.0,0.0
515273.9095235,292233.15625,313189.8125,317206.75,289927.8125,295746.75,300432.40625,258016.03125,303396.6875,0.06396484375,0.962890625,-0.260986328125,13.977049827575684,-6.103515148162842,6.896972179412842,80.0,901836.0,0.0
515273.909524,292233.15625,313189.8125,317206.75,289927.8125,295746.75,300432.40625,258016.03125,303396.6875,0.06396484375,0.962890625,-0.260986328125,13.977049827575684,-6.103515148162842,6.896972179412842,80.0,901837.0,0.0
515273.9095245,292233.15625,313189.8125,317206.75,289927.8125,295746.75,300432.40625,258016.03125,303396.6875,0.06396484375,0.962890625,-0.260986328125,13.977049827575684,-6.103515148162842,6.896972179412842,80.0,901838.0,0.0
515273.9095251,292233.15625,313189.8125,317206.75,289927.8125,295746.75,300432.40625,258016.03125,303396.6875,0.06396484375,0.962890625,-0.260986328125,13.977049827575684,-6.103515148162842,6.896972179412842,80.0,901839.0,0.0
515273.9095256,292233.15625,313189.8125,317206.75,289927.8125,295746.75,300432.40625,258016.03125,303396.6875,0.06396484375,0.962890625,-0.260986328125,13.977049827575684,-6.103515148162842,6.896972179412842,80.0,901840.0,0.0
515273.9095261,281984.53125,310587.34375,316846.46875,291024.28125,300615.6875,302325.78125,258878.0,304859.75,0.099365234375,0.994140625,-0.241455078125,0.3051757514476776,-3.631591558456421,5.676269054412842,80.0,901841.0,1.0
515273.9117913,284410.9375,311820.625,317963.0625,293887.71875,301983.34375,302841.03125,259135.046875,305760.96875,0.09423828125,0.98681640625,-0.241455078125,-0.1831054538488388,-3.479003667831421,5.706786632537842,80.0,901842.0,1.0
515273.9142485,290838.21875,313447.90625,318177.09375,293254.09375,298843.8125,301642.53125,258657.96875,304800.90625,0.0908203125,0.98095703125,-0.24169921875,-0.5493163466453552,-3.417968511581421,5.523681163787842,80.0,901843.0,1.0
515273.9180497,292105.03125,313113.34375,317138.71875,289928.4375,295516.625,300367.84375,258110.890625,303288.5,0.0888671875,0.97412109375,-0.2451171875,-0.8544921278953552,-3.387450933456421,5.249022960662842,80.0,901844.0,1.0
515273.9180538,286899.0625,311445.75,316370.28125,288522.0625,296533.09375,300785.125,258258.0625,303293.59375,0.08740234375,0.97314453125,-0.244140625,-0.8850097060203552,-3.417968511581421,4.974364757537842,80.0,901845.0,1.0
515273.9180555,281935.4375,310589.03125,316863.0,290988.0,300594.0625,302329.8125,258918.0625,304845.53125,0.0869140625,0.9736328125,-0.24365234375,-0.8239745497703552,-3.479003667831421,4.852294445037842,80.0,901846.0,1.0
515273.9293511,284351.21875,311816.5,317979.34375,293811.09375,301986.125,302851.03125,259165.8125,305757.9375,0.086669921875,0.97607421875,-0.241943359375,-0.7019042372703552,-3.601073980331421,4.638671398162842,80.0,901847.0,1.0
515273.9293655,290816.5,313437.46875,318187.1875,293140.46875,298855.625,301655.65625,258657.53125,304794.3125,0.0849609375,0.978271484375,-0.238525390625,-0.7019042372703552,-3.662109136581421,4.425048351287842,80.0,901848.0,1.0
515273.9293675,292134.90625,313097.25,317145.96875,289769.1875,295516.71875,300378.84375,258090.328125,303277.6875,0.085205078125,0.978759765625,-0.234130859375,-0.7934569716453552,-3.753661870956421,4.211425304412842,80.0,901849.0,1.0
515273.9293694,286940.1875,311407.65625,316362.03125,288306.84375,296504.21875,300778.78125,258219.703125,303270.0,0.081298828125,0.979736328125,-0.22998046875,-1.0070799589157104,-3.967284917831421,3.845214605331421,80.0,901850.0,1.0
515273.9293712,281924.71875,310512.3125,316830.625,290735.3125,300541.9375,302303.15625,258858.609375,304797.96875,0.079833984375,0.98193359375,-0.229736328125,-1.1596678495407104,-4.089354991912842,3.845214605331421,80.0,901851.0,1.0
515273.929373,284294.34375,311747.75,317951.25,293562.5625,301950.8125,302841.75,259123.34375,305712.6875,0.07763671875,0.98095703125,-0.2294921875,-1.2817381620407104,-4.241942882537842,3.570556402206421,80.0,901852.0,1.0
515273.9293747,290761.34375,313407.15625,318177.1875,292895.75,298841.75,301667.375,258636.34375,304762.375,0.077392578125,0.979736328125,-0.23046875,-1.4343260526657104,-4.638671398162842,3.417968511581421,80.0,901853.0,1.0
515273.9293766,292108.78125,313077.5,317133.375,289524.65625,295495.625,300389.5,258055.28125,303246.40625,0.075439453125,0.982421875,-0.227783203125,-1.4648436307907104,-5.004882335662842,3.356933355331421,80.0,901854.0,1.0
515273.9317715,286934.46875,311371.53125,316350.6875,288092.1875,296472.5625,300787.09375,258194.125,303244.625,0.0732421875,0.984130859375,-0.224609375,-1.5869139432907104,-5.310058116912842,3.173827886581421,80.0,901855.0,1.0
515273.9317864,286934.46875,311371.53125,316350.6875,288092.1875,296472.5625,300787.09375,258194.125,303244.625,0.0732421875,0.984130859375,-0.224609375,-1.5869139432907104,-5.310058116912842,3.173827886581421,80.0,901856.0,0.0
515273.9317868,286934.46875,311371.53125,316350.6875,288092.1875,296472.5625,300787.09375,258194.125,303244.625,0.0732421875,0.984130859375,-0.224609375,-1.5869139432907104,-5.310058116912842,3.173827886581421,80.0,901857.0,0.0
515273.9317872,286934.46875,311371.53125,316350.6875,288092.1875,296472.5625,300787.09375,258194.125,303244.625,0.0732421875,0.984130859375,-0.224609375,-1.5869139432907104,-5.310058116912842,3.173827886581421,80.0,901858.0,0.0
515273.9317875,286934.46875,311371.53125,316350.6875,288092.1875,296472.5625,300787.09375,258194.125,303244.625,0.0732421875,0.984130859375,-0.224609375,-1.5869139432907104,-5.310058116912842,3.173827886581421,80.0,901859.0,0.0
515273.9317878,286934.46875,311371.53125,316350.6875,288092.1875,296472.5625,300787.09375,258194.125,303244.625,0.0732421875,0.984130859375,-0.224609375,-1.5869139432907104,-5.310058116912842,3.173827886581421,80.0,901860.0,0.0
515273.9317881,286934.46875,311371.53125,316350.6875,288092.1875,296472.5625,300787.09375,258194.125,303244.625,0.0732421875,0.984130859375,-0.224609375,-1.5869139432907104,-5.310058116912842,3.173827886581421,80.0,901861.0,0.0
515273.9317884,286934.46875,311371.53125,316350.6875,288092.1875,296472.5625,300787.09375,258194.125,303244.625,0.0732421875,0.984130859375,-0.224609375,-1.5869139432907104,-5.310058116912842,3.173827886581421,80.0,901862.0,0.0
515273.9317887,286934.46875,311371.53125,316350.6875,288092.1875,296472.5625,300787.09375,258194.125,303244.625,0.0732421875,0.984130859375,-0.224609375,-1.5869139432907104,-5.310058116912842,3.173827886581421,80.0,901863.0,0.0
515273.931789,286934.46875,311371.53125,316350.6875,288092.1875,296472.5625,300787.09375,258194.125,303244.625,0.0732421875,0.984130859375,-0.224609375,-1.5869139432907104,-5.310058116912842,3.173827886581421,80.0,901864.0,0.0
515273.9317893,286934.46875,311371.53125,316350.6875,288092.1875,296472.5625,300787.09375,258194.125,303244.625,0.0732421875,0.984130859375,-0.224609375,-1.5869139432907104,-5.310058116912842,3.173827886581421,80.0,901865.0,0.0
515273.9317896,286934.46875,311371.53125,316350.6875,288092.1875,296472.5625,300787.09375,258194.125,303244.625,0.0732421875,0.984130859375,-0.224609375,-1.5869139432907104,-5.310058116912842,3.173827886581421,80.0,901866.0,0.0
515273.9317899,286934.46875,311371.53125,316350.6875,288092.1875,296472.5625,300787.09375,258194.125,303244.625,0.0732421875,0.984130859375,-0.224609375,-1.5869139432907104,-5.310058116912842,3.173827886581421,80.0,901867.0,0.0
515273.9317902,286934.46875,311371.53125,316350.6875,288092.1875,296472.5625,300787.09375,258194.125,303244.625,0.0732421875,0.984130859375,-0.224609375,-1.5869139432907104,-5.310058116912842,3.173827886581421,80.0,901868.0,0.0
515273.9317905,286934.46875,311371.53125,316350.6875,288092.1875,296472.5625,300787.09375,258194.125,303244.625,0.0732421875,0.984130859375,-0.224609375,-1.5869139432907104,-5.310058116912842,3.173827886581421,80.0,901869.0,0.0
515273.9317908,286980.5,311290.0,316339.6875,288284.59375,296399.15625,300720.21875,258131.453125,303209.28125,0.06298828125,0.960693359375,-0.212158203125,-3.265380620956421,-11.230467796325684,-1.1901854276657104,80.0,901870.0,1.0
515273.9342193,281888.40625,310317.0625,316802.28125,290788.4375,300436.25,302208.03125,258777.421875,304750.5,0.059814453125,0.960205078125,-0.208740234375,-3.173827886581421,-11.566161155700684,-1.5258787870407104,80.0,901871.0,1.0
515273.9380467,284154.875,311511.0,317928.90625,293681.1875,301921.21875,302778.96875,259051.015625,305692.84375,0.058349609375,0.958740234375,-0.2119140625,-2.929687261581421,-11.962889671325684,-1.8310545682907104,80.0,901872.0,1.0
515273.9444249,290678.5625,313230.125,318177.90625,293045.0625,298862.5,301667.5625,258586.984375,304757.65625,0.05859375,0.9580078125,-0.21240234375,-2.746581792831421,-12.115477561950684,-2.136230230331421,80.0,901873.0,1.0
515273.9444387,292157.4375,312977.71875,317140.5,289667.34375,295475.78125,300394.3125,258035.34375,303228.78125,0.0595703125,0.959228515625,-0.214599609375,-2.502441167831421,-12.359618186950684,-2.502441167831421,80.0,901874.0,1.0
515273.9444406,287034.5,311285.4375,316342.375,288223.0625,296381.5625,300737.90625,258177.6875,303208.84375,0.06103515625,0.96142578125,-0.2158203125,-2.258300542831421,-12.634276390075684,-3.021239995956421,80.0,901875.0,1.0
515273.9444423,281918.90625,310318.9375,316807.75,290720.46875,300430.34375,302229.5,258839.296875,304761.40625,0.0615234375,0.96337890625,-0.2177734375,-2.014159917831421,-12.695311546325684,-3.417968511581421,80.0,901876.0,1.0
515273.9444439,284132.96875,311505.46875,317925.875,293585.71875,301925.6875,302798.65625,259119.046875,305699.90625,0.061767578125,0.965576171875,-0.217529296875,-1.8310545682907104,-12.817381858825684,-3.723144292831421,80.0,901877.0,1.0
515273.9444459,290643.40625,313234.6875,318170.84375,292898.34375,298869.3125,301696.34375,258672.28125,304754.875,0.06201171875,0.97216796875,-0.2177734375,-1.9531248807907104,-12.847899436950684,-3.997802495956421,80.0,901878.0,1.0
515273.9469648,292148.40625,312982.65625,317133.1875,289482.46875,295473.1875,300423.8125,258119.65625,303215.375,0.0625,0.97802734375,-0.21630859375,-1.9531248807907104,-12.939452171325684,-4.364013195037842,80.0,901879.0,1.0
515273.9494556,287055.25,311272.46875,316336.84375,288035.5,296367.15625,300752.40625,258251.171875,303190.6875,0.0625,0.981201171875,-0.21728515625,-2.258300542831421,-13.000487327575684,-4.547118663787842,80.0,901880.0,1.0
515273.9594514,281940.71875,310280.6875,316796.46875,290559.28125,300417.5625,302232.71875,258896.78125,304742.625,0.064453125,0.980712890625,-0.215087890625,-2.777099370956421,-12.969969749450684,-4.730224132537842,80.0,901881.0,1.0
515273.9594666,284127.53125,311459.15625,317903.78125,293447.65625,301930.15625,302804.90625,259165.53125,305685.875,0.0634765625,0.980712890625,-0.216796875,-3.112792730331421,-12.908934593200684,-4.821776866912842,80.0,901882.0,1.0
515273.9594691,290639.75,313215.90625,318156.09375,292771.375,298891.5625,301711.625,258727.796875,304748.78125,0.064697265625,0.9794921875,-0.217041015625,-3.387450933456421,-12.847899436950684,-5.187987804412842,80.0,901883.0,1.0
515273.9594718,292169.84375,312991.3125,317128.09375,289367.125,295490.875,300438.5625,258179.46875,303215.09375,0.064697265625,0.979736328125,-0.21875,-3.448486089706421,-12.664793968200684,-5.218505382537842,80.0,901884.0,1.0
515273.9632187,287076.53125,311280.15625,316326.65625,287941.25,296368.15625,300750.4375,258302.765625,303180.78125,0.063720703125,0.977294921875,-0.220947265625,-3.631591558456421,-12.420653343200684,-5.462646007537842,80.0,901885.0,1.0
515273.9632354,281945.90625,310287.28125,316787.09375,290514.40625,300421.40625,302211.78125,258936.75,304732.25,0.062744140625,0.97412109375,-0.22119140625,-3.570556402206421,-12.329100608825684,-5.615233898162842,80.0,901886.0,1.0
515273.9632384,284106.6875,311465.9375,317907.34375,293446.59375,301953.21875,302795.875,259225.796875,305690.875,0.061767578125,0.97021484375,-0.2197265625,-3.601073980331421,-12.207030296325684,-5.737304210662842,80.0,901887.0,1.0
515273.9655937,290598.1875,313210.375,318148.40625,292771.46875,298897.28125,301701.4375,258782.34375,304744.9375,0.061279296875,0.96875,-0.21875,-3.356933355331421,-11.932372093200684,-5.950927257537842,80.0,901888.0,1.0
515273.9681732,292143.46875,312982.65625,317109.9375,289367.5625,295475.875,300418.1875,258221.671875,303194.8125,0.0615234375,0.968017578125,-0.22119140625,-3.387450933456421,-11.688231468200684,-6.042479991912842,80.0,901889.0,1.0
515273.9706825,287079.65625,311255.65625,316311.71875,287962.625,296335.5,300721.71875,258328.328125,303158.875,0.061767578125,0.96630859375,-0.22021484375,-3.204345464706421,-11.474608421325684,-5.950927257537842,80.0,901890.0,1.0
515273.9732046,281944.75,310246.96875,316779.03125,290569.21875,300401.46875,302190.0625,258960.53125,304720.53125,0.059814453125,0.967041015625,-0.218994140625,-2.929687261581421,-11.260985374450684,-6.072997570037842,80.0,901891.0,1.0
515273.9755829,284075.84375,311429.03125,317902.25,293519.90625,301955.8125,302791.125,259230.984375,305687.03125,0.0576171875,0.968017578125,-0.223388671875,-2.624511480331421,-10.986327171325684,-6.225585460662842,80.0,901892.0,1.0
515273.9832818,290559.1875,313186.9375,318140.34375,292830.40625,298895.3125,301706.1875,258754.796875,304737.4375,0.05419921875,0.966552734375,-0.22509765625,-2.563476324081421,-10.772704124450684,-6.225585460662842,80.0,901893.0,1.0
515273.9833006,292129.625,312972.53125,317097.0625,289411.21875,295449.75,300417.75,258185.734375,303180.78125,0.05029296875,0.966552734375,-0.227294921875,-2.349853277206421,-10.498045921325684,-6.103515148162842,80.0,901894.0,1.0
515273.9833046,287115.59375,311274.34375,316311.8125,288024.875,296316.5625,300729.15625,258345.765625,303157.53125,0.050537109375,0.96875,-0.22607421875,-1.9836424589157104,-10.284422874450684,-6.164550304412842,80.0,901895.0,1.0
515273.9857167,282008.5,310286.75,316803.71875,290663.09375,300417.375,302220.53125,259042.78125,304741.5625,0.048095703125,0.970458984375,-0.220947265625,-1.7395018339157104,-10.192870140075684,-6.134032726287842,80.0,901896.0,1.0
515273.9881368,284109.5625,311452.25,317926.84375,293606.90625,301995.6875,302827.625,259355.171875,305717.25,0.047119140625,0.973388671875,-0.22216796875,-1.6784666776657104,-9.887694358825684,-6.286620616912842,80.0,901897.0,1.0
515273.9905725,290561.4375,313190.34375,318153.3125,292878.59375,298928.3125,301741.78125,258907.953125,304767.65625,0.046875,0.97607421875,-0.220458984375,-1.5869139432907104,-9.735106468200684,-6.317138195037842,80.0,901898.0,1.0
515273.9932305,292133.46875,312963.5,317098.9375,289415.6875,295451.90625,300441.34375,258337.265625,303195.09375,0.0478515625,0.980224609375,-0.218994140625,-1.6174315214157104,-9.490965843200684,-6.286620616912842,80.0,901899.0,1.0
515273.9956099,287150.90625,311277.5625,316313.3125,288018.15625,296302.59375,300734.78125,258443.046875,303158.4375,0.04638671875,0.983642578125,-0.22119140625,-1.8310545682907104,-9.185790061950684,-6.134032726287842,80.0,901900.0,1.0
515274.0032701,282048.09375,310301.9375,316804.53125,290668.1875,300410.78125,302210.625,259085.609375,304742.625,0.046142578125,0.986572265625,-0.222900390625,-1.8920897245407104,-9.033202171325684,-6.042479991912842,80.0,901901.0,1.0
515274.0033105,284104.09375,311465.75,317914.6875,293605.03125,301989.96875,302808.75,259369.75,305710.09375,0.044677734375,0.984130859375,-0.22314453125,-2.197265386581421,-8.758543968200684,-5.981444835662842,80.0,901902.0,1.0
515274.0033208,290523.4375,313201.78125,318128.28125,292846.21875,298906.75,301717.90625,258917.078125,304747.8125,0.04248046875,0.9833984375,-0.22265625,-2.410888433456421,-8.453368186950684,-5.737304210662842,80.0,901903.0,1.0
515274.0118536,292108.0,312976.125,317073.28125,289361.40625,295407.8125,300411.75,258326.09375,303172.8125,0.04296875,0.982177734375,-0.226806640625,-2.593993902206421,-8.331297874450684,-5.676269054412842,80.0,901904.0,1.0
515274.0144585,287164.5,311300.1875,316304.8125,287973.09375,296265.9375,300715.09375,258439.46875,303148.9375,0.0400390625,0.97998046875,-0.22900390625,-2.685546636581421,-8.117674827575684,-5.706786632537842,80.0,901905.0,1.0
515274.0169897,282070.90625,310321.1875,316811.9375,290650.21875,300403.96875,302208.75,259094.8125,304742.1875,0.040283203125,0.97900390625,-0.230712890625,-2.624511480331421,-7.965087413787842,-5.767821788787842,80.0,901906.0,1.0
515274.0207301,284106.875,311490.25,317938.125,293614.40625,302019.90625,302830.75,259380.65625,305727.875,0.039794921875,0.97802734375,-0.2314453125,-2.685546636581421,-7.720946788787842,-5.554198741912842,80.0,901907.0,1.0
515274.0207714,290503.65625,313236.75,318146.875,292843.71875,298933.21875,301735.59375,258904.015625,304759.875,0.03955078125,0.975830078125,-0.229736328125,-2.655029058456421,-7.476806163787842,-5.432128429412842,80.0,901908.0,1.0
515274.0207819,292115.6875,313038.25,317099.125,289352.28125,295423.28125,300429.1875,258320.828125,303184.25,0.03857421875,0.97705078125,-0.23046875,-2.593993902206421,-7.293700695037842,-5.401610851287842,80.0,901909.0,1.0
515274.0231009,287209.03125,311375.28125,316337.625,287965.84375,296274.96875,300734.15625,258464.046875,303164.25,0.04052734375,0.980712890625,-0.230224609375,-2.532958745956421,-7.080077648162842,-5.310058116912842,80.0,901910.0,1.0
515274.0281723,282118.90625,310388.40625,316841.71875,290652.34375,300415.6875,302219.65625,259125.65625,304758.4375,0.041015625,0.981689453125,-0.233154296875,-2.655029058456421,-6.805419445037842,-5.157470226287842,80.0,901911.0,1.0
515274.0282111,284126.8125,311546.59375,317957.25,293621.8125,302048.53125,302843.4375,259418.734375,305746.75,0.036865234375,0.98193359375,-0.232421875,-2.777099370956421,-6.591796398162842,-5.096435070037842,80.0,901912.0,1.0
515274.0305783,290516.8125,313285.46875,318162.0625,292845.5,298967.46875,301756.4375,258961.25,304781.25,0.03857421875,0.9833984375,-0.23193359375,-2.746581792831421,-6.408690929412842,-5.065917491912842,80.0,901913.0,1.0
515274.0381256,292131.40625,313071.78125,317099.5625,289325.28125,295430.875,300433.03125,258381.34375,303188.09375,0.03759765625,0.9853515625,-0.229736328125,-2.929687261581421,-6.164550304412842,-4.882812023162842,80.0,901914.0,1.0
515274.0432613,287217.96875,311378.3125,316316.90625,287906.9375,296241.625,300702.0625,258477.28125,303134.71875,0.03515625,0.983642578125,-0.2275390625,-2.990722417831421,-6.011962413787842,-4.791259288787842,80.0,901915.0,1.0
515274.0470073,282118.0,310378.3125,316820.71875,290596.75,300380.90625,302183.71875,259113.765625,304725.1875,0.0341796875,0.981201171875,-0.227783203125,-2.990722417831421,-5.889892101287842,-4.699706554412842,80.0,901916.0,1.0
515274.0470469,284084.875,311520.5625,317936.15625,293576.40625,302031.34375,302810.28125,259397.90625,305717.25,0.03125,0.979248046875,-0.230224609375,-3.082275152206421,-5.615233898162842,-4.608153820037842,80.0,901917.0,1.0
515274.0470578,290461.75,313261.5,318151.09375,292810.8125,298965.25,301724.15625,258947.03125,304762.5625,0.030029296875,0.9775390625,-0.228759765625,-3.082275152206421,-5.401610851287842,-4.669188976287842,80.0,901918.0,1.0
515274.0493969,292110.9375,313065.25,317099.21875,289300.78125,295427.21875,300395.5625,258387.78125,303177.03125,0.030029296875,0.9775390625,-0.22998046875,-2.929687261581421,-5.279540538787842,-4.516601085662842,80.0,901919.0,1.0
515274.0520001,287229.59375,311384.21875,316311.25,287883.96875,296219.09375,300652.0625,258508.9375,303124.4375,0.03076171875,0.9755859375,-0.2314453125,-2.899169683456421,-5.187987804412842,-4.455565929412842,80.0,901920.0,1.0
515274.0558565,282124.8125,310396.375,316815.34375,290587.8125,300366.6875,302134.53125,259176.265625,304722.78125,0.02978515625,0.9755859375,-0.22900390625,-2.777099370956421,-5.157470226287842,-4.425048351287842,80.0,901921.0,1.0
515274.0558965,284064.125,311542.28125,317943.21875,293589.5625,302044.59375,302778.8125,259494.5625,305729.40625,0.029541015625,0.9794921875,-0.22998046875,-2.502441167831421,-5.096435070037842,-4.394530773162842,80.0,901922.0,1.0
515274.0559066,290441.96875,313286.0,318156.8125,292833.34375,298987.125,301702.34375,259033.03125,304779.46875,0.028564453125,0.974853515625,-0.227783203125,-2.441406011581421,-5.035399913787842,-4.364013195037842,80.0,901923.0,1.0
515274.0582862,292131.6875,313103.875,317102.4375,289332.34375,295437.40625,300376.0,258428.203125,303197.21875,0.0263671875,0.972412109375,-0.2265625,-2.349853277206421,-4.882812023162842,-4.302978038787842,80.0,901924.0,1.0
515274.0608024,287281.96875,311429.5625,316319.5625,287920.6875,296216.40625,300639.65625,258528.421875,303143.65625,0.026123046875,0.969970703125,-0.227294921875,-2.380370855331421,-4.791259288787842,-4.241942882537842,80.0,901925.0,1.0
515274.0630772,282165.21875,310422.03125,316813.5625,290627.78125,300359.28125,302121.65625,259172.609375,304734.75,0.024169921875,0.9658203125,-0.226318359375,-2.227782964706421,-4.608153820037842,-4.211425304412842,80.0,901926.0,1.0
515274.0657144,284060.5625,311554.90625,317925.0625,293637.75,302047.8125,302766.65625,259470.328125,305738.875,0.021484375,0.958984375,-0.22900390625,-2.014159917831421,-4.547118663787842,-4.150390148162842,80.0,901927.0,1.0
515274.068079,290420.875,313316.65625,318143.21875,292891.46875,299000.90625,301710.9375,259036.53125,304792.15625,0.020751953125,0.955322265625,-0.22998046875,-1.6479490995407104,-4.547118663787842,-3.997802495956421,80.0,901928.0,1.0
515274.0705979,292094.65625,313118.53125,317084.53125,289356.9375,295421.3125,300380.5625,258462.265625,303183.09375,0.0205078125,0.953857421875,-0.231689453125,-1.1901854276657104,-4.455565929412842,-3.967284917831421,80.0,901929.0,1.0
515274.0732562,287261.3125,311438.40625,316299.1875,287918.28125,296179.65625,300636.25,258575.1875,303114.25,0.02001953125,0.955078125,-0.2314453125,-0.8239745497703552,-4.455565929412842,-3.906249761581421,80.0,901930.0,1.0
515274.0732985,282158.59375,310434.4375,316806.84375,290629.375,300335.75,302125.25,259226.609375,304711.5,0.020751953125,0.95654296875,-0.23291015625,-0.3662109076976776,-4.364013195037842,-3.997802495956421,80.0,901931.0,1.0
515274.075638,284048.9375,311562.6875,317940.4375,293659.65625,302063.375,302795.78125,259525.578125,305738.0,0.020751953125,0.95849609375,-0.234130859375,0.1525878757238388,-4.333495616912842,-3.906249761581421,80.0,901932.0,1.0
515274.0780987,290402.71875,313299.84375,318154.03125,292898.875,299017.28125,301737.65625,259052.171875,304791.71875,0.02294921875,0.96044921875,-0.234130859375,0.5493163466453552,-4.180907726287842,-3.753661870956421,80.0,901933.0,1.0
515274.0798447,292120.0625,313112.625,317092.78125,289345.9375,295426.5,300400.5,258459.40625,303185.875,0.025146484375,0.960693359375,-0.2353515625,0.6713866591453552,-4.028319835662842,-3.631591558456421,80.0,901934.0,1.0
515274.1067089,287327.75,311446.0,316315.09375,287895.59375,296172.78125,300653.59375,258577.78125,303121.5,0.029296875,0.95947265625,-0.236572265625,1.0375975370407104,-3.814697027206421,-3.570556402206421,80.0,901935.0,1.0
515274.1067512,282227.1875,310456.34375,316826.6875,290612.75,300342.28125,302149.1875,259265.765625,304729.75,0.032470703125,0.959228515625,-0.23974609375,1.3427733182907104,-3.540038824081421,-3.295898199081421,80.0,901936.0,1.0
515274.1269955,284070.375,311584.9375,317952.40625,293644.4375,302088.40625,302819.75,259596.390625,305764.625,0.037353515625,0.961669921875,-0.23974609375,1.7089842557907104,-3.204345464706421,-3.143310308456421,80.0,901937.0,1.0
515274.1294997,290398.875,313328.8125,318158.6875,292875.46875,299047.21875,301758.03125,259139.96875,304817.5625,0.0400390625,0.96142578125,-0.24365234375,1.9226073026657104,-2.685546636581421,-2.838134527206421,80.0,901938.0,1.0
515274.132023,292120.3125,313136.5,317084.1875,289304.28125,295434.375,300406.21875,258537.984375,303199.1875,0.039306640625,0.964111328125,-0.2451171875,2.197265386581421,-2.227782964706421,-2.593993902206421,80.0,901939.0,1.0
515274.1320644,287353.5,311465.59375,316297.21875,287844.53125,296158.46875,300644.125,258633.921875,303124.09375,0.037841796875,0.966552734375,-0.244873046875,2.380370855331421,-1.7700194120407104,-2.258300542831421,80.0,901940.0,1.0
515274.1345046,282261.0625,310465.46875,316810.15625,290575.03125,300332.1875,302135.78125,259286.421875,304727.34375,0.03857421875,0.970458984375,-0.24609375,2.502441167831421,-1.2512205839157104,-1.9836424589157104,80.0,901941.0,1.0
515274.1345475,284062.15625,311570.90625,317927.90625,293626.03125,302089.90625,302803.21875,259586.015625,305755.25,0.03955078125,0.970703125,-0.247802734375,2.532958745956421,-0.8239745497703552,-1.7395018339157104,80.0,901942.0,1.0
515274.1370812,290368.65625,313303.875,318135.875,292875.625,299054.65625,301746.59375,259122.09375,304814.875,0.038818359375,0.972412109375,-0.24755859375,2.624511480331421,-0.4272460639476776,-1.6479490995407104,80.0,901943.0,1.0
515274.137119,292120.875,313126.84375,317083.5625,289326.0,295440.90625,300410.59375,258540.3125,303211.53125,0.038818359375,0.972900390625,-0.249267578125,2.563476324081421,0.0,-1.3732908964157104,80.0,901944.0,1.0
515274.1395473,287384.96875,311463.15625,316301.4375,287873.125,296149.71875,300642.6875,258637.328125,303130.53125,0.0390625,0.971923828125,-0.248291015625,2.624511480331421,0.4882812201976776,-1.0375975370407104,80.0,901945.0,1.0
515274.1418988,282326.78125,310487.28125,316834.03125,290639.21875,300346.46875,302149.8125,259302.875,304751.125,0.037841796875,0.974609375,-0.249755859375,2.532958745956421,0.7934569716453552,-0.8544921278953552,80.0,901946.0,1.0
515274.1443268,284114.65625,311594.40625,317956.71875,293715.4375,302126.65625,302831.1875,259610.875,305794.9375,0.03515625,0.977294921875,-0.250244140625,2.349853277206421,1.1291502714157104,-0.7019042372703552,80.0,901947.0,1.0
515274.1468523,290376.1875,313294.59375,318133.8125,292946.96875,299069.03125,301752.40625,259130.765625,304834.1875,0.031005859375,0.978759765625,-0.253662109375,2.197265386581421,1.4343260526657104,-0.4272460639476776,80.0,901948.0,1.0
515274.1494063,292134.1875,313104.5,317067.8125,289378.5625,295428.21875,300396.8125,258526.640625,303211.1875,0.028076171875,0.978759765625,-0.25341796875,2.014159917831421,1.7089842557907104,-0.3662109076976776,80.0,901949.0,1.0
515274.1518547,287444.4375,311462.0,316304.75,287928.03125,296139.4375,300638.03125,258644.46875,303137.78125,0.025390625,0.976806640625,-0.25146484375,1.8005369901657104,1.9531248807907104,-0.2441406100988388,80.0,901950.0,1.0
515274.1544759,282385.0625,310482.65625,316845.46875,290690.71875,300344.6875,302149.65625,259321.109375,304760.78125,0.022705078125,0.973388671875,-0.250732421875,1.8005369901657104,2.166747808456421,-0.1831054538488388,80.0,901951.0,1.0
515274.1570233,284118.21875,311557.6875,317949.03125,293758.34375,302132.84375,302817.34375,259630.1875,305800.21875,0.021240234375,0.973388671875,-0.25439453125,1.8310545682907104,2.349853277206421,-0.2746581733226776,80.0,901952.0,1.0
515274.1594647,290376.25,313263.03125,318148.40625,293013.3125,299098.4375,301752.84375,259188.421875,304866.1875,0.018310546875,0.975341796875,-0.2548828125,1.7700194120407104,2.471923589706421,-0.3662109076976776,80.0,901953.0,1.0
515274.1619208,292158.0625,313072.3125,317084.1875,289438.21875,295443.6875,300386.53125,258587.609375,303242.46875,0.0185546875,0.978271484375,-0.2568359375,1.5869139432907104,2.593993902206421,-0.3967284858226776,80.0,901954.0,1.0
515274.1619564,287487.78125,311420.96875,316310.1875,287960.40625,296128.71875,300608.4375,258673.078125,303147.5,0.017333984375,0.97802734375,-0.252685546875,1.5869139432907104,2.624511480331421,-0.4577636420726776,80.0,901955.0,1.0
515274.1692847,282422.25,310446.0625,316835.53125,290707.96875,300326.46875,302119.0625,259344.265625,304761.03125,0.01708984375,0.976318359375,-0.25439453125,1.5258787870407104,2.685546636581421,-0.4577636420726776,80.0,901956.0,1.0
515274.1692906,284106.15625,311509.125,317933.90625,293771.0625,302122.1875,302791.75,259643.953125,305791.5625,0.017822265625,0.975341796875,-0.255126953125,1.2817381620407104,2.655029058456421,-0.3967284858226776,80.0,901957.0,1.0
515274.1692927,290342.5625,313209.03125,318145.4375,293032.8125,299099.96875,301737.65625,259201.21875,304859.5625,0.017822265625,0.976318359375,-0.25537109375,1.1291502714157104,2.593993902206421,-0.2746581733226776,80.0,901958.0,1.0
515274.1742492,292152.4375,313039.3125,317088.5625,289475.125,295444.5625,300382.25,258610.953125,303252.65625,0.016845703125,0.97509765625,-0.257080078125,0.9155272841453552,2.624511480331421,-0.2136230319738388,80.0,901959.0,1.0
515274.174255,287505.9375,311401.5625,316306.0625,287983.28125,296106.0,300601.125,258678.53125,303148.0625,0.01953125,0.975341796875,-0.256103515625,0.8544921278953552,2.502441167831421,-0.0915527269244194,80.0,901960.0,1.0
515274.1769361,282432.625,310425.25,316830.53125,290710.90625,300300.96875,302116.65625,259319.9375,304743.0625,0.0185546875,0.9765625,-0.25341796875,0.7019042372703552,2.532958745956421,0.0,80.0,901961.0,1.0
515274.1769501,284117.34375,311526.03125,317960.5625,293814.84375,302149.8125,302831.65625,259655.9375,305816.75,0.019775390625,0.973876953125,-0.25390625,0.3967284858226776,2.502441167831421,0.1220703050494194,80.0,901962.0,1.0
515274.179461,290321.28125,313214.65625,318144.09375,293068.5,299115.625,301757.875,259213.546875,304874.9375,0.01953125,0.971435546875,-0.250732421875,0.1831054538488388,2.593993902206421,0.2441406100988388,80.0,901963.0,1.0
515274.181986,292134.53125,313036.375,317078.09375,289478.53125,295433.5625,300388.9375,258621.9375,303238.0,0.02099609375,0.967041015625,-0.251220703125,0.0610351525247097,2.655029058456421,0.3356933295726776,80.0,901964.0,1.0
515274.1819997,287532.40625,311432.9375,316310.46875,287988.28125,296101.875,300630.625,258737.1875,303149.3125,0.02294921875,0.962646484375,-0.248046875,-0.1220703050494194,2.655029058456421,0.6713866591453552,80.0,901965.0,1.0
515274.1844701,282462.6875,310467.0,316833.84375,290719.9375,300306.78125,302145.25,259389.6875,304757.375,0.0244140625,0.959716796875,-0.247802734375,-0.2136230319738388,2.716064214706421,0.8239745497703552,80.0,901966.0,1.0
515274.1894108,284106.96875,311542.21875,317953.84375,293816.28125,302162.4375,302844.5,259697.59375,305817.5625,0.0244140625,0.95751953125,-0.249267578125,-0.2441406100988388,2.685546636581421,1.0986326932907104,80.0,901967.0,1.0
515274.194448,290300.28125,313229.9375,318136.25,293071.53125,299129.65625,301759.84375,259223.5625,304875.5625,0.024658203125,0.9541015625,-0.24560546875,-0.2136230319738388,2.777099370956421,1.3732908964157104,80.0,901968.0,1.0
515274.1969091,292131.78125,313058.46875,317070.0625,289472.375,295432.3125,300380.625,258615.234375,303236.65625,0.02587890625,0.9541015625,-0.248779296875,-0.0915527269244194,2.716064214706421,1.5869139432907104,80.0,901969.0,1.0
515274.1969237,287549.75,311450.65625,316305.1875,287959.5,296084.09375,300613.46875,258709.46875,303134.90625,0.026123046875,0.9541015625,-0.248779296875,0.2136230319738388,2.685546636581421,1.7395018339157104,80.0,901970.0,1.0
515274.1987558,282484.03125,310491.9375,316837.96875,290690.09375,300302.125,302141.40625,259388.78125,304748.71875,0.024169921875,0.954833984375,-0.244140625,0.4577636420726776,2.716064214706421,1.8005369901657104,80.0,901971.0,1.0
515274.2280408,284090.78125,311559.5625,317948.75,293794.65625,302174.5,302848.1875,259720.484375,305819.53125,0.0234375,0.95703125,-0.245361328125,0.6713866591453552,2.685546636581421,1.8920897245407104,80.0,901972.0,1.0
515274.2331857,290279.15625,313243.8125,318138.03125,293066.0625,299158.25,301777.71875,259272.296875,304890.875,0.025390625,0.95654296875,-0.247314453125,0.8544921278953552,2.746581792831421,1.7700194120407104,80.0,901973.0,1.0
515274.2445671,292143.84375,313082.15625,317084.90625,289472.625,295458.34375,300402.0,258683.90625,303256.0625,0.025634765625,0.95703125,-0.24755859375,0.9460448622703552,2.746581792831421,1.8310545682907104,80.0,901974.0,1.0
515274.2446049,287586.15625,311481.78125,316317.875,287947.4375,296090.25,300625.0625,258779.125,303144.75,0.02490234375,0.955322265625,-0.2509765625,1.0070799589157104,2.746581792831421,1.8310545682907104,80.0,901975.0,1.0
515274.2446135,282499.96875,310511.6875,316842.96875,290663.15625,300298.21875,302146.34375,259452.265625,304745.5625,0.025146484375,0.9560546875,-0.251953125,1.0986326932907104,2.746581792831421,1.8005369901657104,80.0,901976.0,1.0
515274.252145,284077.90625,311571.96875,317958.59375,293783.375,302193.0,302863.8125,259777.703125,305824.0,0.02685546875,0.958740234375,-0.25244140625,1.2207030057907104,2.685546636581421,1.8310545682907104,80.0,901977.0,1.0
515274.2521859,290268.09375,313259.34375,318152.59375,293080.75,299189.8125,301802.03125,259321.28125,304910.4375,0.03076171875,0.966552734375,-0.25,1.3732908964157104,2.746581792831421,1.6784666776657104,80.0,901978.0,1.0
515274.2521954,292152.15625,313099.125,317085.09375,289491.5,295467.375,300416.9375,258706.96875,303273.3125,0.02978515625,0.97412109375,-0.24853515625,1.3427733182907104,2.868652105331421,1.7395018339157104,80.0,901979.0,1.0
515274.2522047,287605.53125,311489.8125,316298.125,287949.9375,296065.5,300616.59375,258759.0,303143.21875,0.03173828125,0.974609375,-0.245361328125,1.1596678495407104,2.838134527206421,1.6784666776657104,80.0,901980.0,1.0
515274.2544447,282513.625,310520.09375,316821.34375,290680.25,300275.6875,302137.3125,259415.515625,304744.25,0.0302734375,0.973388671875,-0.2451171875,0.8544921278953552,2.807616949081421,1.6784666776657104,80.0,901981.0,1.0
515274.2544755,284047.6875,311565.375,317927.125,293819.59375,302179.3125,302849.625,259745.703125,305819.875,0.03076171875,0.973876953125,-0.24560546875,0.5187987685203552,2.868652105331421,1.6479490995407104,80.0,901982.0,1.0
515274.2570561,290230.53125,313259.71875,318133.09375,293147.96875,299190.0,301794.96875,259300.1875,304916.875,0.031005859375,0.97314453125,-0.247802734375,0.2746581733226776,2.899169683456421,1.6784666776657104,80.0,901983.0,1.0
515274.2593308,292136.25,313107.375,317073.1875,289567.84375,295455.125,300402.28125,258687.484375,303274.65625,0.03076171875,0.969482421875,-0.2490234375,0.0610351525247097,2.868652105331421,1.5869139432907104,80.0,901984.0,1.0
515274.2619969,287597.9375,311500.53125,316291.59375,288014.65625,296034.84375,300597.28125,258768.921875,303133.75,0.03173828125,0.966552734375,-0.250732421875,-0.1831054538488388,2.838134527206421,1.5563963651657104,80.0,901985.0,1.0
515274.2644645,282502.8125,310539.25,316815.96875,290740.15625,300252.34375,302123.90625,259444.21875,304737.875,0.032958984375,0.9609375,-0.25,-0.2441406100988388,2.838134527206421,1.4343260526657104,80.0,901986.0,1.0
515274.2694365,284009.0625,311589.21875,317923.53125,293891.84375,302181.5625,302848.53125,259778.953125,305829.625,0.0322265625,0.961669921875,-0.25244140625,-0.1831054538488388,2.807616949081421,1.3427733182907104,80.0,901987.0,1.0
515274.2744796,290168.03125,313268.03125,318115.75,293217.15625,299191.53125,301785.75,259331.296875,304914.5625,0.0341796875,0.9619140625,-0.249755859375,-0.0915527269244194,2.838134527206421,1.2207030057907104,80.0,901988.0,1.0
515274.2770794,292105.125,313127.3125,317056.03125,289642.40625,295449.3125,300391.1875,258732.453125,303272.875,0.032470703125,0.963623046875,-0.2509765625,-0.1220703050494194,2.960204839706421,1.0681151151657104,80.0,901989.0,1.0
515274.2771184,287607.15625,311540.78125,316279.25,288078.5,296019.0,300591.90625,258816.5,303136.34375,0.03515625,0.966064453125,-0.248779296875,-0.1220703050494194,3.112792730331421,0.9765624403953552,80.0,901990.0,1.0
515274.2793733,282496.1875,310569.625,316802.8125,290769.5625,300231.3125,302119.15625,259474.265625,304739.0625,0.036865234375,0.9658203125,-0.24951171875,-0.2136230319738388,3.082275152206421,1.0375975370407104,80.0,901991.0,1.0
515274.2819808,283980.8125,311612.84375,317924.34375,293923.84375,302189.59375,302859.8125,259801.484375,305847.96875,0.036376953125,0.96630859375,-0.247802734375,-0.2746581733226776,3.204345464706421,1.0375975370407104,80.0,901992.0,1.0
515274.2882598,290144.6875,313292.625,318129.96875,293259.28125,299217.53125,301799.15625,259329.59375,304943.0625,0.03662109375,0.9677734375,-0.248291015625,-0.3662109076976776,3.234863042831421,1.0375975370407104,80.0,901993.0,1.0
515274.2906983,292086.71875,313127.84375,317051.28125,289645.375,295438.9375,300372.9375,258673.265625,303270.375,0.0390625,0.968505859375,-0.2490234375,-0.3051757514476776,3.387450933456421,0.9460448622703552,80.0,901994.0,1.0
515274.290738,287618.3125,311546.9375,316281.59375,288052.3125,295994.15625,300575.53125,258757.390625,303130.34375,0.036376953125,0.97119140625,-0.2509765625,-0.3051757514476776,3.417968511581421,0.9765624403953552,80.0,901995.0,1.0
515274.2970489,282503.96875,310579.75,316802.90625,290726.65625,300209.6875,302112.375,259444.3125,304738.25,0.033935546875,0.97705078125,-0.248779296875,-0.3662109076976776,3.479003667831421,0.9460448622703552,80.0,901996.0,1.0
515274.3032869,283951.46875,311606.40625,317913.15625,293871.0,302179.0625,302852.21875,259771.1875,305844.65625,0.034912109375,0.980712890625,-0.247314453125,-0.5187987685203552,3.479003667831421,0.8850097060203552,80.0,901997.0,1.0
515274.3033276,290123.5,313295.75,318127.5625,293229.5,299230.3125,301805.96875,259313.6875,304954.96875,0.03759765625,0.98291015625,-0.24609375,-0.7019042372703552,3.509521245956421,0.9765624403953552,80.0,901998.0,1.0
515274.3058871,292121.125,313167.53125,317074.625,289646.25,295474.0625,300408.34375,258701.609375,303309.0625,0.035888671875,0.980712890625,-0.243896484375,-1.0986326932907104,3.479003667831421,1.0681151151657104,80.0,901999.0,1.0
515274.3231886,287662.21875,311580.28125,316286.75,288025.03125,295999.53125,300593.78125,258782.96875,303148.0625,0.033203125,0.977294921875,-0.244384765625,-1.4038084745407104,3.448486089706421,1.1291502714157104,80.0,902000.0,1.0
515274.3256773,282511.125,310586.53125,316785.375,290665.21875,300190.90625,302105.65625,259430.09375,304728.15625,0.032470703125,0.974609375,-0.242919921875,-1.6479490995407104,3.479003667831421,1.3427733182907104,80.0,902001.0,1.0
515274.3257181,283922.6875,311612.3125,317902.71875,293828.09375,302184.5,302856.3125,259761.890625,305845.28125,0.029541015625,0.97705078125,-0.24462890625,-1.8920897245407104,3.479003667831421,1.1596678495407104,80.0,902002.0,1.0
515274.3332724,290107.96875,313321.40625,318135.0625,293223.0625,299264.46875,301822.40625,259321.828125,304973.75,0.029296875,0.976806640625,-0.24072265625,-2.136230230331421,3.295898199081421,1.0681151151657104,80.0,902003.0,1.0
515274.3357541,292120.6875,313189.09375,317069.4375,289630.25,295475.875,300385.375,258679.96875,303308.4375,0.028564453125,0.9755859375,-0.23779296875,-2.410888433456421,3.234863042831421,1.0986326932907104,80.0,902004.0,1.0
515274.3383301,287664.625,311599.5,316261.90625,287984.1875,295961.59375,300545.40625,258712.328125,303124.4375,0.029296875,0.974365234375,-0.23974609375,-2.563476324081421,3.112792730331421,1.0375975370407104,80.0,902005.0,1.0
515274.3383702,282503.8125,310615.59375,316766.34375,290627.5,300159.90625,302070.34375,259347.296875,304708.03125,0.03076171875,0.971923828125,-0.238525390625,-2.716064214706421,2.990722417831421,1.0375975370407104,80.0,902006.0,1.0
515274.3405789,283877.28125,311627.78125,317887.59375,293807.96875,302177.1875,302827.09375,259667.375,305827.84375,0.027587890625,0.968505859375,-0.23876953125,-2.899169683456421,2.960204839706421,1.0375975370407104,80.0,902007.0,1.0
515274.3432374,290045.5625,313318.625,318112.53125,293217.71875,299256.0,301786.125,259204.4375,304946.46875,0.029052734375,0.963134765625,-0.23876953125,-3.051757574081421,2.807616949081421,1.0681151151657104,80.0,902008.0,1.0
515274.3469757,292106.5625,313211.4375,317066.9375,289655.90625,295477.03125,300377.34375,258577.234375,303293.4375,0.032470703125,0.9580078125,-0.235107421875,-2.929687261581421,2.716064214706421,1.0986326932907104,80.0,902009.0,1.0
515274.3732073,287669.46875,311628.46875,316264.78125,288005.0,295950.34375,300541.46875,258612.640625,303110.59375,0.03271484375,0.95458984375,-0.239013671875,-2.716064214706421,2.624511480331421,1.1901854276657104,80.0,902010.0,1.0
515274.3756791,282476.53125,310625.25,316754.28125,290623.46875,300131.46875,302056.03125,259236.171875,304681.28125,0.03369140625,0.95361328125,-0.238525390625,-2.532958745956421,2.502441167831421,1.2207030057907104,80.0,902011.0,1.0
515274.37572,283824.53125,311641.53125,317869.625,293811.8125,302166.28125,302824.40625,259570.640625,305811.75,0.03173828125,0.95458984375,-0.235107421875,-2.105712652206421,2.471923589706421,1.2207030057907104,80.0,902012.0,1.0
515274.3782679,290012.28125,313355.46875,318111.84375,293250.34375,299271.46875,301800.6875,259135.671875,304952.90625,0.0322265625,0.958740234375,-0.234130859375,-1.8310545682907104,2.410888433456421,1.3122557401657104,80.0,902013.0,1.0
515274.3806138,292108.0625,313259.09375,317073.90625,289681.65625,295478.71875,300383.6875,258521.359375,303293.4375,0.031494140625,0.961669921875,-0.232421875,-1.5563963651657104,2.288818120956421,1.3122557401657104,80.0,902014.0,1.0
515274.3832311,287694.59375,311676.6875,316261.375,288002.0625,295930.75,300543.28125,258600.84375,303105.59375,0.031494140625,0.964599609375,-0.229248046875,-1.5258787870407104,2.105712652206421,1.4038084745407104,80.0,902015.0,1.0
515274.3856557,282487.0,310649.375,316736.125,290593.34375,300109.1875,302058.4375,259274.171875,304680.5625,0.03173828125,0.967529296875,-0.231201171875,-1.4038084745407104,2.044677495956421,1.4343260526657104,80.0,902016.0,1.0
515274.3882425,283802.875,311630.375,317850.59375,293777.125,302161.8125,302826.90625,259627.234375,305814.625,0.03271484375,0.96826171875,-0.23388671875,-1.4343260526657104,1.9836424589157104,1.4953612089157104,80.0,902017.0,1.0
515274.3932836,290002.1875,313332.21875,318102.09375,293228.0,299287.0,301807.125,259203.71875,304962.375,0.03271484375,0.96826171875,-0.232421875,-1.3427733182907104,1.9226073026657104,1.4648436307907104,80.0,902018.0,1.0
515274.3933257,292136.25,313227.0,317065.84375,289662.34375,295491.0625,300385.375,258592.078125,303303.71875,0.031494140625,0.966552734375,-0.22998046875,-1.2817381620407104,1.8615721464157104,1.4648436307907104,80.0,902019.0,1.0
515274.3957866,287737.6875,311628.65625,316253.875,287960.03125,295920.21875,300526.0,258647.0625,303099.0625,0.02978515625,0.966064453125,-0.227294921875,-1.2817381620407104,1.8005369901657104,1.4953612089157104,80.0,902020.0,1.0
515274.3982783,282518.71875,310611.5625,316734.78125,290550.4375,300102.03125,302043.59375,259309.75,304678.53125,0.0263671875,0.96533203125,-0.22900390625,-1.3122557401657104,1.7395018339157104,1.3732908964157104,80.0,902021.0,1.0
515274.4006074,283789.28125,311582.71875,317845.9375,293740.28125,302169.75,302810.8125,259647.078125,305814.625,0.02685546875,0.965087890625,-0.228759765625,-1.2817381620407104,1.5258787870407104,1.2512205839157104,80.0,902022.0,1.0
515274.4255516,289981.34375,313280.28125,318100.03125,293210.28125,299306.6875,301791.65625,259199.609375,304963.8125,0.0263671875,0.9658203125,-0.2314453125,-1.1291502714157104,1.4038084745407104,1.1596678495407104,80.0,902023.0,1.0
515274.4255674,292149.75,313200.25,317071.59375,289663.96875,295507.96875,300377.15625,258576.078125,303314.78125,0.02783203125,0.96826171875,-0.2314453125,-1.0375975370407104,1.2512205839157104,1.0070799589157104,80.0,902024.0,1.0
515274.4280267,287756.90625,311606.21875,316247.59375,287943.15625,295902.5,300506.34375,258614.078125,303092.625,0.030029296875,0.970458984375,-0.228759765625,-0.8239745497703552,1.0986326932907104,0.9460448622703552,80.0,902025.0,1.0
515274.430481,282498.53125,310567.59375,316713.59375,290511.1875,300068.6875,302010.625,259273.453125,304650.1875,0.031982421875,0.975341796875,-0.228271484375,-0.7629393935203552,1.0375975370407104,0.8239745497703552,80.0,902026.0,1.0
515274.4331796,283737.625,311546.5,317825.1875,293723.21875,302160.90625,302794.8125,259628.75,305799.59375,0.0341796875,0.97802734375,-0.230224609375,-0.8544921278953552,1.0375975370407104,0.7324218153953552,80.0,902027.0,1.0
515274.4380318,289937.8125,313277.25,318091.625,293228.625,299321.0,301795.6875,259209.265625,304965.78125,0.0341796875,0.978515625,-0.228271484375,-1.2207030057907104,1.0986326932907104,0.7019042372703552,80.0,902028.0,1.0
515274.4431965,292130.25,313206.59375,317059.5,289685.78125,295505.625,300367.75,258584.578125,303302.28125,0.034912109375,0.978271484375,-0.229736328125,-1.3122557401657104,1.0070799589157104,0.8239745497703552,80.0,902029.0,1.0
515274.4455246,287775.15625,311631.53125,316242.6875,287976.65625,295895.4375,300501.0625,258616.484375,303088.25,0.035888671875,0.977783203125,-0.230712890625,-1.4038084745407104,1.0681151151657104,0.8544921278953552,80.0,902030.0,1.0
515274.4893745,282517.125,310598.34375,316712.6875,290552.5,300067.34375,302014.71875,259274.703125,304658.84375,0.03515625,0.9765625,-0.22900390625,-1.5869139432907104,1.1291502714157104,0.7934569716453552,80.0,902031.0,1.0
515274.4920098,283700.25,311539.4375,317809.71875,293753.0,302163.6875,302794.53125,259635.90625,305800.125,0.0361328125,0.974609375,-0.232421875,-1.7700194120407104,1.1596678495407104,0.7019042372703552,80.0,902032.0,1.0
515274.4920538,289886.3125,313253.09375,318070.625,293256.96875,299326.71875,301789.78125,259215.25,304957.8125,0.0361328125,0.974609375,-0.23486328125,-1.7089842557907104,1.2207030057907104,0.5798339247703552,80.0,902033.0,1.0
515274.4995192,292137.65625,313221.53125,317056.03125,289742.0,295521.1875,300374.46875,258596.640625,303317.5625,0.036865234375,0.976806640625,-0.23388671875,-1.7395018339157104,1.2512205839157104,0.5187987685203552,80.0,902034.0,1.0
515274.5018375,287796.78125,311642.59375,316227.9375,288003.03125,295881.21875,300491.875,258640.0,303094.6875,0.036865234375,0.977783203125,-0.232666015625,-1.6174315214157104,1.3427733182907104,0.3967284858226776,80.0,902035.0,1.0
515274.5044371,282502.5625,310578.125,316680.78125,290533.96875,300030.875,301991.46875,259314.484375,304647.125,0.037353515625,0.97998046875,-0.229248046875,-1.6479490995407104,1.4343260526657104,0.4272460639476776,80.0,902036.0,1.0
515274.5070199,283680.75,311531.84375,317802.75,293752.53125,302165.46875,302800.34375,259720.578125,305814.625,0.039306640625,0.9814453125,-0.230224609375,-1.7700194120407104,1.6479490995407104,0.3356933295726776,80.0,902037.0,1.0
515274.5093874,289884.875,313257.9375,318078.03125,293281.0,299352.71875,301806.15625,259306.53125,304985.8125,0.038818359375,0.985107421875,-0.227294921875,-1.9531248807907104,1.6784666776657104,0.3967284858226776,80.0,902038.0,1.0
515274.511977,292146.53125,313212.40625,317054.59375,289739.6875,295519.125,300369.625,258675.953125,303314.78125,0.037109375,0.98388671875,-0.2275390625,-2.075195074081421,1.7700194120407104,0.3051757514476776,80.0,902039.0,1.0
515274.5143747,287816.28125,311634.90625,316227.9375,287971.03125,295858.96875,300484.53125,258732.546875,303076.71875,0.037841796875,0.984130859375,-0.226318359375,-2.288818120956421,1.9531248807907104,0.3967284858226776,80.0,902040.0,1.0
515274.5193682,282501.75,310568.21875,316673.28125,290479.0,300004.0625,301981.90625,259382.078125,304625.21875,0.036865234375,0.982177734375,-0.22900390625,-2.410888433456421,2.044677495956421,0.3967284858226776,80.0,902041.0,1.0
515274.5219835,283631.3125,311509.9375,317782.28125,293692.71875,302149.71875,302779.6875,259718.15625,305787.34375,0.035888671875,0.978515625,-0.231201171875,-2.655029058456421,2.075195074081421,0.3662109076976776,80.0,902042.0,1.0
515274.5305987,289858.40625,313267.84375,318086.4375,293266.15625,299380.0,301817.21875,259299.734375,304990.0,0.035400390625,0.976806640625,-0.229736328125,-2.655029058456421,2.044677495956421,0.3967284858226776,80.0,902043.0,1.0
515274.5332201,292156.0,313234.6875,317074.71875,289738.15625,295550.25,300392.8125,258666.296875,303330.25,0.03466796875,0.97509765625,-0.2294921875,-2.593993902206421,2.166747808456421,0.4272460639476776,80.0,902044.0,1.0
515274.535734,287827.53125,311638.21875,316219.71875,287940.375,295851.28125,300475.6875,258674.78125,303072.875,0.03271484375,0.9775390625,-0.22509765625,-2.471923589706421,2.197265386581421,0.4272460639476776,80.0,902045.0,1.0
515274.5382703,282508.90625,310567.75,316665.3125,290440.71875,299994.9375,301974.21875,259296.25,304619.25,0.031982421875,0.97607421875,-0.226806640625,-2.502441167831421,2.288818120956421,0.3967284858226776,80.0,902046.0,1.0
515274.5406924,283614.875,311500.09375,317775.40625,293670.5625,302158.75,302780.21875,259642.875,305784.3125,0.03173828125,0.97216796875,-0.228515625,-2.685546636581421,2.349853277206421,0.3967284858226776,80.0,902047.0,1.0
515274.5431171,289809.15625,313226.0,318062.84375,293241.84375,299380.4375,301797.03125,259227.765625,304967.5625,0.0322265625,0.9697265625,-0.228759765625,-2.532958745956421,2.502441167831421,0.4272460639476776,80.0,902048.0,1.0
515274.545798,292140.09375,313206.875,317060.21875,289726.71875,295546.9375,300376.96875,258613.625,303311.9375,0.031982421875,0.966552734375,-0.228515625,-2.349853277206421,2.410888433456421,0.4577636420726776,80.0,902049.0,1.0
515274.5458405,287846.21875,311634.75,316216.125,287930.1875,295840.8125,300478.0,258648.9375,303062.75,0.031005859375,0.9658203125,-0.23046875,-2.258300542831421,2.502441167831421,0.5187987685203552,80.0,902050.0,1.0
515274.548296,282497.71875,310551.40625,316646.8125,290413.09375,299971.875,301969.5,259282.84375,304598.0625,0.02978515625,0.969482421875,-0.228759765625,-1.9836424589157104,2.441406011581421,0.5493163466453552,80.0,902051.0,1.0
515274.5483377,283563.4375,311470.15625,317758.0625,293644.09375,302155.28125,302778.0,259630.359375,305761.875,0.028076171875,0.968505859375,-0.22900390625,-1.6784666776657104,2.410888433456421,0.6408690810203552,80.0,902052.0,1.0
515274.5533134,289790.125,313233.59375,318078.84375,293257.125,299419.4375,301826.625,259243.953125,304981.0625,0.02587890625,0.96875,-0.230224609375,-1.5869139432907104,2.349853277206421,0.6713866591453552,80.0,902053.0,1.0
515274.5533504,292152.15625,313227.0,317069.6875,289741.9375,295573.21875,300392.8125,258630.34375,303322.21875,0.02783203125,0.966064453125,-0.22705078125,-1.5563963651657104,2.380370855331421,0.7629393935203552,80.0,902054.0,1.0
515274.5571429,287863.9375,311642.25,316214.71875,287909.25,295834.28125,300473.53125,258661.640625,303049.875,0.025146484375,0.965576171875,-0.23046875,-1.3732908964157104,2.319335699081421,0.7629393935203552,80.0,902055.0,1.0
515274.5571782,282500.03125,310551.5,316645.1875,290373.59375,299962.125,301967.6875,259313.859375,304580.96875,0.02587890625,0.963623046875,-0.228759765625,-1.3122557401657104,2.197265386581421,0.7934569716453552,80.0,902056.0,1.0
515274.5571881,283530.09375,311461.375,317750.53125,293606.4375,302157.96875,302779.59375,259669.890625,305749.78125,0.0263671875,0.96435546875,-0.227783203125,-1.1901854276657104,2.136230230331421,0.7629393935203552,80.0,902057.0,1.0
515274.559358,289748.4375,313223.3125,318068.5625,293227.71875,299426.03125,301819.5625,259231.34375,304968.46875,0.025390625,0.9638671875,-0.2275390625,-0.9765624403953552,1.9531248807907104,0.7629393935203552,80.0,902058.0,1.0
515274.5619586,292131.875,313219.125,317064.34375,289712.25,295568.9375,300384.125,258579.03125,303307.65625,0.025146484375,0.963623046875,-0.227783203125,-0.7934569716453552,1.8920897245407104,0.7019042372703552,80.0,902059.0,1.0
