Time,FZ,C3,CZ,C4,PZ,PO7,OZ,PO8,AccX,AccY,AccZ,Gyro1,Gyro2,Gyro3,Battery,Counter,Validation
84839.0527001,316424.90625,345158.59375,330493.4375,318260.34375,323015.28125,309746.03125,311475.0625,280592.71875,-0.065185546875,0.876708984375,-0.52392578125,3.692626714706421,-11.993407249450684,5.676269054412842,100.0,197686.0,1.0
84839.0663546,316712.0,345561.21875,330571.9375,318267.65625,323112.90625,309469.5625,311400.3125,280431.78125,-0.056640625,0.873779296875,-0.522705078125,3.540038824081421,-11.596678733825684,6.805419445037842,100.0,197687.0,1.0
84839.0689256,316658.875,344488.59375,329516.9375,317200.9375,320889.875,308447.65625,310349.59375,279603.875,-0.046875,0.868896484375,-0.5224609375,3.448486089706421,-11.260985374450684,7.934569835662842,100.0,197688.0,1.0
84839.0689385,316368.46875,343466.03125,328803.84375,316522.875,319426.28125,308096.90625,309764.15625,279250.28125,-0.042236328125,0.857421875,-0.51806640625,3.204345464706421,-10.528563499450684,9.094237327575684,100.0,197689.0,1.0
84839.0713532,316249.125,344004.09375,329481.1875,317224.8125,320830.96875,308947.53125,310477.625,279876.5625,-0.0341796875,0.84521484375,-0.511474609375,3.112792730331421,-9.490965843200684,10.101317405700684,100.0,197690.0,1.0
84839.0737168,316458.0625,345376.59375,330628.4375,318346.625,323281.15625,309847.21875,311530.9375,280614.53125,-0.02685546875,0.834228515625,-0.50830078125,3.021239995956421,-8.483885765075684,10.986327171325684,100.0,197691.0,1.0
84839.0812587,316741.59375,345785.71875,330700.0625,318348.5,323422.15625,309564.6875,311467.375,280406.59375,-0.017578125,0.822998046875,-0.50048828125,2.868652105331421,-7.324218273162842,11.749266624450684,100.0,197692.0,1.0
84839.0839476,316685.625,344692.78125,329627.09375,317270.34375,321205.3125,308533.5625,310421.84375,279554.34375,-0.0107421875,0.813232421875,-0.49267578125,2.960204839706421,-6.103515148162842,12.481688499450684,100.0,197693.0,1.0
84839.0839604,316389.21875,343642.53125,328895.03125,316582.4375,319722.6875,308172.90625,309838.71875,279184.21875,-0.005126953125,0.80615234375,-0.4873046875,2.990722417831421,-5.004882335662842,13.122557640075684,100.0,197694.0,1.0
84839.0863434,316258.96875,344159.40625,329556.1875,317275.59375,321100.09375,309013.0625,310552.1875,279810.40625,-0.003173828125,0.799072265625,-0.4873046875,3.173827886581421,-4.028319835662842,13.641356468200684,100.0,197695.0,1.0
84839.1164125,316457.625,345485.03125,330671.53125,318384.78125,323512.625,309894.96875,311593.53125,280600.5,-0.004150390625,0.801025390625,-0.48828125,3.204345464706421,-3.021239995956421,14.068602561950684,100.0,197696.0,1.0
84839.1188043,316727.0,345807.78125,330691.03125,318350.375,323578.8125,309579.71875,311501.78125,280433.65625,-0.005859375,0.802490234375,-0.488037109375,3.326415777206421,-2.044677495956421,14.282225608825684,100.0,197697.0,1.0
84839.1188289,316669.59375,344654.15625,329580.875,317239.9375,321281.75,308518.28125,310428.90625,279590.03125,-0.01171875,0.806640625,-0.493408203125,3.417968511581421,-1.2817381620407104,14.587401390075684,100.0,197698.0,1.0
84839.123197,316386.1875,343567.875,328831.1875,316545.0625,319728.40625,308141.6875,309827.28125,279215.59375,-0.0185546875,0.806884765625,-0.49169921875,3.295898199081421,-0.5187987685203552,14.709471702575684,100.0,197699.0,1.0
84839.1551935,316290.0625,344070.34375,329503.0,317263.8125,321071.125,308990.4375,310547.46875,279859.21875,-0.025634765625,0.8076171875,-0.492431640625,3.204345464706421,0.2441406100988388,14.648436546325684,100.0,197700.0,1.0
84839.157557,316480.6875,345367.625,330608.15625,318373.15625,323448.1875,309861.8125,311578.0625,280637.25,-0.031982421875,0.80419921875,-0.4931640625,3.143310308456421,1.0375975370407104,14.526366233825684,100.0,197701.0,1.0
84839.1600552,316744.25,345681.28125,330626.40625,318334.8125,323501.5625,309543.875,311478.71875,280458.0,-0.0390625,0.803466796875,-0.494384765625,3.173827886581421,1.7089842557907104,14.373778343200684,100.0,197702.0,1.0
84839.162687,316668.625,344481.625,329484.21875,317194.25,321149.4375,308449.96875,310367.84375,279576.34375,-0.042236328125,0.803955078125,-0.496826171875,2.990722417831421,2.136230230331421,14.007567405700684,100.0,197703.0,1.0
84839.1650405,316375.90625,343362.96875,328716.40625,316483.71875,319542.34375,308052.03125,309735.03125,279177.6875,-0.046630859375,0.807861328125,-0.498046875,3.112792730331421,2.166747808456421,13.671874046325684,100.0,197704.0,1.0
84839.1676849,316254.9375,343845.65625,329370.21875,317186.8125,320839.09375,308878.59375,310426.21875,279800.21875,-0.051513671875,0.8154296875,-0.50390625,3.173827886581421,1.8920897245407104,13.305663108825684,100.0,197705.0,1.0
84839.1700506,316447.59375,345172.09375,330496.75,318312.1875,323229.65625,309769.96875,311469.25,280566.53125,-0.052734375,0.82373046875,-0.50927734375,3.204345464706421,1.6479490995407104,12.908934593200684,100.0,197706.0,1.0
84839.1802106,316712.0,345516.0625,330536.375,318286.4375,323298.5,309463.40625,311379.125,280371.625,-0.052490234375,0.832275390625,-0.516845703125,3.143310308456421,1.1291502714157104,12.542723655700684,100.0,197707.0,1.0
84839.1816318,316655.03125,344370.3125,329427.71875,317163.9375,320968.03125,308391.0625,310284.4375,279490.0625,-0.052734375,0.84130859375,-0.519287109375,3.051757574081421,0.6408690810203552,12.145995140075684,100.0,197708.0,1.0
84839.2105382,316369.1875,343289.5625,328675.53125,316460.3125,319366.46875,308000.53125,309650.8125,279098.8125,-0.05029296875,0.848388671875,-0.5263671875,2.838134527206421,0.2136230319738388,11.840819358825684,100.0,197709.0,1.0
84839.2264379,316260.46875,343798.09375,329348.15625,317181.375,320684.59375,308841.03125,310350.3125,279729.78125,-0.049072265625,0.853515625,-0.52734375,2.380370855331421,0.0,11.535643577575684,100.0,197710.0,1.0
84839.2312952,316454.5,345137.9375,330488.96875,318318.90625,323114.25,309748.15625,311407.5625,280490.28125,-0.047607421875,0.854248046875,-0.52685546875,2.044677495956421,-0.1525878757238388,11.077879905700684,100.0,197711.0,1.0
84839.2330517,316715.5625,345485.21875,330531.25,318292.0625,323216.875,309453.65625,311330.125,280253.875,-0.0478515625,0.854248046875,-0.5283203125,1.6174315214157104,-0.1831054538488388,10.650633811950684,100.0,197712.0,1.0
84839.2427011,316664.0625,344366.90625,329444.0,317180.125,320926.53125,308400.25,310253.5,279357.3125,-0.049072265625,0.857666015625,-0.5283203125,1.2512205839157104,-0.1525878757238388,10.162352561950684,100.0,197713.0,1.0
84839.2450472,316375.46875,343330.0625,328716.03125,316484.09375,319371.65625,308026.09375,309644.1875,278974.375,-0.05126953125,0.861328125,-0.5322265625,1.0375975370407104,-0.3051757514476776,9.643553733825684,100.0,197714.0,1.0
84839.2478525,316242.0625,343785.59375,329341.4375,317169.21875,320652.34375,308833.4375,310320.375,279572.3125,-0.050537109375,0.86572265625,-0.53271484375,0.7324218153953552,-0.4882812201976776,9.002684593200684,100.0,197715.0,1.0
84839.2515473,316430.625,345062.03125,330444.28125,318292.96875,323030.71875,309717.40625,311359.46875,280354.0,-0.0478515625,0.871826171875,-0.5341796875,0.5493163466453552,-0.9460448622703552,8.422850608825684,100.0,197716.0,1.0
84839.2515875,316714.75,345473.6875,330535.90625,318303.6875,323181.75,309464.03125,311319.03125,280211.84375,-0.046142578125,0.87744140625,-0.532470703125,0.2136230319738388,-1.2512205839157104,7.934569835662842,100.0,197717.0,1.0
84839.251598,316672.90625,344418.75,329481.71875,317208.8125,320933.4375,308438.09375,310268.15625,279356.9375,-0.04248046875,0.88232421875,-0.534423828125,-0.0915527269244194,-1.6479490995407104,7.354735851287842,100.0,197718.0,1.0
84839.2538682,316385.03125,343330.15625,328713.09375,316486.21875,319319.53125,308033.34375,309630.3125,278965.34375,-0.03759765625,0.8857421875,-0.531494140625,-0.6408690810203552,-2.014159917831421,6.896972179412842,100.0,197719.0,1.0
84839.2565361,316260.3125,343734.8125,329314.25,317162.15625,320540.40625,308822.96875,310285.84375,279581.96875,-0.034912109375,0.890869140625,-0.529296875,-1.2207030057907104,-2.288818120956421,6.469726085662842,100.0,197720.0,1.0
84839.2589858,316434.46875,344982.90625,330403.0625,318273.46875,322888.65625,309697.65625,311307.59375,280333.09375,-0.031982421875,0.894775390625,-0.52978515625,-1.9226073026657104,-2.380370855331421,6.042479991912842,100.0,197721.0,1.0
84839.2590264,316701.625,345350.125,330464.75,318258.90625,323004.8125,309404.21875,311239.46875,280147.9375,-0.02978515625,0.898681640625,-0.5283203125,-2.899169683456421,-2.441406011581421,5.645751476287842,100.0,197722.0,1.0
84839.2702199,316650.28125,344228.40625,329361.71875,317124.40625,320682.625,308328.75,310144.25,279292.3125,-0.025390625,0.900634765625,-0.525634765625,-3.784179449081421,-2.471923589706421,5.432128429412842,100.0,197723.0,1.0
84839.2702553,316370.625,343142.375,328594.4375,316401.21875,319046.40625,307927.5625,309501.40625,278923.3125,-0.025146484375,0.902587890625,-0.519775390625,-4.943847179412842,-2.532958745956421,5.249022960662842,100.0,197724.0,1.0
84839.2702649,316258.4375,343604.25,329231.28125,317105.90625,320308.46875,308749.5,310175.4375,279575.0,-0.023681640625,0.901123046875,-0.520751953125,-6.072997570037842,-2.471923589706421,5.004882335662842,100.0,197725.0,1.0
84839.2740877,316443.21875,344923.90625,330368.53125,318257.90625,322742.5,309671.0,311234.65625,280383.5,-0.02587890625,0.89990234375,-0.516845703125,-7.049560070037842,-2.441406011581421,4.699706554412842,100.0,197726.0,1.0
84839.2741311,316708.59375,345310.15625,330444.0,318255.0625,322908.78125,309399.46875,311181.34375,280229.46875,-0.025146484375,0.8994140625,-0.526123046875,-7.904052257537842,-2.471923589706421,4.272460460662842,100.0,197727.0,1.0
84839.274141,316663.78125,344197.65625,329352.53125,317128.625,320614.0625,308332.59375,310091.75,279358.90625,-0.02734375,0.89697265625,-0.531494140625,-8.666991233825684,-2.655029058456421,3.723144292831421,100.0,197728.0,1.0
84839.2765036,316375.8125,343094.28125,328571.71875,316392.71875,318967.71875,307920.15625,309436.75,278954.15625,-0.031005859375,0.89453125,-0.54345703125,-8.880614280700684,-2.716064214706421,3.082275152206421,100.0,197729.0,1.0
84839.2816371,316255.75,343545.96875,329197.75,317089.5625,320214.9375,308727.75,310107.75,279581.96875,-0.031005859375,0.893310546875,-0.548095703125,-8.880614280700684,-2.838134527206421,2.410888433456421,100.0,197730.0,1.0
84839.2837754,316446.09375,344884.03125,330346.5625,318252.125,322659.15625,309652.6875,311180.46875,280376.28125,-0.032958984375,0.892333984375,-0.549560546875,-8.941649436950684,-2.929687261581421,1.8005369901657104,100.0,197731.0,1.0
84839.2864365,316722.0,345318.71875,330452.9375,318270.0,322860.78125,309408.875,311152.3125,280212.65625,-0.035888671875,0.890380859375,-0.5458984375,-8.850096702575684,-2.899169683456421,1.3122557401657104,100.0,197732.0,1.0
84839.2889531,316679.8125,344271.96875,329398.9375,317162.40625,320615.125,308366.65625,310093.375,279336.90625,-0.036376953125,0.890869140625,-0.537353515625,-8.880614280700684,-2.777099370956421,0.9765624403953552,100.0,197733.0,1.0
84839.2889934,316386.1875,343174.3125,328612.84375,316416.125,318968.15625,307940.96875,309439.4375,278904.90625,-0.038330078125,0.894287109375,-0.5302734375,-9.124754905700684,-2.746581792831421,0.6103515028953552,100.0,197734.0,1.0
84839.2913605,316248.15625,343554.71875,329189.09375,317074.96875,320160.6875,308717.9375,310088.90625,279503.03125,-0.03857421875,0.897216796875,-0.525146484375,-9.338377952575684,-2.716064214706421,0.3662109076976776,100.0,197735.0,1.0
84839.2939835,316425.25,344800.96875,330284.6875,318206.25,322540.25,309612.09375,311135.75,280284.90625,-0.04150390625,0.89892578125,-0.526123046875,-9.704588890075684,-2.746581792831421,0.1220703050494194,100.0,197736.0,1.0
84839.2940222,316712.25,345260.53125,330424.59375,318248.25,322772.4375,309398.0625,311125.5625,280129.875,-0.045166015625,0.89599609375,-0.52294921875,-10.131834983825684,-3.021239995956421,0.03051757626235485,100.0,197737.0,1.0
84839.2963596,316695.96875,344288.3125,329422.71875,317174.75,320591.8125,308391.5,310097.65625,279261.46875,-0.04736328125,0.89208984375,-0.522705078125,-10.620116233825684,-3.295898199081421,0.0,100.0,197738.0,1.0
84839.2989598,316396.8125,343176.625,328616.875,316413.1875,318937.6875,307953.5,309428.53125,278820.78125,-0.04736328125,0.888671875,-0.52197265625,-11.169432640075684,-3.601073980331421,0.0,100.0,197739.0,1.0
84839.2990025,316235.4375,343511.09375,329148.3125,317039.65625,320092.46875,308708.53125,310048.125,279390.125,-0.0458984375,0.880615234375,-0.517333984375,-11.474608421325684,-4.028319835662842,-0.0915527269244194,100.0,197740.0,1.0
84839.3100855,316401.375,344755.375,330244.0,318172.28125,322480.96875,309601.71875,311093.46875,280194.6875,-0.043212890625,0.875732421875,-0.51953125,-11.627196311950684,-4.364013195037842,-0.0915527269244194,100.0,197741.0,1.0
84839.3125538,316694.90625,345237.375,330400.8125,318236.90625,322743.65625,309395.625,311091.875,280085.96875,-0.044677734375,0.871337890625,-0.523193359375,-11.474608421325684,-4.486083507537842,0.0,100.0,197742.0,1.0
84839.3150508,316664.875,344271.34375,329393.03125,317161.15625,320567.03125,308384.0,310053.5,279243.5625,-0.0458984375,0.8671875,-0.52099609375,-11.260985374450684,-4.730224132537842,-0.1525878757238388,100.0,197743.0,1.0
84839.3175178,316387.71875,343186.28125,328604.28125,316413.09375,318925.78125,307967.28125,309402.15625,278875.3125,-0.047607421875,0.864990234375,-0.521240234375,-10.894774436950684,-4.638671398162842,-0.1525878757238388,100.0,197744.0,1.0
84839.3201043,316234.5625,343499.65625,329125.15625,317032.78125,320054.28125,308713.5625,310016.21875,279492.5625,-0.05078125,0.864013671875,-0.522705078125,-10.437010765075684,-4.821776866912842,-0.03051757626235485,100.0,197745.0,1.0
84839.3201347,316418.8125,344747.875,330240.6875,318186.84375,322449.59375,309617.1875,311076.03125,280330.5,-0.054443359375,0.86328125,-0.52099609375,-10.009764671325684,-4.974364757537842,0.1220703050494194,100.0,197746.0,1.0
84839.3225484,316727.53125,345276.96875,330442.75,318279.65625,322761.53125,309426.3125,311104.8125,280263.25,-0.063720703125,0.86181640625,-0.52099609375,-9.796141624450684,-5.187987804412842,0.3662109076976776,100.0,197747.0,1.0
84839.3225792,316709.84375,344349.46875,329465.4375,317217.65625,320613.875,308425.75,310082.46875,279444.75,-0.071044921875,0.85498046875,-0.517578125,-9.521483421325684,-5.523681163787842,0.6103515028953552,100.0,197748.0,1.0
84839.3250189,316410.875,343223.03125,328638.0625,316437.3125,318931.4375,307966.5625,309405.65625,279024.78125,-0.076416015625,0.85107421875,-0.515625,-9.185790061950684,-5.981444835662842,0.8850097060203552,100.0,197749.0,1.0
84839.3275219,316246.25,343500.5625,329130.875,317041.1875,320028.09375,308694.0625,310001.09375,279614.34375,-0.07861328125,0.8466796875,-0.508544921875,-8.941649436950684,-6.561278820037842,1.4648436307907104,100.0,197750.0,1.0
84839.3300164,316414.25,344738.21875,330234.4375,318184.59375,322426.78125,309604.84375,311055.21875,280429.65625,-0.076171875,0.845458984375,-0.5029296875,-8.666991233825684,-7.263183116912842,2.105712652206421,100.0,197751.0,1.0
84839.3346359,316710.5625,345269.90625,330431.75,318271.5,322758.75,309425.3125,311087.125,280334.34375,-0.075927734375,0.845458984375,-0.499267578125,-8.422850608825684,-8.178709983825684,2.777099370956421,100.0,197752.0,1.0
84839.3346515,316694.46875,344348.5625,329454.34375,317208.90625,320629.1875,308422.0,310069.125,279478.53125,-0.071533203125,0.84716796875,-0.49462890625,-8.239745140075684,-9.002684593200684,3.570556402206421,100.0,197753.0,1.0
84839.341386,316394.78125,343208.8125,328620.375,316424.53125,318937.59375,307955.5625,309380.78125,279014.0625,-0.068115234375,0.849609375,-0.493896484375,-7.751464366912842,-9.887694358825684,4.241942882537842,100.0,197754.0,1.0
84839.3438865,316225.625,343457.625,329099.59375,317020.625,320012.4375,308672.34375,309964.4375,279539.25,-0.06591796875,0.85791015625,-0.49658203125,-7.293700695037842,-10.772704124450684,4.852294445037842,100.0,197755.0,1.0
84839.3462728,316397.4375,344678.5,330204.65625,318174.78125,322411.5,309584.375,311018.1875,280319.84375,-0.0654296875,0.864501953125,-0.495849609375,-6.927489757537842,-11.566161155700684,5.584716320037842,100.0,197756.0,1.0
84839.3462874,316691.0625,345203.5625,330405.46875,318263.8125,322746.0625,309410.65625,311054.40625,280257.4375,-0.06201171875,0.86669921875,-0.497802734375,-6.561278820037842,-12.268065452575684,6.378173351287842,100.0,197757.0,1.0
84839.3488339,316684.28125,344307.375,329445.0625,317207.03125,320621.65625,308418.6875,310046.53125,279448.0625,-0.058837890625,0.8740234375,-0.4970703125,-6.256103038787842,-12.878417015075684,7.202147960662842,100.0,197758.0,1.0
84839.3539295,316377.96875,343142.9375,328586.3125,316403.1875,318889.125,307928.5625,309343.15625,278998.875,-0.056396484375,0.880859375,-0.495849609375,-6.011962413787842,-13.275145530700684,8.209227561950684,100.0,197759.0,1.0
84839.3539472,316201.90625,343348.5625,329037.0,316988.34375,319921.0625,308622.1875,309908.5625,279560.78125,-0.056396484375,0.88671875,-0.495361328125,-6.072997570037842,-13.519286155700684,9.094237327575684,100.0,197760.0,1.0
84839.3563916,316370.71875,344568.78125,330134.46875,318144.46875,322310.90625,309535.71875,310964.375,280346.15625,-0.0576171875,0.893798828125,-0.492919921875,-6.164550304412842,-13.732909202575684,10.131834983825684,100.0,197761.0,1.0
84839.3588004,316669.0625,345113.46875,330343.5,318239.15625,322653.15625,309367.65625,311010.15625,280179.21875,-0.061767578125,0.900634765625,-0.489013671875,-6.317138195037842,-14.099120140075684,10.833739280700684,100.0,197762.0,1.0
84839.358817,316662.90625,344245.65625,329396.59375,317181.625,320538.25,308382.125,310005.9375,279250.0,-0.064697265625,0.9052734375,-0.483154296875,-6.744384288787842,-14.465331077575684,11.688231468200684,100.0,197763.0,1.0
84839.3613477,316350.78125,343113.25,328553.9375,316375.46875,318823.15625,307901.46875,309301.75,278740.125,-0.069580078125,0.90869140625,-0.482666015625,-7.415771007537842,-15.136717796325684,12.603758811950684,100.0,197764.0,1.0
84839.3914,316169.65625,343295.375,328993.09375,316953.5625,319853.375,308580.875,309856.53125,279302.40625,-0.074462890625,0.912109375,-0.482421875,-7.934569835662842,-15.838622093200684,13.458250999450684,100.0,197765.0,1.0
84839.3939728,316327.1875,344473.84375,330073.40625,318105.84375,322231.15625,309470.5625,310900.1875,280112.625,-0.0791015625,0.91357421875,-0.481201171875,-8.483885765075684,-16.632078170776367,14.251708030700684,100.0,197766.0,1.0
84839.394005,316664.25,345125.96875,330365.6875,318260.875,322678.65625,309372.5625,311003.34375,280086.6875,-0.08837890625,0.913818359375,-0.482666015625,-9.155272483825684,-17.486570358276367,15.014647483825684,100.0,197767.0,1.0
84839.3962529,316756.96875,344427.96875,329548.25,317302.0625,320728.25,308508.4375,310117.5,279369.375,-0.0927734375,0.9111328125,-0.482666015625,-9.613036155700684,-18.432615280151367,15.441893577575684,100.0,197768.0,1.0
84839.3987449,316428.75,343266.3125,328667.75,316464.78125,319004.375,307995.25,309396.96875,278902.75,-0.092041015625,0.9091796875,-0.47314453125,-10.223387718200684,-19.409177780151367,16.113279342651367,100.0,197769.0,1.0
84839.4012207,316229.0,343410.53125,329074.1875,317024.28125,320018.0625,308657.75,309936.0,279458.34375,-0.094970703125,0.907958984375,-0.471435546875,-10.955809593200684,-20.263669967651367,17.120359420776367,100.0,197770.0,1.0
84839.4074639,316375.46875,344533.65625,330123.21875,318161.625,322391.84375,309540.75,310965.8125,280262.375,-0.099365234375,0.9052734375,-0.46630859375,-11.688231468200684,-21.179197311401367,17.822263717651367,100.0,197771.0,1.0
84839.4100581,316686.15625,345140.53125,330378.1875,318282.25,322815.875,309422.71875,311035.90625,280173.21875,-0.095947265625,0.90234375,-0.467529296875,-11.810301780700684,-22.064207077026367,18.280027389526367,100.0,197772.0,1.0
84839.4125259,316704.9375,344397.75,329497.0,317246.90625,320800.125,308488.78125,310068.25,279315.46875,-0.090576171875,0.90673828125,-0.464599609375,-11.962889671325684,-23.040769577026367,18.524168014526367,100.0,197773.0,1.0
84839.422533,316405.21875,343241.09375,328631.71875,316426.25,319072.59375,307991.0625,309357.90625,278789.21875,-0.08349609375,0.910888671875,-0.462646484375,-12.176512718200684,-23.956296920776367,18.737791061401367,100.0,197774.0,1.0
84839.427724,316205.84375,343258.625,328978.0,316963.3125,319993.59375,308615.28125,309854.65625,279242.5,-0.075927734375,0.911376953125,-0.46044921875,-12.298583030700684,-24.932859420776367,19.256589889526367,100.0,197775.0,1.0
84839.4277669,316358.75,344352.25,330033.28125,318115.5,322332.5625,309503.5625,310871.28125,279980.03125,-0.06884765625,0.910400390625,-0.464599609375,-12.451170921325684,-25.878904342651367,19.622800827026367,100.0,197776.0,1.0
84839.4325479,316684.96875,345042.5625,330349.5,318269.90625,322796.65625,309425.5,310969.03125,279866.5625,-0.061767578125,0.90966796875,-0.466552734375,-12.542723655700684,-26.458738327026367,19.927976608276367,100.0,197777.0,1.0
84839.4365122,316702.875,344347.0625,329478.5,317223.84375,320779.03125,308498.34375,310009.40625,279005.75,-0.05126953125,0.907958984375,-0.469482421875,-12.603758811950684,-26.733396530151367,19.897459030151367,100.0,197778.0,1.0
84839.4365544,316393.0625,343159.09375,328577.1875,316376.71875,319010.46875,307965.3125,309274.3125,278505.6875,-0.044189453125,0.905517578125,-0.47119140625,-12.573241233825684,-26.947019577026367,20.111082077026367,100.0,197779.0,1.0
84839.4365641,316174.03125,343105.71875,328870.875,316890.25,319846.5,308536.34375,309741.0,279008.875,-0.035888671875,0.899658203125,-0.46923828125,-12.390135765075684,-26.947019577026367,20.141599655151367,100.0,197780.0,1.0
84839.4388588,316329.3125,344160.1875,329910.0625,318049.5,322116.90625,309409.75,310754.8125,279873.34375,-0.03173828125,0.8984375,-0.4677734375,-12.207030296325684,-26.763914108276367,20.324705123901367,100.0,197781.0,1.0
84839.440371,316653.4375,344839.96875,330216.71875,318185.6875,322514.3125,309327.875,310845.53125,279887.21875,-0.031005859375,0.89501953125,-0.4697265625,-11.993407249450684,-26.458738327026367,20.538328170776367,100.0,197782.0,1.0
84839.4475508,316694.375,344139.1875,329354.40625,317139.25,320428.53125,308388.09375,309891.40625,279128.6875,-0.0322265625,0.888671875,-0.46826171875,-11.627196311950684,-25.970457077026367,20.355222702026367,100.0,197783.0,1.0
84839.4501797,316389.21875,342963.75,328472.75,316310.5625,318608.5,307859.8125,309158.25,278686.5625,-0.037841796875,0.88134765625,-0.46728515625,-11.230467796325684,-25.726316452026367,20.080564498901367,100.0,197784.0,1.0
84839.4525608,316170.4375,342919.3125,328786.03125,316858.4375,319449.34375,308438.53125,309632.03125,279220.34375,-0.040771484375,0.87841796875,-0.466552734375,-10.864256858825684,-25.329587936401367,19.561765670776367,100.0,197785.0,1.0
84839.4550466,316322.15625,343978.53125,329836.40625,318036.71875,321751.84375,309318.28125,310656.71875,280055.75,-0.0458984375,0.87744140625,-0.46533203125,-10.498045921325684,-25.268552780151367,19.378660202026367,100.0,197786.0,1.0
84839.4638032,316663.09375,344721.0625,330188.125,318191.9375,322201.21875,309266.71875,310782.875,279997.71875,-0.050537109375,0.872314453125,-0.46435546875,-10.223387718200684,-25.360105514526367,19.287107467651367,100.0,197787.0,1.0
84839.4638154,316702.25,344098.25,329361.03125,317133.28125,320154.4375,308368.0,309845.09375,279178.5625,-0.054443359375,0.86962890625,-0.462158203125,-10.101317405700684,-25.482175827026367,19.287107467651367,100.0,197788.0,1.0
84839.4661684,316411.84375,342946.75,328495.46875,316305.1875,318354.5625,307862.03125,309128.65625,278715.90625,-0.056396484375,0.865966796875,-0.4580078125,-9.826659202575684,-25.878904342651367,19.195554733276367,100.0,197789.0,1.0
84839.4701307,316202.8125,342883.90625,328810.34375,316864.875,319196.96875,308446.5625,309608.78125,279238.5625,-0.053466796875,0.86279296875,-0.452880859375,-9.521483421325684,-26.184080123901367,19.073484420776367,100.0,197790.0,1.0
84839.4701439,316337.8125,343911.375,329849.1875,318041.8125,321497.75,309313.65625,310623.625,280063.53125,-0.050537109375,0.86767578125,-0.449462890625,-9.155272483825684,-26.580808639526367,18.920896530151367,100.0,197791.0,1.0
84839.4987204,316681.6875,344737.59375,330250.25,318220.09375,322022.40625,309300.25,310776.625,280003.8125,-0.044677734375,0.87255859375,-0.44970703125,-9.094237327575684,-26.824949264526367,18.829343795776367,100.0,197792.0,1.0
84839.5013666,316737.09375,344303.15625,329519.09375,317210.875,320128.40625,308471.6875,309898.71875,279200.03125,-0.042724609375,0.87744140625,-0.447998046875,-8.972167015075684,-27.069089889526367,18.798826217651367,100.0,197793.0,1.0
84839.5151774,316426.40625,343209.4375,328655.875,316380.71875,318403.46875,307962.4375,309195.375,278749.0625,-0.036865234375,0.8828125,-0.446533203125,-8.941649436950684,-27.130125045776367,18.524168014526367,100.0,197794.0,1.0
84839.5174612,316183.84375,343032.6875,328883.59375,316894.65625,319213.59375,308482.6875,309640.78125,279266.5625,-0.03076171875,0.887939453125,-0.4482421875,-8.850096702575684,-27.038572311401367,18.280027389526367,100.0,197795.0,1.0
84839.5201508,316309.03125,343972.0,329871.34375,318051.5625,321480.96875,309321.5,310631.25,280093.125,-0.02587890625,0.892822265625,-0.448486328125,-8.728026390075684,-26.885984420776367,18.035886764526367,100.0,197796.0,1.0
84839.5226778,316666.21875,344860.25,330313.03125,318253.90625,322066.375,309340.8125,310815.15625,280119.40625,-0.018310546875,0.901123046875,-0.44921875,-8.911131858825684,-26.763914108276367,17.730710983276367,100.0,197797.0,1.0
84839.5276714,316734.34375,344499.40625,329618.78125,317252.28125,320226.125,308537.25,309964.8125,279344.59375,-0.01416015625,0.90576171875,-0.454345703125,-9.094237327575684,-26.336668014526367,17.852781295776367,100.0,197798.0,1.0
84839.5300124,316434.1875,343399.625,328751.96875,316418.0,318514.59375,308032.1875,309267.59375,278848.40625,-0.015625,0.90673828125,-0.455810546875,-9.307860374450684,-25.909421920776367,17.791746139526367,100.0,197799.0,1.0
84839.5325194,316198.34375,343138.0,328940.625,316922.4375,319286.5625,308536.0625,309695.6875,279347.65625,-0.01806640625,0.90576171875,-0.45751953125,-9.460448265075684,-25.665281295776367,17.639158248901367,100.0,197800.0,1.0
84839.5351948,316340.78125,344042.34375,329931.4375,318099.84375,321555.59375,309382.21875,310697.125,280192.71875,-0.01806640625,0.90771484375,-0.458984375,-9.521483421325684,-25.085447311401367,17.303464889526367,100.0,197801.0,1.0
84839.5352334,316707.0625,344979.96875,330407.15625,318316.9375,322181.1875,309429.4375,310899.71875,280224.5625,-0.017822265625,0.90673828125,-0.461181640625,-9.643553733825684,-24.658201217651367,17.120359420776367,100.0,197802.0,1.0
84839.5375799,316768.84375,344667.3125,329729.1875,317304.75,320373.375,308640.84375,310057.6875,279443.40625,-0.019287109375,0.905517578125,-0.457275390625,-9.948729515075684,-24.291990280151367,16.906736373901367,100.0,197803.0,1.0
84839.5376143,316460.5625,343535.96875,328830.46875,316442.15625,318638.09375,308107.09375,309341.71875,278936.0,-0.020263671875,0.903564453125,-0.45654296875,-10.040282249450684,-23.956296920776367,16.632078170776367,100.0,197804.0,1.0
84839.5400725,316199.40625,343190.75,328963.5,316917.96875,319354.5,308556.71875,309728.21875,279390.03125,-0.0234375,0.899169921875,-0.451904296875,-10.192870140075684,-23.559568405151367,16.326902389526367,100.0,197805.0,1.0
84839.5416068,316332.1875,344043.15625,329930.4375,318096.71875,321601.28125,309383.5625,310712.5,280206.5625,-0.024658203125,0.8994140625,-0.451904296875,-10.528563499450684,-23.284910202026367,15.808104515075684,100.0,197806.0,1.0
84839.5488419,316699.28125,345002.59375,330422.09375,318323.625,322246.625,309445.25,310928.34375,280249.21875,-0.023681640625,0.8974609375,-0.45166015625,-10.742186546325684,-23.132322311401367,15.289305686950684,100.0,197807.0,1.0
84839.5504815,316790.21875,344761.0,329785.15625,317331.5625,320479.3125,308686.1875,310119.5625,279500.09375,-0.023193359375,0.89111328125,-0.45166015625,-10.742186546325684,-22.979734420776367,14.831542015075684,100.0,197808.0,1.0
84839.5798747,316477.125,343636.53125,328880.375,316461.5625,318734.28125,308142.59375,309398.125,278998.78125,-0.014892578125,0.886962890625,-0.44970703125,-10.955809593200684,-22.888181686401367,14.495848655700684,100.0,197809.0,1.0
84839.5799144,316199.40625,343229.75,328977.5625,316923.25,319412.625,308560.21875,309757.71875,279452.34375,-0.0107421875,0.885009765625,-0.452392578125,-11.138915061950684,-22.644041061401367,14.343260765075684,100.0,197810.0,1.0
84839.5978572,316321.53125,344026.90625,329917.03125,318089.5625,321636.78125,309363.71875,310721.1875,280255.21875,-0.008544921875,0.887451171875,-0.4541015625,-11.444090843200684,-22.491453170776367,14.099120140075684,100.0,197811.0,1.0
84839.5978962,316701.0625,344997.9375,330424.4375,318328.46875,322301.71875,309447.21875,310948.375,280295.4375,-0.007080078125,0.88916015625,-0.451904296875,-11.596678733825684,-22.003171920776367,13.824461936950684,100.0,197812.0,1.0
84839.6087748,316777.625,344775.21875,329797.0625,317335.96875,320547.53125,308695.84375,310129.5625,279506.6875,-0.00244140625,0.89404296875,-0.44921875,-11.932372093200684,-21.636960983276367,13.427733421325684,100.0,197813.0,1.0
84839.6087839,316467.28125,343679.625,328917.375,316482.46875,318845.15625,308168.78125,309416.28125,278969.0,-0.006591796875,0.88818359375,-0.4462890625,-12.390135765075684,-21.057126998901367,13.153075218200684,100.0,197814.0,1.0
84839.608786,316162.21875,343201.75,328972.625,316911.4375,319492.1875,308548.875,309741.1875,279322.53125,-0.010986328125,0.88525390625,-0.443115234375,-12.908934593200684,-20.294187545776367,12.603758811950684,100.0,197815.0,1.0
84839.6125259,316262.4375,343948.3125,329892.4375,318063.0,321692.5,309332.78125,310679.4375,280029.28125,-0.01416015625,0.883056640625,-0.44091796875,-13.214110374450684,-19.622800827026367,11.749266624450684,100.0,197816.0,1.0
84839.6125392,316670.21875,344980.25,330453.40625,318331.25,322413.8125,309463.125,310938.4375,280051.90625,-0.013671875,0.884033203125,-0.441650390625,-13.549803733825684,-19.012449264526367,10.925292015075684,100.0,197817.0,1.0
84839.6125414,316783.34375,344867.9375,329885.21875,317366.09375,320731.71875,308772.46875,310176.15625,279293.46875,-0.017333984375,0.887451171875,-0.443359375,-13.549803733825684,-18.249509811401367,10.253905296325684,100.0,197818.0,1.0
84839.6251059,316480.15625,343813.3125,329009.75,316510.0,319043.28125,308254.71875,309487.09375,278782.0625,-0.020751953125,0.890380859375,-0.446044921875,-13.397215843200684,-17.822263717651367,9.277342796325684,100.0,197819.0,1.0
84839.6251193,316258.6875,343409.53125,329135.53125,317023.9375,319774.34375,308708.0,309901.59375,279295.4375,-0.02490234375,0.892578125,-0.440673828125,-13.427733421325684,-17.700193405151367,8.636473655700684,100.0,197820.0,1.0
84839.6251215,316378.21875,344151.625,330059.65625,318196.0625,322001.46875,309512.9375,310874.15625,280145.0625,-0.027587890625,0.898681640625,-0.434814453125,-13.275145530700684,-17.456052780151367,7.812499523162842,100.0,197821.0,1.0
84839.6275343,316750.6875,345173.34375,330596.71875,318434.59375,322721.125,309627.09375,311121.28125,280214.71875,-0.027099609375,0.904052734375,-0.433349609375,-13.488768577575684,-17.517087936401367,7.263183116912842,100.0,197822.0,1.0
84839.6301302,316846.0,345066.0625,330018.6875,317444.0625,321034.46875,308916.0625,310339.3125,279465.5625,-0.02783203125,0.91015625,-0.424560546875,-13.732909202575684,-17.425535202026367,6.591796398162842,100.0,197823.0,1.0
84839.6324274,316516.71875,343966.8125,329112.71875,316561.34375,319316.6875,308357.4375,309609.3125,278943.96875,-0.026611328125,0.91455078125,-0.4189453125,-14.099120140075684,-17.364500045776367,5.798339366912842,100.0,197824.0,1.0
84839.6351351,316239.03125,343480.875,329178.71875,317027.59375,320002.15625,308750.28125,309957.375,279389.3125,-0.025390625,0.91943359375,-0.41455078125,-14.404295921325684,-17.303464889526367,4.730224132537842,100.0,197825.0,1.0
84839.6376433,316335.59375,344180.59375,330072.15625,318185.21875,322227.9375,309535.5625,310908.125,280202.28125,-0.020751953125,0.923828125,-0.409912109375,-14.648436546325684,-17.211912155151367,3.753661870956421,100.0,197826.0,1.0
84839.6399741,316711.625,345237.8125,330618.78125,318442.09375,322990.0625,309665.09375,311175.90625,280270.3125,-0.01220703125,0.92724609375,-0.407958984375,-14.831542015075684,-16.967771530151367,2.868652105331421,100.0,197827.0,1.0
84839.6451411,316838.21875,345220.5625,330098.09375,317498.21875,321394.0625,309007.59375,310455.375,279553.0,-0.00732421875,0.9267578125,-0.40966796875,-14.862059593200684,-16.815183639526367,1.8005369901657104,100.0,197828.0,1.0
84839.6550137,316533.09375,344155.09375,329207.78125,316635.8125,319711.5,308469.1875,309757.03125,279047.9375,0.0068359375,0.924560546875,-0.411865234375,-14.770506858825684,-16.601560592651367,0.6713866591453552,100.0,197829.0,1.0
84839.6576301,316242.875,343645.21875,329238.15625,317078.65625,320342.625,308825.21875,310088.71875,279484.78125,0.022216796875,0.921875,-0.4140625,-14.251708030700684,-16.387937545776367,-0.1525878757238388,100.0,197830.0,1.0
84839.6600113,316349.625,344378.53125,330155.5,318262.21875,322578.6875,309609.59375,311047.53125,280318.6875,0.029541015625,0.92041015625,-0.418701171875,-13.671874046325684,-15.686034202575684,-0.7934569716453552,100.0,197831.0,1.0
84839.6624718,316732.625,345494.3125,330747.625,318539.5625,323382.90625,309757.5625,311325.3125,280398.09375,0.033935546875,0.91845703125,-0.419921875,-12.817381858825684,-14.770506858825684,-1.3427733182907104,100.0,197832.0,1.0
84839.6651766,316855.03125,345520.4375,330235.5,317582.625,321794.9375,309098.4375,310599.3125,279677.375,0.031494140625,0.91845703125,-0.421142578125,-12.023924827575684,-13.793944358825684,-2.014159917831421,100.0,197833.0,1.0
84839.6652063,316585.75,344534.1875,329389.34375,316752.21875,320162.46875,308596.25,309936.375,279205.5625,0.03369140625,0.924560546875,-0.42333984375,-11.169432640075684,-12.603758811950684,-2.502441167831421,100.0,197834.0,1.0
84839.6676521,316300.4375,344052.90625,329436.375,317216.78125,320849.03125,308976.5,310289.25,279654.75,0.029541015625,0.9306640625,-0.42041015625,-10.406493186950684,-11.413573265075684,-2.746581792831421,100.0,197835.0,1.0
84839.6700753,316390.375,344765.9375,330337.25,318385.6875,323113.34375,309762.375,311256.375,280476.5,0.024169921875,0.93408203125,-0.41943359375,-9.857176780700684,-10.284422874450684,-2.960204839706421,100.0,197836.0,1.0
84839.6726661,316794.25,345883.25,330939.59375,318675.4375,323959.3125,309930.65625,311568.65625,280571.1875,0.015380859375,0.9384765625,-0.4169921875,-9.429930686950684,-9.155272483825684,-3.356933355331421,100.0,197837.0,1.0
84839.6750517,316901.625,345860.4375,330395.0,317691.875,322342.46875,309242.03125,310823.90625,279820.25,0.011474609375,0.943359375,-0.41064453125,-8.758543968200684,-8.270262718200684,-3.875732183456421,100.0,197838.0,1.0
84839.6776227,316601.375,344848.09375,329523.125,316828.46875,320679.96875,308707.28125,310140.125,279310.53125,0.00634765625,0.944580078125,-0.4072265625,-8.300780296325684,-7.568358898162842,-4.425048351287842,100.0,197839.0,1.0
84839.6801881,316311.71875,344306.28125,329533.3125,317261.9375,321322.15625,309058.3125,310481.46875,279739.96875,0.002685546875,0.94580078125,-0.405029296875,-7.843017101287842,-6.896972179412842,-4.821776866912842,100.0,197840.0,1.0
84839.6802261,316401.375,344969.59375,330415.9375,318427.09375,323558.40625,309832.65625,311441.96875,280557.59375,-0.003173828125,0.94677734375,-0.407470703125,-7.293700695037842,-6.530761241912842,-4.974364757537842,100.0,197841.0,1.0
84839.6826273,316805.59375,346091.5625,331028.375,318731.0625,324424.5,310007.34375,311764.90625,280662.71875,-0.00830078125,0.94873046875,-0.408203125,-6.866454601287842,-6.225585460662842,-5.340575695037842,100.0,197842.0,1.0
84839.685154,316926.75,346090.75,330501.21875,317765.5625,322836.8125,309331.0,311040.09375,279924.84375,-0.007568359375,0.95263671875,-0.408935546875,-6.347655773162842,-6.103515148162842,-5.523681163787842,100.0,197843.0,1.0
84839.6851948,316601.375,344961.8125,329546.0,316834.90625,321064.6875,308733.5625,310295.15625,279371.59375,-0.00927734375,0.95458984375,-0.410400390625,-5.798339366912842,-5.981444835662842,-5.706786632537842,100.0,197844.0,1.0
84839.6878125,316308.3125,344382.09375,329539.46875,317253.25,321643.5,309066.625,310602.1875,279786.625,-0.0087890625,0.956298828125,-0.410400390625,-5.310058116912842,-5.798339366912842,-5.889892101287842,100.0,197845.0,1.0
84839.7175762,316416.5,345098.34375,330469.03125,318457.46875,323920.34375,309872.4375,311584.40625,280630.71875,-0.007568359375,0.9560546875,-0.40625,-4.821776866912842,-5.584716320037842,-5.981444835662842,100.0,197846.0,1.0
84839.7176176,316795.03125,346139.40625,331029.4375,318728.65625,324734.03125,310009.78125,311873.0,280713.25,-0.006103515625,0.95703125,-0.404541015625,-4.547118663787842,-5.218505382537842,-6.164550304412842,100.0,197847.0,1.0
84839.7201012,316905.65625,346019.59375,330427.90625,317715.3125,323023.9375,309278.78125,311089.4375,279948.46875,-0.005859375,0.956787109375,-0.40087890625,-4.272460460662842,-4.730224132537842,-6.317138195037842,100.0,197848.0,1.0
84839.7201301,316587.875,344853.0,329457.125,316780.1875,321166.40625,308664.5625,310312.5,279385.5625,-0.007080078125,0.955810546875,-0.396728515625,-4.028319835662842,-4.241942882537842,-6.347655773162842,100.0,197849.0,1.0
84839.7226683,316296.0625,344307.28125,329471.625,317215.96875,321725.9375,309010.90625,310617.65625,279806.75,-0.00732421875,0.956298828125,-0.396240234375,-3.845214605331421,-3.784179449081421,-6.500243663787842,100.0,197850.0,1.0
84839.7250381,316396.03125,345013.5,330389.28125,318415.625,323975.84375,309812.90625,311590.84375,280650.5625,-0.00439453125,0.956298828125,-0.393798828125,-3.875732183456421,-3.295898199081421,-6.378173351287842,100.0,197851.0,1.0
84839.727642,316773.5,346016.71875,330928.84375,318678.9375,324749.75,309938.59375,311868.625,280730.3125,-0.00537109375,0.953369140625,-0.39111328125,-3.753661870956421,-2.807616949081421,-6.011962413787842,100.0,197852.0,1.0
84839.7300239,316869.34375,345834.4375,330287.625,317636.53125,322960.46875,309174.53125,311047.59375,279937.1875,-0.008056640625,0.950927734375,-0.388671875,-3.570556402206421,-2.258300542831421,-5.889892101287842,100.0,197853.0,1.0
84839.73253,316561.78125,344618.59375,329288.875,316687.5625,321017.8125,308538.9375,310238.75,279357.9375,-0.0087890625,0.948974609375,-0.386962890625,-3.448486089706421,-1.7395018339157104,-5.798339366912842,100.0,197854.0,1.0
84839.735166,316276.3125,344033.40625,329283.5,317113.15625,321503.3125,308872.4375,310520.8125,279771.6875,-0.010498046875,0.94970703125,-0.384033203125,-3.204345464706421,-1.1596678495407104,-5.584716320037842,100.0,197855.0,1.0
84839.7377696,316355.34375,344687.59375,330175.15625,318293.25,323691.1875,309658.03125,311468.34375,280599.875,-0.014404296875,0.95263671875,-0.381591796875,-3.082275152206421,-0.6103515028953552,-5.310058116912842,100.0,197856.0,1.0
84839.7378058,316729.96875,345664.28125,330710.875,318557.875,324427.375,309782.125,311732.71875,280681.40625,-0.019775390625,0.9482421875,-0.376708984375,-3.021239995956421,-0.1220703050494194,-5.035399913787842,100.0,197857.0,1.0
84839.740101,316834.65625,345478.25,330072.875,317519.40625,322601.03125,309014.3125,310899.375,279890.96875,-0.020751953125,0.946044921875,-0.3759765625,-3.143310308456421,0.2441406100988388,-4.669188976287842,100.0,197858.0,1.0
84839.7401376,316517.78125,344248.96875,329065.71875,316554.09375,320601.71875,308367.0,310066.46875,279298.84375,-0.0234375,0.9404296875,-0.371337890625,-3.173827886581421,0.7629393935203552,-4.058837413787842,100.0,197859.0,1.0
84839.7876273,316229.71875,343652.1875,329054.53125,316967.5,321032.75,308702.0,310329.21875,279698.5625,-0.0283203125,0.93603515625,-0.37109375,-3.234863042831421,1.0681151151657104,-3.723144292831421,100.0,197860.0,1.0
84839.7901478,316316.90625,344307.375,329954.59375,318159.5625,323185.84375,309497.375,311272.28125,280526.375,-0.033447265625,0.933349609375,-0.36669921875,-3.326415777206421,1.3427733182907104,-3.265380620956421,100.0,197861.0,1.0
84839.7924727,316687.65625,345287.4375,330498.53125,318435.46875,323910.3125,309626.84375,311533.53125,280607.75,-0.039794921875,0.927734375,-0.365234375,-3.204345464706421,1.6174315214157104,-2.807616949081421,100.0,197862.0,1.0
84839.7950766,316804.0625,345120.78125,329881.09375,317414.71875,322075.40625,308868.21875,310701.59375,279808.8125,-0.0458984375,0.9228515625,-0.364990234375,-3.051757574081421,1.7089842557907104,-2.380370855331421,100.0,197863.0,1.0
84839.7976317,316468.625,343876.78125,328854.09375,316426.78125,320020.9375,308195.875,309837.46875,279178.03125,-0.0546875,0.921630859375,-0.361328125,-2.777099370956421,1.7089842557907104,-2.105712652206421,100.0,197864.0,1.0
84839.8000493,316191.1875,343284.28125,328846.375,316842.96875,320420.59375,308532.40625,310096.125,279580.375,-0.060791015625,0.922119140625,-0.358642578125,-2.441406011581421,1.6174315214157104,-1.7700194120407104,100.0,197865.0,1.0
84839.8025934,316276.3125,343941.78125,329748.6875,318038.4375,322563.5,309334.375,311037.40625,280411.84375,-0.06591796875,0.919677734375,-0.358154296875,-2.258300542831421,1.3732908964157104,-1.6174315214157104,100.0,197866.0,1.0
84839.8049529,316654.84375,344951.71875,330320.1875,318340.53125,323315.75,309483.6875,311316.8125,280502.78125,-0.0732421875,0.919189453125,-0.355224609375,-2.014159917831421,1.0681151151657104,-1.3732908964157104,100.0,197867.0,1.0
84839.8076436,316783.40625,344840.40625,329743.78125,317343.75,321522.34375,308756.5625,310505.625,279721.46875,-0.08349609375,0.91748046875,-0.35791015625,-1.7089842557907104,0.6408690810203552,-1.0986326932907104,100.0,197868.0,1.0
84839.8100157,316477.5625,343652.1875,328757.78125,316376.625,319496.125,308120.875,309659.65625,279127.0625,-0.08935546875,0.91748046875,-0.354736328125,-1.4648436307907104,0.2441406100988388,-0.9765624403953552,100.0,197869.0,1.0
84839.8224663,316183.0625,343077.65625,328747.25,316778.0625,319890.9375,308450.15625,309914.8125,279533.0625,-0.093994140625,0.9169921875,-0.35498046875,-1.1901854276657104,-0.4272460639476776,-0.9460448622703552,100.0,197870.0,1.0
84839.8249658,316268.71875,343773.25,329673.40625,317993.53125,322053.78125,309258.84375,310877.8125,280389.59375,-0.1005859375,0.9189453125,-0.35302734375,-1.0070799589157104,-1.0986326932907104,-0.8239745497703552,100.0,197871.0,1.0
84839.8300394,316643.6875,344833.875,330275.28125,318322.28125,322844.78125,309429.0625,311178.21875,280509.75,-0.106689453125,0.91650390625,-0.356201171875,-0.5798339247703552,-1.8920897245407104,-0.7629393935203552,100.0,197872.0,1.0
84839.832533,316772.15625,344780.9375,329730.8125,317346.0625,321107.0625,308715.4375,310392.625,279754.53125,-0.109130859375,0.913818359375,-0.361572265625,-0.2746581733226776,-2.807616949081421,-0.7934569716453552,100.0,197873.0,1.0
84839.8377218,316464.875,343630.90625,328756.09375,316378.6875,319115.96875,308076.4375,309562.8125,279160.6875,-0.111328125,0.91162109375,-0.3603515625,0.0,-3.662109136581421,-0.7934569716453552,100.0,197874.0,1.0
84839.8377606,316175.375,343069.25,328744.28125,316780.03125,319518.65625,308416.1875,309819.4375,279555.59375,-0.1083984375,0.908447265625,-0.358642578125,0.3356933295726776,-4.516601085662842,-0.6713866591453552,100.0,197875.0,1.0
84839.840059,316282.03125,343795.5,329693.78125,318022.25,321749.1875,309269.84375,310810.9375,280438.21875,-0.10888671875,0.906005859375,-0.36083984375,0.6713866591453552,-5.371093273162842,-0.7019042372703552,100.0,197876.0,1.0
84839.8400974,316663.34375,344871.6875,330312.84375,318364.3125,322600.5,309454.71875,311132.1875,280572.34375,-0.108154296875,0.901611328125,-0.361328125,1.0681151151657104,-6.225585460662842,-0.5798339247703552,100.0,197877.0,1.0
84839.8427332,316787.1875,344818.84375,329764.78125,317374.03125,320875.21875,308730.53125,310346.5625,279797.0,-0.10400390625,0.899658203125,-0.361572265625,1.4648436307907104,-7.049560070037842,-0.3356933295726776,100.0,197878.0,1.0
84839.8451451,316486.6875,343663.53125,328780.59375,316399.34375,318872.15625,308087.875,309516.25,279192.0625,-0.1005859375,0.8955078125,-0.36083984375,1.9531248807907104,-7.690429210662842,-0.0915527269244194,100.0,197879.0,1.0
84839.8475569,316187.625,343066.03125,328737.03125,316775.90625,319237.5625,308407.59375,309760.0625,279573.75,-0.099609375,0.893310546875,-0.362060546875,2.380370855331421,-8.361815452575684,0.3662109076976776,100.0,197880.0,1.0
84839.850012,316265.84375,343734.8125,329644.53125,317987.28125,321418.28125,309232.5625,310729.40625,280427.3125,-0.09765625,0.889404296875,-0.35986328125,2.746581792831421,-9.033202171325684,0.7629393935203552,100.0,197881.0,1.0
84839.8526609,316641.1875,344782.75,330252.6875,318328.46875,322273.90625,309414.84375,311045.625,280553.3125,-0.09619140625,0.88671875,-0.360595703125,3.051757574081421,-9.582518577575684,1.1596678495407104,100.0,197882.0,1.0
84839.8567396,316788.0625,344756.09375,329728.75,317360.71875,320589.5625,308720.875,310279.6875,279807.71875,-0.094482421875,0.88525390625,-0.363037109375,3.387450933456421,-10.009764671325684,1.4648436307907104,100.0,197883.0,1.0
84839.8639579,316491.0625,343605.6875,328747.96875,316379.03125,318586.75,308084.75,309451.0625,279203.625,-0.093994140625,0.88427734375,-0.363037109375,3.692626714706421,-10.528563499450684,1.7700194120407104,100.0,197884.0,1.0
84839.8639977,316199.78125,343000.84375,328708.78125,316759.0,318946.8125,308411.71875,309700.0625,279590.84375,-0.094482421875,0.885986328125,-0.366455078125,4.119872570037842,-10.894774436950684,1.8615721464157104,100.0,197885.0,1.0
84839.8663396,316274.59375,343651.65625,329613.9375,317977.625,321134.3125,309227.28125,310669.5,280448.59375,-0.095458984375,0.888671875,-0.367431640625,4.455565929412842,-11.291502952575684,2.227782964706421,100.0,197886.0,1.0
84839.8690009,316644.21875,344726.40625,330234.625,318327.9375,322034.65625,309411.09375,311001.28125,280570.5625,-0.091796875,0.890380859375,-0.36572265625,4.547118663787842,-11.505125999450684,2.441406011581421,100.0,197887.0,1.0
84839.8690377,316783.34375,344735.0,329722.9375,317359.1875,320394.03125,308718.90625,310243.21875,279815.15625,-0.09033203125,0.8916015625,-0.359619140625,4.455565929412842,-11.871336936950684,2.716064214706421,100.0,197888.0,1.0
84839.8715383,316485.875,343593.71875,328735.875,316365.96875,318414.75,308053.0,309400.0,279177.25,-0.08740234375,0.892333984375,-0.352294921875,4.089354991912842,-11.962889671325684,3.021239995956421,100.0,197889.0,1.0
84839.8739651,316185.375,342967.78125,328675.1875,316723.59375,318782.46875,308338.5625,309616.75,279526.71875,-0.085205078125,0.88916015625,-0.348876953125,3.631591558456421,-11.749266624450684,3.265380620956421,100.0,197890.0,1.0
84839.8762521,316260.03125,343625.8125,329588.8125,317952.78125,321027.46875,309166.9375,310588.9375,280386.8125,-0.08447265625,0.884033203125,-0.347412109375,3.204345464706421,-11.688231468200684,3.540038824081421,100.0,197891.0,1.0
84839.8789798,316621.0625,344719.0,330222.375,318315.0625,322025.09375,309361.125,310938.53125,280524.40625,-0.07958984375,0.87890625,-0.35009765625,2.655029058456421,-11.474608421325684,3.448486089706421,100.0,197892.0,1.0
84839.8790192,316748.03125,344737.9375,329715.5,317340.96875,320468.34375,308674.9375,310180.0,279767.3125,-0.07763671875,0.874267578125,-0.35693359375,2.258300542831421,-11.322020530700684,3.448486089706421,100.0,197893.0,1.0
84839.881503,316450.46875,343617.6875,328746.25,316349.09375,318567.8125,308027.96875,309341.28125,279132.875,-0.0703125,0.86572265625,-0.366943359375,2.227782964706421,-11.077879905700684,3.570556402206421,100.0,197894.0,1.0
84839.8989484,316163.28125,343011.3125,328719.34375,316724.78125,319025.75,308341.34375,309582.03125,279496.6875,-0.0673828125,0.855712890625,-0.37841796875,2.746581792831421,-10.864256858825684,3.906249761581421,100.0,197895.0,1.0
84839.9139151,316262.71875,343684.375,329670.625,317978.96875,321363.21875,309196.96875,310589.65625,280376.1875,-0.06689453125,0.84619140625,-0.38623046875,3.845214605331421,-10.650633811950684,4.150390148162842,100.0,197896.0,1.0
84839.9139274,316687.125,344834.15625,330375.875,318405.4375,322413.90625,309478.96875,311009.25,280584.84375,-0.06884765625,0.83740234375,-0.39453125,5.371093273162842,-10.437010765075684,4.486083507537842,100.0,197897.0,1.0
84839.9291659,316824.09375,344884.3125,329886.625,317445.21875,320810.84375,308817.09375,310277.28125,279839.65625,-0.070556640625,0.832275390625,-0.39453125,7.293700695037842,-10.192870140075684,4.760741710662842,100.0,197898.0,1.0
84839.9579998,316488.65625,343733.8125,328867.75,316408.53125,318789.0,308128.375,309416.46875,279160.4375,-0.072509765625,0.837646484375,-0.386962890625,9.216307640075684,-9.826659202575684,4.730224132537842,100.0,197899.0,1.0
84839.9628789,316176.71875,343073.28125,328782.65625,316744.4375,319094.15625,308393.5625,309616.75,279490.4375,-0.075927734375,0.84521484375,-0.38037109375,10.772704124450684,-9.613036155700684,4.669188976287842,100.0,197900.0,1.0
84839.9700597,316232.9375,343680.0,329677.78125,317958.59375,321274.59375,309198.40625,310565.78125,280332.28125,-0.078369140625,0.85400390625,-0.37109375,11.840819358825684,-9.368895530700684,4.608153820037842,100.0,197901.0,1.0
84839.9725479,316593.4375,344770.21875,330325.625,318333.90625,322244.9375,309417.71875,310927.625,280476.21875,-0.08056640625,0.861083984375,-0.364990234375,12.237547874450684,-9.033202171325684,4.272460460662842,100.0,197902.0,1.0
84839.9751969,316750.875,344856.59375,329861.53125,317395.9375,320688.90625,308781.0625,310225.25,279746.59375,-0.0810546875,0.865234375,-0.361328125,12.420653343200684,-8.911131858825684,3.753661870956421,100.0,197903.0,1.0
84839.9776596,316498.03125,343800.96875,328930.4375,316443.40625,318767.53125,308177.65625,309447.03125,279166.5,-0.07958984375,0.869873046875,-0.365966796875,12.573241233825684,-8.697508811950684,3.112792730331421,100.0,197904.0,1.0
84839.9800051,316191.625,343161.15625,328865.96875,316787.96875,319097.4375,308450.15625,309650.8125,279492.125,-0.075927734375,0.8701171875,-0.372314453125,12.817381858825684,-8.666991233825684,2.624511480331421,100.0,197905.0,1.0
84839.9825691,316264.9375,343809.09375,329800.0,318029.84375,321326.09375,309275.125,310623.375,280346.15625,-0.07470703125,0.8720703125,-0.38330078125,13.458250999450684,-8.453368186950684,2.075195074081421,100.0,197906.0,1.0
84839.9850909,316685.875,344984.25,330524.46875,318476.15625,322404.96875,309572.65625,311067.8125,280558.40625,-0.072998046875,0.870849609375,-0.388916015625,14.068602561950684,-8.300780296325684,1.4038084745407104,100.0,197907.0,1.0
84839.9851262,316805.15625,345044.0,330022.53125,317499.84375,320844.1875,308912.5625,310334.125,279793.59375,-0.06787109375,0.870849609375,-0.39599609375,15.167235374450684,-8.056639671325684,0.8544921278953552,100.0,197908.0,1.0
84839.9877213,316503.9375,343939.8125,329026.53125,316489.0,318882.15625,308267.6875,309504.09375,279161.5,-0.064453125,0.876953125,-0.396240234375,16.510007858276367,-7.690429210662842,0.4882812201976776,100.0,197909.0,1.0
84839.9899629,316216.21875,343322.8125,328970.65625,316842.59375,319237.5625,308537.875,309727.15625,279504.90625,-0.058349609375,0.886474609375,-0.3984375,17.486570358276367,-7.202147960662842,-0.0915527269244194,100.0,197910.0,1.0
84839.9926733,316288.375,343960.90625,329899.5,318081.6875,321479.6875,309335.90625,310686.9375,280344.4375,-0.0517578125,0.8974609375,-0.399169921875,18.371580123901367,-6.652831554412842,-0.7934569716453552,100.0,197911.0,1.0
84839.9951579,316669.0625,345084.5,330578.46875,318500.5625,322546.6875,309608.0625,311108.75,280529.25,-0.049072265625,0.906494140625,-0.397705078125,19.104001998901367,-5.859374523162842,-1.4343260526657104,100.0,197912.0,1.0
84839.9975639,316812.375,345152.875,330077.0625,317547.6875,321022.125,308973.46875,310421.9375,279804.34375,-0.046142578125,0.9169921875,-0.39892578125,19.378660202026367,-4.943847179412842,-2.166747808456421,100.0,197913.0,1.0
84840.0000325,316507.0625,344021.53125,329061.40625,316521.375,319033.53125,308297.71875,309577.5,279158.8125,-0.0458984375,0.924560546875,-0.404052734375,19.622800827026367,-3.997802495956421,-2.807616949081421,100.0,197914.0,1.0
84840.0025558,316215.78125,343366.96875,328991.40625,316853.59375,319320.34375,308541.15625,309767.375,279478.90625,-0.04736328125,0.92724609375,-0.408203125,19.714353561401367,-2.990722417831421,-3.326415777206421,100.0,197915.0,1.0
84840.0065424,316308.40625,344002.75,329937.15625,318105.65625,321540.59375,309354.78125,310744.34375,280339.09375,-0.045654296875,0.925048828125,-0.414794921875,20.019529342651367,-2.136230230331421,-3.753661870956421,100.0,197916.0,1.0
84840.0065838,316667.375,345080.8125,330570.6875,318505.59375,322581.46875,309604.21875,311148.8125,280522.53125,-0.046630859375,0.923828125,-0.415771484375,20.355222702026367,-1.4343260526657104,-4.180907726287842,100.0,197917.0,1.0
84840.0065948,316772.4375,345088.59375,330013.5,317523.4375,321020.25,308941.96875,310433.1875,279778.59375,-0.047119140625,0.92919921875,-0.420166015625,20.904539108276367,-0.6713866591453552,-4.364013195037842,100.0,197918.0,1.0
84840.0088333,316484.0,343959.03125,329004.625,316501.25,319021.625,308270.28125,309604.84375,279141.375,-0.04833984375,0.933349609375,-0.423583984375,21.453855514526367,-0.03051757626235485,-4.608153820037842,100.0,197919.0,1.0
84840.0088696,316175.8125,343288.46875,328917.125,316801.46875,319268.40625,308483.40625,309768.71875,279439.1875,-0.05322265625,0.93603515625,-0.4228515625,22.033689498901367,0.7019042372703552,-4.730224132537842,100.0,197920.0,1.0
84840.0164631,316286.125,343946.96875,329880.84375,318064.28125,321506.25,309306.9375,310747.1875,280315.5625,-0.056884765625,0.939453125,-0.423583984375,22.583005905151367,1.1901854276657104,-4.608153820037842,100.0,197921.0,1.0
84840.0164978,316668.53125,345027.1875,330543.6875,318492.15625,322575.21875,309575.15625,311163.65625,280525.65625,-0.06298828125,0.940185546875,-0.414794921875,22.705076217651367,1.8310545682907104,-4.394530773162842,100.0,197922.0,1.0
84840.0165084,316767.59375,345004.46875,329970.3125,317508.6875,320996.90625,308904.96875,310443.75,279783.875,-0.06689453125,0.940185546875,-0.41064453125,22.613523483276367,2.502441167831421,-4.028319835662842,100.0,197923.0,1.0
84840.0238948,316478.90625,343870.96875,328951.875,316478.1875,318976.9375,308231.90625,309609.9375,279144.59375,-0.07275390625,0.938232421875,-0.40478515625,22.430418014526367,2.868652105331421,-3.509521245956421,100.0,197924.0,1.0
84840.0265875,316218.46875,343259.5,328918.28125,316815.59375,319236.40625,308477.0625,309790.375,279466.375,-0.0751953125,0.935546875,-0.40283203125,22.094724655151367,3.173827886581421,-2.838134527206421,100.0,197925.0,1.0
84840.0266258,316304.90625,343911.1875,329884.125,318066.0625,321434.46875,309276.90625,310739.875,280308.875,-0.077880859375,0.933837890625,-0.40283203125,21.942136764526367,3.265380620956421,-2.349853277206421,100.0,197926.0,1.0
84840.0288491,316643.9375,344959.3125,330520.0,318476.53125,322473.0,309520.96875,311137.0,280484.8125,-0.081298828125,0.930908203125,-0.40478515625,21.759031295776367,3.112792730331421,-1.7089842557907104,100.0,197927.0,1.0
84840.0414414,316765.1875,344956.0,329964.4375,317523.96875,320934.3125,308886.0,310445.4375,279762.59375,-0.0830078125,0.93017578125,-0.409912109375,21.636960983276367,2.777099370956421,-1.1291502714157104,100.0,197928.0,1.0
84840.0439082,316479.625,343830.46875,328943.40625,316487.84375,318928.84375,308223.5,309614.3125,279097.84375,-0.083740234375,0.930419921875,-0.41552734375,21.606443405151367,2.410888433456421,-0.3662109076976776,100.0,197929.0,1.0
84840.0463738,316222.65625,343231.53125,328908.0,316810.78125,319199.03125,308464.09375,309792.875,279360.25,-0.084228515625,0.9296875,-0.4208984375,21.606443405151367,2.044677495956421,0.2136230319738388,100.0,197930.0,1.0
84840.0489013,316311.8125,343894.75,329867.40625,318054.875,321405.75,309260.4375,310734.5,280138.8125,-0.0859375,0.9306640625,-0.421875,21.667478561401367,1.8005369901657104,0.9765624403953552,100.0,197931.0,1.0
84840.0513733,316644.46875,344928.65625,330486.28125,318461.78125,322462.375,309502.90625,311120.75,280267.28125,-0.0869140625,0.929931640625,-0.423095703125,21.453855514526367,1.5563963651657104,1.6784666776657104,100.0,197932.0,1.0
84840.0538715,316745.25,344898.875,329906.03125,317492.5,320919.65625,308856.0625,310422.03125,279504.8125,-0.0869140625,0.931640625,-0.42138671875,21.179197311401367,1.4648436307907104,2.441406011581421,100.0,197933.0,1.0
84840.0539065,316460.40625,343766.90625,328881.15625,316455.3125,318896.71875,308189.09375,309585.8125,278842.5,-0.086669921875,0.92919921875,-0.420654296875,20.843503952026367,1.4038084745407104,3.051757574081421,100.0,197934.0,1.0
84840.0588716,316206.84375,343174.125,328852.375,316770.8125,319134.5625,308422.34375,309752.71875,279154.4375,-0.08642578125,0.92529296875,-0.42138671875,20.355222702026367,1.2817381620407104,3.723144292831421,100.0,197935.0,1.0
84840.0613104,316295.875,343824.28125,329814.125,318010.0,321312.5,309211.28125,310682.8125,280020.34375,-0.084716796875,0.922119140625,-0.420654296875,19.927976608276367,1.0986326932907104,4.394530773162842,100.0,197936.0,1.0
84840.0639731,316627.40625,344826.90625,330424.96875,318419.03125,322346.78125,309452.125,311065.75,280227.9375,-0.081787109375,0.9169921875,-0.420166015625,19.592283248901367,0.8850097060203552,5.126952648162842,100.0,197937.0,1.0
84840.0640129,316739.34375,344782.28125,329843.625,317458.09375,320797.96875,308811.4375,310372.125,279532.0,-0.077880859375,0.912109375,-0.427001953125,19.165037155151367,0.6408690810203552,5.889892101287842,100.0,197938.0,1.0
84840.0663622,316462.4375,343646.71875,328813.9375,316417.375,318747.34375,308143.9375,309523.03125,278901.25,-0.07470703125,0.908203125,-0.42626953125,18.859861373901367,0.2441406100988388,6.500243663787842,100.0,197939.0,1.0
84840.071618,316209.15625,343060.75,328788.0,316729.875,318958.59375,308375.6875,309674.125,279220.59375,-0.0712890625,0.90087890625,-0.429931640625,18.585203170776367,-0.03051757626235485,7.171630382537842,100.0,197940.0,1.0
84840.0788989,316302.40625,343753.40625,329779.25,317988.4375,321160.875,309179.53125,310616.21875,280090.4375,-0.06591796875,0.896240234375,-0.434326171875,18.493650436401367,-0.2441406100988388,7.598876476287842,100.0,197941.0,1.0
84840.0789367,316641.34375,344820.1875,330425.6875,318431.625,322264.25,309451.78125,311034.28125,280319.15625,-0.0634765625,0.8916015625,-0.439453125,18.402097702026367,-0.4577636420726776,7.965087413787842,100.0,197942.0,1.0
84840.0813267,316765.1875,344840.125,329878.40625,317501.1875,320785.375,308851.6875,310378.46875,279641.34375,-0.062255859375,0.88037109375,-0.443359375,18.402097702026367,-0.3356933295726776,7.934569835662842,100.0,197943.0,1.0
84840.0914635,316493.125,343765.71875,328878.9375,316475.0625,318789.28125,308192.3125,309556.3125,278998.6875,-0.065673828125,0.8740234375,-0.44482421875,18.493650436401367,-0.0610351525247097,7.873534679412842,100.0,197944.0,1.0
84840.0915053,316228.46875,343205.59375,328860.15625,316781.625,319022.71875,308401.25,309705.875,279273.09375,-0.06591796875,0.867431640625,-0.446533203125,18.646238327026367,0.2441406100988388,7.781981945037842,100.0,197945.0,1.0
84840.0978599,316324.0625,343911.65625,329860.4375,318049.15625,321252.6875,309208.15625,310655.8125,280120.84375,-0.068603515625,0.86572265625,-0.446533203125,18.615720748901367,0.5493163466453552,7.659911632537842,100.0,197946.0,1.0
84840.0978965,316680.0625,344988.5625,330526.0,318515.9375,322402.84375,309511.875,311109.21875,280380.125,-0.068115234375,0.8623046875,-0.448486328125,18.585203170776367,0.7629393935203552,7.629394054412842,100.0,197947.0,1.0
84840.1039411,316800.125,344981.21875,329958.34375,317570.375,320921.90625,308900.75,310456.90625,279724.40625,-0.063720703125,0.859619140625,-0.45166015625,18.524168014526367,0.9460448622703552,7.598876476287842,100.0,197948.0,1.0
84840.1076618,316510.65625,343852.5625,328916.5,316502.875,318874.5625,308211.875,309600.71875,279069.15625,-0.060791015625,0.856689453125,-0.456298828125,18.493650436401367,0.8544921278953552,7.720946788787842,100.0,197949.0,1.0
84840.1076975,316265.21875,343283.46875,328900.46875,316811.5,319090.21875,308435.59375,309748.78125,279362.5,-0.05615234375,0.852294921875,-0.46044921875,18.798826217651367,0.7019042372703552,7.904052257537842,100.0,197950.0,1.0
84840.1414952,316348.53125,343952.0625,329881.53125,318061.75,321284.71875,309227.28125,310674.96875,280216.3125,-0.050048828125,0.8515625,-0.462646484375,19.104001998901367,0.5798339247703552,8.209227561950684,100.0,197951.0,1.0
84840.1415318,316656.8125,344949.3125,330485.65625,318480.28125,322369.21875,309476.90625,311070.6875,280429.90625,-0.047119140625,0.85400390625,-0.46337890625,19.042966842651367,0.5187987685203552,8.575438499450684,100.0,197952.0,1.0
84840.1489856,316745.96875,344891.8125,329876.28125,317505.5625,320842.84375,308836.9375,310380.71875,279722.625,-0.042236328125,0.857177734375,-0.464111328125,19.134519577026367,0.5798339247703552,8.850096702575684,100.0,197953.0,1.0
84840.1490277,316483.8125,343783.34375,328857.46875,316462.53125,318800.625,308181.5,309547.0,279072.1875,-0.0419921875,0.861572265625,-0.462158203125,18.981931686401367,0.7629393935203552,9.246825218200684,100.0,197954.0,1.0
84840.1490367,316250.28125,343220.25,328847.28125,316775.28125,318995.0,308409.75,309694.4375,279355.59375,-0.040771484375,0.8671875,-0.462646484375,18.829343795776367,1.0986326932907104,9.246825218200684,100.0,197955.0,1.0
84840.149046,316326.0,343877.75,329821.5625,318024.3125,321170.625,309195.625,310614.25,280195.65625,-0.039306640625,0.87353515625,-0.466796875,18.280027389526367,1.4038084745407104,9.277342796325684,100.0,197956.0,1.0
84840.1514849,316629.1875,344862.75,330427.90625,318451.40625,322262.1875,309449.375,311017.65625,280412.40625,-0.03759765625,0.879150390625,-0.4697265625,17.944334030151367,1.7700194120407104,9.307860374450684,100.0,197957.0,1.0
84840.1539731,316710.46875,344793.03125,329808.84375,317467.125,320732.875,308810.28125,310327.25,279705.0,-0.0341796875,0.8828125,-0.474609375,17.578123092651367,2.166747808456421,9.277342796325684,100.0,197958.0,1.0
84840.1614439,316430.71875,343663.1875,328762.15625,316393.6875,318651.21875,308122.84375,309464.21875,279038.9375,-0.033203125,0.88818359375,-0.479248046875,17.181394577026367,2.502441167831421,9.277342796325684,100.0,197959.0,1.0
84840.1614864,316199.3125,343100.09375,328754.5625,316701.0625,318826.71875,308340.53125,309602.875,279326.8125,-0.031005859375,0.890380859375,-0.48193359375,17.059324264526367,2.838134527206421,9.368895530700684,100.0,197960.0,1.0
84840.1690544,316338.4375,343821.0,329798.40625,318011.4375,321062.96875,309183.125,310579.125,280222.59375,-0.03076171875,0.8935546875,-0.484619140625,16.845701217651367,3.051757574081421,9.490965843200684,100.0,197961.0,1.0
84840.1714653,316667.09375,344838.875,330437.84375,318471.15625,322200.5,309464.375,311012.8125,280459.25,-0.0322265625,0.893310546875,-0.484375,16.693113327026367,3.387450933456421,9.490965843200684,100.0,197962.0,1.0
84840.1739174,316762.15625,344795.53125,329840.6875,317507.96875,320700.25,308841.75,310336.09375,279761.5,-0.03662109375,0.89306640625,-0.4814453125,16.448972702026367,3.723144292831421,9.338377952575684,100.0,197963.0,1.0
84840.1764069,316492.9375,343700.46875,328812.40625,316447.15625,318638.875,308174.25,309486.46875,279103.03125,-0.040771484375,0.890380859375,-0.482666015625,16.357419967651367,4.150390148162842,8.911131858825684,100.0,197964.0,1.0
84840.1789498,316267.625,343164.03125,328818.40625,316762.6875,318827.09375,308396.34375,309637.84375,279396.1875,-0.04345703125,0.887939453125,-0.477783203125,16.326902389526367,4.577636241912842,8.544920921325684,100.0,197965.0,1.0
84840.1803694,316344.34375,343820.53125,329798.65625,318016.53125,320999.40625,309164.6875,310550.0625,280229.1875,-0.046142578125,0.883544921875,-0.478515625,16.296384811401367,4.882812023162842,8.087157249450684,100.0,197966.0,1.0
84840.1876969,316643.59375,344805.4375,330410.3125,318457.5625,322113.96875,309424.6875,310957.125,280443.25,-0.04833984375,0.880615234375,-0.478759765625,16.326902389526367,4.943847179412842,7.629394054412842,100.0,197967.0,1.0
84840.1900209,316734.34375,344769.3125,329812.15625,317494.28125,320625.78125,308810.8125,310290.78125,279745.40625,-0.0458984375,0.877685546875,-0.4853515625,16.265867233276367,4.852294445037842,7.232665538787842,100.0,197968.0,1.0
84840.1925082,316472.90625,343684.46875,328787.84375,316433.21875,318571.28125,308151.34375,309453.3125,279086.84375,-0.041748046875,0.876220703125,-0.4921875,16.479490280151367,4.577636241912842,6.896972179412842,100.0,197969.0,1.0
84840.1952215,316251.0,343130.5,328781.9375,316738.625,318735.71875,308371.03125,309597.0625,279365.875,-0.039794921875,0.88037109375,-0.49609375,16.448972702026367,4.302978038787842,6.805419445037842,100.0,197970.0,1.0
84840.1952618,316336.84375,343777.53125,329763.71875,317999.0,320895.875,309150.75,310514.21875,280201.75,-0.033935546875,0.883056640625,-0.50146484375,16.235349655151367,3.936767339706421,6.652831554412842,100.0,197971.0,1.0
84840.1976265,316623.46875,344736.59375,330360.9375,318434.78125,321994.15625,309403.5,310912.34375,280416.59375,-0.02587890625,0.890380859375,-0.505859375,15.960692405700684,3.631591558456421,6.683349132537842,100.0,197972.0,1.0
84840.2000385,316708.21875,344679.90625,329748.59375,317462.375,320487.09375,308778.375,310231.15625,279720.75,-0.019287109375,0.896484375,-0.506103515625,15.747069358825684,3.540038824081421,6.866454601287842,100.0,197973.0,1.0
84840.2166282,316456.28125,343589.5,328713.625,316397.53125,318417.5,308113.71875,309393.5625,279074.40625,-0.010009765625,0.901123046875,-0.507568359375,15.350340843200684,3.692626714706421,6.896972179412842,100.0,197974.0,1.0
84840.2166683,316241.09375,343023.75,328684.46875,316690.0,318546.0,308319.34375,309523.3125,279359.4375,-0.00390625,0.900146484375,-0.503662109375,14.862059593200684,4.150390148162842,7.019042491912842,100.0,197975.0,1.0
84840.2214194,316327.09375,343654.78125,329651.84375,317946.25,320680.75,309094.59375,310432.84375,280204.53125,-0.002197265625,0.895263671875,-0.498291015625,14.343260765075684,4.974364757537842,7.171630382537842,100.0,197976.0,1.0
84840.2300176,316623.46875,344612.0625,330249.375,318395.4375,321782.96875,309347.25,310839.09375,280426.0625,-0.004638671875,0.88671875,-0.495849609375,13.702391624450684,6.042479991912842,7.110595226287842,100.0,197977.0,1.0
84840.2325304,316706.0,344554.75,329634.875,317426.875,320278.53125,308727.6875,310163.375,279721.0,-0.009521484375,0.88037109375,-0.49560546875,13.122557640075684,6.927489757537842,7.110595226287842,100.0,197978.0,1.0
84840.2351513,316446.1875,343446.5625,328589.6875,316348.46875,318179.15625,308053.90625,309314.09375,279048.84375,-0.014892578125,0.870849609375,-0.498779296875,12.664793968200684,7.629394054412842,7.110595226287842,100.0,197979.0,1.0
84840.237746,316220.4375,342865.40625,328564.65625,316629.65625,318270.15625,308257.21875,309432.28125,279300.625,-0.021484375,0.865966796875,-0.50146484375,12.359618186950684,8.056639671325684,7.141112804412842,100.0,197980.0,1.0
84840.2377845,316308.40625,343535.40625,329570.75,317907.71875,320425.5,309057.75,310356.3125,280132.625,-0.025390625,0.861572265625,-0.5078125,12.268065452575684,8.178709983825684,7.019042491912842,100.0,197981.0,1.0
84840.2400539,316607.125,344563.6875,330220.40625,318392.375,321601.90625,309358.875,310803.34375,280373.6875,-0.029052734375,0.86279296875,-0.51416015625,12.390135765075684,7.995604991912842,6.988524913787842,100.0,197982.0,1.0
84840.2426455,316705.5625,344586.59375,329658.65625,317464.625,320185.1875,308777.65625,310176.78125,279700.1875,-0.02880859375,0.869140625,-0.517822265625,12.512206077575684,7.720946788787842,6.866454601287842,100.0,197983.0,1.0
84840.2451646,316454.125,343536.3125,328647.625,316405.59375,318147.875,308119.78125,309350.21875,279042.84375,-0.02587890625,0.87841796875,-0.515625,12.542723655700684,7.385253429412842,6.805419445037842,100.0,197984.0,1.0
84840.2488416,316230.625,342978.6875,328627.6875,316678.90625,318273.9375,308314.4375,309471.1875,279305.0,-0.0185546875,0.892333984375,-0.510986328125,12.420653343200684,7.263183116912842,6.683349132537842,100.0,197985.0,1.0
84840.2688926,316317.0,343621.25,329615.1875,317937.9375,320434.09375,309093.0,310384.03125,280148.1875,-0.0126953125,0.908447265625,-0.506103515625,12.023924827575684,7.141112804412842,6.683349132537842,100.0,197986.0,1.0
84840.2689331,316601.5625,344599.375,330239.53125,318406.53125,321609.6875,309366.125,310807.8125,280388.6875,-0.005859375,0.920654296875,-0.501220703125,11.291502952575684,7.385253429412842,6.713866710662842,100.0,197987.0,1.0
84840.2766207,316708.40625,344616.875,329683.40625,317485.4375,320225.5,308783.1875,310184.375,279731.75,-0.001220703125,0.928466796875,-0.49951171875,10.467528343200684,7.873534679412842,6.744384288787842,100.0,197988.0,1.0
84840.2766579,316490.53125,343595.6875,328699.5,316444.84375,318226.625,308150.375,309379.09375,279103.28125,0.003173828125,0.9306640625,-0.5009765625,9.246825218200684,8.361815452575684,6.988524913787842,100.0,197989.0,1.0
84840.2766672,316265.125,343029.03125,328667.5625,316704.375,318345.0,308336.78125,309493.53125,279356.125,0.00634765625,0.927978515625,-0.500732421875,8.148192405700684,8.911131858825684,7.171630382537842,100.0,197990.0,1.0
84840.2766762,316330.21875,343647.1875,329632.28125,317943.3125,320486.375,309094.15625,310396.71875,280178.3125,0.007568359375,0.9189453125,-0.504638671875,7.293700695037842,9.765624046325684,7.049560070037842,100.0,197991.0,1.0
84840.2789506,316623.46875,344634.6875,330266.34375,318428.25,321683.71875,309385.09375,310848.21875,280429.28125,0.00634765625,0.907958984375,-0.51025390625,6.622313976287842,10.467528343200684,7.080077648162842,100.0,197992.0,1.0
84840.2838311,316728.09375,344651.84375,329710.40625,317509.9375,320301.0625,308810.71875,310237.5,279770.1875,0.005615234375,0.89892578125,-0.5107421875,6.164550304412842,10.925292015075684,6.927489757537842,100.0,197993.0,1.0
84840.2854751,316474.4375,343600.6875,328691.1875,316433.75,318245.75,308145.71875,309403.21875,279104.5625,0.0029296875,0.887939453125,-0.513427734375,5.950927257537842,11.474608421325684,6.774901866912842,100.0,197994.0,1.0
84840.330166,316241.625,343020.875,328645.5,316675.5,318311.75,308321.6875,309497.75,279344.59375,0.0029296875,0.878662109375,-0.515380859375,5.920409679412842,11.779784202575684,6.744384288787842,100.0,197995.0,1.0
84840.3350348,316313.6875,343634.5625,329610.375,317917.46875,320432.75,309087.0,310395.90625,280172.59375,0.0029296875,0.873779296875,-0.51171875,5.859374523162842,12.084959983825684,6.652831554412842,100.0,197996.0,1.0
84840.3384307,316593.625,344598.03125,330234.34375,318400.25,321618.09375,309367.46875,310831.6875,280427.59375,0.00537109375,0.867919921875,-0.512451171875,5.767821788787842,12.451170921325684,6.378173351287842,100.0,197997.0,1.0
84840.3384691,316683.90625,344584.6875,329659.375,317472.46875,320211.375,308772.28125,310195.125,279762.59375,0.008056640625,0.862548828125,-0.512939453125,5.859374523162842,12.725829124450684,6.103515148162842,100.0,197998.0,1.0
84840.3384783,316439.65625,343529.6875,328633.96875,316390.03125,318136.6875,308097.34375,309348.78125,279099.1875,0.013427734375,0.861572265625,-0.513916015625,5.767821788787842,12.969969749450684,5.859374523162842,100.0,197999.0,1.0
84840.3384875,316234.28125,342977.0625,328608.9375,316645.28125,318204.71875,308290.75,309462.0625,279359.28125,0.016357421875,0.857421875,-0.51318359375,5.767821788787842,13.488768577575684,5.645751476287842,100.0,198000.0,1.0
84840.3452652,316318.3125,343611.875,329586.40625,317896.71875,320325.46875,309067.15625,310370.78125,280201.9375,0.018798828125,0.854248046875,-0.515380859375,5.767821788787842,13.793944358825684,5.371093273162842,100.0,198001.0,1.0
84840.3453019,316603.90625,344586.9375,330218.78125,318391.40625,321514.125,309352.8125,310809.4375,280461.5625,0.017333984375,0.850341796875,-0.515869140625,5.676269054412842,14.221190452575684,5.035399913787842,100.0,198002.0,1.0
84840.3453124,316711.1875,344599.46875,329664.65625,317481.875,320122.875,308770.3125,310185.375,279808.0,0.0166015625,0.8447265625,-0.518798828125,5.981444835662842,14.617918968200684,4.638671398162842,100.0,198003.0,1.0
84840.3476828,316465.75,343554.90625,328643.875,316397.53125,318036.90625,308091.71875,309334.65625,279139.6875,0.01220703125,0.84033203125,-0.526123046875,6.225585460662842,15.014647483825684,4.211425304412842,100.0,198004.0,1.0
84840.3501468,316237.0625,342992.28125,328597.75,316626.875,318068.8125,308265.71875,309423.96875,279377.25,0.010009765625,0.835693359375,-0.532470703125,6.774901866912842,15.411375999450684,3.814697027206421,100.0,198005.0,1.0
84840.3527168,316306.4375,343621.25,329567.28125,317872.5625,320177.5,309036.84375,310327.4375,280211.21875,0.009521484375,0.833251953125,-0.5380859375,7.385253429412842,15.716551780700684,3.295898199081421,100.0,198006.0,1.0
84840.3550706,316596.03125,344603.84375,330215.375,318385.5,321395.75,309333.9375,310785.1875,280483.65625,0.007568359375,0.83154296875,-0.5400390625,7.995604991912842,15.838622093200684,2.838134527206421,100.0,198007.0,1.0
84840.3575512,316709.75,344620.46875,329672.0625,317487.84375,320031.5,308751.375,310171.40625,279836.53125,0.0078125,0.830078125,-0.538330078125,8.483885765075684,15.960692405700684,2.441406011581421,100.0,198008.0,1.0
84840.3600078,316471.9375,343576.09375,328650.9375,316399.78125,317941.34375,308070.1875,309315.53125,279165.78125,0.00830078125,0.82958984375,-0.5419921875,8.972167015075684,15.869139671325684,2.105712652206421,100.0,198009.0,1.0
84840.3627115,316241.0,343011.9375,328598.28125,316615.6875,317958.21875,308243.90625,309394.125,279396.625,0.00927734375,0.827880859375,-0.544921875,9.307860374450684,15.777586936950684,1.7700194120407104,100.0,198010.0,1.0
84840.3649823,316314.9375,343661.5625,329581.21875,317870.4375,320091.5625,309034.875,310307.84375,280245.46875,0.01513671875,0.827392578125,-0.547607421875,9.613036155700684,15.655516624450684,1.5258787870407104,100.0,198011.0,1.0
84840.367528,316604.34375,344648.90625,330233.90625,318400.09375,321346.84375,309338.875,310773.21875,280535.25,0.02099609375,0.8291015625,-0.5498046875,9.979247093200684,15.624999046325684,1.2207030057907104,100.0,198012.0,1.0
84840.3701474,316715.21875,344649.625,329682.78125,317506.46875,320000.03125,308750.75,310152.1875,279892.03125,0.02587890625,0.834228515625,-0.5546875,10.528563499450684,15.563963890075684,1.0070799589157104,100.0,198013.0,1.0
84840.3725538,316469.96875,343594.6875,328647.625,316402.625,317907.53125,308059.625,309282.8125,279213.0,0.02734375,0.83984375,-0.5556640625,11.016844749450684,15.533446311950684,1.0375975370407104,100.0,198014.0,1.0
84840.3750735,316225.0,343030.09375,328575.65625,316593.0,317906.5625,308217.25,309341.0,279427.40625,0.028076171875,0.840576171875,-0.556884765625,11.199950218200684,15.777586936950684,0.9765624403953552,100.0,198015.0,1.0
84840.3751134,316244.9375,343644.9375,329509.96875,317797.75,320001.34375,308963.8125,310208.4375,280230.625,0.02685546875,0.835205078125,-0.55712890625,11.352538108825684,16.113279342651367,0.9765624403953552,100.0,198016.0,1.0
84840.3776893,316493.65625,344599.53125,330134.375,318300.125,321245.1875,309238.53125,310653.78125,280489.1875,0.024658203125,0.829345703125,-0.55810546875,11.260985374450684,16.693113327026367,1.0375975370407104,100.0,198017.0,1.0
84840.3813339,316627.0625,344613.9375,329615.75,317434.46875,319930.46875,308675.46875,310070.375,279868.625,0.015380859375,0.82373046875,-0.558837890625,11.260985374450684,17.303464889526367,0.8544921278953552,100.0,198018.0,1.0
84840.3901715,316585.5625,343749.375,328785.15625,316522.0,318022.59375,308179.25,309403.59375,279363.8125,-0.002197265625,0.814453125,-0.5576171875,11.383055686950684,17.883298873901367,0.5187987685203552,100.0,198019.0,1.0
84840.3902127,316357.75,343202.125,328735.34375,316716.71875,318022.78125,308354.3125,309483.78125,279568.84375,-0.02001953125,0.8046875,-0.5546875,11.627196311950684,18.249509811401367,0.0610351525247097,100.0,198020.0,1.0
84840.3940141,316384.40625,343827.4375,329685.21875,317929.53125,320120.625,309119.8125,310374.46875,280373.3125,-0.0361328125,0.801513671875,-0.55322265625,12.023924827575684,18.371580123901367,-0.6103515028953552,100.0,198021.0,1.0
84840.3940518,316652.0,344784.4375,330329.5625,318462.125,321387.34375,309420.3125,310858.5,280665.15625,-0.05078125,0.8056640625,-0.546875,12.664793968200684,18.127439498901367,-1.2817381620407104,100.0,198022.0,1.0
84840.4289445,316734.59375,344717.65625,329743.0625,317544.1875,320010.21875,308788.8125,310222.8125,279979.40625,-0.057861328125,0.817626953125,-0.541748046875,13.031004905700684,17.395017623901367,-1.8920897245407104,100.0,198023.0,1.0
84840.4365617,316496.96875,343633.0625,328699.6875,316428.125,317879.90625,308083.6875,309348.5,279264.75,-0.06005859375,0.83544921875,-0.533935546875,13.061522483825684,16.296384811401367,-2.105712652206421,100.0,198024.0,1.0
84840.4365982,316278.4375,343084.625,328641.375,316615.6875,317858.1875,308268.46875,309421.84375,279460.375,-0.056396484375,0.85498046875,-0.525146484375,12.420653343200684,14.892577171325684,-1.8310545682907104,100.0,198025.0,1.0
84840.4389652,316353.375,343774.125,329639.15625,317872.75,320015.21875,309096.75,310356.21875,280293.40625,-0.047119140625,0.866943359375,-0.520751953125,11.322020530700684,13.336180686950684,-1.5258787870407104,100.0,198026.0,1.0
84840.4438357,316625.8125,344741.15625,330291.5625,318419.75,321326.90625,309420.40625,310841.78125,280573.6875,-0.03955078125,0.869873046875,-0.517822265625,10.009764671325684,11.901854515075684,-1.3122557401657104,100.0,198027.0,1.0
84840.4463808,316723.15625,344684.125,329719.71875,317528.625,320005.28125,308807.15625,310224.71875,279917.875,-0.027587890625,0.865966796875,-0.52001953125,8.819579124450684,10.772704124450684,-1.2207030057907104,100.0,198028.0,1.0
84840.4489182,316488.03125,343603.0,328670.625,316403.8125,317889.21875,308095.03125,309343.875,279218.1875,-0.017822265625,0.861328125,-0.53173828125,7.812499523162842,9.979247093200684,-1.3732908964157104,100.0,198029.0,1.0
84840.4513143,316270.40625,343074.53125,328617.6875,316583.15625,317875.25,308275.1875,309413.34375,279424.34375,-0.003662109375,0.8603515625,-0.542236328125,7.141112804412842,9.613036155700684,-1.5563963651657104,100.0,198030.0,1.0
84840.4538776,316341.5625,343773.0625,329617.625,317836.8125,320044.0,309095.6875,310349.34375,280267.5625,0.010009765625,0.86474609375,-0.546875,6.774901866912842,9.643553733825684,-1.6784666776657104,100.0,198031.0,1.0
84840.4539166,316616.21875,344741.78125,330278.6875,318400.15625,321386.28125,309421.21875,310849.21875,280562.78125,0.01904296875,0.875244140625,-0.549560546875,6.774901866912842,9.948729515075684,-1.6174315214157104,100.0,198032.0,1.0
84840.4563075,316720.3125,344678.75,329711.125,317521.3125,320074.59375,308817.96875,310234.28125,279899.71875,0.024658203125,0.8857421875,-0.552001953125,6.591796398162842,10.528563499450684,-1.6784666776657104,100.0,198033.0,1.0
84840.4589569,316487.9375,343603.09375,328665.0625,316402.8125,317952.78125,308110.0625,309358.53125,279195.5625,0.02783203125,0.896728515625,-0.5517578125,6.134032726287842,11.169432640075684,-1.4648436307907104,100.0,198034.0,1.0
84840.4639078,316272.1875,343085.875,328615.53125,316580.125,317922.1875,308292.53125,309428.53125,279396.71875,0.0234375,0.905517578125,-0.5498046875,5.523681163787842,11.901854515075684,-1.3732908964157104,100.0,198035.0,1.0
84840.4664036,316349.71875,343795.78125,329628.25,317841.71875,320087.625,309124.375,310370.78125,280245.28125,0.01708984375,0.910400390625,-0.546875,4.608153820037842,12.664793968200684,-1.3732908964157104,100.0,198036.0,1.0
84840.4689493,316623.84375,344758.59375,330289.875,318408.125,321431.25,309445.96875,310874.34375,280552.59375,0.002685546875,0.90771484375,-0.54150390625,3.814697027206421,13.214110374450684,-1.3427733182907104,100.0,198037.0,1.0
84840.473823,316728.34375,344677.875,329712.75,317524.96875,320107.75,308832.90625,310260.65625,279902.59375,-0.0068359375,0.90380859375,-0.53466796875,2.777099370956421,13.580321311950684,-1.4953612089157104,100.0,198038.0,1.0
84840.476473,316500.34375,343580.84375,328650.6875,316393.25,317945.53125,308112.71875,309373.28125,279187.15625,-0.01708984375,0.89453125,-0.530029296875,1.8310545682907104,13.610838890075684,-1.5869139432907104,100.0,198039.0,1.0
84840.4765189,316285.78125,343040.46875,328584.4375,316552.5625,317860.6875,308281.875,309423.09375,279368.75,-0.024169921875,0.888671875,-0.5283203125,1.0070799589157104,13.427733421325684,-1.7700194120407104,100.0,198040.0,1.0
84840.478983,316353.90625,343723.96875,329578.09375,317800.96875,319979.53125,309093.0,310346.65625,280198.8125,-0.02783203125,0.887451171875,-0.5263671875,0.2441406100988388,13.000487327575684,-2.166747808456421,100.0,198041.0,1.0
84840.48393,316621.25,344653.46875,330224.25,318374.78125,321298.125,309399.46875,310837.59375,280500.28125,-0.031494140625,0.888916015625,-0.529296875,-0.4577636420726776,12.298583030700684,-2.624511480331421,100.0,198042.0,1.0
84840.4839697,316722.53125,344527.65625,329630.5,317496.09375,319941.375,308765.65625,310204.3125,279849.84375,-0.034912109375,0.893798828125,-0.53125,-1.1596678495407104,11.505125999450684,-3.173827886581421,100.0,198043.0,1.0
84840.4865226,316491.25,343390.5,328549.1875,316350.5,317725.0625,308023.78125,309289.40625,279132.8125,-0.0361328125,0.901611328125,-0.53173828125,-1.7395018339157104,10.650633811950684,-3.479003667831421,100.0,198044.0,1.0
84840.4900806,316263.78125,342812.65625,328453.34375,316476.84375,317567.4375,308164.6875,309303.53125,279303.65625,-0.03271484375,0.909423828125,-0.532958984375,-2.563476324081421,9.796141624450684,-3.875732183456421,100.0,198045.0,1.0
84840.4901219,316323.34375,343477.75,329433.15625,317710.3125,319639.875,308969.34375,310205.9375,280147.75,-0.032958984375,0.91455078125,-0.53369140625,-3.326415777206421,9.033202171325684,-4.150390148162842,100.0,198046.0,1.0
84840.5189827,316605.15625,344414.1875,330099.15625,318303.53125,320961.15625,309290.03125,310712.40625,280484.46875,-0.032470703125,0.918701171875,-0.534423828125,-4.180907726287842,8.544920921325684,-4.333495616912842,100.0,198047.0,1.0
84840.5213764,316711.8125,344284.65625,329510.59375,317431.09375,319592.0625,308647.28125,310073.15625,279841.0,-0.031982421875,0.920166015625,-0.537109375,-4.852294445037842,8.056639671325684,-4.425048351287842,100.0,198048.0,1.0
84840.5214114,316475.5,343147.21875,328426.53125,316276.40625,317350.4375,307889.21875,309138.78125,279111.53125,-0.03076171875,0.919189453125,-0.53955078125,-5.554198741912842,7.629394054412842,-4.516601085662842,100.0,198049.0,1.0
84840.5240123,316259.21875,342604.78125,328351.0,316411.84375,317195.3125,308046.65625,309163.625,279292.03125,-0.033935546875,0.91650390625,-0.538818359375,-6.072997570037842,7.263183116912842,-4.547118663787842,100.0,198050.0,1.0
84840.5263145,316319.5625,343298.75,329342.78125,317650.5,319282.53125,308872.96875,310084.0625,280140.0625,-0.03173828125,0.9150390625,-0.536865234375,-6.683349132537842,6.805419445037842,-4.577636241912842,100.0,198051.0,1.0
84840.5289601,316584.75,344231.28125,330006.0,318242.71875,320618.0,309195.53125,310588.40625,280465.15625,-0.0302734375,0.907470703125,-0.538818359375,-7.263183116912842,6.195067882537842,-4.516601085662842,100.0,198052.0,1.0
84840.5375078,316697.21875,344119.96875,329438.4375,317391.5625,319282.53125,308565.65625,309963.09375,279832.78125,-0.027587890625,0.90185546875,-0.53857421875,-7.659911632537842,5.706786632537842,-4.241942882537842,100.0,198053.0,1.0
84840.5401828,316469.34375,342994.59375,328362.6875,316244.65625,317044.59375,307813.84375,309031.125,279112.78125,-0.0263671875,0.89306640625,-0.53515625,-8.056639671325684,5.096435070037842,-3.936767339706421,100.0,198054.0,1.0
84840.5425745,316247.25,342449.84375,328276.96875,316371.96875,316875.40625,307970.03125,309046.40625,279290.5,-0.0244140625,0.884033203125,-0.53271484375,-8.270262718200684,4.638671398162842,-3.692626714706421,100.0,198055.0,1.0
84840.5502255,316308.3125,343169.75,329285.375,317627.0625,318993.46875,308809.84375,309981.59375,280150.4375,-0.022705078125,0.876953125,-0.5322265625,-8.361815452575684,4.058837413787842,-3.326415777206421,100.0,198056.0,1.0
84840.5502653,316575.90625,344141.40625,329976.21875,318242.625,320381.0625,309147.96875,310504.1875,280490.09375,-0.0205078125,0.866943359375,-0.53271484375,-8.361815452575684,3.540038824081421,-2.838134527206421,100.0,198057.0,1.0
84840.5525511,316687.65625,344056.21875,329424.3125,317397.75,319086.90625,308523.5625,309886.21875,279852.0,-0.019775390625,0.861328125,-0.5341796875,-8.148192405700684,2.929687261581421,-2.319335699081421,100.0,198058.0,1.0
84840.5576905,316460.03125,342949.0,328353.59375,316242.6875,316872.84375,307773.0625,308957.90625,279119.375,-0.01953125,0.852783203125,-0.5341796875,-7.843017101287842,2.441406011581421,-1.8310545682907104,100.0,198059.0,1.0
84840.5639913,316245.1875,342434.46875,328280.8125,316369.28125,316730.21875,307943.9375,308985.15625,279295.4375,-0.02001953125,0.84326171875,-0.534912109375,-7.415771007537842,2.014159917831421,-1.3427733182907104,100.0,198060.0,1.0
84840.5640314,316310.90625,343181.1875,329304.6875,317634.3125,318882.15625,308807.15625,309934.5,280160.53125,-0.019287109375,0.8369140625,-0.535888671875,-6.774901866912842,1.5869139432907104,-0.9765624403953552,100.0,198061.0,1.0
84840.5663904,316582.6875,344175.21875,330013.875,318270.0,320321.0625,309166.3125,310478.25,280513.875,-0.01806640625,0.833251953125,-0.534912109375,-6.195067882537842,1.0375975370407104,-0.5187987685203552,100.0,198062.0,1.0
84840.5689631,316699.65625,344103.25,329476.71875,317436.625,319066.96875,308547.6875,309872.71875,279889.0,-0.015380859375,0.82958984375,-0.539306640625,-5.523681163787842,0.5493163466453552,0.03051757626235485,100.0,198063.0,1.0
84840.571416,316481.125,343007.03125,328412.3125,316284.1875,316870.0625,307797.9375,308949.84375,279159.8125,-0.011474609375,0.8251953125,-0.53857421875,-4.760741710662842,0.1525878757238388,0.4577636420726776,100.0,198064.0,1.0
84840.573812,316260.375,342484.96875,328323.34375,316393.96875,316717.15625,307958.3125,308970.6875,279330.5625,-0.00830078125,0.8251953125,-0.538818359375,-3.845214605331421,-0.2441406100988388,0.8239745497703552,100.0,198065.0,1.0
84840.5789814,316320.90625,343233.3125,329340.46875,317655.5,318875.1875,308818.6875,309922.96875,280198.0,-0.005859375,0.82421875,-0.535400390625,-2.990722417831421,-0.6408690810203552,1.0986326932907104,100.0,198066.0,1.0
84840.579022,316583.25,344237.34375,330053.375,318295.125,320344.6875,309182.65625,310477.90625,280555.34375,-0.0048828125,0.824462890625,-0.53564453125,-2.075195074081421,-0.7629393935203552,1.4953612089157104,100.0,198067.0,1.0
84840.5814389,316694.28125,344170.65625,329514.625,317460.3125,319109.875,308560.125,309873.4375,279926.09375,0.001953125,0.824462890625,-0.532958984375,-1.2207030057907104,-0.8544921278953552,1.9226073026657104,100.0,198068.0,1.0
84840.5840315,316475.5,343082.40625,328448.15625,316298.75,316912.875,307805.0,308947.875,279186.0,0.002685546875,0.82373046875,-0.53662109375,-0.4577636420726776,-0.8850097060203552,2.410888433456421,100.0,198069.0,1.0
84840.5877552,316266.46875,342599.59375,328381.28125,316420.78125,316786.8125,307988.1875,308989.90625,279359.625,0.0048828125,0.82421875,-0.533203125,0.3356933295726776,-1.0070799589157104,2.868652105331421,100.0,198070.0,1.0
84840.6175903,316328.96875,343373.59375,329414.03125,317695.5625,318983.8125,308872.34375,309970.6875,280240.46875,0.00830078125,0.822509765625,-0.535400390625,1.1291502714157104,-1.1291502714157104,3.479003667831421,100.0,198071.0,1.0
84840.6176303,316590.21875,344383.53125,330135.375,318344.1875,320492.125,309250.625,310546.03125,280610.53125,0.010986328125,0.820556640625,-0.534912109375,1.7089842557907104,-1.1596678495407104,4.211425304412842,100.0,198072.0,1.0
84840.6328631,316702.25,344339.0,329606.875,317515.3125,319293.25,308643.28125,309956.65625,279982.53125,0.007568359375,0.81787109375,-0.535400390625,2.410888433456421,-1.0681151151657104,4.882812023162842,100.0,198073.0,1.0
84840.6328983,316491.96875,343284.46875,328557.78125,316361.875,317128.0,307905.3125,309044.09375,279243.75,0.00390625,0.8125,-0.5361328125,3.112792730331421,-0.9155272841453552,5.218505382537842,100.0,198074.0,1.0
84840.6329071,316273.71875,342782.0,328468.46875,316466.03125,316986.375,308070.09375,309071.34375,279405.5,-0.002685546875,0.806884765625,-0.536376953125,3.906249761581421,-0.8544921278953552,5.523681163787842,100.0,198075.0,1.0
84840.6329166,316329.875,343537.9375,329486.375,317735.875,319179.34375,308950.75,310051.0625,280283.125,-0.00390625,0.805908203125,-0.5361328125,4.760741710662842,-0.9460448622703552,5.645751476287842,100.0,198076.0,1.0
84840.6403651,316591.71875,344552.875,330213.875,318396.875,320723.5,309336.0,310641.6875,280650.65625,-0.005859375,0.80517578125,-0.536865234375,5.493163585662842,-1.0375975370407104,5.828856945037842,100.0,198077.0,1.0
84840.6404012,316700.625,344498.875,329681.625,317561.34375,319541.34375,308717.40625,310049.5625,280001.9375,-0.008056640625,0.803955078125,-0.537109375,6.072997570037842,-1.1596678495407104,6.072997570037842,100.0,198078.0,1.0
84840.640411,316483.1875,343412.75,328607.59375,316381.4375,317350.625,307959.75,309118.75,279239.46875,-0.0107421875,0.80126953125,-0.5380859375,6.744384288787842,-1.3427733182907104,6.225585460662842,100.0,198079.0,1.0
84840.6427414,316276.5625,342909.46875,328518.8125,316485.59375,317200.59375,308132.84375,309150.125,279394.5,-0.011962890625,0.795166015625,-0.538818359375,7.354735851287842,-1.7089842557907104,6.195067882537842,100.0,198080.0,1.0
84840.6476389,316330.03125,343668.1875,329540.46875,317760.0,319402.875,309012.0625,310129.40625,280259.875,-0.013916015625,0.790283203125,-0.541259765625,8.209227561950684,-1.9226073026657104,6.072997570037842,100.0,198081.0,1.0
84840.6501362,316590.84375,344688.15625,330278.25,318434.9375,320969.1875,309407.6875,310729.75,280626.0625,-0.014892578125,0.78466796875,-0.542724609375,9.033202171325684,-2.166747808456421,5.920409679412842,100.0,198082.0,1.0
84840.6516186,316703.03125,344643.34375,329753.15625,317603.0,319798.125,308794.625,310146.84375,279966.4375,-0.01904296875,0.7802734375,-0.542724609375,9.979247093200684,-2.441406011581421,5.737304210662842,100.0,198083.0,1.0
84840.6642529,316489.8125,343566.09375,328681.4375,316422.40625,317602.75,308027.96875,309211.625,279187.53125,-0.022216796875,0.775146484375,-0.5439453125,10.986327171325684,-2.685546636581421,5.493163585662842,100.0,198084.0,1.0
84840.6892373,316269.25,343045.46875,328573.4375,316507.5,317424.8125,308177.375,309223.0625,279337.28125,-0.025390625,0.76708984375,-0.54736328125,12.023924827575684,-3.112792730331421,5.096435070037842,100.0,198085.0,1.0
84840.6989608,316328.4375,343804.09375,329595.0,317786.03125,319623.96875,309059.5625,310207.4375,280223.75,-0.027587890625,0.762451171875,-0.550537109375,13.275145530700684,-3.326415777206421,4.821776866912842,100.0,198086.0,1.0
84840.7012914,316592.4375,344833.96875,330335.90625,318468.5625,321211.40625,309463.59375,310818.90625,280625.625,-0.030029296875,0.760498046875,-0.55224609375,14.465331077575684,-3.662109136581421,4.364013195037842,100.0,198087.0,1.0
84840.7039269,316714.40625,344802.84375,329820.46875,317642.53125,320070.125,308869.21875,310254.3125,280019.4375,-0.032470703125,0.759033203125,-0.55078125,15.563963890075684,-4.028319835662842,3.906249761581421,100.0,198088.0,1.0
84840.7077283,316496.78125,343706.625,328731.21875,316440.71875,317862.84375,308094.59375,309311.59375,279254.9375,-0.03466796875,0.756103515625,-0.5517578125,16.693113327026367,-4.394530773162842,3.448486089706421,100.0,198089.0,1.0
84840.7077708,316277.8125,343166.25,328610.8125,316515.8125,317659.53125,308231.375,309309.53125,279393.25,-0.03564453125,0.754150390625,-0.555419921875,17.913816452026367,-4.699706554412842,2.868652105331421,100.0,198090.0,1.0
84840.7077807,316350.0625,343929.71875,329649.4375,317814.46875,319871.09375,309122.75,310299.34375,280285.78125,-0.03271484375,0.755126953125,-0.55712890625,19.012449264526367,-5.187987804412842,2.471923589706421,100.0,198091.0,1.0
84840.7101848,316611.3125,344950.90625,330397.5,318507.28125,321472.5625,309528.3125,310912.59375,280684.625,-0.03369140625,0.754638671875,-0.561279296875,20.019529342651367,-5.676269054412842,1.9226073026657104,100.0,198092.0,1.0
84840.7127937,316731.65625,344924.625,329883.0625,317685.625,320338.15625,308941.34375,310354.25,280076.125,-0.03564453125,0.756103515625,-0.56298828125,21.179197311401367,-6.011962413787842,1.4343260526657104,100.0,198093.0,1.0
84840.7151862,316519.65625,343844.15625,328795.25,316481.6875,318120.78125,308175.3125,309417.8125,279310.1875,-0.034912109375,0.75634765625,-0.56494140625,22.064207077026367,-6.286620616912842,1.0375975370407104,100.0,198094.0,1.0
84840.7167334,316293.84375,343292.3125,328660.59375,316541.3125,317891.53125,308296.1875,309403.15625,279431.5,-0.035400390625,0.757568359375,-0.567138671875,22.888181686401367,-6.683349132537842,0.6408690810203552,100.0,198095.0,1.0
84840.7239229,316349.25,344032.4375,329678.9375,317825.5625,320080.03125,309165.59375,310377.78125,280307.6875,-0.035400390625,0.7578125,-0.572265625,23.742673873901367,-6.988524913787842,0.3662109076976776,100.0,198096.0,1.0
84840.7314087,316614.1875,345063.65625,330439.8125,318527.84375,321707.25,309586.96875,311010.6875,280719.25,-0.035400390625,0.759765625,-0.573486328125,24.566648483276367,-7.080077648162842,-0.1525878757238388,100.0,198097.0,1.0
84840.7439467,316719.59375,345027.1875,329909.78125,317687.78125,320579.5625,308998.84375,310452.5,280100.0,-0.033935546875,0.759521484375,-0.577880859375,25.451658248901367,-7.080077648162842,-0.5493163466453552,100.0,198098.0,1.0
84840.7462592,316499.09375,343920.75,328803.75,316466.75,318344.65625,308211.0,309506.21875,279315.71875,-0.0322265625,0.763916015625,-0.576171875,26.153562545776367,-7.141112804412842,-0.8544921278953552,100.0,198099.0,1.0
84840.7489011,316291.3125,343357.59375,328681.6875,316535.6875,318100.46875,308324.1875,309487.90625,279427.9375,-0.033447265625,0.767578125,-0.5771484375,26.824949264526367,-7.202147960662842,-1.2817381620407104,100.0,198100.0,1.0
84840.7513386,316357.75,344087.0625,329717.3125,317833.59375,320273.0625,309194.03125,310450.8125,280293.46875,-0.033447265625,0.770751953125,-0.584228515625,27.404783248901367,-7.354735851287842,-1.6174315214157104,100.0,198101.0,1.0
84840.7513819,316614.8125,345103.1875,330475.28125,318547.59375,321889.09375,309607.78125,311071.84375,280694.21875,-0.032470703125,0.775634765625,-0.58740234375,27.954099655151367,-7.476806163787842,-1.9531248807907104,100.0,198102.0,1.0
84840.7539297,316719.59375,345073.65625,329942.0625,317714.5,320757.5625,309019.5,310512.875,280074.34375,-0.0322265625,0.780029296875,-0.590576171875,28.350828170776367,-7.598876476287842,-2.136230230331421,100.0,198103.0,1.0
84840.7563509,316502.25,343974.15625,328826.375,316484.09375,318509.5,308237.09375,309564.4375,279283.53125,-0.029541015625,0.785888671875,-0.593505859375,28.625486373901367,-7.812499523162842,-2.105712652206421,100.0,198104.0,1.0
84840.7563901,316296.34375,343413.8125,328699.5,316540.5,318239.40625,308349.03125,309541.8125,279386.90625,-0.027099609375,0.79150390625,-0.59423828125,28.961179733276367,-7.995604991912842,-2.136230230331421,100.0,198105.0,1.0
84840.7588513,316361.15625,344148.03125,329742.25,317838.96875,320395.8125,309206.96875,310502.03125,280252.0,-0.025146484375,0.796630859375,-0.597412109375,29.266355514526367,-7.934569835662842,-2.136230230331421,100.0,198106.0,1.0
84840.7614165,316618.5625,345183.09375,330511.5,318562.4375,322020.25,309635.5,311136.65625,280666.9375,-0.021240234375,0.800048828125,-0.59716796875,29.266355514526367,-7.812499523162842,-2.014159917831421,100.0,198107.0,1.0
84840.7639121,316721.0,345165.21875,329979.8125,317735.15625,320906.0625,309068.84375,310599.6875,280057.625,-0.020263671875,0.805908203125,-0.594482421875,29.174802780151367,-7.568358898162842,-1.9531248807907104,100.0,198108.0,1.0
84840.7664251,316498.5625,344069.09375,328859.1875,316498.84375,318662.65625,308290.5625,309658.5,279275.9375,-0.017578125,0.81396484375,-0.599365234375,28.839109420776367,-7.263183116912842,-1.7089842557907104,100.0,198109.0,1.0
84840.768913,316291.3125,343490.53125,328723.0,316545.5,318381.46875,308387.84375,309625.40625,279386.4375,-0.01611328125,0.821533203125,-0.598388671875,28.198240280151367,-6.835937023162842,-1.5258787870407104,100.0,198110.0,1.0
84840.7714265,316362.5,344205.96875,329767.1875,317844.5,320536.90625,309238.46875,310575.8125,280261.75,-0.013916015625,0.831787109375,-0.597412109375,27.709959030151367,-6.530761241912842,-1.4648436307907104,100.0,198111.0,1.0
84840.7738828,316610.34375,345216.8125,330530.5625,318568.78125,322182.09375,309662.0625,311202.625,280683.5625,-0.013427734375,0.843017578125,-0.59716796875,26.885984420776367,-6.164550304412842,-1.0986326932907104,100.0,198112.0,1.0
84840.7739209,316710.90625,345196.0625,329996.15625,317744.8125,321099.28125,309105.96875,310674.25,280094.28125,-0.0126953125,0.85302734375,-0.5947265625,26.062009811401367,-5.859374523162842,-0.8239745497703552,100.0,198113.0,1.0
84840.7763996,316499.09375,344097.875,328872.75,316509.125,318859.1875,308330.875,309737.78125,279318.59375,-0.0146484375,0.866943359375,-0.591064453125,24.993894577026367,-5.554198741912842,-0.5187987685203552,100.0,198114.0,1.0
84840.7789252,316291.875,343489.71875,328719.875,316540.875,318541.25,308396.875,309675.375,279395.9375,-0.01513671875,0.883056640625,-0.586181640625,23.742673873901367,-5.187987804412842,-0.2746581733226776,100.0,198115.0,1.0
84840.7814414,316357.9375,344179.34375,329754.5,317833.3125,320677.8125,309221.5625,310595.90625,280240.5625,-0.013916015625,0.896484375,-0.583251953125,22.125242233276367,-4.882812023162842,0.0915527269244194,100.0,198116.0,1.0
84840.7814812,316605.15625,345195.1875,330528.9375,318571.21875,322337.84375,309654.90625,311226.15625,280664.875,-0.014404296875,0.9169921875,-0.579345703125,20.233152389526367,-4.638671398162842,0.5493163466453552,100.0,198117.0,1.0
84840.7837715,316713.78125,345202.59375,330009.3125,317762.96875,321274.5,309125.1875,310725.03125,280082.84375,-0.018798828125,0.932373046875,-0.572021484375,17.791746139526367,-4.486083507537842,1.0986326932907104,100.0,198118.0,1.0
84840.7888194,316494.28125,344096.71875,328870.8125,316511.90625,319012.96875,308338.9375,309782.3125,279282.90625,-0.017578125,0.94775390625,-0.569580078125,15.167235374450684,-4.455565929412842,1.6784666776657104,100.0,198119.0,1.0
84840.7988887,316295.875,343480.625,328718.28125,316542.8125,318672.84375,308405.8125,309720.71875,279369.71875,-0.019775390625,0.955322265625,-0.571044921875,12.054442405700684,-4.364013195037842,2.502441167831421,100.0,198120.0,1.0
84840.7989304,316360.625,344146.0625,329751.1875,317835.21875,320774.71875,309224.875,310628.90625,280215.875,-0.02294921875,0.95703125,-0.570556640625,9.033202171325684,-4.211425304412842,3.326415777206421,100.0,198121.0,1.0
84840.801394,316605.84375,345156.1875,330527.40625,318577.0,322431.625,309663.21875,311258.6875,280642.34375,-0.0283203125,0.956787109375,-0.575927734375,6.256103038787842,-4.211425304412842,3.723144292831421,100.0,198122.0,1.0
84840.8039133,316699.28125,345168.53125,330001.4375,317762.96875,321382.6875,309138.21875,310751.40625,280056.03125,-0.030517578125,0.954345703125,-0.5791015625,3.509521245956421,-4.150390148162842,3.784179449081421,100.0,198123.0,1.0
84840.8064093,316481.84375,344080.1875,328866.0625,316514.65625,319139.75,308359.75,309817.375,279266.65625,-0.02978515625,0.954345703125,-0.5810546875,1.1901854276657104,-4.058837413787842,3.540038824081421,100.0,198124.0,1.0
84840.8089614,316276.5625,343440.90625,328699.21875,316526.375,318773.34375,308408.21875,309740.75,279337.90625,-0.030029296875,0.95263671875,-0.578369140625,-0.8850097060203552,-3.784179449081421,3.112792730331421,100.0,198125.0,1.0
84840.8179116,316355.25,344092.59375,329738.9375,317820.71875,320855.375,309220.65625,310651.625,280190.65625,-0.0302734375,0.9541015625,-0.576416015625,-2.777099370956421,-3.509521245956421,2.716064214706421,100.0,198126.0,1.0
84840.8197653,316603.4375,345100.125,330522.0625,318572.53125,322505.125,309660.53125,311286.3125,280622.6875,-0.032470703125,0.9541015625,-0.57568359375,-4.669188976287842,-3.143310308456421,2.471923589706421,100.0,198127.0,1.0
84840.819804,316694.375,345129.8125,330002.0625,317766.0,321457.8125,309141.71875,310786.4375,280041.09375,-0.031982421875,0.9560546875,-0.572998046875,-6.561278820037842,-2.838134527206421,2.227782964706421,100.0,198128.0,1.0
84840.8289508,316476.5,344047.375,328863.90625,316513.78125,319195.25,308358.78125,309846.5,279248.5,-0.033203125,0.960693359375,-0.56787109375,-8.544920921325684,-2.655029058456421,1.9836424589157104,100.0,198129.0,1.0
84840.8313648,316278.71875,343395.5,328685.625,316517.96875,318793.375,308392.84375,309756.9375,279314.21875,-0.0341796875,0.961181640625,-0.562255859375,-10.650633811950684,-2.502441167831421,1.7700194120407104,100.0,198130.0,1.0
84840.8339104,316347.21875,344018.75,329701.375,317796.40625,320840.875,309174.625,310643.75,280156.25,-0.03759765625,0.959716796875,-0.5556640625,-12.847899436950684,-2.380370855331421,1.6479490995407104,100.0,198131.0,1.0
84840.8364262,316602.09375,345038.1875,330496.5625,318565.84375,322507.625,309624.875,311286.78125,280605.6875,-0.03857421875,0.9541015625,-0.5498046875,-15.045165061950684,-2.197265386581421,1.3122557401657104,100.0,198132.0,1.0
84840.8426845,316709.125,345108.1875,330005.46875,317784.15625,321496.59375,309129.90625,310813.0,280045.1875,-0.0380859375,0.94921875,-0.54296875,-17.333982467651367,-2.349853277206421,1.2207030057907104,100.0,198133.0,1.0
84840.8427257,316497.6875,344045.5,328878.65625,316534.96875,319242.1875,308360.125,309884.40625,279255.1875,-0.038818359375,0.943603515625,-0.5400390625,-19.470212936401367,-2.288818120956421,1.0986326932907104,100.0,198134.0,1.0
84840.8663183,316285.78125,343372.78125,328677.40625,316516.4375,318811.25,308383.09375,309774.28125,279304.625,-0.04150390625,0.9365234375,-0.53955078125,-21.575925827026367,-2.319335699081421,1.0070799589157104,100.0,198135.0,1.0
84840.868887,316357.75,343990.21875,329691.5625,317798.375,320856.28125,309188.46875,310667.4375,280152.125,-0.042724609375,0.928466796875,-0.534912109375,-23.559568405151367,-2.288818120956421,0.8239745497703552,100.0,198136.0,1.0
84840.8689284,316609.875,345014.75,330494.34375,318577.46875,322545.15625,309644.71875,311319.84375,280602.28125,-0.044189453125,0.920654296875,-0.53076171875,-25.451658248901367,-2.319335699081421,0.6408690810203552,100.0,198137.0,1.0
84840.8762947,316720.03125,345113.90625,330025.40625,317810.53125,321562.84375,309153.4375,310853.15625,280047.6875,-0.04443359375,0.9130859375,-0.525390625,-27.191160202026367,-2.258300542831421,0.4577636420726776,100.0,198138.0,1.0
84840.8789463,316508.40625,344067.40625,328899.40625,316556.96875,319309.71875,308380.96875,309918.40625,279254.75,-0.048583984375,0.9033203125,-0.521484375,-28.717039108276367,-2.349853277206421,0.3967284858226776,100.0,198139.0,1.0
84840.8812727,316297.21875,343378.5,328681.625,316526.09375,318858.5625,308395.875,309801.71875,279297.5625,-0.05029296875,0.892822265625,-0.51708984375,-30.181882858276367,-2.410888433456421,0.1831054538488388,100.0,198140.0,1.0
84840.8838969,316353.46875,343962.15625,329669.125,317794.53125,320882.46875,309183.65625,310681.3125,280133.4375,-0.05029296875,0.881591796875,-0.513916015625,-31.494138717651367,-2.410888433456421,-0.0610351525247097,100.0,198141.0,1.0
84840.8888198,316610.78125,345004.46875,330491.75,318595.78125,322596.5625,309659.21875,311346.5,280603.625,-0.05029296875,0.8671875,-0.514404296875,-32.562252044677734,-2.624511480331421,-0.2136230319738388,100.0,198142.0,1.0
84840.8913978,316728.96875,345130.25,330046.59375,317841.1875,321638.84375,309179.0,310882.90625,280050.84375,-0.048583984375,0.8525390625,-0.5185546875,-33.111568450927734,-2.746581792831421,-0.5187987685203552,100.0,198143.0,1.0
84840.8939987,316523.15625,344109.25,328936.25,316591.5625,319400.8125,308410.375,309958.4375,279262.34375,-0.044189453125,0.836669921875,-0.52197265625,-33.294673919677734,-2.929687261581421,-0.8850097060203552,100.0,198144.0,1.0
84840.8940376,316302.59375,343408.65625,328696.46875,316541.21875,318927.03125,308405.28125,309829.0,279297.9375,-0.039306640625,0.81787109375,-0.5283203125,-33.050533294677734,-2.899169683456421,-1.3122557401657104,100.0,198145.0,1.0
84840.8990407,316350.875,343975.40625,329665.28125,317798.28125,320934.84375,309187.9375,310700.96875,280134.6875,-0.036865234375,0.801513671875,-0.532470703125,-32.318111419677734,-2.807616949081421,-1.6174315214157104,100.0,198146.0,1.0
84840.9014931,316604.53125,345016.625,330489.78125,318597.21875,322657.5625,309659.125,311366.625,280596.84375,-0.034912109375,0.79052734375,-0.534912109375,-31.311033248901367,-2.716064214706421,-2.014159917831421,100.0,198147.0,1.0
84840.9039466,316729.6875,345172.71875,330069.375,317856.21875,321730.40625,309184.46875,310913.5,280053.4375,-0.033203125,0.78173828125,-0.531494140625,-30.212400436401367,-2.319335699081421,-2.319335699081421,100.0,198148.0,1.0
84840.9063846,316523.15625,344151.71875,328954.125,316599.15625,319480.46875,308403.84375,309972.40625,279260.125,-0.0322265625,0.77734375,-0.528564453125,-29.083250045776367,-1.8920897245407104,-2.532958745956421,100.0,198149.0,1.0
84840.9101553,316315.5625,343446.71875,328711.03125,316554.625,318998.84375,308419.3125,309853.65625,279305.90625,-0.02978515625,0.77734375,-0.525634765625,-27.648923873901367,-1.4343260526657104,-2.685546636581421,100.0,198150.0,1.0
84840.9413547,316353.1875,343989.15625,329662.5,317802.75,320992.53125,309201.4375,310726.90625,280127.625,-0.025390625,0.78076171875,-0.5205078125,-26.611326217651367,-0.9155272841453552,-2.746581792831421,100.0,198151.0,1.0
84840.94137,316610.15625,345030.3125,330495.875,318615.625,322728.90625,309683.4375,311400.59375,280578.25,-0.022705078125,0.781982421875,-0.51513671875,-25.604246139526367,-0.4882812201976776,-2.624511480331421,100.0,198152.0,1.0
84840.9463654,316745.5,345197.6875,330096.75,317888.40625,321816.5,309211.625,310949.34375,280016.3125,-0.0205078125,0.783447265625,-0.5126953125,-24.719236373901367,0.03051757626235485,-2.380370855331421,100.0,198153.0,1.0
84840.9463813,316543.4375,344176.75,328981.84375,316626.25,319555.9375,308420.84375,309996.71875,279175.1875,-0.017578125,0.78662109375,-0.512939453125,-23.834226608276367,0.4577636420726776,-2.166747808456421,100.0,198154.0,1.0
84840.9488588,316311.875,343432.25,328701.5625,316544.625,319029.875,308411.625,309844.0,279115.09375,-0.01416015625,0.7890625,-0.51318359375,-22.888181686401367,0.8544921278953552,-1.7089842557907104,100.0,198155.0,1.0
84840.9513907,316347.03125,343958.5,329636.21875,317786.03125,321012.1875,309200.0,310708.75,279870.75,-0.0126953125,0.78857421875,-0.51171875,-21.789548873901367,1.4038084745407104,-1.3427733182907104,100.0,198156.0,1.0
84840.9551023,316603.8125,345005.4375,330476.71875,318611.71875,322769.5625,309693.53125,311388.25,280296.4375,-0.008056640625,0.787353515625,-0.51220703125,-20.751951217651367,1.9226073026657104,-1.0986326932907104,100.0,198157.0,1.0
84840.9551208,316744.71875,345196.875,330098.4375,317902.71875,321885.875,309235.3125,310950.96875,279722.34375,-0.0029296875,0.785888671875,-0.51025390625,-19.378660202026367,2.593993902206421,-0.8544921278953552,100.0,198158.0,1.0
84840.9551243,316545.5,344181.375,328989.1875,316643.59375,319629.59375,308442.09375,309995.71875,278890.875,0.0009765625,0.78857421875,-0.5107421875,-18.127439498901367,3.326415777206421,-0.6713866591453552,100.0,198159.0,1.0
84840.9551278,316308.75,343429.21875,328697.25,316549.8125,319091.71875,308419.75,309841.25,278931.625,0.00244140625,0.790771484375,-0.510009765625,-16.754148483276367,4.241942882537842,-0.4882812201976776,100.0,198160.0,1.0
84840.9576183,316344.625,343950.8125,329632.0,317788.96875,321074.875,309204.5625,310716.34375,279805.78125,0.00244140625,0.794921875,-0.509033203125,-15.258788108825684,5.126952648162842,-0.1831054538488388,100.0,198161.0,1.0
84840.9600844,316611.84375,345011.8125,330496.5625,318634.3125,322862.46875,309712.9375,311421.5,280334.59375,0.00146484375,0.80029296875,-0.507080078125,-14.099120140075684,6.042479991912842,0.0,100.0,198162.0,1.0
84840.9601055,316751.9375,345212.6875,330127.3125,317932.5625,321996.125,309249.625,310983.9375,279821.3125,-0.002197265625,0.80517578125,-0.50830078125,-12.878417015075684,6.805419445037842,0.3356933295726776,100.0,198163.0,1.0
84840.9663705,316570.71875,344232.4375,329034.5,316682.75,319751.03125,308463.75,310039.375,279028.375,-0.007568359375,0.812255859375,-0.5078125,-11.779784202575684,7.537841320037842,0.6408690810203552,100.0,198164.0,1.0
84840.9937156,316325.3125,343473.71875,328721.5625,316565.71875,319172.5625,308428.59375,309862.96875,279021.9375,-0.009765625,0.81591796875,-0.5078125,-10.864256858825684,8.148192405700684,0.7934569716453552,100.0,198165.0,1.0
84840.9937259,316346.5,343983.15625,329637.375,317788.28125,321123.5,309209.5,310724.3125,279835.8125,-0.01171875,0.823974609375,-0.50439453125,-10.040282249450684,8.636473655700684,1.0681151151657104,100.0,198166.0,1.0
84840.9974715,316610.59375,345053.90625,330507.40625,318642.09375,322917.8125,309725.90625,311432.9375,280332.375,-0.015625,0.8271484375,-0.503662109375,-9.185790061950684,9.063719749450684,1.4038084745407104,100.0,198167.0,1.0
84840.9974777,316760.96875,345274.125,330158.96875,317958.59375,322075.59375,309271.625,311013.625,279806.21875,-0.017333984375,0.831298828125,-0.50439453125,-8.422850608825684,9.521483421325684,1.6479490995407104,100.0,198168.0,1.0
84840.9974796,316569.125,344280.0,329055.15625,316692.84375,319812.1875,308473.84375,310059.75,278978.75,-0.02001953125,0.832763671875,-0.507568359375,-7.751464366912842,9.948729515075684,1.8005369901657104,100.0,198169.0,1.0
84841.0012684,316316.90625,343509.9375,328727.46875,316558.65625,319211.34375,308430.65625,309879.3125,278955.9375,-0.021728515625,0.8359375,-0.508544921875,-7.263183116912842,10.162352561950684,1.9531248807907104,100.0,198170.0,1.0
84841.0012751,316332.8125,344020.28125,329636.21875,317775.5625,321162.9375,309214.84375,310747.1875,279776.0,-0.0244140625,0.8369140625,-0.507080078125,-6.652831554412842,10.284422874450684,2.014159917831421,100.0,198171.0,1.0
84841.0012767,316598.15625,345093.6875,330514.28125,318641.03125,322982.09375,309735.8125,311468.28125,280293.125,-0.0244140625,0.838134765625,-0.505615234375,-6.286620616912842,10.528563499450684,2.227782964706421,100.0,198172.0,1.0
84841.0012783,316753.8125,345315.78125,330175.59375,317970.46875,322154.0,309280.75,311048.15625,279780.5625,-0.026123046875,0.84130859375,-0.5068359375,-5.798339366912842,10.650633811950684,2.349853277206421,100.0,198173.0,1.0
84841.0036874,316565.28125,344313.4375,329068.125,316700.375,319875.75,308471.78125,310079.875,278907.125,-0.030029296875,0.8427734375,-0.507080078125,-5.401610851287842,10.742186546325684,2.441406011581421,100.0,198174.0,1.0
84841.0061292,316313.78125,343535.96875,328735.96875,316555.53125,319252.125,308422.25,309884.6875,278781.6875,-0.033203125,0.843505859375,-0.504638671875,-4.913329601287842,10.833739280700684,2.563476324081421,100.0,198175.0,1.0
84841.0098881,316332.28125,344046.84375,329645.0625,317769.75,321194.40625,309209.75,310747.90625,279530.65625,-0.0361328125,0.846923828125,-0.504150390625,-4.577636241912842,10.681151390075684,2.685546636581421,100.0,198176.0,1.0
84841.0791926,316607.375,345133.65625,330538.3125,318652.65625,323034.125,309747.71875,311483.46875,280010.78125,-0.03857421875,0.847412109375,-0.5029296875,-4.364013195037842,10.681151390075684,2.655029058456421,100.0,198177.0,1.0
84841.0899273,316777.0625,345371.65625,330219.9375,318001.78125,322235.09375,309305.0625,311081.21875,279478.71875,-0.040771484375,0.849365234375,-0.50244140625,-4.150390148162842,10.498045921325684,2.716064214706421,100.0,198178.0,1.0
84841.0899438,316588.15625,344379.0625,329118.53125,316732.90625,319966.03125,308495.21875,310118.03125,278645.25,-0.038818359375,0.851806640625,-0.498779296875,-3.967284917831421,10.375975608825684,2.746581792831421,100.0,198179.0,1.0
84841.0924437,316334.5,343607.84375,328778.875,316578.84375,319337.25,308448.09375,309925.71875,278624.25,-0.041748046875,0.853515625,-0.49951171875,-3.936767339706421,10.162352561950684,2.655029058456421,100.0,198180.0,1.0
84841.0950723,316347.90625,344125.5,329684.3125,317790.40625,321285.59375,309241.5,310795.03125,279477.8125,-0.04296875,0.85546875,-0.499755859375,-3.906249761581421,9.765624046325684,2.777099370956421,100.0,198181.0,1.0
84841.0976082,316611.40625,345206.53125,330569.34375,318673.9375,323140.25,309775.6875,311531.125,280041.53125,-0.04248046875,0.860595703125,-0.4951171875,-3.997802495956421,9.338377952575684,2.838134527206421,100.0,198182.0,1.0
84841.1000802,316773.84375,345428.4375,330243.5625,318020.1875,322349.09375,309319.1875,311122.71875,279562.5,-0.044189453125,0.863525390625,-0.4951171875,-4.241942882537842,8.880614280700684,2.838134527206421,100.0,198183.0,1.0
84841.1025967,316588.6875,344421.71875,329134.0,316743.625,320065.8125,308494.9375,310152.1875,278763.625,-0.043212890625,0.867919921875,-0.493896484375,-4.394530773162842,8.483885765075684,2.838134527206421,100.0,198184.0,1.0
84841.1049348,316341.21875,343643.25,328787.5625,316581.28125,319409.9375,308447.125,309955.5,278770.0,-0.04345703125,0.871337890625,-0.49560546875,-4.791259288787842,8.026122093200684,2.990722417831421,100.0,198185.0,1.0
84841.1074649,316352.125,344139.1875,329683.875,317784.25,321335.03125,309241.84375,310821.40625,279619.96875,-0.044921875,0.87451171875,-0.4990234375,-5.096435070037842,7.385253429412842,3.173827886581421,100.0,198186.0,1.0
84841.1099541,316604.4375,345185.78125,330559.25,318660.25,323176.5625,309768.71875,311549.71875,280170.5625,-0.045654296875,0.87744140625,-0.501953125,-5.493163585662842,6.958007335662842,3.051757574081421,100.0,198187.0,1.0
84841.1126328,316771.0,345387.21875,330229.59375,318010.4375,322375.125,309309.0,311132.375,279682.125,-0.04443359375,0.8798828125,-0.503173828125,-6.011962413787842,6.500243663787842,2.929687261581421,100.0,198188.0,1.0
84841.1149727,316590.75,344364.3125,329112.09375,316731.21875,320069.3125,308483.25,310145.03125,278866.8125,-0.044677734375,0.88232421875,-0.5048828125,-6.378173351287842,6.011962413787842,2.899169683456421,100.0,198189.0,1.0
84841.1175623,316340.9375,343565.1875,328748.65625,316553.5625,319380.875,308424.84375,309929.40625,278849.5625,-0.044921875,0.88720703125,-0.50732421875,-6.652831554412842,5.523681163787842,2.746581792831421,100.0,198190.0,1.0
84841.1199618,316348.1875,344047.625,329634.4375,317747.75,321281.125,309216.0,310778.40625,279684.09375,-0.04345703125,0.888427734375,-0.5068359375,-6.988524913787842,5.065917491912842,2.777099370956421,100.0,198191.0,1.0
84841.1226149,316601.65625,345097.71875,330519.09375,318640.3125,323134.1875,309748.875,311508.78125,280216.78125,-0.040283203125,0.891845703125,-0.506591796875,-7.446288585662842,4.760741710662842,2.563476324081421,100.0,198192.0,1.0
84841.1274958,316772.25,345312.84375,330204.65625,318004.4375,322349.90625,309299.78125,311096.875,279716.90625,-0.039794921875,0.894775390625,-0.5078125,-7.720946788787842,4.302978038787842,2.319335699081421,100.0,198193.0,1.0
84841.1299683,316599.40625,344305.3125,329096.625,316730.40625,320039.34375,308475.28125,310109.90625,278890.875,-0.03857421875,0.89892578125,-0.50732421875,-8.056639671325684,4.058837413787842,2.166747808456421,100.0,198194.0,1.0
84841.1325141,316343.625,343508.6875,328724.96875,316542.375,319332.15625,308396.875,309888.96875,278851.4375,-0.03955078125,0.90283203125,-0.5078125,-8.514403343200684,3.631591558456421,1.8920897245407104,100.0,198195.0,1.0
84841.1350407,316343.09375,343987.375,329600.0,317727.46875,321217.46875,309181.78125,310738.09375,279668.875,-0.039306640625,0.905517578125,-0.510498046875,-8.880614280700684,3.234863042831421,1.6784666776657104,100.0,198196.0,1.0
84841.1376414,316594.3125,345043.8125,330488.4375,318623.96875,323079.28125,309726.34375,311476.65625,280213.1875,-0.03857421875,0.906494140625,-0.5146484375,-9.277342796325684,2.868652105331421,1.4953612089157104,100.0,198197.0,1.0
84841.1391274,316770.625,345283.96875,330194.03125,318004.8125,322318.15625,309286.65625,311082.375,279716.0,-0.03759765625,0.903076171875,-0.514892578125,-9.643553733825684,2.593993902206421,1.3427733182907104,100.0,198198.0,1.0
84841.1476157,316595.40625,344293.875,329094.6875,316730.125,320018.34375,308459.53125,310103.28125,278877.625,-0.0380859375,0.902587890625,-0.514404296875,-10.009764671325684,2.197265386581421,1.2207030057907104,100.0,198199.0,1.0
84841.1476523,316334.0625,343487.5,328711.375,316521.625,319288.0625,308381.40625,309865.1875,278804.84375,-0.03662109375,0.89990234375,-0.515869140625,-10.437010765075684,1.8920897245407104,1.1596678495407104,100.0,198200.0,1.0
84841.1476605,316333.0,343979.5,329589.4375,317710.5625,321179.65625,309179.90625,310722.25,279635.34375,-0.033447265625,0.89599609375,-0.512451171875,-10.742186546325684,1.6784666776657104,1.0375975370407104,100.0,198201.0,1.0
84841.1515243,316589.6875,345056.9375,330494.0625,318626.0,323072.9375,309736.625,311481.21875,280216.78125,-0.03271484375,0.891845703125,-0.515625,-11.016844749450684,1.5563963651657104,0.9460448622703552,100.0,198202.0,1.0
84841.1515567,316776.625,345315.78125,330218.96875,318023.21875,322345.25,309300.40625,311102.21875,279764.8125,-0.0322265625,0.891357421875,-0.51806640625,-11.199950218200684,1.3427733182907104,0.7934569716453552,100.0,198203.0,1.0
84841.1515644,316611.65625,344332.21875,329123.90625,316751.6875,320047.5,308469.1875,310118.84375,278948.8125,-0.030029296875,0.88916015625,-0.517578125,-11.322020530700684,1.1291502714157104,0.8239745497703552,100.0,198204.0,1.0
84841.1552629,316348.625,343523.34375,328734.09375,316537.65625,319305.5,308389.96875,309876.5625,278903.90625,-0.029541015625,0.891357421875,-0.5205078125,-11.596678733825684,0.9155272841453552,0.7324218153953552,100.0,198205.0,1.0
84841.1552935,316340.21875,343996.40625,329598.9375,317714.40625,321182.59375,309182.03125,310726.1875,279715.90625,-0.029296875,0.89013671875,-0.523681640625,-11.779784202575684,0.7019042372703552,0.6408690810203552,100.0,198206.0,1.0
