Time,FZ,C3,CZ,C4,PZ,PO7,OZ,PO8,AccX,AccY,AccZ,Gyro1,Gyro2,Gyro3,Battery,Counter,Validation
510038.9923465,155388.078125,284332.09375,324825.40625,292175.9375,292558.0625,273882.28125,252251.609375,261225.203125,0.04296875,0.8759765625,-0.484130859375,0.4577636420726776,-4.516601085662842,1.0070799589157104,100.0,34526.0,1.0
510038.9948108,156147.234375,283937.0,323927.84375,291040.90625,287774.15625,272543.5,251256.328125,259963.578125,0.043212890625,0.875732421875,-0.483642578125,0.6408690810203552,-4.272460460662842,0.9460448622703552,100.0,34527.0,1.0
510038.9973093,156448.453125,283901.6875,323547.25,290597.53125,284301.34375,272104.15625,250660.15625,259260.125,0.04541015625,0.873291015625,-0.484619140625,0.7324218153953552,-4.089354991912842,1.0986326932907104,100.0,34528.0,1.0
510038.9998627,155895.46875,284245.1875,324128.75,291378.15625,286569.75,273072.09375,251210.109375,259992.734375,0.041259765625,0.87158203125,-0.485107421875,0.9155272841453552,-3.784179449081421,1.1596678495407104,100.0,34529.0,1.0
510038.9998751,155173.78125,284464.59375,324860.625,292341.875,291447.625,274136.65625,252142.078125,261169.328125,0.038818359375,0.866455078125,-0.486572265625,1.0986326932907104,-3.570556402206421,1.0070799589157104,100.0,34530.0,1.0
510039.0025287,155153.390625,284240.53125,324673.9375,292132.125,292141.875,273821.65625,252178.65625,261172.90625,0.0361328125,0.8623046875,-0.490234375,1.6174315214157104,-3.295898199081421,0.9155272841453552,100.0,34531.0,1.0
510039.0074737,155704.40625,283839.8125,323707.46875,290965.46875,287334.71875,272498.53125,251193.75,259909.140625,0.037353515625,0.8623046875,-0.4853515625,1.9836424589157104,-3.143310308456421,0.9155272841453552,100.0,34532.0,1.0
510039.0098132,155786.390625,283797.96875,323289.3125,290492.84375,283798.25,272042.90625,250575.9375,259170.8125,0.03662109375,0.869873046875,-0.488037109375,2.197265386581421,-3.143310308456421,0.8850097060203552,100.0,34533.0,1.0
510039.012536,155126.828125,284164.28125,323944.75,291284.90625,286095.46875,273014.59375,251130.0,259905.109375,0.03759765625,0.8798828125,-0.482177734375,2.136230230331421,-3.112792730331421,0.8239745497703552,100.0,34534.0,1.0
510039.0125506,154402.109375,284433.03125,324797.875,292299.84375,291123.96875,274112.6875,252102.203125,261131.515625,0.04296875,0.884521484375,-0.48046875,1.6784666776657104,-3.204345464706421,0.9155272841453552,100.0,34535.0,1.0
510039.017314,154468.0,284219.53125,324626.28125,292096.46875,291945.0,273810.75,252147.265625,261147.609375,0.04345703125,0.876708984375,-0.47998046875,1.3732908964157104,-2.899169683456421,1.0070799589157104,100.0,34536.0,1.0
510039.0225297,155149.1875,283822.375,323599.71875,290901.625,287181.3125,272491.5625,251165.484375,259879.625,0.045654296875,0.86669921875,-0.4833984375,1.4953612089157104,-2.716064214706421,0.9765624403953552,100.0,34537.0,1.0
510039.0300143,155392.28125,283788.9375,323165.65625,290408.0,283640.78125,272032.375,250545.984375,259136.21875,0.04638671875,0.86376953125,-0.4873046875,1.7395018339157104,-2.441406011581421,1.0986326932907104,100.0,34538.0,1.0
510039.032538,154900.453125,284181.53125,323902.53125,291218.03125,285983.15625,273000.71875,251100.21875,259870.25,0.050537109375,0.8662109375,-0.490966796875,1.8310545682907104,-2.441406011581421,1.0681151151657104,100.0,34539.0,1.0
510039.0325538,154256.8125,284459.75,324841.5,292253.0,291099.75,274090.59375,252068.765625,261095.75,0.05908203125,0.86962890625,-0.493896484375,1.8920897245407104,-2.288818120956421,1.0681151151657104,100.0,34540.0,1.0
510039.0350456,154358.828125,284251.71875,324683.59375,292064.28125,291993.46875,273802.96875,252129.03125,261133.03125,0.05810546875,0.8642578125,-0.491943359375,2.227782964706421,-1.9836424589157104,1.1596678495407104,100.0,34541.0,1.0
510039.0398704,155041.1875,283823.1875,323569.59375,290828.65625,287160.125,272458.65625,251130.265625,259853.25,0.057861328125,0.8681640625,-0.490966796875,2.441406011581421,-1.7395018339157104,1.2207030057907104,100.0,34542.0,1.0
510039.0424883,155284.453125,283776.6875,323097.4375,290309.9375,283484.15625,271976.65625,250498.515625,259091.15625,0.064697265625,0.868896484375,-0.494873046875,2.532958745956421,-1.3732908964157104,1.0986326932907104,100.0,34543.0,1.0
510039.0450225,154861.03125,284186.53125,323908.625,291154.5625,285765.625,272949.15625,251059.640625,259844.5,0.0625,0.870849609375,-0.493408203125,2.929687261581421,-0.6713866591453552,1.0986326932907104,100.0,34544.0,1.0
510039.0487775,154278.90625,284494.625,324959.78125,292247.375,290934.625,274071.28125,252053.84375,261103.171875,0.06298828125,0.873046875,-0.49072265625,3.021239995956421,-0.4577636420726776,1.2512205839157104,100.0,34545.0,1.0
510039.0487957,154272.734375,284248.40625,324782.40625,292035.46875,291848.53125,273770.09375,252098.8125,261129.90625,0.069091796875,0.868896484375,-0.4970703125,3.051757574081421,-0.2441406100988388,1.5258787870407104,100.0,34546.0,1.0
510039.0838448,154870.953125,283800.1875,323584.34375,290749.90625,286954.3125,272430.5,251098.703125,259831.0,0.0615234375,0.869873046875,-0.49609375,3.356933355331421,0.2746581733226776,1.8615721464157104,100.0,34547.0,1.0
510039.0876545,155087.140625,283730.71875,323050.40625,290182.78125,283141.09375,271929.375,250442.015625,259029.015625,0.058837890625,0.87744140625,-0.496826171875,3.479003667831421,0.3051757514476776,1.7089842557907104,100.0,34548.0,1.0
510039.0876962,154633.578125,284132.875,323894.0625,291043.5,285308.3125,272886.5625,250968.703125,259752.40625,0.059326171875,0.88134765625,-0.49609375,3.417968511581421,0.4882812201976776,1.6174315214157104,100.0,34549.0,1.0
510039.0877066,154051.1875,284461.46875,325023.09375,292196.6875,290463.71875,274023.71875,251969.625,261045.046875,0.056640625,0.88671875,-0.495361328125,3.204345464706421,0.7934569716453552,1.7395018339157104,100.0,34550.0,1.0
510039.0900798,154090.25,284244.375,324874.9375,292019.46875,291418.3125,273766.59375,252061.890625,261116.046875,0.05615234375,0.88330078125,-0.495361328125,2.929687261581421,0.7324218153953552,1.8005369901657104,100.0,34551.0,1.0
510039.0915306,154673.90625,283738.5,323578.0,290656.09375,286405.6875,272390.09375,251019.578125,259771.09375,0.053955078125,0.882080078125,-0.495849609375,2.838134527206421,0.8850097060203552,1.9836424589157104,100.0,34552.0,1.0
510039.0988198,154914.9375,283645.34375,322987.625,290037.40625,282406.09375,271854.09375,250321.9375,258926.015625,0.055419921875,0.87255859375,-0.494873046875,2.777099370956421,1.0070799589157104,2.105712652206421,100.0,34553.0,1.0
510039.1012229,154554.625,284081.65625,323892.71875,290947.5,284501.875,272821.28125,250850.59375,259656.734375,0.0517578125,0.87353515625,-0.493896484375,2.868652105331421,1.1291502714157104,2.288818120956421,100.0,34554.0,1.0
510039.1038127,154025.78125,284448.84375,325105.96875,292174.5,289699.71875,273994.5,251868.046875,260966.015625,0.054443359375,0.87548828125,-0.497314453125,2.777099370956421,0.8544921278953552,2.105712652206421,100.0,34555.0,1.0
510039.1063742,154036.96875,284247.15625,324988.375,292000.53125,290750.0625,273766.5,251969.34375,261058.109375,0.052734375,0.8740234375,-0.498291015625,2.777099370956421,1.0375975370407104,2.075195074081421,100.0,34556.0,1.0
510039.108755,154589.234375,283761.75,323682.34375,290584.59375,285781.0,272407.0625,250939.734375,259715.65625,0.053955078125,0.876708984375,-0.494384765625,2.746581792831421,1.0681151151657104,2.166747808456421,100.0,34557.0,1.0
510039.1113395,154816.765625,283654.90625,323056.3125,289926.375,281709.34375,271851.40625,250226.453125,258842.78125,0.051513671875,0.883056640625,-0.4951171875,2.410888433456421,0.7324218153953552,2.105712652206421,100.0,34558.0,1.0
510039.1138114,154438.3125,284071.03125,323931.15625,290866.21875,283697.125,272801.09375,250741.96875,259556.34375,0.0556640625,0.87841796875,-0.495849609375,2.044677495956421,0.4882812201976776,2.105712652206421,100.0,34559.0,1.0
510039.116258,153951.21875,284435.0,325140.75,292165.75,288857.34375,273984.03125,251769.96875,260887.0625,0.064453125,0.86767578125,-0.497314453125,2.105712652206421,0.6408690810203552,2.380370855331421,100.0,34560.0,1.0
510039.1188288,153929.59375,284203.96875,324977.03125,291991.75,289850.65625,273749.53125,251856.875,260969.5,0.068359375,0.863037109375,-0.498291015625,2.197265386581421,0.8850097060203552,2.777099370956421,100.0,34561.0,1.0
510039.1188709,154384.484375,283672.625,323580.125,290486.6875,284747.28125,272369.0625,250811.890625,259603.71875,0.070556640625,0.86376953125,-0.505859375,2.288818120956421,1.0070799589157104,2.868652105331421,100.0,34562.0,1.0
510039.121363,154689.8125,283566.84375,322908.59375,289793.40625,280504.65625,271807.34375,250088.578125,258711.703125,0.069091796875,0.8681640625,-0.508544921875,2.319335699081421,1.1596678495407104,3.051757574081421,100.0,34563.0,1.0
510039.1300375,154439.65625,284016.3125,323793.90625,290795.40625,282399.28125,272774.53125,250611.796875,259437.6875,0.070068359375,0.87646484375,-0.502197265625,2.136230230331421,1.1596678495407104,3.204345464706421,100.0,34564.0,1.0
510039.1324689,153976.796875,284401.90625,325014.5,292174.96875,287545.1875,273970.875,251643.375,260782.640625,0.07568359375,0.88232421875,-0.498291015625,1.9226073026657104,1.2207030057907104,3.326415777206421,100.0,34565.0,1.0
510039.1325206,153988.234375,284179.28125,324850.78125,292009.71875,288567.125,273750.21875,251738.046875,260874.28125,0.08154296875,0.867919921875,-0.498046875,1.7089842557907104,1.4343260526657104,3.753661870956421,100.0,34566.0,1.0
510039.1339983,154481.3125,283641.9375,323420.1875,290432.3125,283417.53125,272364.78125,250681.359375,259483.5625,0.07568359375,0.868896484375,-0.497802734375,1.8920897245407104,1.8005369901657104,4.180907726287842,100.0,34567.0,1.0
510039.1491616,154740.78125,283537.4375,322715.65625,289694.09375,279077.09375,271795.53125,249944.375,258562.671875,0.07763671875,0.87890625,-0.499755859375,1.6784666776657104,1.7089842557907104,4.028319835662842,100.0,34568.0,1.0
510039.1787395,154472.46875,283992.59375,323594.34375,290727.0,280918.4375,272747.875,250445.59375,259264.609375,0.08154296875,0.876953125,-0.498291015625,1.5869139432907104,1.8005369901657104,4.089354991912842,100.0,34569.0,1.0
510039.1787798,154032.5,284412.28125,324846.78125,292173.25,286144.90625,273973.46875,251491.296875,260625.734375,0.08251953125,0.876708984375,-0.49658203125,1.5563963651657104,1.8920897245407104,4.211425304412842,100.0,34570.0,1.0
510039.1838101,154002.0,284195.90625,324687.53125,292010.28125,287258.1875,273775.71875,251604.65625,260733.296875,0.08642578125,0.873779296875,-0.49951171875,1.1901854276657104,2.014159917831421,4.455565929412842,100.0,34571.0,1.0
510039.1863879,154445.109375,283630.59375,323221.71875,290345.6875,282089.5,272375.0625,250544.296875,259327.640625,0.08544921875,0.876708984375,-0.502197265625,1.3427733182907104,2.227782964706421,4.425048351287842,100.0,34572.0,1.0
510039.1887544,154701.265625,283482.09375,322462.03125,289517.25,277629.59375,271758.4375,249770.109375,258350.953125,0.08349609375,0.883544921875,-0.497802734375,1.4648436307907104,2.410888433456421,4.119872570037842,100.0,34573.0,1.0
510039.1913865,154488.015625,283968.09375,323351.4375,290568.65625,279482.5625,272728.03125,250279.46875,259042.96875,0.08154296875,0.880859375,-0.4990234375,1.4038084745407104,2.593993902206421,3.814697027206421,100.0,34574.0,1.0
510039.1937079,154091.6875,284457.96875,324683.78125,292100.21875,284912.78125,274009.6875,251361.5625,260434.3125,0.08203125,0.86865234375,-0.500732421875,2.014159917831421,2.929687261581421,3.814697027206421,100.0,34575.0,1.0
510039.1953669,154047.609375,284317.34375,324640.15625,291974.15625,286384.78125,273883.8125,251540.828125,260586.75,0.075439453125,0.879638671875,-0.498046875,2.410888433456421,2.990722417831421,3.814697027206421,100.0,34576.0,1.0
510039.2025073,154457.359375,283792.5,323251.3125,290254.65625,281509.6875,272510.78125,250517.203125,259177.515625,0.078369140625,0.880859375,-0.49853515625,2.410888433456421,2.807616949081421,3.479003667831421,100.0,34577.0,1.0
510039.2050542,154740.15625,283732.6875,322598.1875,289439.09375,277352.875,271952.625,249811.875,258237.859375,0.080078125,0.8740234375,-0.497314453125,2.441406011581421,2.868652105331421,3.601073980331421,100.0,34578.0,1.0
510039.2075844,154547.203125,284311.625,323599.09375,290560.34375,279555.15625,272976.59375,250379.6875,258967.6875,0.08056640625,0.87060546875,-0.4951171875,2.624511480331421,2.990722417831421,3.601073980331421,100.0,34579.0,1.0
510039.2150836,154162.140625,284925.125,325086.65625,292200.25,285503.84375,274345.15625,251559.6875,260433.421875,0.080322265625,0.872802734375,-0.49755859375,2.685546636581421,2.868652105331421,3.265380620956421,100.0,34580.0,1.0
510039.2151249,154034.28125,284804.96875,325101.21875,292084.84375,287362.90625,274244.375,251799.828125,260633.25,0.080322265625,0.87451171875,-0.5009765625,2.838134527206421,2.929687261581421,2.990722417831421,100.0,34581.0,1.0
510039.2175818,154261.90625,284079.875,323520.15625,290160.875,282318.09375,272736.53125,250703.171875,259134.78125,0.079345703125,0.87548828125,-0.501708984375,3.112792730331421,3.051757574081421,2.716064214706421,100.0,34582.0,1.0
510039.2176229,154443.59375,283852.5,322674.09375,289148.53125,277810.125,272053.03125,249917.1875,258094.71875,0.078125,0.871337890625,-0.5068359375,3.143310308456421,3.021239995956421,2.410888433456421,100.0,34583.0,1.0
510039.2200071,154217.5625,284317.59375,323514.96875,290177.78125,279693.03125,273001.90625,250434.234375,258765.703125,0.0732421875,0.87255859375,-0.503662109375,3.540038824081421,3.112792730331421,2.014159917831421,100.0,34584.0,1.0
510039.2225285,153814.515625,284780.625,324796.4375,291728.90625,285261.8125,274283.0,251545.734375,260178.4375,0.070556640625,0.873779296875,-0.5029296875,3.662109136581421,2.960204839706421,1.6784666776657104,100.0,34585.0,1.0
510039.2250081,153740.765625,284574.75,324715.96875,291522.8125,286896.46875,274136.46875,251737.703125,260345.171875,0.068115234375,0.876953125,-0.502685546875,3.601073980331421,2.746581792831421,1.0986326932907104,100.0,34586.0,1.0
510039.2275897,154164.015625,283961.59375,323293.84375,289583.40625,282051.9375,272701.75,250703.25,258900.890625,0.0732421875,0.870361328125,-0.503662109375,3.631591558456421,2.685546636581421,0.7629393935203552,100.0,34587.0,1.0
510039.229984,154548.28125,283776.875,322533.375,288515.25,277713.28125,272025.125,249914.515625,257850.0,0.073974609375,0.86083984375,-0.50732421875,3.875732183456421,2.868652105331421,0.6713866591453552,100.0,34588.0,1.0
510039.2300253,154582.96875,284298.03125,323449.6875,289563.1875,279810.5,273004.125,250445.140625,258549.703125,0.06884765625,0.856201171875,-0.508056640625,4.180907726287842,2.960204839706421,0.5187987685203552,100.0,34589.0,1.0
510039.2324513,154420.25,284869.34375,324874.9375,291226.875,285774.3125,274366.0625,251631.921875,260055.765625,0.05615234375,0.8642578125,-0.50634765625,4.272460460662842,2.807616949081421,0.0,100.0,34590.0,1.0
510039.2350825,154460.21875,284717.6875,324918.375,291078.1875,287819.75,274263.96875,251879.5,260284.375,0.05126953125,0.867919921875,-0.50927734375,4.364013195037842,2.624511480331421,-0.8239745497703552,100.0,34591.0,1.0
510039.2374811,154875.78125,284091.65625,323563.15625,289097.65625,283240.875,272829.78125,250857.21875,258842.421875,0.045166015625,0.87109375,-0.506103515625,4.486083507537842,2.380370855331421,-1.2512205839157104,100.0,34592.0,1.0
510039.2375208,155172.796875,283900.78125,322840.21875,288004.84375,279029.96875,272127.9375,250076.875,257786.609375,0.04931640625,0.867431640625,-0.505859375,4.486083507537842,2.197265386581421,-1.8005369901657104,100.0,34593.0,1.0
510039.2475927,155042.53125,284429.0,323777.90625,289108.46875,281204.28125,273086.5625,250625.109375,258499.71875,0.04150390625,0.86572265625,-0.503173828125,4.516601085662842,2.166747808456421,-2.014159917831421,100.0,34594.0,1.0
510039.2524784,154715.75,284982.25,325200.1875,290849.6875,287255.15625,274434.03125,251803.140625,259998.984375,0.0380859375,0.87255859375,-0.50537109375,4.272460460662842,1.7395018339157104,-2.990722417831421,100.0,34595.0,1.0
510039.2525189,154699.734375,284819.96875,325276.09375,290779.3125,289465.9375,274345.59375,252064.65625,260246.640625,0.046875,0.868408203125,-0.5107421875,4.119872570037842,1.4648436307907104,-3.784179449081421,100.0,34596.0,1.0
510039.257424,155103.765625,284160.5,323946.0,288827.46875,285017.03125,272887.8125,251041.21875,258809.34375,0.05126953125,0.858642578125,-0.510986328125,4.272460460662842,1.7395018339157104,-3.906249761581421,100.0,34597.0,1.0
510039.2599349,155396.75,283946.5625,323219.21875,287758.875,280847.09375,272166.84375,250249.96875,257734.484375,0.043212890625,0.85986328125,-0.510009765625,4.455565929412842,1.6479490995407104,-4.028319835662842,100.0,34598.0,1.0
510039.2638258,155238.953125,284463.78125,324120.96875,288934.65625,283029.0625,273117.15625,250778.625,258436.78125,0.037841796875,0.86572265625,-0.5126953125,4.394530773162842,1.2817381620407104,-4.852294445037842,100.0,34599.0,1.0
510039.2638675,154833.3125,285040.53125,325524.03125,290797.375,289152.0,274485.15625,251978.375,259988.625,0.037109375,0.87060546875,-0.5126953125,4.425048351287842,1.0681151151657104,-5.767821788787842,100.0,34600.0,1.0
510039.2700588,154694.546875,284874.6875,325574.375,290792.28125,291469.8125,274402.28125,252255.453125,260267.21875,0.041015625,0.8671875,-0.509521484375,4.364013195037842,1.0070799589157104,-6.225585460662842,100.0,34601.0,1.0
510039.2964074,154998.453125,284189.3125,324216.625,288831.21875,287069.0,272923.9375,251234.78125,258830.890625,0.046875,0.86376953125,-0.51171875,4.241942882537842,0.8239745497703552,-6.622313976287842,100.0,34602.0,1.0
510039.2964477,155184.234375,283943.78125,323440.65625,287744.65625,282849.53125,272169.4375,250437.71875,257757.296875,0.0546875,0.855224609375,-0.51123046875,4.455565929412842,1.0070799589157104,-6.958007335662842,100.0,34603.0,1.0
510039.2988324,154970.90625,284454.9375,324278.5,288941.71875,284928.6875,273109.0,250962.984375,258474.515625,0.06005859375,0.83935546875,-0.515380859375,4.821776866912842,1.5563963651657104,-6.439208507537842,100.0,34604.0,1.0
510039.2988741,154564.90625,285051.625,325639.4375,290858.4375,290999.25,274498.3125,252168.1875,260050.21875,0.044189453125,0.846435546875,-0.51220703125,5.310058116912842,1.7700194120407104,-6.469726085662842,100.0,34605.0,1.0
510039.3013553,154400.140625,284916.0,325709.8125,290919.21875,293385.96875,274451.8125,252476.640625,260390.59375,0.0458984375,0.8505859375,-0.51611328125,5.371093273162842,1.3732908964157104,-7.049560070037842,100.0,34606.0,1.0
510039.3038246,154689.546875,284226.9375,324378.46875,288976.15625,289069.59375,272979.8125,251474.65625,259001.65625,0.039794921875,0.854736328125,-0.51318359375,5.828856945037842,1.7089842557907104,-7.232665538787842,100.0,34607.0,1.0
510039.3053665,154966.703125,283957.8125,323593.625,287873.84375,284816.40625,272196.53125,250656.3125,257926.09375,0.039794921875,0.856689453125,-0.50830078125,6.042479991912842,1.5869139432907104,-7.354735851287842,100.0,34608.0,1.0
510039.3124871,154988.34375,284495.6875,324438.71875,289117.59375,286856.75,273142.25,251186.234375,258666.109375,0.03955078125,0.85986328125,-0.50927734375,5.981444835662842,1.5869139432907104,-7.446288585662842,100.0,34609.0,1.0
510039.3149122,154869.4375,285119.65625,325812.375,291095.53125,292941.25,274548.09375,252403.78125,260272.578125,0.03515625,0.860107421875,-0.5078125,5.920409679412842,1.6784666776657104,-7.415771007537842,100.0,34610.0,1.0
510039.3174543,154880.96875,284991.1875,325915.625,291206.5,295422.3125,274517.875,252728.421875,260647.546875,0.028564453125,0.8662109375,-0.505615234375,5.920409679412842,1.4953612089157104,-7.812499523162842,100.0,34611.0,1.0
510039.3199848,155174.578125,284269.3125,324607.4375,289263.875,291176.8125,273017.1875,251706.21875,259251.375,0.02978515625,0.867919921875,-0.505615234375,5.645751476287842,1.3732908964157104,-8.026122093200684,100.0,34612.0,1.0
510039.3200247,155481.15625,283993.9375,323841.375,288171.75,286923.46875,272213.9375,250876.078125,258179.734375,0.03076171875,0.865478515625,-0.50634765625,5.706786632537842,1.5258787870407104,-7.812499523162842,100.0,34613.0,1.0
510039.3224375,155406.859375,284531.28125,324672.875,289426.21875,288871.375,273149.875,251391.875,258913.140625,0.023681640625,0.858642578125,-0.50634765625,5.676269054412842,1.7395018339157104,-7.141112804412842,100.0,34614.0,1.0
510039.3263746,155159.109375,285176.09375,326050.625,291446.90625,294879.96875,274579.125,252609.5,260535.4375,0.0087890625,0.8681640625,-0.501953125,5.462646007537842,1.3427733182907104,-7.171630382537842,100.0,34615.0,1.0
510039.3463162,155127.8125,285021.0625,326153.625,291580.21875,297331.15625,274541.84375,252921.265625,260914.34375,0.006591796875,0.87451171875,-0.504150390625,5.065917491912842,1.0681151151657104,-7.476806163787842,100.0,34616.0,1.0
510039.3463564,155477.21875,284232.65625,324827.53125,289631.15625,292997.78125,272994.5625,251882.625,259523.796875,-0.000244140625,0.876220703125,-0.500244140625,4.882812023162842,0.9460448622703552,-7.507323741912842,100.0,34617.0,1.0
510039.3501652,155760.640625,283860.09375,323984.875,288486.1875,288472.34375,272106.03125,250988.640625,258394.140625,-0.001220703125,0.876708984375,-0.497802734375,4.394530773162842,0.5493163466453552,-7.415771007537842,100.0,34618.0,1.0
510039.350205,155646.921875,284320.28125,324721.34375,289682.90625,290060.03125,272972.21875,251413.859375,259037.59375,-0.003662109375,0.87646484375,-0.49853515625,3.906249761581421,0.2441406100988388,-7.537841320037842,100.0,34619.0,1.0
510039.3502151,155336.859375,284969.375,326086.125,291722.09375,295837.6875,274403.34375,252604.5,260639.6875,-0.003662109375,0.872314453125,-0.495849609375,3.601073980331421,-0.2136230319738388,-7.781981945037842,100.0,34620.0,1.0
510039.3524263,155244.859375,284848.3125,326226.5,291925.15625,298198.65625,274398.0,252924.21875,261045.234375,-0.0029296875,0.871337890625,-0.4970703125,3.387450933456421,-0.6408690810203552,-7.690429210662842,100.0,34621.0,1.0
510039.3550363,155581.734375,284078.34375,324948.6875,290053.78125,293848.84375,272878.96875,251896.578125,259673.734375,0.002685546875,0.867431640625,-0.49853515625,2.990722417831421,-0.9155272841453552,-7.385253429412842,100.0,34622.0,1.0
510039.357578,155862.828125,283704.28125,324117.375,288933.0625,289231.40625,271989.28125,250985.609375,258540.046875,0.004638671875,0.85888671875,-0.505126953125,2.746581792831421,-1.0375975370407104,-6.652831554412842,100.0,34623.0,1.0
510039.3713754,155772.359375,284167.9375,324827.28125,290114.5625,290636.34375,272852.0625,251404.65625,259197.640625,-0.003173828125,0.8583984375,-0.50537109375,2.655029058456421,-1.3122557401657104,-6.195067882537842,100.0,34624.0,1.0
510039.3738765,155452.1875,284749.875,326062.875,292060.96875,296086.5,274238.125,252553.890625,260780.59375,-0.006591796875,0.866943359375,-0.50390625,2.380370855331421,-1.8310545682907104,-6.195067882537842,100.0,34625.0,1.0
510039.3739158,155273.90625,284492.21875,326028.09375,292145.28125,298090.03125,274155.6875,252795.203125,261134.109375,-0.00390625,0.868896484375,-0.50146484375,2.227782964706421,-2.197265386581421,-5.981444835662842,100.0,34626.0,1.0
510039.3762426,155490.0,283610.03125,324608.5,290202.1875,293403.21875,272580.53125,251717.21875,259738.90625,0.00244140625,0.864501953125,-0.500732421875,2.197265386581421,-2.410888433456421,-5.523681163787842,100.0,34627.0,1.0
510039.3813809,155645.03125,283101.21875,323583.4375,288951.9375,288293.625,271599.625,250737.140625,258547.015625,-0.00439453125,0.85986328125,-0.504150390625,2.319335699081421,-2.441406011581421,-5.035399913787842,100.0,34628.0,1.0
510039.3837391,155434.484375,283367.46875,324002.3125,289894.8125,289013.875,272300.40625,250998.5625,259049.84375,-0.006103515625,0.868896484375,-0.50439453125,2.197265386581421,-2.777099370956421,-5.126952648162842,100.0,34629.0,1.0
510039.3875625,155025.1875,283791.96875,324992.9375,291644.15625,293825.59375,273576.34375,252004.84375,260497.4375,0.00341796875,0.86962890625,-0.505615234375,2.136230230331421,-2.929687261581421,-5.004882335662842,100.0,34630.0,1.0
510039.4237488,154851.375,283522.40625,324883.34375,291711.75,295481.75,273520.53125,252226.65625,260847.828125,0.005615234375,0.86181640625,-0.50341796875,2.380370855331421,-2.807616949081421,-4.425048351287842,100.0,34631.0,1.0
510039.4237892,155140.15625,282707.125,323504.3125,289846.96875,290720.75,271999.71875,251151.453125,259481.328125,0.00390625,0.854736328125,-0.50537109375,2.777099370956421,-2.746581792831421,-4.028319835662842,100.0,34632.0,1.0
510039.4266304,155409.265625,282349.9375,322610.0625,288712.65625,285703.9375,271095.65625,250198.28125,258338.875,0.00341796875,0.8603515625,-0.50439453125,3.234863042831421,-2.899169683456421,-3.845214605331421,100.0,34633.0,1.0
510039.4266709,155306.90625,282859.375,323261.21875,289816.21875,286682.9375,271951.8125,250558.953125,258944.609375,-0.002197265625,0.873291015625,-0.5009765625,3.448486089706421,-2.990722417831421,-3.814697027206421,100.0,34634.0,1.0
510039.4288158,154988.609375,283574.8125,324552.8125,291761.71875,291977.0,273417.28125,251690.75,260512.28125,-0.000244140625,0.8828125,-0.5,3.234863042831421,-3.356933355331421,-3.875732183456421,100.0,34635.0,1.0
510039.4312488,154846.1875,283509.1875,324687.1875,292008.375,294195.71875,273494.875,252022.546875,260964.9375,-0.000732421875,0.88427734375,-0.498779296875,2.929687261581421,-3.204345464706421,-3.601073980331421,100.0,34636.0,1.0
510039.4336362,155022.234375,282616.28125,323268.46875,290133.625,289576.0625,271925.875,250943.40625,259583.96875,-0.0029296875,0.88623046875,-0.496826171875,2.716064214706421,-3.051757574081421,-3.448486089706421,100.0,34637.0,1.0
510039.4362803,155147.578125,282006.53125,322124.9375,288821.03125,284225.96875,270871.78125,249903.421875,258330.125,-0.002197265625,0.88720703125,-0.494873046875,2.349853277206421,-3.143310308456421,-3.631591558456421,100.0,34638.0,1.0
510039.4387564,154926.296875,282193.8125,322411.84375,289633.125,284498.03125,271517.125,250106.90625,258758.296875,-0.001220703125,0.887451171875,-0.497802734375,1.9836424589157104,-3.112792730331421,-3.723144292831421,100.0,34639.0,1.0
510039.4413231,154623.390625,282826.28125,323576.46875,291464.78125,289346.03125,272927.25,251157.984375,260244.40625,-0.00146484375,0.881591796875,-0.498779296875,1.6784666776657104,-2.960204839706421,-3.509521245956421,100.0,34640.0,1.0
510039.4437682,154587.71875,282978.28125,323929.46875,291872.5,291782.71875,273178.125,251571.484375,260792.484375,-0.001220703125,0.875,-0.501953125,1.5869139432907104,-2.960204839706421,-3.509521245956421,100.0,34641.0,1.0
510039.4463232,154967.953125,282477.4375,322941.6875,290324.0625,287916.15625,271891.1875,250685.28125,259607.828125,-0.00048828125,0.8701171875,-0.50439453125,1.4648436307907104,-2.868652105331421,-3.448486089706421,100.0,34642.0,1.0
510039.4487562,155285.984375,282265.8125,322252.34375,289308.125,283451.78125,271078.46875,249824.03125,258528.25,-0.001953125,0.8662109375,-0.503173828125,1.5869139432907104,-2.899169683456421,-3.234863042831421,100.0,34643.0,1.0
510039.4512374,155282.671875,282899.4375,323053.1875,290407.8125,284770.0,271995.4375,250257.921875,259161.15625,0.001708984375,0.863525390625,-0.503662109375,1.8615721464157104,-2.716064214706421,-3.082275152206421,100.0,34644.0,1.0
510039.4537725,155048.875,283696.125,324448.90625,292301.8125,290345.875,273499.4375,251428.53125,260721.84375,0.0009765625,0.863037109375,-0.504638671875,2.014159917831421,-2.563476324081421,-2.868652105331421,100.0,34645.0,1.0
510039.4537886,154968.9375,283705.875,324702.65625,292588.0,292964.875,273653.21875,251824.234375,261213.3125,-0.00048828125,0.861083984375,-0.503662109375,2.105712652206421,-2.380370855331421,-2.807616949081421,100.0,34646.0,1.0
510039.4562909,155279.625,283029.96875,323546.34375,290921.03125,289037.65625,272278.875,250931.25,259989.609375,0.000244140625,0.861572265625,-0.506103515625,2.044677495956421,-2.197265386581421,-2.777099370956421,100.0,34647.0,1.0
510039.4586639,155580.578125,282716.40625,322734.53125,289799.21875,284448.65625,271417.78125,250073.65625,258876.390625,-0.000732421875,0.85205078125,-0.508056640625,1.9836424589157104,-1.8005369901657104,-2.655029058456421,100.0,34648.0,1.0
510039.4586799,155543.828125,283293.875,323459.8125,290796.21875,285630.53125,272294.25,250481.078125,259441.359375,0.004150390625,0.8212890625,-0.51318359375,2.563476324081421,-1.0681151151657104,-2.044677495956421,100.0,34649.0,1.0
510039.4711681,155312.890625,284109.8125,324869.21875,292666.0625,291204.34375,273823.8125,251672.96875,260990.515625,-0.001708984375,0.836181640625,-0.513427734375,3.662109136581421,-0.5798339247703552,-1.4953612089157104,100.0,34650.0,1.0
510039.4813486,155240.921875,284164.09375,325174.8125,292984.0,294017.375,274041.15625,252126.265625,261520.703125,-0.00732421875,0.859375,-0.508544921875,4.089354991912842,-0.9765624403953552,-1.8005369901657104,100.0,34651.0,1.0
510039.481376,155533.1875,283458.65625,323991.9375,291326.46875,290210.15625,272670.8125,251251.953125,260308.078125,-0.005859375,0.88134765625,-0.507568359375,4.028319835662842,-1.2512205839157104,-2.044677495956421,100.0,34652.0,1.0
510039.4837911,155755.09375,282986.875,323001.84375,290095.78125,285440.5625,271697.8125,250337.671875,259121.90625,-0.000732421875,0.891357421875,-0.50537109375,3.509521245956421,-0.8850097060203552,-1.9531248807907104,100.0,34653.0,1.0
510039.4862966,155664.265625,283386.4375,323529.34375,290950.96875,286289.65625,272430.9375,250658.640625,259589.328125,0.0,0.889892578125,-0.5029296875,2.349853277206421,-0.3051757514476776,-1.9531248807907104,100.0,34654.0,1.0
510039.4888048,155406.40625,284113.21875,324846.9375,292751.625,291633.15625,273886.125,251807.96875,261097.09375,-0.00146484375,0.8779296875,-0.506591796875,1.8310545682907104,-0.3662109076976776,-1.8310545682907104,100.0,34655.0,1.0
510039.4913138,155304.046875,284156.5,325146.0,293088.25,294376.78125,274092.21875,252261.625,261632.546875,0.0,0.860107421875,-0.507080078125,1.8005369901657104,-0.4577636420726776,-1.5563963651657104,100.0,34656.0,1.0
510039.4950833,155544.546875,283421.5625,323938.5625,291421.0625,290557.84375,272684.3125,251352.625,260400.609375,0.001220703125,0.845947265625,-0.514404296875,2.258300542831421,-0.2136230319738388,-1.0375975370407104,100.0,34657.0,1.0
510039.4951251,155765.828125,282971.40625,322981.03125,290199.5,285777.34375,271695.65625,250417.6875,259209.890625,0.0,0.85546875,-0.51708984375,2.685546636581421,0.0,-1.0681151151657104,100.0,34658.0,1.0
510039.5500639,155680.53125,283418.4375,323567.8125,291055.125,286586.21875,272433.1875,250734.8125,259686.515625,0.001953125,0.85498046875,-0.51953125,2.960204839706421,0.1831054538488388,-1.0681151151657104,100.0,34659.0,1.0
510039.5526308,155393.09375,284115.4375,324862.40625,292793.03125,291783.34375,273844.5625,251829.609375,261154.9375,0.001220703125,0.872314453125,-0.522216796875,3.204345464706421,0.7019042372703552,-0.8239745497703552,100.0,34660.0,1.0
510039.5526696,155279.28125,284107.6875,325111.875,293078.21875,294396.375,274019.34375,252248.296875,261671.890625,0.00732421875,0.891845703125,-0.517822265625,2.899169683456421,0.9765624403953552,-1.0681151151657104,100.0,34661.0,1.0
510039.5563715,155462.296875,283252.5,323765.40625,291333.8125,290317.0625,272544.59375,251315.6875,260418.75,0.00732421875,0.89111328125,-0.5146484375,2.227782964706421,1.0070799589157104,-1.2817381620407104,100.0,34662.0,1.0
510039.556412,155585.9375,282589.90625,322556.0625,289944.4375,285006.40625,271415.28125,250285.8125,259137.46875,0.00390625,0.873291015625,-0.508056640625,1.7395018339157104,1.1291502714157104,-1.0986326932907104,100.0,34663.0,1.0
510039.5564223,155485.09375,282888.25,322955.375,290653.0625,285277.84375,272036.3125,250493.953125,259510.828125,0.0048828125,0.8310546875,-0.510009765625,2.166747808456421,1.2512205839157104,-0.7324218153953552,100.0,34664.0,1.0
510039.5688133,155240.296875,283616.84375,324260.25,292376.65625,290239.125,273461.1875,251569.609375,260960.109375,0.004150390625,0.84033203125,-0.510498046875,3.326415777206421,1.4343260526657104,-0.5798339247703552,100.0,34665.0,1.0
510039.5688542,155156.34375,283733.78125,324638.8125,292733.84375,292922.125,273725.65625,252011.8125,261509.875,0.00439453125,0.847900390625,-0.5126953125,3.875732183456421,1.5258787870407104,-0.8239745497703552,100.0,34666.0,1.0
510039.5688628,155430.734375,283108.46875,323545.8125,291144.1875,289244.46875,272411.90625,251156.640625,260345.265625,0.009765625,0.876220703125,-0.512451171875,4.028319835662842,1.8920897245407104,-0.9460448622703552,100.0,34667.0,1.0
510039.5688707,155677.9375,282734.28125,322659.96875,289939.34375,284521.1875,271470.875,250261.140625,259185.296875,0.01220703125,0.870849609375,-0.518310546875,3.753661870956421,2.166747808456421,-1.0375975370407104,100.0,34668.0,1.0
510039.5688785,155668.109375,283252.9375,323320.21875,290767.25,285297.5,272217.15625,250576.828125,259637.78125,0.01123046875,0.8740234375,-0.520751953125,3.509521245956421,2.655029058456421,-1.0070799589157104,100.0,34669.0,1.0
510039.5688874,155495.375,284096.59375,324789.625,292547.96875,290637.15625,273691.21875,251716.421875,261128.921875,0.009765625,0.864990234375,-0.521728515625,3.326415777206421,3.021239995956421,-1.0681151151657104,100.0,34670.0,1.0
510039.5713518,155475.25,284273.0,325278.34375,292963.53125,293676.53125,274004.3125,252233.71875,261742.421875,0.006103515625,0.849853515625,-0.523193359375,3.417968511581421,3.356933355331421,-0.9155272841453552,100.0,34671.0,1.0
510039.5774359,155682.953125,283622.0,324188.1875,291389.25,290257.4375,272698.8125,251411.8125,260608.65625,0.0,0.843994140625,-0.52001953125,3.692626714706421,3.540038824081421,-0.6713866591453552,100.0,34672.0,1.0
510039.5799146,155787.734375,283179.375,323235.375,290144.6875,285581.09375,271720.6875,250515.953125,259443.953125,-0.005615234375,0.85986328125,-0.513916015625,3.967284917831421,3.295898199081421,-0.7324218153953552,100.0,34673.0,1.0
510039.5825703,155639.671875,283604.65625,323797.3125,290898.9375,286227.59375,272398.125,250804.015625,259859.421875,-0.008544921875,0.879638671875,-0.512939453125,3.540038824081421,3.051757574081421,-0.9460448622703552,100.0,34674.0,1.0
510039.5875638,155320.140625,284371.0625,325188.84375,292636.75,291428.40625,273814.875,251896.84375,261308.984375,-0.008544921875,0.880126953125,-0.517578125,2.777099370956421,3.082275152206421,-0.8239745497703552,100.0,34675.0,1.0
510039.5925905,155131.75,284508.03125,325633.71875,293041.75,294465.125,274106.25,252388.671875,261909.078125,-0.008544921875,0.875244140625,-0.520263671875,2.044677495956421,3.448486089706421,-0.4882812201976776,100.0,34676.0,1.0
510039.5949028,155278.734375,283804.5,324481.8125,291465.5,291055.03125,272784.53125,251559.234375,260780.234375,-0.012939453125,0.859619140625,-0.52099609375,1.6479490995407104,3.540038824081421,-0.3051757514476776,100.0,34677.0,1.0
510039.5975994,155448.96875,283271.1875,323424.75,290217.03125,286252.8125,271758.6875,250631.375,259601.046875,-0.00927734375,0.865234375,-0.523681640625,1.4038084745407104,3.448486089706421,-0.1525878757238388,100.0,34678.0,1.0
510039.6023986,155382.453125,283625.40625,323900.5625,290986.65625,286673.46875,272387.125,250863.921875,259982.359375,-0.009765625,0.869384765625,-0.52587890625,1.0070799589157104,3.570556402206421,-0.1831054538488388,100.0,34679.0,1.0
510039.605008,155231.625,284423.625,325317.59375,292787.3125,291756.34375,273839.1875,251975.25,261455.609375,-0.013427734375,0.86328125,-0.526611328125,0.5187987685203552,3.784179449081421,-0.0915527269244194,100.0,34680.0,1.0
510039.6075446,155290.625,284579.375,325791.09375,293255.0,294754.34375,274165.53125,252479.328125,262075.375,-0.02099609375,0.85693359375,-0.5166015625,0.3051757514476776,3.631591558456421,-0.2136230319738388,100.0,34681.0,1.0
510039.6100615,155597.390625,283854.125,324616.0,291706.0,291309.84375,272845.4375,251659.46875,260949.828125,-0.018798828125,0.847900390625,-0.51123046875,0.7019042372703552,2.868652105331421,-0.03051757626235485,100.0,34682.0,1.0
510039.6124824,155850.140625,283268.78125,323483.75,290406.5625,286369.5,271771.21875,250703.796875,259728.984375,-0.01025390625,0.857177734375,-0.509521484375,1.1596678495407104,2.624511480331421,-0.1525878757238388,100.0,34683.0,1.0
510039.6125227,155870.25,283611.8125,323923.8125,291098.9375,286640.75,272371.5,250909.515625,260068.546875,-0.010986328125,0.85498046875,-0.510498046875,1.0986326932907104,2.532958745956421,-0.3356933295726776,100.0,34684.0,1.0
510039.6149084,155762.78125,284420.34375,325341.375,292834.78125,291641.90625,273812.46875,251994.65625,261500.84375,-0.011474609375,0.832763671875,-0.522705078125,1.4648436307907104,2.288818120956421,-0.7019042372703552,100.0,34685.0,1.0
510039.6175292,155753.484375,284591.625,325831.5,293295.75,294657.15625,274152.28125,252506.15625,262117.671875,0.0068359375,0.85107421875,-0.532958984375,2.990722417831421,2.258300542831421,-0.8544921278953552,100.0,34686.0,1.0
510039.6199337,155981.03125,283844.46875,324626.5625,291763.40625,291228.84375,272834.96875,251679.21875,260996.140625,0.020263671875,0.892822265625,-0.53564453125,3.601073980331421,2.716064214706421,-0.9765624403953552,100.0,34687.0,1.0
510039.6216487,156167.265625,283228.28125,323437.1875,290455.46875,286205.25,271750.03125,250719.171875,259764.921875,0.0244140625,0.913330078125,-0.525390625,2.044677495956421,3.234863042831421,-0.6103515028953552,100.0,34688.0,1.0
510039.6314033,156137.140625,283551.84375,323847.5625,291121.46875,286343.21875,272328.65625,250922.75,260091.96875,0.026123046875,0.90478515625,-0.519287109375,0.3051757514476776,3.387450933456421,0.5798339247703552,100.0,34689.0,1.0
510039.6314446,155958.859375,284327.78125,325241.84375,292813.0625,291210.53125,273727.96875,251945.03125,261473.21875,0.02099609375,0.87841796875,-0.517333984375,-0.8850097060203552,3.753661870956421,1.2512205839157104,100.0,34690.0,1.0
510039.6364204,155920.234375,284521.625,325765.78125,293309.53125,294254.03125,274100.25,252467.171875,262113.828125,0.01904296875,0.869873046875,-0.52001953125,-1.4343260526657104,4.119872570037842,1.5258787870407104,100.0,34691.0,1.0
510039.6364631,156036.546875,283763.09375,324535.53125,291813.75,290843.0625,272797.5,251661.25,261016.4375,0.0087890625,0.86083984375,-0.52099609375,-1.6479490995407104,4.180907726287842,1.6174315214157104,100.0,34692.0,1.0
510039.63885,156114.421875,283067.5,323223.21875,290464.78125,285670.875,271646.5,250647.46875,259741.953125,0.00830078125,0.847412109375,-0.52685546875,-1.6784666776657104,4.058837413787842,1.6174315214157104,100.0,34693.0,1.0
510039.6411619,156081.609375,283346.90625,323544.75,291076.40625,285596.84375,272159.21875,250785.875,260009.265625,0.008544921875,0.852294921875,-0.53369140625,-1.6479490995407104,4.486083507537842,1.4038084745407104,100.0,34694.0,1.0
510039.6463726,155935.078125,284168.1875,324964.53125,292784.71875,290366.0625,273576.34375,251827.546875,261391.859375,0.00146484375,0.866943359375,-0.533203125,-1.5258787870407104,4.760741710662842,1.3427733182907104,100.0,34695.0,1.0
510039.6499332,155828.59375,284390.75,325514.8125,293311.3125,293392.5,273970.8125,252345.484375,262030.671875,-0.00390625,0.864990234375,-0.531982421875,-1.5258787870407104,4.638671398162842,1.4343260526657104,100.0,34696.0,1.0
510039.6538244,155963.6875,283641.5,324293.6875,291858.90625,290029.53125,272700.3125,251540.109375,260961.71875,-0.0029296875,0.859130859375,-0.534423828125,-1.9836424589157104,4.852294445037842,1.7700194120407104,100.0,34697.0,1.0
510039.653866,156081.4375,282939.46875,322948.65625,290517.09375,284829.46875,271544.46875,250513.796875,259693.21875,-0.001220703125,0.856689453125,-0.52587890625,-2.166747808456421,4.730224132537842,2.136230230331421,100.0,34698.0,1.0
510039.6713698,156025.734375,283224.40625,323245.65625,291114.125,284641.4375,272047.125,250626.8125,259939.265625,-0.004150390625,0.85400390625,-0.527587890625,-2.349853277206421,4.119872570037842,2.502441167831421,100.0,34699.0,1.0
510039.6736618,155899.40625,284093.28125,324711.75,292820.28125,289366.0625,273482.90625,251668.9375,261325.796875,-0.001708984375,0.857421875,-0.532958984375,-2.593993902206421,4.364013195037842,2.624511480331421,100.0,34700.0,1.0
510039.6763266,155873.828125,284366.3125,325328.03125,293385.78125,292468.21875,273918.5,252226.125,261995.8125,-0.0078125,0.849365234375,-0.5283203125,-2.349853277206421,3.875732183456421,2.807616949081421,100.0,34701.0,1.0
510039.6788184,156017.328125,283611.46875,324071.34375,291937.40625,289167.125,272646.9375,251443.375,260933.203125,0.005859375,0.8662109375,-0.53125,-2.410888433456421,3.692626714706421,2.777099370956421,100.0,34702.0,1.0
510039.681278,156081.609375,282845.15625,322637.6875,290551.6875,283914.09375,271440.59375,250397.75,259634.125,-0.001953125,0.860595703125,-0.536865234375,-2.899169683456421,4.394530773162842,2.685546636581421,100.0,34703.0,1.0
510039.6862149,156047.640625,283119.1875,322952.5,291129.15625,283690.6875,271928.46875,250493.953125,259865.5,-0.003662109375,0.859619140625,-0.5302734375,-2.532958745956421,4.119872570037842,2.868652105331421,100.0,34704.0,1.0
510039.6886999,155932.125,283987.15625,324460.8125,292818.6875,288419.15625,273362.125,251508.71875,261225.03125,0.00341796875,0.8544921875,-0.537841796875,-2.990722417831421,4.058837413787842,3.265380620956421,100.0,34705.0,1.0
510039.688741,155873.65625,284262.15625,325081.71875,293381.0625,291589.15625,273798.875,252044.984375,261888.34375,0.008056640625,0.874755859375,-0.5224609375,-3.112792730331421,4.180907726287842,3.784179449081421,100.0,34706.0,1.0
510039.7238032,155989.078125,283537.4375,323831.5625,292000.15625,288432.8125,272569.4375,251324.453125,260893.234375,0.018798828125,0.889404296875,-0.51513671875,-3.906249761581421,3.204345464706421,4.241942882537842,100.0,34707.0,1.0
510039.7303407,156056.40625,282781.3125,322366.25,290649.125,283210.65625,271385.78125,250325.515625,259631.265625,0.035400390625,0.90673828125,-0.531494140625,-5.279540538787842,3.662109136581421,4.486083507537842,100.0,34708.0,1.0
510039.7303808,156007.5,283022.625,322603.71875,291177.4375,282880.46875,271851.9375,250404.015625,259843.515625,0.0283203125,0.89892578125,-0.545166015625,-6.866454601287842,5.767821788787842,4.486083507537842,100.0,34709.0,1.0
510039.7303907,155921.21875,283909.09375,324120.25,292844.625,287542.78125,273294.4375,251400.09375,261190.515625,0.009765625,0.86669921875,-0.54150390625,-7.171630382537842,6.713866710662842,4.638671398162842,100.0,34710.0,1.0
510039.7375682,155866.140625,284216.65625,324790.1875,293425.125,290759.90625,273766.875,251950.390625,261870.640625,0.00341796875,0.837158203125,-0.535400390625,-6.835937023162842,6.195067882537842,4.608153820037842,100.0,34711.0,1.0
510039.7400934,155925.515625,283475.375,323508.34375,292049.25,287651.6875,272552.34375,251236.296875,260892.078125,0.01171875,0.85986328125,-0.5380859375,-5.798339366912842,5.584716320037842,4.699706554412842,100.0,34712.0,1.0
510039.7424504,155948.578125,282674.3125,321940.875,290677.375,282359.40625,271349.375,250222.609375,259619.28125,0.0126953125,0.8583984375,-0.547607421875,-5.157470226287842,5.432128429412842,4.791259288787842,100.0,34713.0,1.0
510039.7449184,155915.5,282903.375,322128.4375,291186.375,281869.5625,271789.71875,250294.75,259807.390625,0.01513671875,0.857177734375,-0.541015625,-3.936767339706421,5.187987804412842,5.157470226287842,100.0,34714.0,1.0
510039.7525837,155835.296875,283814.5,323668.84375,292832.46875,286401.84375,273222.0,251295.578125,261144.203125,0.012939453125,0.85986328125,-0.5263671875,-3.692626714706421,5.157470226287842,5.371093273162842,100.0,34715.0,1.0
510039.7573921,155783.078125,284160.78125,324380.96875,293406.34375,289620.40625,273707.5,251861.078125,261819.765625,0.009033203125,0.8564453125,-0.5185546875,-3.997802495956421,4.760741710662842,5.249022960662842,100.0,34716.0,1.0
510039.7600896,155839.671875,283405.90625,323059.4375,292022.34375,286546.53125,272471.1875,251135.359375,260822.78125,0.01123046875,0.87646484375,-0.51904296875,-4.821776866912842,4.730224132537842,5.310058116912842,100.0,34717.0,1.0
510039.7623652,155871.5,282578.0,321409.96875,290627.84375,281256.46875,271234.6875,250117.828125,259535.859375,0.0078125,0.88525390625,-0.5146484375,-5.615233898162842,5.126952648162842,5.371093273162842,100.0,34718.0,1.0
510039.765047,155860.0625,282797.5,321567.3125,291103.59375,280745.34375,271660.53125,250187.109375,259709.046875,0.001953125,0.8720703125,-0.509521484375,-6.256103038787842,5.493163585662842,5.615233898162842,100.0,34719.0,1.0
510039.7674259,155819.03125,283712.40625,323148.75,292742.25,285325.21875,273099.71875,251180.328125,261042.734375,-0.00390625,0.863525390625,-0.506103515625,-6.530761241912842,5.676269054412842,5.981444835662842,100.0,34720.0,1.0
510039.770088,155788.171875,284065.84375,323917.21875,293360.75,288688.09375,273603.15625,251756.734375,261743.046875,-0.010498046875,0.849609375,-0.5087890625,-6.652831554412842,5.371093273162842,6.103515148162842,100.0,34721.0,1.0
510039.7749624,155845.125,283326.0625,322569.75,292034.75,285785.75,272392.9375,251057.40625,260791.140625,-0.012939453125,0.826171875,-0.51513671875,-6.378173351287842,5.279540538787842,6.011962413787842,100.0,34722.0,1.0
510039.7750035,155889.203125,282516.125,320825.0625,290673.53125,280541.75,271167.71875,250058.453125,259540.78125,-0.011474609375,0.819580078125,-0.51953125,-5.310058116912842,5.065917491912842,5.371093273162842,100.0,34723.0,1.0
510039.7774281,155793.90625,282681.71875,320847.6875,291089.90625,279892.59375,271518.8125,250065.703125,259656.734375,0.005615234375,0.84033203125,-0.51708984375,-4.333495616912842,4.760741710662842,4.516601085662842,100.0,34724.0,1.0
510039.7824273,155673.296875,283602.625,322421.59375,292715.59375,284415.21875,272950.03125,251033.53125,260963.15625,0.003173828125,0.8447265625,-0.520263671875,-3.509521245956421,4.211425304412842,4.302978038787842,100.0,34725.0,1.0
510039.7849417,155597.390625,284002.1875,323219.28125,293357.0,287859.5625,273502.5625,251606.53125,261677.421875,0.012939453125,0.8623046875,-0.508544921875,-2.807616949081421,3.662109136581421,3.936767339706421,100.0,34726.0,1.0
510039.7874458,155704.21875,283317.84375,321851.625,292077.78125,285110.90625,272365.9375,250959.671875,260755.28125,0.038818359375,0.89501953125,-0.50146484375,-3.021239995956421,2.838134527206421,3.784179449081421,100.0,34727.0,1.0
510039.787485,155823.3125,282564.40625,320057.15625,290761.15625,279952.84375,271210.09375,250027.34375,259549.359375,0.055908203125,0.920166015625,-0.50634765625,-4.882812023162842,3.112792730331421,4.302978038787842,100.0,34728.0,1.0
510039.7899325,155790.140625,282748.59375,319996.96875,291167.15625,279259.75,271569.3125,250043.796875,259667.109375,0.0634765625,0.932373046875,-0.511962890625,-6.805419445037842,4.272460460662842,5.432128429412842,100.0,34729.0,1.0
510039.7924529,155773.421875,283717.0625,321556.9375,292791.875,283734.125,273013.0625,251021.1875,260984.609375,0.0517578125,0.907958984375,-0.525146484375,-8.331297874450684,5.889892101287842,6.072997570037842,100.0,34730.0,1.0
510039.7949375,155801.140625,284181.0625,322368.9375,293477.15625,287267.125,273612.46875,251636.3125,261753.609375,0.031982421875,0.870849609375,-0.52880859375,-9.429930686950684,7.232665538787842,5.554198741912842,100.0,34731.0,1.0
510039.7974152,155876.609375,283484.15625,320865.21875,292195.59375,284580.375,272473.78125,250967.28125,260840.3125,0.03173828125,0.862060546875,-0.523681640625,-9.429930686950684,6.988524913787842,5.279540538787842,100.0,34732.0,1.0
510039.797456,155934.1875,282645.34375,318763.4375,290819.09375,279344.875,271242.0,249977.71875,259572.609375,0.0263671875,0.8515625,-0.511474609375,-8.758543968200684,6.774901866912842,4.974364757537842,100.0,34733.0,1.0
510039.8212585,155940.171875,282809.21875,318433.34375,291208.5625,278590.09375,271569.9375,249993.640625,259655.578125,0.02001953125,0.843994140625,-0.50244140625,-7.873534679412842,6.103515148162842,4.699706554412842,100.0,34734.0,1.0
510039.8237268,155938.390625,283754.15625,319736.4375,292793.90625,283075.75,272971.9375,250959.140625,260932.3125,-0.003173828125,0.814208984375,-0.51123046875,-6.652831554412842,5.279540538787842,4.516601085662842,100.0,34735.0,1.0
510039.8237611,155941.421875,284219.15625,320271.53125,293453.125,286786.65625,273554.59375,251550.203125,261680.46875,0.018310546875,0.829833984375,-0.51611328125,-5.462646007537842,3.967284917831421,4.669188976287842,100.0,34736.0,1.0
510039.8263823,156033.59375,283569.25,318270.15625,292206.6875,284415.59375,272456.96875,250919.71875,260803.390625,0.037109375,0.865478515625,-0.511474609375,-5.584716320037842,4.425048351287842,4.547118663787842,100.0,34737.0,1.0
510039.8286377,156081.25,282720.0,314993.3125,290804.625,279341.84375,271200.6875,249908.25,259514.3125,0.041015625,0.871826171875,-0.509033203125,-5.767821788787842,5.126952648162842,3.845214605331421,100.0,34738.0,1.0
510039.8376188,156075.09375,282922.21875,312857.46875,291154.09375,278694.15625,271521.21875,249895.90625,259586.828125,0.028564453125,0.864013671875,-0.507080078125,-5.615233898162842,5.828856945037842,2.929687261581421,100.0,34739.0,1.0
510039.837659,156045.84375,283873.15625,314041.9375,292727.5,283222.8125,272973.71875,250874.5625,260875.625,0.02099609375,0.85693359375,-0.509521484375,-5.584716320037842,5.157470226287842,2.502441167831421,100.0,34740.0,1.0
510039.8399868,156027.078125,284267.625,315336.5625,293400.09375,286912.0,273624.875,251518.65625,261648.90625,0.018310546875,0.85205078125,-0.50732421875,-5.462646007537842,4.760741710662842,2.441406011581421,100.0,34741.0,1.0
510039.8400269,156078.484375,283551.5625,313988.28125,292160.28125,284492.40625,272508.09375,250928.109375,260791.140625,0.01611328125,0.84814453125,-0.504638671875,-5.035399913787842,4.699706554412842,2.410888433456421,100.0,34742.0,1.0
510039.8425595,156108.171875,282700.5,312063.28125,290767.875,279344.4375,271335.53125,249968.78125,259544.171875,0.0185546875,0.841552734375,-0.50439453125,-4.516601085662842,4.241942882537842,2.197265386581421,100.0,34743.0,1.0
510039.8450789,156054.4375,282804.125,312122.0,291081.78125,278474.0625,271864.09375,249960.46875,259620.0,0.022216796875,0.8408203125,-0.4970703125,-3.997802495956421,4.333495616912842,1.6479490995407104,100.0,34744.0,1.0
510039.8451277,155988.453125,283707.5,314545.28125,292609.46875,282833.34375,273383.40625,250908.53125,260867.21875,0.02294921875,0.84228515625,-0.4951171875,-3.540038824081421,4.058837413787842,1.2207030057907104,100.0,34745.0,1.0
510039.8703918,155950.0,284195.8125,316510.1875,293291.28125,286586.40625,274016.125,251499.78125,261634.328125,0.023193359375,0.84423828125,-0.498046875,-3.356933355331421,3.692626714706421,1.0375975370407104,100.0,34746.0,1.0
510039.9150602,155994.796875,283502.03125,315946.9375,292089.40625,284253.5,272866.25,250885.640625,260801.78125,0.023681640625,0.843994140625,-0.498046875,-3.143310308456421,3.601073980331421,1.0070799589157104,100.0,34747.0,1.0
510039.9150968,156045.21875,282640.25,314340.71875,290702.15625,278984.375,271461.59375,249910.84375,259533.625,0.02392578125,0.843505859375,-0.495849609375,-2.899169683456421,3.448486089706421,0.7934569716453552,100.0,34748.0,1.0
510039.9151058,156072.21875,282790.34375,314193.375,291002.125,277881.625,271685.1875,249879.546875,259551.6875,0.026123046875,0.846923828125,-0.49951171875,-2.502441167831421,3.387450933456421,0.3662109076976776,100.0,34749.0,1.0
510039.9151152,156077.59375,283705.6875,316226.3125,292532.40625,282077.15625,273118.9375,250800.078125,260784.15625,0.025390625,0.847412109375,-0.4990234375,-2.258300542831421,3.265380620956421,0.0610351525247097,100.0,34750.0,1.0
510039.9187864,156054.609375,284218.53125,317844.9375,293226.75,285779.84375,273797.0,251425.21875,261533.390625,0.026123046875,0.84716796875,-0.49853515625,-2.014159917831421,3.021239995956421,-0.2441406100988388,100.0,34751.0,1.0
510039.9188159,156102.890625,283604.65625,317024.8125,292056.75,283608.5,272743.40625,250859.09375,260713.171875,0.02734375,0.852783203125,-0.497802734375,-1.6479490995407104,2.716064214706421,-0.5798339247703552,100.0,34752.0,1.0
510039.9188263,156102.09375,282695.84375,315334.5,290647.15625,278515.625,271386.75,249868.46875,259430.0,0.0263671875,0.85400390625,-0.5009765625,-1.4038084745407104,2.532958745956421,-1.0070799589157104,100.0,34753.0,1.0
510039.9211493,156058.90625,282771.84375,315307.21875,290914.125,277554.6875,271532.84375,249835.828125,259433.484375,0.026123046875,0.85498046875,-0.497802734375,-1.0375975370407104,2.136230230331421,-1.3732908964157104,100.0,34754.0,1.0
510039.9236042,156027.96875,283667.625,317204.71875,292425.5625,281928.1875,272827.71875,250757.609375,260652.90625,0.025146484375,0.855712890625,-0.491943359375,-0.2136230319738388,1.2512205839157104,-1.6784666776657104,100.0,34755.0,1.0
510039.9262837,156004.546875,284150.15625,318772.28125,293161.46875,285912.34375,273496.75,251418.609375,261443.1875,0.028564453125,0.855224609375,-0.501708984375,0.4272460639476776,0.7629393935203552,-2.227782964706421,100.0,34756.0,1.0
510039.9263141,156046.203125,283458.9375,318121.125,292024.5625,283997.53125,272407.59375,250888.78125,260651.296875,0.02783203125,0.85791015625,-0.505126953125,0.6103515028953552,0.8544921278953552,-2.532958745956421,100.0,34757.0,1.0
510039.928627,156078.03125,282510.59375,316499.1875,290636.53125,279046.15625,271028.5,249930.875,259395.84375,0.01806640625,0.867919921875,-0.499755859375,0.9765624403953552,0.7629393935203552,-3.082275152206421,100.0,34758.0,1.0
510039.9310872,156018.578125,282611.90625,316420.78125,290898.40625,277988.75,271184.15625,249897.96875,259402.5625,0.017822265625,0.867431640625,-0.502685546875,1.0070799589157104,-0.3051757514476776,-3.356933355331421,100.0,34759.0,1.0
510039.9450407,155940.703125,283534.21875,317951.96875,292382.8125,282162.34375,272502.28125,250794.8125,260587.015625,0.019287109375,0.863037109375,-0.50390625,1.1596678495407104,-0.8239745497703552,-3.723144292831421,100.0,34760.0,1.0
510039.9473826,155922.015625,284056.8125,318964.40625,293108.375,286122.8125,273216.03125,251440.953125,261355.109375,0.0283203125,0.86083984375,-0.50927734375,1.5869139432907104,-1.2207030057907104,-4.241942882537842,100.0,34761.0,1.0
510039.9499583,156010.171875,283508.8125,318111.03125,292011.96875,284365.875,272281.375,250959.765625,260594.796875,0.024658203125,0.860595703125,-0.513916015625,2.166747808456421,-0.3967284858226776,-4.913329601287842,100.0,34762.0,1.0
510039.9523551,156069.0,282703.34375,316080.875,290623.21875,279474.25,271086.15625,250011.515625,259331.296875,0.015625,0.861328125,-0.500732421875,3.204345464706421,-0.7934569716453552,-5.218505382537842,100.0,34763.0,1.0
510039.9550591,156070.96875,282888.4375,314135.46875,290846.09375,278418.96875,271380.5,249942.578125,259302.234375,0.022216796875,0.862060546875,-0.505859375,3.326415777206421,-1.7395018339157104,-5.523681163787842,100.0,34764.0,1.0
510039.9575758,156052.28125,284085.78125,312957.53125,292306.65625,282680.1875,273236.40625,250801.875,260488.046875,0.0146484375,0.85546875,-0.50341796875,3.082275152206421,-1.9531248807907104,-5.767821788787842,100.0,34765.0,1.0
510039.9599992,156019.203125,284894.53125,312989.0,293051.15625,286736.59375,274749.4375,251460.984375,261301.46875,0.0107421875,0.85888671875,-0.490966796875,3.631591558456421,-3.204345464706421,-5.493163585662842,100.0,34766.0,1.0
510039.9600334,156113.078125,284330.21875,312488.65625,291987.03125,285056.0,273958.90625,251024.140625,260593.28125,0.010009765625,0.858154296875,-0.4921875,3.692626714706421,-3.540038824081421,-5.432128429412842,100.0,34767.0,1.0
510039.9625288,156169.671875,283314.90625,312110.75,290615.15625,280142.125,272424.5,250114.953125,259388.25,0.017578125,0.86279296875,-0.506591796875,3.753661870956421,-4.364013195037842,-5.065917491912842,100.0,34768.0,1.0
510039.9650666,156134.1875,283316.78125,312994.71875,290813.8125,278949.0625,272360.59375,250053.359375,259367.234375,0.02978515625,0.856689453125,-0.52197265625,3.021239995956421,-4.150390148162842,-5.065917491912842,100.0,34769.0,1.0
510039.9674183,156082.59375,284304.8125,314873.96875,292267.3125,283090.65625,273702.125,250937.6875,260532.921875,0.02978515625,0.854248046875,-0.523193359375,3.021239995956421,-3.234863042831421,-5.004882335662842,100.0,34770.0,1.0
510039.970079,156049.96875,284860.75,316898.03125,293033.09375,287142.875,274339.875,251600.71875,261350.46875,0.021484375,0.85986328125,-0.514404296875,3.387450933456421,-2.685546636581421,-4.791259288787842,100.0,34771.0,1.0
510039.9723853,156128.734375,284304.5625,316848.34375,291988.53125,285555.53125,273259.46875,251114.4375,260638.078125,0.017333984375,0.86328125,-0.50927734375,3.143310308456421,-2.990722417831421,-4.302978038787842,100.0,34772.0,1.0
510039.975088,156199.453125,283472.0,315481.125,290638.0625,280817.75,271941.96875,250213.484375,259427.59375,0.01806640625,0.86376953125,-0.5078125,3.326415777206421,-3.906249761581421,-3.875732183456421,100.0,34773.0,1.0
510039.9774826,156138.203125,283455.09375,314669.46875,290808.625,279616.125,272094.875,250115.40625,259362.859375,0.020263671875,0.86328125,-0.511474609375,3.723144292831421,-4.150390148162842,-3.479003667831421,100.0,34774.0,1.0
510039.9775239,156031.28125,284208.625,315989.40625,292218.59375,283510.34375,273436.6875,250927.046875,260488.859375,0.017333984375,0.867431640625,-0.506103515625,4.058837413787842,-4.150390148162842,-3.051757574081421,100.0,34775.0,1.0
510039.9799532,155993.546875,284737.71875,318051.03125,293001.53125,287417.4375,274063.15625,251589.375,261308.71875,0.01806640625,0.865966796875,-0.509765625,3.936767339706421,-4.486083507537842,-2.807616949081421,100.0,34776.0,1.0
510039.98245,156112.453125,284361.9375,317899.03125,292018.40625,285929.15625,273128.75,251152.796875,260641.5625,0.020751953125,0.861328125,-0.510498046875,3.601073980331421,-4.669188976287842,-2.899169683456421,100.0,34777.0,1.0
510039.9824894,156214.46875,283607.625,316583.6875,290679.09375,281288.125,271901.375,250261.046875,259446.453125,0.022705078125,0.86376953125,-0.513427734375,3.692626714706421,-4.669188976287842,-3.051757574081421,100.0,34778.0,1.0
510039.9849159,156160.015625,283485.5,316399.875,290827.59375,280021.59375,272007.25,250137.84375,259374.65625,0.016845703125,0.87060546875,-0.517578125,3.479003667831421,-4.180907726287842,-2.960204839706421,100.0,34779.0,1.0
510039.9875056,156047.109375,284145.40625,317570.03125,292205.71875,283845.53125,273305.625,250926.328125,260471.234375,0.0107421875,0.8759765625,-0.515869140625,3.723144292831421,-3.997802495956421,-2.532958745956421,100.0,34780.0,1.0
510039.9938629,156038.34375,284661.0,319086.0,292982.3125,287806.96875,274010.3125,251578.1875,261288.421875,0.017822265625,0.880126953125,-0.52587890625,4.028319835662842,-4.180907726287842,-2.227782964706421,100.0,34781.0,1.0
510039.9939052,156173.703125,284285.15625,318859.625,292012.6875,286457.46875,273122.5,251153.0625,260650.40625,0.02197265625,0.8759765625,-0.527099609375,3.875732183456421,-3.570556402206421,-2.044677495956421,100.0,34782.0,1.0
510040.0214056,156304.765625,283538.96875,317554.8125,290679.1875,281852.84375,271930.09375,250272.140625,259475.25,0.02490234375,0.873046875,-0.53173828125,4.364013195037842,-3.448486089706421,-1.9226073026657104,100.0,34783.0,1.0
510040.0214456,156249.96875,283436.75,317367.59375,290787.09375,280503.78125,271989.53125,250153.671875,259385.21875,0.032470703125,0.87060546875,-0.53173828125,4.699706554412842,-2.624511480331421,-2.136230230331421,100.0,34784.0,1.0
510040.0237329,156091.53125,284051.875,318854.8125,292132.21875,284161.3125,273115.34375,250932.671875,260454.96875,0.03125,0.86962890625,-0.52294921875,5.310058116912842,-2.105712652206421,-1.8005369901657104,100.0,34785.0,1.0
510040.023768,155997.84375,284524.5625,320158.0,292898.34375,288042.90625,273760.96875,251562.09375,261264.453125,0.03369140625,0.868408203125,-0.516845703125,5.310058116912842,-1.7089842557907104,-1.5258787870407104,100.0,34786.0,1.0
510040.0263357,156079.734375,284155.9375,319351.46875,291929.71875,286704.84375,272979.46875,251149.84375,260639.859375,0.0390625,0.86865234375,-0.524169921875,4.821776866912842,-0.5798339247703552,-1.4038084745407104,100.0,34787.0,1.0
510040.0287762,156194.359375,283393.21875,317655.84375,290571.625,282034.40625,271882.53125,250261.046875,259455.390625,0.029541015625,0.870361328125,-0.51318359375,4.791259288787842,0.3662109076976776,-0.8850097060203552,100.0,34788.0,1.0
510040.031289,156146.703125,283266.34375,317269.53125,290649.40625,280514.6875,272006.78125,250119.078125,259333.625,0.02490234375,0.871826171875,-0.505859375,4.791259288787842,0.1525878757238388,-0.7019042372703552,100.0,34789.0,1.0
510040.0338729,156031.09375,283957.1875,318885.28125,292003.90625,284079.6875,273157.5625,250928.5625,260414.015625,0.030517578125,0.86572265625,-0.513427734375,4.150390148162842,0.5798339247703552,-0.1525878757238388,100.0,34790.0,1.0
510040.0339112,155996.9375,284550.5,320396.0,292832.1875,288049.28125,273862.96875,251613.875,261284.390625,0.018310546875,0.866455078125,-0.506103515625,4.608153820037842,0.9155272841453552,0.8850097060203552,100.0,34791.0,1.0
510040.0362439,156144.734375,284241.59375,319938.5,291911.375,286848.96875,273111.875,251252.125,260702.171875,0.0009765625,0.87109375,-0.50146484375,4.302978038787842,0.7629393935203552,0.9765624403953552,100.0,34792.0,1.0
510040.0377537,156253.984375,283505.59375,318225.28125,290553.375,282252.3125,271992.5,250386.578125,259522.625,0.015625,0.873779296875,-0.5068359375,3.784179449081421,0.5187987685203552,0.8850097060203552,100.0,34793.0,1.0
510040.045028,156195.15625,283383.375,317832.15625,290638.0625,280738.09375,272075.1875,250248.71875,259404.4375,0.030029296875,0.875244140625,-0.5244140625,3.479003667831421,1.4648436307907104,1.4648436307907104,100.0,34794.0,1.0
510040.0475918,156095.65625,284106.6875,319329.09375,292015.1875,284344.25,273254.1875,251026.90625,260480.8125,0.037109375,0.87255859375,-0.52685546875,3.356933355331421,3.387450933456421,2.380370855331421,100.0,34795.0,1.0
510040.0476332,156031.640625,284677.46875,320734.125,292816.0,288413.59375,273968.125,251662.5,261305.765625,-0.005615234375,0.876220703125,-0.51708984375,3.234863042831421,4.577636241912842,3.051757574081421,100.0,34796.0,1.0
510040.0713922,156142.40625,284300.4375,320255.71875,291886.34375,287354.21875,273255.625,251266.4375,260697.609375,-0.034912109375,0.882080078125,-0.511962890625,2.258300542831421,3.753661870956421,1.8005369901657104,100.0,34797.0,1.0
510040.0738457,156246.125,283525.90625,318664.90625,290526.90625,282835.6875,272161.375,250400.609375,259511.1875,-0.029541015625,0.88427734375,-0.497314453125,1.4343260526657104,2.075195074081421,0.8239745497703552,100.0,34798.0,1.0
510040.0738853,156180.3125,283429.625,318243.625,290599.15625,281313.34375,272204.90625,250251.125,259372.6875,0.002197265625,0.878173828125,-0.50439453125,0.7019042372703552,1.2512205839157104,0.8850097060203552,100.0,34799.0,1.0
510040.0761625,156073.828125,284140.5625,319555.65625,291975.5,284889.34375,273304.4375,251019.046875,260442.625,0.026611328125,0.87109375,-0.519775390625,0.5798339247703552,2.105712652206421,1.9531248807907104,100.0,34800.0,1.0
510040.0787234,156019.5625,284662.71875,320908.5625,292836.125,288948.96875,273991.1875,251670.734375,261299.0625,-0.004638671875,0.873779296875,-0.514404296875,1.1291502714157104,3.662109136581421,2.349853277206421,100.0,34801.0,1.0
510040.0812349,156152.25,284282.1875,320443.03125,291954.3125,287916.5,273289.78125,251299.875,260747.328125,-0.013427734375,0.8828125,-0.50927734375,0.7629393935203552,3.631591558456421,1.3732908964157104,100.0,34802.0,1.0
510040.083855,156269.375,283521.25,318758.34375,290581.625,283328.84375,272178.625,250413.21875,259560.09375,-0.006103515625,0.88037109375,-0.50439453125,0.3051757514476776,3.295898199081421,1.0681151151657104,100.0,34803.0,1.0
510040.0862726,156246.21875,283491.03125,318238.15625,290640.90625,281690.5625,272195.34375,250237.984375,259411.671875,-0.02294921875,0.876953125,-0.499755859375,-0.2136230319738388,2.929687261581421,1.3427733182907104,100.0,34804.0,1.0
510040.0887206,156159.75,284258.59375,319535.71875,292010.90625,285147.46875,273276.28125,250971.75,260466.328125,-0.030029296875,0.8818359375,-0.504150390625,-1.0070799589157104,1.8920897245407104,0.9765624403953552,100.0,34805.0,1.0
510040.0887555,156147.0625,284790.125,320949.0625,292901.65625,289222.8125,274006.28125,251650.53125,261355.734375,-0.01708984375,0.882568359375,-0.5009765625,-1.2207030057907104,1.4648436307907104,0.7629393935203552,100.0,34806.0,1.0
510040.1000666,156271.25,284401.28125,320521.96875,292009.8125,288195.09375,273343.15625,251305.59375,260807.9375,-0.006591796875,0.87841796875,-0.50341796875,-1.3732908964157104,2.044677495956421,0.8544921278953552,100.0,34807.0,1.0
510040.1076526,156389.0,283674.84375,318893.59375,290618.375,283539.03125,272249.0,250423.40625,259615.4375,-0.015625,0.875244140625,-0.498291015625,-1.2817381620407104,2.258300542831421,0.7629393935203552,100.0,34808.0,1.0
510040.1076928,156329.09375,283597.6875,318401.59375,290646.4375,281783.8125,272265.4375,250238.15625,259446.8125,-0.0107421875,0.87646484375,-0.4970703125,-1.4953612089157104,1.9836424589157104,0.4272460639476776,100.0,34809.0,1.0
510040.1077033,156207.59375,284264.75,319667.4375,292009.46875,285217.03125,273354.59375,250970.234375,260502.984375,0.00146484375,0.87548828125,-0.5029296875,-1.7700194120407104,2.166747808456421,0.7934569716453552,100.0,34810.0,1.0
510040.1100743,156157.4375,284805.84375,320971.4375,292899.34375,289344.96875,274093.28125,251638.09375,261395.265625,0.001708984375,0.87353515625,-0.50439453125,-1.6479490995407104,2.716064214706421,1.8005369901657104,100.0,34811.0,1.0
510040.1150417,156290.5625,284476.84375,320342.34375,292024.75,288435.5,273500.53125,251297.640625,260874.734375,-0.025146484375,0.870361328125,-0.502685546875,-1.8615721464157104,2.441406011581421,2.319335699081421,100.0,34812.0,1.0
510040.1175556,156412.515625,283741.71875,318661.6875,290598.1875,283788.40625,272463.5625,250405.984375,259670.859375,-0.039306640625,0.87548828125,-0.502197265625,-2.380370855331421,1.3122557401657104,1.4343260526657104,100.0,34813.0,1.0
510040.1211826,156387.46875,283697.125,318246.03125,290610.59375,282000.625,272487.09375,250246.203125,259498.40625,-0.013671875,0.87548828125,-0.505615234375,-2.746581792831421,0.3662109076976776,1.1291502714157104,100.0,34814.0,1.0
510040.148763,156235.65625,284416.9375,319538.6875,291968.6875,285400.3125,273543.53125,250981.140625,260527.75,-0.009521484375,0.86865234375,-0.4990234375,-2.563476324081421,1.2817381620407104,1.6174315214157104,100.0,34815.0,1.0
510040.1488032,156118.453125,284943.4375,321064.3125,292866.875,289562.75,274279.25,251660.09375,261407.15625,-0.01806640625,0.8671875,-0.493408203125,-2.197265386581421,1.2207030057907104,1.7700194120407104,100.0,34816.0,1.0
510040.1512518,156202.765625,284576.875,320827.03125,291992.5625,288724.65625,273655.0,251343.046875,260886.09375,-0.019287109375,0.86962890625,-0.49755859375,-2.593993902206421,0.6713866591453552,1.6784666776657104,100.0,34817.0,1.0
510040.1536441,156340.71875,283854.5625,319211.71875,290560.34375,284145.03125,272539.84375,250468.75,259685.890625,-0.012451171875,0.871826171875,-0.49658203125,-2.868652105331421,0.6103515028953552,1.7700194120407104,100.0,34818.0,1.0
510040.1562358,156280.984375,283789.90625,318728.75,290551.21875,282332.3125,272510.96875,250279.203125,259491.96875,-0.013671875,0.87060546875,-0.486572265625,-3.112792730331421,0.6408690810203552,2.410888433456421,100.0,34819.0,1.0
510040.1587916,156200.171875,284446.0,320088.4375,291910.5625,285663.1875,273552.46875,251011.078125,260513.34375,-0.020263671875,0.870849609375,-0.48828125,-3.662109136581421,0.2746581733226776,2.624511480331421,100.0,34820.0,1.0
510040.1612937,156180.59375,284950.34375,321441.625,292848.625,289856.1875,274296.5,251708.1875,261417.796875,-0.0185546875,0.875244140625,-0.488525390625,-4.150390148162842,-0.0915527269244194,2.838134527206421,100.0,34821.0,1.0
510040.1637532,156314.15625,284579.75,320942.71875,291989.6875,289099.8125,273679.34375,251379.0,260901.90625,-0.013427734375,0.871826171875,-0.488525390625,-4.302978038787842,-0.3662109076976776,3.143310308456421,100.0,34822.0,1.0
510040.1663522,156483.59375,283851.15625,319443.1875,290557.75,284525.84375,272618.96875,250514.34375,259708.78125,-0.010986328125,0.86474609375,-0.4921875,-4.364013195037842,-0.3967284858226776,3.356933355331421,100.0,34823.0,1.0
510040.1688119,156401.6875,283741.90625,318988.5625,290529.59375,282591.96875,272573.1875,250301.8125,259488.921875,-0.0078125,0.86767578125,-0.498046875,-4.638671398162842,-0.4882812201976776,3.723144292831421,100.0,34824.0,1.0
510040.1688529,156161.90625,284402.1875,320164.71875,291896.4375,285843.40625,273602.96875,251048.375,260501.453125,-0.0068359375,0.870361328125,-0.499267578125,-4.699706554412842,-0.3967284858226776,3.814697027206421,100.0,34825.0,1.0
510040.171375,156070.4375,284908.40625,321540.9375,292856.875,290066.75,274349.25,251753.4375,261404.375,-0.00732421875,0.874267578125,-0.49609375,-4.425048351287842,-0.1525878757238388,3.875732183456421,100.0,34826.0,1.0
510040.1749315,156234.953125,284554.96875,321345.5,292049.4375,289444.1875,273775.0,251460.359375,260925.875,-0.0078125,0.8720703125,-0.497314453125,-4.608153820037842,0.0,3.936767339706421,100.0,34827.0,1.0
510040.2038212,156387.828125,283827.75,319930.625,290642.25,285008.4375,272718.5625,250614.390625,259757.328125,-0.005126953125,0.86474609375,-0.497802734375,-4.547118663787842,-0.1220703050494194,3.967284917831421,100.0,34828.0,1.0
510040.203862,156336.421875,283697.375,319507.375,290593.53125,283102.375,272621.46875,250395.609375,259525.765625,-0.003662109375,0.865478515625,-0.49365234375,-4.333495616912842,-0.2441406100988388,3.997802495956421,100.0,34829.0,1.0
510040.2064114,156175.765625,284308.65625,320783.40625,291946.78125,286333.90625,273565.15625,251088.875,260524.875,-0.001220703125,0.87060546875,-0.490966796875,-4.516601085662842,-0.2746581733226776,3.784179449081421,100.0,34830.0,1.0
510040.2064522,156085.015625,284822.84375,322240.28125,292939.84375,290653.59375,274269.875,251795.28125,261455.15625,-0.00048828125,0.8720703125,-0.4912109375,-4.730224132537842,-0.1220703050494194,3.662109136581421,100.0,34831.0,1.0
510040.2113758,156158.859375,284512.5,321995.5,292147.25,290233.75,273693.625,251521.515625,260997.125,0.001708984375,0.867431640625,-0.49462890625,-4.638671398162842,0.1525878757238388,3.570556402206421,100.0,34832.0,1.0
510040.2136784,156256.140625,283830.875,320575.09375,290723.875,285973.5,272636.125,250691.640625,259813.921875,0.005859375,0.867431640625,-0.49560546875,-4.394530773162842,0.3356933295726776,3.417968511581421,100.0,34833.0,1.0
510040.2163808,156203.296875,283698.46875,320175.875,290671.75,284215.21875,272553.25,250489.9375,259575.375,0.00537109375,0.86962890625,-0.49365234375,-4.333495616912842,0.3356933295726776,3.326415777206421,100.0,34834.0,1.0
510040.2187903,156043.4375,284267.625,321583.59375,292010.1875,287584.34375,273497.65625,251192.84375,260568.953125,0.0068359375,0.8720703125,-0.4912109375,-4.272460460662842,0.3356933295726776,3.082275152206421,100.0,34835.0,1.0
510040.2212582,155941.78125,284760.4375,323182.90625,292984.34375,292060.875,274188.25,251895.671875,261492.984375,0.00537109375,0.87353515625,-0.494384765625,-4.272460460662842,0.4882812201976776,2.990722417831421,100.0,34836.0,1.0
510040.2238678,156044.953125,284465.3125,323001.78125,292209.8125,291872.84375,273629.71875,251662.59375,261061.328125,0.00732421875,0.873291015625,-0.495361328125,-4.272460460662842,0.6713866591453552,2.838134527206421,100.0,34837.0,1.0
510040.2239087,156189.96875,283781.0625,321527.28125,290784.40625,287768.71875,272590.25,250850.515625,259888.75,0.0087890625,0.8740234375,-0.494384765625,-4.089354991912842,1.0070799589157104,2.532958745956421,100.0,34838.0,1.0
510040.2262495,156126.40625,283608.25,321021.21875,290672.75,286028.125,272482.09375,250622.875,259611.859375,0.00634765625,0.875732421875,-0.49462890625,-3.845214605331421,1.2817381620407104,2.136230230331421,100.0,34839.0,1.0
510040.2286429,155933.46875,284136.90625,322353.21875,291963.875,289356.5625,273389.90625,251283.328125,260561.0,0.00537109375,0.874267578125,-0.49462890625,-3.784179449081421,1.4953612089157104,1.7089842557907104,100.0,34840.0,1.0
510040.231406,155845.578125,284628.125,323961.5625,292933.75,293869.84375,274095.0,251986.421875,261475.453125,0.00537109375,0.873291015625,-0.498291015625,-3.845214605331421,1.7395018339157104,1.5869139432907104,100.0,34841.0,1.0
510040.2314469,155936.0625,284380.53125,323775.59375,292160.65625,293766.84375,273551.5625,251755.84375,261046.390625,0.004638671875,0.874755859375,-0.5009765625,-3.601073980331421,2.105712652206421,1.3122557401657104,100.0,34842.0,1.0
510040.2825682,156078.9375,283770.875,322242.96875,290734.59375,289707.5,272511.21875,250942.6875,259877.75,0.003173828125,0.874267578125,-0.498046875,-3.448486089706421,2.288818120956421,0.9765624403953552,100.0,34843.0,1.0
510040.2850202,156074.90625,283699.8125,321647.6875,290639.65625,287930.53125,272428.53125,250742.234375,259624.828125,0.00341796875,0.8740234375,-0.4990234375,-3.417968511581421,2.288818120956421,0.7324218153953552,100.0,34844.0,1.0
510040.2850588,155942.671875,284318.21875,322808.46875,291929.71875,291163.3125,273374.1875,251409.296875,260572.984375,0.0048828125,0.873046875,-0.497314453125,-3.326415777206421,2.227782964706421,0.6408690810203552,100.0,34845.0,1.0
510040.288934,155851.21875,284842.96875,324264.71875,292925.34375,295584.65625,274121.4375,252121.96875,261506.75,0.003662109375,0.87255859375,-0.493896484375,-3.143310308456421,2.288818120956421,0.4882812201976776,100.0,34846.0,1.0
510040.2889755,156004.359375,284563.46875,324028.15625,292193.1875,295403.53125,273610.3125,251900.5,261102.359375,0.003173828125,0.8720703125,-0.4921875,-3.082275152206421,2.044677495956421,0.3356933295726776,100.0,34847.0,1.0
510040.2889841,156193.734375,283891.21875,322443.25,290767.15625,291180.75,272561.46875,251093.875,259927.015625,0.006591796875,0.87109375,-0.4931640625,-2.960204839706421,2.105712652206421,0.1525878757238388,100.0,34848.0,1.0
510040.2889932,156182.828125,283721.0625,321784.75,290657.90625,289206.1875,272487.71875,250886.90625,259662.28125,0.011474609375,0.875244140625,-0.499267578125,-2.593993902206421,2.868652105331421,0.03051757626235485,100.0,34849.0,1.0
510040.2925639,156030.921875,284235.53125,322928.4375,291946.96875,292305.40625,273424.15625,251554.234375,260610.265625,0.0087890625,0.874755859375,-0.500732421875,-2.288818120956421,3.662109136581421,0.0610351525247097,100.0,34850.0,1.0
510040.2926036,155950.28125,284701.59375,324430.40625,292961.03125,296690.8125,274187.6875,252256.34375,261549.046875,0.00048828125,0.87451171875,-0.49755859375,-2.227782964706421,3.845214605331421,0.1525878757238388,100.0,34851.0,1.0
510040.2926126,156055.953125,284387.0625,324191.15625,292239.6875,296512.71875,273739.875,252032.921875,261162.265625,-0.00146484375,0.8759765625,-0.5009765625,-2.288818120956421,3.631591558456421,0.03051757626235485,100.0,34852.0,1.0
510040.2926218,156201.15625,283714.90625,322607.84375,290808.1875,292234.15625,272697.90625,251206.890625,259991.65625,-0.000244140625,0.87255859375,-0.505615234375,-1.8615721464157104,3.570556402206421,-0.1525878757238388,100.0,34853.0,1.0
510040.2949097,156164.3125,283595.90625,321936.3125,290659.9375,290118.6875,272497.09375,250930.4375,259690.625,-0.004150390625,0.871826171875,-0.49169921875,-1.2817381620407104,3.479003667831421,-0.1525878757238388,100.0,34854.0,1.0
510040.2976034,156026.1875,284167.5,323068.09375,291947.59375,293205.5625,273391.4375,251634.25,260647.109375,-0.005126953125,0.87548828125,-0.48974609375,-2.014159917831421,3.295898199081421,0.0,100.0,34855.0,1.0
510040.3023948,155942.140625,284679.59375,324479.5,292974.15625,297671.34375,274145.59375,252462.703125,261608.5,-0.002685546875,0.878173828125,-0.4912109375,-1.6784666776657104,3.356933355331421,0.0610351525247097,100.0,34856.0,1.0
510040.3050322,156052.640625,284381.15625,324033.0,292248.09375,297457.375,273597.53125,252209.234375,261216.71875,-0.00390625,0.8740234375,-0.49169921875,-1.4648436307907104,3.753661870956421,-0.1220703050494194,100.0,34857.0,1.0
510040.3075597,156167.984375,283617.0,322201.21875,290780.75,293030.03125,272481.53125,251337.25,260021.34375,-0.0068359375,0.87255859375,-0.498046875,-1.2207030057907104,3.509521245956421,-0.3051757514476776,100.0,34858.0,1.0
510040.3099508,156130.609375,283407.96875,321236.25,290617.40625,290787.53125,272325.96875,251043.984375,259689.375,-0.00537109375,0.874755859375,-0.49853515625,-1.0681151151657104,3.326415777206421,-0.3967284858226776,100.0,34859.0,1.0
510040.312339,155984.703125,283992.6875,322205.875,291906.71875,293739.5625,273269.21875,251704.609375,260612.953125,-0.003173828125,0.87255859375,-0.499755859375,-0.8544921278953552,3.234863042831421,-0.3356933295726776,100.0,34860.0,1.0
510040.315068,155916.03125,284533.0625,323864.71875,292969.59375,298063.9375,274089.0,252454.828125,261591.515625,-0.001708984375,0.8720703125,-0.501220703125,-0.7019042372703552,3.112792730331421,-0.1831054538488388,100.0,34861.0,1.0
510040.3151076,156032.96875,284197.34375,323698.25,292284.375,297699.84375,273632.125,252233.09375,261237.640625,-0.002197265625,0.867919921875,-0.5,-0.6103515028953552,3.051757574081421,0.0,100.0,34862.0,1.0
510040.3173997,156173.796875,283434.09375,322120.9375,290820.875,293041.5625,272520.78125,251394.015625,260040.921875,-0.001220703125,0.86474609375,-0.50146484375,-0.6408690810203552,2.929687261581421,0.3356933295726776,100.0,34863.0,1.0
510040.323624,156137.9375,283223.78125,321435.8125,290635.71875,290514.5,272342.25,251152.34375,259701.359375,0.00048828125,0.862060546875,-0.501220703125,-0.3356933295726776,2.899169683456421,0.6103515028953552,100.0,34864.0,1.0
510040.3275431,156016.875,283766.0625,322591.84375,291904.0625,293223.25,273317.9375,251808.859375,260630.734375,0.002685546875,0.86279296875,-0.499755859375,0.03051757626235485,2.868652105331421,0.8544921278953552,100.0,34865.0,1.0
510040.3275836,155942.859375,284252.96875,324071.875,292967.71875,297459.34375,274188.78125,252548.265625,261615.015625,0.00390625,0.86279296875,-0.500244140625,0.3662109076976776,2.929687261581421,1.0681151151657104,100.0,34866.0,1.0
510040.3674881,156037.796875,284049.46875,323756.53125,292273.46875,297115.5,273665.75,252320.0,261242.109375,0.004638671875,0.866455078125,-0.49755859375,0.6103515028953552,2.990722417831421,1.4648436307907104,100.0,34867.0,1.0
510040.3700552,156214.375,283453.5625,322017.84375,290799.875,292461.25,272482.625,251435.5,260032.078125,0.00439453125,0.865966796875,-0.501220703125,0.5187987685203552,3.112792730331421,1.8310545682907104,100.0,34868.0,1.0
510040.3700953,156213.21875,283300.0625,321177.96875,290585.65625,289868.78125,272294.5,251127.3125,259680.703125,0.0078125,0.865478515625,-0.501220703125,0.4272460639476776,3.051757574081421,2.136230230331421,100.0,34869.0,1.0
510040.3725825,156084.5625,283844.71875,322245.65625,291818.21875,292445.84375,273269.125,251736.359375,260571.46875,0.0068359375,0.8642578125,-0.503173828125,0.4272460639476776,2.929687261581421,2.380370855331421,100.0,34870.0,1.0
510040.3775523,155970.390625,284440.8125,323687.875,292861.34375,296577.09375,274096.5,252440.34375,261518.8125,0.007080078125,0.86328125,-0.50146484375,0.5187987685203552,2.990722417831421,2.746581792831421,100.0,34871.0,1.0
510040.3800154,156054.609375,284234.09375,323364.75,292207.59375,296253.875,273656.0,252232.65625,261180.765625,0.0087890625,0.863525390625,-0.501953125,0.5798339247703552,2.990722417831421,3.082275152206421,100.0,34872.0,1.0
510040.3825478,156176.03125,283527.0625,321605.5,290742.46875,291635.5625,272606.1875,251375.6875,259993.453125,0.01123046875,0.864013671875,-0.50439453125,0.5798339247703552,3.021239995956421,3.448486089706421,100.0,34873.0,1.0
510040.3849422,156131.234375,283348.875,320749.15625,290524.59375,289058.40625,272480.5625,251074.65625,259637.515625,0.0126953125,0.863037109375,-0.50390625,0.6408690810203552,2.990722417831421,3.479003667831421,100.0,34874.0,1.0
510040.3873783,156002.125,283898.90625,321813.375,291779.6875,291687.6875,273498.625,251702.921875,260545.890625,0.01318359375,0.86279296875,-0.504150390625,0.8239745497703552,3.051757574081421,3.662109136581421,100.0,34875.0,1.0
510040.3900444,155908.703125,284453.9375,323139.71875,292828.34375,295885.15625,274339.59375,252412.265625,261501.828125,0.01416015625,0.861083984375,-0.50390625,0.8850097060203552,3.082275152206421,3.967284917831421,100.0,34876.0,1.0
510040.3923949,156008.5625,284282.8125,322776.0,292195.25,295661.75,273893.625,252229.53125,261185.78125,0.015625,0.863037109375,-0.504638671875,0.9460448622703552,3.204345464706421,4.089354991912842,100.0,34877.0,1.0
510040.3950257,156203.203125,283542.0,320778.65625,290738.0,291176.71875,272855.34375,251396.78125,260000.515625,0.0185546875,0.86328125,-0.505615234375,0.9155272841453552,3.204345464706421,4.058837413787842,100.0,34878.0,1.0
510040.3973872,156223.6875,283251.6875,319899.0,290502.25,288646.6875,272793.3125,251089.40625,259620.984375,0.01806640625,0.861328125,-0.5048828125,0.9765624403953552,3.356933355331421,3.936767339706421,100.0,34879.0,1.0
510040.3999207,156090.828125,283870.75,321124.21875,291742.84375,291327.375,273746.84375,251701.9375,260531.671875,0.018798828125,0.8603515625,-0.50537109375,1.1901854276657104,3.265380620956421,3.936767339706421,100.0,34880.0,1.0
510040.4075447,155981.484375,284476.3125,322730.5,292829.59375,295641.53125,274542.28125,252467.25,261530.53125,0.01806640625,0.8623046875,-0.504638671875,1.1901854276657104,3.234863042831421,3.936767339706421,100.0,34881.0,1.0
510040.4101321,156040.3125,284243.125,322469.78125,292184.25,295496.4375,274043.5,252287.375,261199.546875,0.017578125,0.859130859375,-0.505615234375,1.1596678495407104,3.265380620956421,4.058837413787842,100.0,34882.0,1.0
510040.4101714,156137.765625,283570.78125,320703.84375,290703.59375,290997.09375,272898.09375,251433.359375,260009.1875,0.02099609375,0.858642578125,-0.506591796875,1.3122557401657104,3.326415777206421,4.058837413787842,100.0,34883.0,1.0
510040.4173907,156115.046875,283406.09375,319867.875,290461.65625,288437.84375,272672.34375,251102.734375,259636.453125,0.022216796875,0.86083984375,-0.509765625,1.3122557401657104,3.356933355331421,3.936767339706421,100.0,34884.0,1.0
510040.4200528,156052.28125,283967.3125,320948.53125,291707.53125,291132.28125,273614.34375,251730.1875,260547.0625,0.0224609375,0.85888671875,-0.510986328125,1.2207030057907104,3.356933355331421,3.906249761581421,100.0,34885.0,1.0
510040.4201124,156016.96875,284535.125,322489.90625,292796.59375,295477.46875,274467.8125,252488.359375,261544.21875,0.026123046875,0.859130859375,-0.5126953125,1.4648436307907104,3.387450933456421,3.723144292831421,100.0,34886.0,1.0
510040.4249733,156120.59375,284324.84375,322293.46875,292186.125,295422.40625,274054.75,252343.875,261247.296875,0.028076171875,0.861328125,-0.510009765625,1.5869139432907104,3.417968511581421,3.631591558456421,100.0,34887.0,1.0
510040.4274083,156265.4375,283631.3125,320578.84375,290712.96875,291003.09375,272956.75,251498.796875,260056.21875,0.02587890625,0.8642578125,-0.5107421875,1.6174315214157104,3.479003667831421,3.540038824081421,100.0,34888.0,1.0
510040.4299447,156286.625,283419.5,319835.5,290459.15625,288646.78125,272812.4375,251190.078125,259665.6875,0.027099609375,0.86669921875,-0.51123046875,1.5869139432907104,3.570556402206421,3.509521245956421,100.0,34889.0,1.0
510040.4350856,156231.015625,284103.03125,321307.9375,291782.46875,291843.53125,273909.03125,251890.671875,260622.34375,0.02685546875,0.868408203125,-0.508544921875,1.3427733182907104,3.692626714706421,3.417968511581421,100.0,34890.0,1.0
510040.4351259,156288.234375,285140.40625,323719.625,293135.0,297481.875,275036.53125,252867.359375,261815.828125,0.026611328125,0.87158203125,-0.5068359375,1.0375975370407104,3.692626714706421,3.448486089706421,100.0,34891.0,1.0
510040.4373914,156387.46875,285326.8125,324339.5625,292708.53125,298880.3125,274756.34375,252905.4375,261675.28125,0.02783203125,0.87060546875,-0.505859375,0.9155272841453552,3.662109136581421,3.356933355331421,100.0,34892.0,1.0
510040.4400237,156280.0,284335.03125,322388.0625,291046.375,294247.84375,273380.625,251963.359375,260382.28125,0.020751953125,0.86962890625,-0.504638671875,0.6103515028953552,3.906249761581421,3.417968511581421,100.0,34893.0,1.0
510040.4423824,156152.609375,283900.6875,321339.875,290644.3125,291288.65625,273030.40625,251544.9375,259882.578125,0.017822265625,0.873291015625,-0.505859375,0.3051757514476776,3.814697027206421,3.509521245956421,100.0,34894.0,1.0
510040.4713784,155988.71875,284386.25,322390.9375,291813.9375,293691.03125,273908.03125,252110.171875,260715.5,0.01513671875,0.875,-0.508544921875,-0.2441406100988388,3.723144292831421,3.753661870956421,100.0,34895.0,1.0
510040.4714196,155878.484375,284940.40625,323931.59375,292890.03125,297821.0,274723.96875,252837.578125,261701.75,0.016357421875,0.875732421875,-0.509033203125,-0.5493163466453552,3.692626714706421,3.845214605331421,100.0,34896.0,1.0
510040.4737847,155869.890625,284640.375,323571.28125,292237.71875,297390.875,274220.15625,252620.40625,261375.859375,0.017822265625,0.875,-0.507080078125,-0.7934569716453552,3.662109136581421,3.753661870956421,100.0,34897.0,1.0
510040.4738271,155955.546875,283908.46875,321615.0625,290723.875,292497.28125,273025.15625,251707.203125,260144.453125,0.01806640625,0.874755859375,-0.50634765625,-0.9765624403953552,3.723144292831421,3.601073980331421,100.0,34898.0,1.0
510040.4762413,156023.234375,283834.71875,320818.90625,290490.875,289830.0625,272855.0,251376.84375,259756.78125,0.015380859375,0.87548828125,-0.5078125,-1.3732908964157104,3.723144292831421,3.723144292831421,100.0,34899.0,1.0
510040.4787765,156043.703125,284641.34375,322304.75,291816.0,292809.46875,273916.875,252046.234375,260694.9375,0.015625,0.87548828125,-0.50634765625,-1.7089842557907104,3.417968511581421,3.540038824081421,100.0,34900.0,1.0
510040.4861514,156013.9375,285382.71875,324275.8125,293015.125,297638.0,274888.90625,252880.046875,261773.09375,0.016357421875,0.875244140625,-0.503662109375,-1.8005369901657104,3.173827886581421,3.540038824081421,100.0,34901.0,1.0
510040.488648,155996.3125,285142.125,324097.8125,292414.28125,297724.09375,274428.5625,252730.03125,261495.84375,0.024169921875,0.879150390625,-0.506103515625,-1.9836424589157104,2.929687261581421,3.448486089706421,100.0,34902.0,1.0
510040.4913674,156036.109375,284296.9375,322124.0625,290849.9375,292938.03125,273191.875,251804.390625,260244.40625,0.02197265625,0.880126953125,-0.501708984375,-2.075195074081421,3.082275152206421,3.356933355331421,100.0,34903.0,1.0
510040.4936454,156087.0625,284097.5625,321306.15625,290548.375,290175.09375,272957.625,251446.3125,259818.03125,0.02880859375,0.882080078125,-0.500732421875,-2.197265386581421,2.990722417831421,3.173827886581421,100.0,34904.0,1.0
510040.5013049,156121.40625,284818.375,322787.625,291831.8125,293103.4375,273979.65625,252098.71875,260723.546875,0.0341796875,0.882568359375,-0.500244140625,-2.593993902206421,3.082275152206421,3.356933355331421,100.0,34905.0,1.0
510040.5036441,156104.765625,285551.0625,324839.625,293041.125,298003.75,274955.34375,252942.984375,261803.765625,0.030517578125,0.880615234375,-0.498046875,-2.807616949081421,3.234863042831421,3.265380620956421,100.0,34906.0,1.0
510040.5086057,156064.71875,285258.96875,324752.4375,292440.84375,298172.46875,274499.8125,252795.109375,261532.328125,0.03271484375,0.878662109375,-0.50244140625,-3.051757574081421,3.143310308456421,3.082275152206421,100.0,34907.0,1.0
510040.5162068,156055.953125,284312.25,322737.46875,290824.0,293343.9375,273214.0625,251844.984375,260250.671875,0.03369140625,0.876708984375,-0.49755859375,-3.051757574081421,3.234863042831421,2.899169683456421,100.0,34908.0,1.0
510040.5388184,156015.09375,284003.96875,321740.59375,290449.75,290390.46875,272893.1875,251439.25,259757.953125,0.0390625,0.87744140625,-0.499267578125,-3.204345464706421,3.448486089706421,2.868652105331421,100.0,34909.0,1.0
510040.5388352,156015.0,284687.9375,323040.5625,291701.46875,293113.0,273848.59375,252069.21875,260642.1875,0.040283203125,0.87841796875,-0.49609375,-3.143310308456421,3.784179449081421,2.868652105331421,100.0,34910.0,1.0
510040.5388386,156008.5625,285463.09375,325105.875,292915.875,297895.125,274790.65625,252935.21875,261746.8125,0.0419921875,0.876220703125,-0.49365234375,-3.417968511581421,3.845214605331421,2.990722417831421,100.0,34911.0,1.0
510040.5437458,155952.515625,285130.03125,324979.4375,292321.3125,298013.84375,274339.34375,252793.140625,261487.96875,0.037109375,0.87158203125,-0.4970703125,-3.692626714706421,3.936767339706421,2.838134527206421,100.0,34912.0,1.0
510040.546245,155842.8125,284140.5,322894.9375,290697.25,293163.625,273083.0625,251832.375,260197.921875,0.03515625,0.873046875,-0.491943359375,-3.601073980331421,4.241942882537842,2.807616949081421,100.0,34913.0,1.0
510040.551229,155820.09375,283812.53125,321939.78125,290311.0,290211.84375,272776.59375,251424.421875,259703.140625,0.03173828125,0.87255859375,-0.49462890625,-3.601073980331421,4.333495616912842,2.746581792831421,100.0,34914.0,1.0
510040.558772,155853.453125,284472.09375,323414.65625,291574.3125,292980.6875,273752.90625,252044.359375,260573.15625,0.02880859375,0.875244140625,-0.497314453125,-3.601073980331421,4.425048351287842,2.502441167831421,100.0,34915.0,1.0
510040.5612932,155874.09375,285198.15625,325501.6875,292834.15625,297872.6875,274740.59375,252900.875,261681.546875,0.028564453125,0.875,-0.5009765625,-3.509521245956421,4.486083507537842,2.258300542831421,100.0,34916.0,1.0
510040.5637705,155858.625,284902.40625,325434.625,292289.5,298119.96875,274287.9375,252777.328125,261446.671875,0.025634765625,0.8720703125,-0.497802734375,-3.479003667831421,4.302978038787842,2.014159917831421,100.0,34917.0,1.0
510040.5661339,155853.359375,283982.40625,323385.40625,290683.1875,293309.0,272956.46875,251830.765625,260177.984375,0.02978515625,0.873291015625,-0.491943359375,-3.631591558456421,4.241942882537842,1.8310545682907104,100.0,34918.0,1.0
510040.5677798,155830.828125,283648.65625,322292.40625,290297.59375,290280.15625,272604.40625,251395.359375,259662.46875,0.027099609375,0.86767578125,-0.4912109375,-3.753661870956421,3.936767339706421,1.8920897245407104,100.0,34919.0,1.0
510040.5775674,155866.671875,284282.28125,323631.0,291593.625,292990.15625,273621.3125,252031.21875,260551.703125,0.024169921875,0.87060546875,-0.490478515625,-3.601073980331421,3.967284917831421,1.9531248807907104,100.0,34920.0,1.0
510040.5824167,155877.046875,285016.3125,325650.4375,292869.46875,297852.5625,274602.625,252881.65625,261653.828125,0.02197265625,0.873291015625,-0.49365234375,-3.570556402206421,3.936767339706421,1.7395018339157104,100.0,34921.0,1.0
510040.5900378,155822.0625,284758.375,325537.0,292338.375,298135.71875,274166.5,252756.046875,261427.171875,0.021728515625,0.873779296875,-0.495361328125,-3.509521245956421,3.723144292831421,1.5869139432907104,100.0,34922.0,1.0
510040.5925617,155750.71875,283824.625,323355.1875,290729.6875,293320.09375,272899.875,251811.640625,260166.265625,0.02099609375,0.87353515625,-0.49169921875,-3.540038824081421,3.570556402206421,1.4648436307907104,100.0,34923.0,1.0
510040.5948987,155702.703125,283478.96875,322161.4375,290297.9375,290200.40625,272574.4375,251365.859375,259638.6875,0.018310546875,0.87109375,-0.491455078125,-3.570556402206421,3.448486089706421,1.4038084745407104,100.0,34924.0,1.0
510040.5975253,155729.625,284153.375,323520.78125,291556.71875,292798.84375,273561.40625,251983.390625,260509.5,0.019775390625,0.8681640625,-0.48974609375,-3.601073980331421,3.356933355331421,1.4038084745407104,100.0,34925.0,1.0
510040.6000731,155776.28125,284900.0,325618.875,292822.15625,297621.90625,274520.375,252822.296875,261613.5,0.01904296875,0.870849609375,-0.4912109375,-3.448486089706421,3.204345464706421,1.2512205839157104,100.0,34926.0,1.0
510040.602399,155765.375,284663.875,325530.375,292297.8125,297929.375,274078.96875,252701.953125,261399.375,0.02001953125,0.871337890625,-0.490234375,-3.356933355331421,3.173827886581421,1.0986326932907104,100.0,34927.0,1.0
510040.6133591,155713.703125,283718.21875,323327.125,290660.125,293063.9375,272776.3125,251743.78125,260121.484375,0.01953125,0.8740234375,-0.4912109375,-3.112792730331421,3.082275152206421,0.9765624403953552,100.0,34928.0,1.0
510040.6133986,155763.328125,283359.34375,322153.5625,290205.75,289808.8125,272402.40625,251282.25,259575.109375,0.019287109375,0.8740234375,-0.48974609375,-3.173827886581421,2.960204839706421,0.9460448622703552,100.0,34929.0,1.0
510040.648783,155864.796875,284046.6875,323580.9375,291462.03125,292309.34375,273376.875,251888.171875,260430.921875,0.01904296875,0.870361328125,-0.49072265625,-3.326415777206421,2.685546636581421,1.1596678495407104,100.0,34930.0,1.0
510040.653759,155891.4375,284832.59375,325741.1875,292757.875,297152.34375,274379.21875,252733.953125,261536.171875,0.02099609375,0.868408203125,-0.488525390625,-3.204345464706421,2.655029058456421,1.1596678495407104,100.0,34931.0,1.0
510040.6562539,155813.84375,284628.03125,325674.3125,292269.71875,297486.71875,273984.46875,252621.03125,261342.78125,0.0205078125,0.87060546875,-0.491943359375,-2.960204839706421,2.441406011581421,1.1291502714157104,100.0,34932.0,1.0
510040.6588045,155745.984375,284082.09375,323107.8125,290640.0,292610.1875,272707.3125,251665.28125,260080.078125,0.02294921875,0.87109375,-0.490478515625,-2.746581792831421,2.441406011581421,1.0986326932907104,100.0,34933.0,1.0
510040.6613209,155756.4375,284470.3125,321073.4375,290182.4375,289304.375,272407.6875,251194.109375,259533.53125,0.0244140625,0.872802734375,-0.49169921875,-2.563476324081421,2.532958745956421,0.9155272841453552,100.0,34934.0,1.0
510040.6613594,155856.84375,285453.25,321855.84375,291447.90625,291751.15625,273418.4375,251788.296875,260402.21875,0.020263671875,0.878662109375,-0.492431640625,-2.227782964706421,2.471923589706421,0.7324218153953552,100.0,34935.0,1.0
510040.6636356,155882.140625,286195.875,323792.65625,292790.53125,296629.9375,274302.21875,252640.53125,261559.046875,0.015869140625,0.8798828125,-0.489990234375,-2.593993902206421,2.319335699081421,0.8850097060203552,100.0,34936.0,1.0
510040.666348,155803.203125,285660.3125,324191.15625,292344.125,297073.75,273640.0,252548.171875,261401.609375,0.0224609375,0.876220703125,-0.494384765625,-2.990722417831421,2.014159917831421,1.2512205839157104,100.0,34937.0,1.0
510040.6663897,155761.625,284629.0,322342.65625,290702.6875,292153.0625,272183.5625,251565.234375,260107.984375,0.02783203125,0.871337890625,-0.494140625,-2.685546636581421,1.8005369901657104,1.0681151151657104,100.0,34938.0,1.0
510040.6687776,155755.1875,284094.34375,321245.90625,290232.59375,288726.0,271791.6875,251048.90625,259521.46875,0.0224609375,0.873291015625,-0.48583984375,-2.136230230331421,2.105712652206421,0.5187987685203552,100.0,34939.0,1.0
510040.6715908,155836.453125,284575.1875,322752.84375,291493.0625,291079.71875,272838.90625,251639.34375,260367.609375,0.021484375,0.876708984375,-0.4912109375,-2.227782964706421,1.9531248807907104,0.5798339247703552,100.0,34940.0,1.0
510040.6716295,155884.03125,285218.90625,325049.46875,292820.65625,295881.3125,273887.28125,252504.625,261499.59375,0.02197265625,0.879150390625,-0.490966796875,-2.197265386581421,1.9836424589157104,0.9155272841453552,100.0,34941.0,1.0
510040.6716394,155868.46875,284924.21875,325088.78125,292386.3125,296379.21875,273573.84375,252426.21875,261349.75,0.021240234375,0.876708984375,-0.4921875,-2.105712652206421,1.9531248807907104,1.0986326932907104,100.0,34942.0,1.0
510040.6802097,155828.59375,283886.46875,322900.8125,290775.28125,291605.4375,272319.53125,251495.3125,260100.828125,0.0205078125,0.876220703125,-0.494140625,-1.9836424589157104,1.8920897245407104,0.8239745497703552,100.0,34943.0,1.0
510040.6802483,155782.8125,283393.65625,321660.75,290270.125,288191.59375,271876.09375,251001.875,259507.4375,0.017822265625,0.879150390625,-0.4912109375,-1.8310545682907104,1.8005369901657104,0.6408690810203552,100.0,34944.0,1.0
510040.6802575,155823.859375,284011.03125,323089.46875,291517.1875,290533.875,272799.75,251596.34375,260350.453125,0.016845703125,0.880615234375,-0.490966796875,-1.9836424589157104,1.6174315214157104,0.6713866591453552,100.0,34945.0,1.0
510040.6802665,155889.03125,284798.53125,325379.71875,292855.25,295407.8125,273801.8125,252447.40625,261485.296875,0.01416015625,0.879150390625,-0.49267578125,-2.014159917831421,1.4648436307907104,0.5187987685203552,100.0,34946.0,1.0
510040.6823835,155906.640625,284611.84375,325473.59375,292456.84375,296041.0,273538.53125,252404.5,261370.9375,0.010498046875,0.87548828125,-0.493896484375,-1.9836424589157104,1.1291502714157104,0.03051757626235485,100.0,34947.0,1.0
510040.6850352,155860.953125,283619.875,323246.84375,290847.96875,291298.78125,272263.9375,251478.0625,260127.734375,0.015625,0.87109375,-0.4951171875,-1.7700194120407104,0.9460448622703552,-0.3662109076976776,100.0,34948.0,1.0
510040.6850775,155808.828125,283147.34375,321926.5625,290314.03125,287811.625,271733.65625,250963.34375,259515.125,0.030029296875,0.869873046875,-0.492431640625,-1.5258787870407104,0.8239745497703552,-0.4882812201976776,100.0,34949.0,1.0
510040.6875744,155792.65625,283771.3125,323326.75,291518.96875,290048.5,272596.875,251527.5,260321.296875,0.0390625,0.871337890625,-0.489013671875,-1.5563963651657104,1.0375975370407104,0.0610351525247097,100.0,34950.0,1.0
510040.6900804,155746.34375,284576.78125,325595.28125,292867.3125,294915.0,273580.28125,252388.125,261462.3125,0.0380859375,0.8720703125,-0.491943359375,-1.5869139432907104,1.1291502714157104,0.4272460639476776,100.0,34951.0,1.0
510040.6901218,155676.234375,284414.0625,325615.40625,292490.84375,295625.625,273213.15625,252354.421875,261366.828125,0.032470703125,0.873779296875,-0.49609375,-1.5869139432907104,1.3427733182907104,0.3967284858226776,100.0,34952.0,1.0
510040.6924699,155584.328125,283432.84375,323171.90625,290877.3125,290964.21875,271846.75,251423.515625,260130.234375,0.029541015625,0.872802734375,-0.494140625,-1.6784666776657104,1.3122557401657104,0.3356933295726776,100.0,34953.0,1.0
510040.6950088,155577.0,282941.90625,321379.65625,290313.6875,287507.03125,271272.0625,250908.265625,259505.203125,0.02880859375,0.873291015625,-0.491455078125,-1.4953612089157104,1.3427733182907104,0.4272460639476776,100.0,34954.0,1.0
510040.6975745,155645.125,283523.75,322576.375,291483.40625,289696.40625,272040.6875,251456.515625,260287.6875,0.028076171875,0.870849609375,-0.487060546875,-1.4038084745407104,1.3732908964157104,0.3967284858226776,100.0,34955.0,1.0
510040.7023839,155684.203125,284377.5,324944.84375,292829.59375,294574.1875,272964.0625,252333.328125,261439.34375,0.026123046875,0.866943359375,-0.4921875,-1.4648436307907104,1.3732908964157104,0.2746581733226776,100.0,34956.0,1.0
510040.705004,155614.1875,284212.1875,325036.9375,292444.96875,295338.09375,272522.40625,252293.1875,261332.9375,0.02197265625,0.86767578125,-0.49365234375,-1.2512205839157104,1.4648436307907104,0.0915527269244194,100.0,34957.0,1.0
510040.7149586,155519.515625,283212.09375,322724.34375,290841.53125,290745.78125,271166.625,251370.765625,260089.46875,0.021240234375,0.867431640625,-0.4931640625,-1.2207030057907104,1.2512205839157104,0.03051757626235485,100.0,34958.0,1.0
510040.7149992,155442.890625,282743.9375,321204.78125,290290.6875,287270.625,270695.28125,250870.0,259478.1875,0.0205078125,0.8671875,-0.4912109375,-0.9765624403953552,1.2512205839157104,-0.1831054538488388,100.0,34959.0,1.0
510040.7175356,155445.921875,283346.71875,322301.4375,291442.53125,289405.9375,271591.0625,251412.796875,260253.359375,0.019775390625,0.8671875,-0.49072265625,-0.7324218153953552,1.1901854276657104,-0.3356933295726776,100.0,34960.0,1.0
510040.7200406,155468.640625,284123.5,324432.71875,292786.59375,294298.46875,272659.46875,252280.390625,261396.421875,0.01806640625,0.865234375,-0.493896484375,-0.5187987685203552,1.2512205839157104,-0.4882812201976776,100.0,34961.0,1.0
510040.7225166,155425.453125,283984.8125,324504.4375,292450.59375,295221.6875,272402.59375,252280.390625,261332.140625,0.016357421875,0.866455078125,-0.496826171875,-0.3967284858226776,1.1901854276657104,-0.5187987685203552,100.0,34962.0,1.0
510040.7250763,155392.640625,283067.4375,322147.03125,290867.375,290746.5,271168.96875,251386.59375,260115.75,0.01708984375,0.866943359375,-0.495849609375,-0.3662109076976776,1.0681151151657104,-0.6408690810203552,100.0,34963.0,1.0
510040.725118,155450.21875,282567.28125,320488.53125,290292.84375,287251.3125,270730.34375,250878.3125,259492.40625,0.018310546875,0.871826171875,-0.4990234375,-0.2746581733226776,0.9765624403953552,-0.6713866591453552,100.0,34964.0,1.0
510040.7274593,155549.28125,283094.25,321369.5625,291419.46875,289305.625,271658.8125,251406.0,260245.3125,0.01806640625,0.873291015625,-0.496826171875,-0.2441406100988388,0.7629393935203552,-0.5798339247703552,100.0,34965.0,1.0
510040.7300229,155602.921875,283857.4375,323487.34375,292750.75,294154.15625,272759.78125,252254.109375,261369.78125,0.02294921875,0.871337890625,-0.497314453125,0.03051757626235485,0.7934569716453552,-0.7324218153953552,100.0,34966.0,1.0
510040.7337893,155586.5625,283763.0,323719.4375,292458.1875,295160.96875,272587.59375,252292.28125,261343.40625,0.024169921875,0.87158203125,-0.49951171875,0.1525878757238388,0.7934569716453552,-0.8850097060203552,100.0,34967.0,1.0
510040.7463925,155477.9375,282797.40625,321458.4375,290899.75,290783.4375,271364.59375,251415.203125,260138.015625,0.0244140625,0.8720703125,-0.498291015625,0.03051757626235485,0.8239745497703552,-0.9460448622703552,100.0,34968.0,1.0
510040.7464352,155437.53125,282254.28125,319965.9375,290317.15625,287310.3125,270898.6875,250896.90625,259500.09375,0.025390625,0.871337890625,-0.498291015625,0.2441406100988388,0.7629393935203552,-0.9155272841453552,100.0,34969.0,1.0
510040.7488147,155487.953125,282751.46875,321044.46875,291434.9375,289344.78125,271814.46875,251434.25,260259.703125,0.027099609375,0.872314453125,-0.49755859375,0.5798339247703552,0.7629393935203552,-1.0681151151657104,100.0,34970.0,1.0
510040.7538092,155528.09375,283494.875,322976.375,292752.0625,294184.71875,272861.96875,252274.578125,261375.859375,0.028076171875,0.870849609375,-0.4951171875,0.6713866591453552,0.8544921278953552,-1.1901854276657104,100.0,34971.0,1.0
510040.7562552,155535.15625,283351.1875,322675.96875,292459.4375,295280.9375,272602.6875,252295.15625,261340.984375,0.029296875,0.86865234375,-0.49267578125,0.8850097060203552,0.9765624403953552,-1.3732908964157104,100.0,34972.0,1.0
510040.7588114,155471.859375,282437.0,319978.90625,290927.71875,291042.4375,271372.8125,251439.796875,260168.78125,0.030029296875,0.867919921875,-0.495849609375,0.6713866591453552,1.0375975370407104,-1.3732908964157104,100.0,34973.0,1.0
510040.7588533,155396.390625,281860.53125,317831.53125,290327.90625,287595.78125,270895.65625,250940.453125,259536.75,0.02978515625,0.866455078125,-0.499267578125,0.8544921278953552,1.1291502714157104,-1.3732908964157104,100.0,34974.0,1.0
510040.7650676,155417.671875,282211.4375,318441.21875,291394.6875,289529.21875,271746.4375,251452.75,260267.03125,0.029541015625,0.869384765625,-0.496337890625,1.2207030057907104,1.3122557401657104,-1.4953612089157104,100.0,34975.0,1.0
510040.7962553,155473.828125,282794.90625,320595.28125,292699.78125,294291.03125,272834.78125,252314.109375,261401.15625,0.030029296875,0.87255859375,-0.494384765625,1.2817381620407104,1.2207030057907104,-1.4038084745407104,100.0,34976.0,1.0
510040.7962962,155442.0,282560.75,320542.4375,292437.90625,295498.03125,272745.75,252365.25,261387.84375,0.0302734375,0.8720703125,-0.494140625,1.4648436307907104,1.3122557401657104,-1.4038084745407104,100.0,34977.0,1.0
510040.7988081,155376.28125,281732.40625,317552.0625,290928.0,291512.0,271692.96875,251535.1875,260223.578125,0.027099609375,0.876220703125,-0.49609375,1.7700194120407104,1.4343260526657104,-1.3122557401657104,100.0,34978.0,1.0
510040.7988483,155385.3125,281415.4375,313145.90625,290308.84375,288219.40625,271228.875,250997.140625,259550.078125,0.026123046875,0.880615234375,-0.4970703125,2.014159917831421,1.4648436307907104,-0.9765624403953552,100.0,34979.0,1.0
510040.8011631,155530.421875,282298.0,307566.09375,291342.21875,290139.4375,271947.4375,251426.921875,260208.921875,0.025634765625,0.878173828125,-0.49169921875,1.8310545682907104,1.5258787870407104,-0.6103515028953552,100.0,34980.0,1.0
510040.8037803,155648.96875,283572.03125,308579.625,292659.625,294936.03125,272922.78125,252307.484375,261370.84375,0.01904296875,0.872802734375,-0.492919921875,1.9836424589157104,1.2817381620407104,-0.3051757514476776,100.0,34981.0,1.0
510040.8062706,155664.34375,283632.03125,312274.0,292451.3125,296255.21875,272807.875,252446.515625,261444.515625,0.01611328125,0.87451171875,-0.4951171875,1.9226073026657104,1.5869139432907104,-0.0915527269244194,100.0,34982.0,1.0
510040.8086663,155580.9375,282711.40625,312094.90625,290959.75,292273.03125,271663.84375,251629.78125,260298.328125,0.01416015625,0.87451171875,-0.4931640625,1.7700194120407104,1.4648436307907104,0.2136230319738388,100.0,34983.0,1.0
510040.8136536,155499.75,282206.875,311656.75,290341.75,288879.59375,271194.34375,251109.96875,259645.03125,0.01953125,0.87890625,-0.50244140625,2.105712652206421,1.4343260526657104,0.5493163466453552,100.0,34984.0,1.0
510040.8214351,155542.484375,282734.46875,314255.78125,291344.8125,290566.53125,271974.25,251568.984375,260312.71875,0.01611328125,0.87939453125,-0.4970703125,2.166747808456421,1.7700194120407104,0.5493163466453552,100.0,34985.0,1.0
510040.8214753,155568.5,283529.375,318121.125,292633.15625,295020.5,272951.375,252371.59375,261403.484375,0.013671875,0.8720703125,-0.5009765625,1.9531248807907104,1.4343260526657104,0.6713866591453552,100.0,34986.0,1.0
510040.8214861,155502.96875,283545.84375,319312.65625,292418.3125,295994.34375,272805.28125,252399.75,261399.734375,0.01171875,0.86962890625,-0.4990234375,1.8615721464157104,1.3732908964157104,0.8850097060203552,100.0,34987.0,1.0
510040.8236929,155451.296875,282832.28125,317145.25,290949.8125,291739.71875,271714.875,251546.90625,260241.28125,0.018798828125,0.86962890625,-0.49365234375,1.9226073026657104,1.4038084745407104,1.0070799589157104,100.0,34988.0,1.0
510040.8261352,155435.46875,282461.59375,315540.125,290325.75,288046.3125,271246.75,251011.890625,259572.078125,0.0205078125,0.871826171875,-0.49853515625,2.044677495956421,1.4343260526657104,0.8544921278953552,100.0,34989.0,1.0
510040.8287932,155490.90625,282984.1875,317210.53125,291318.875,289533.15625,272037.09375,251457.578125,260224.03125,0.01953125,0.87353515625,-0.499755859375,2.014159917831421,1.3732908964157104,1.0375975370407104,100.0,34990.0,1.0
510040.8312586,155552.859375,283787.25,320561.59375,292634.6875,294083.15625,273103.28125,252288.984375,261340.8125,0.01806640625,0.873046875,-0.503662109375,1.8310545682907104,1.2817381620407104,1.2817381620407104,100.0,34991.0,1.0
510040.8362685,155548.75,283781.25,321571.78125,292464.46875,295396.46875,273049.71875,252362.296875,261379.875,0.01708984375,0.87353515625,-0.505126953125,1.6784666776657104,1.2512205839157104,1.5869139432907104,100.0,34992.0,1.0
510040.8387989,155489.375,282965.40625,319203.21875,291001.84375,291477.65625,271970.75,251529.375,260229.125,0.0205078125,0.873291015625,-0.502685546875,1.6174315214157104,1.0986326932907104,1.6479490995407104,100.0,34993.0,1.0
510040.8425657,155433.5,282509.53125,317337.21875,290360.53125,287996.53125,271453.625,250978.1875,259539.34375,0.02001953125,0.87158203125,-0.503173828125,1.5258787870407104,1.1291502714157104,1.4953612089157104,100.0,34994.0,1.0
510040.8426139,155466.5,283038.90625,318898.34375,291348.03125,289655.28125,272172.28125,251438.8125,260212.671875,0.021484375,0.87255859375,-0.503173828125,1.4648436307907104,1.1596678495407104,1.4648436307907104,100.0,34995.0,1.0
510040.8736507,155537.21875,283856.0,322191.125,292660.15625,294332.78125,273149.40625,252281.640625,261346.359375,0.021240234375,0.8701171875,-0.5,1.2207030057907104,1.1901854276657104,1.4343260526657104,100.0,34996.0,1.0
510040.8825888,155566.265625,283896.5,323117.375,292508.875,295735.5,273049.71875,252374.8125,261418.140625,0.02294921875,0.870849609375,-0.504150390625,1.1291502714157104,1.0375975370407104,1.4343260526657104,100.0,34997.0,1.0
510040.8826287,155518.890625,283075.1875,320610.21875,291038.875,291803.8125,271948.3125,251546.8125,260280.0,0.021728515625,0.87109375,-0.5048828125,1.0070799589157104,1.1596678495407104,1.2207030057907104,100.0,34998.0,1.0
510040.8849641,155460.234375,282556.625,318542.59375,290342.1875,288172.125,271404.625,250975.140625,259572.96875,0.024169921875,0.87158203125,-0.502685546875,1.0681151151657104,1.0375975370407104,1.0986326932907104,100.0,34999.0,1.0
510040.8875078,155508.515625,283023.0,319933.125,291314.5,289670.125,272159.3125,251422.71875,260228.59375,0.02392578125,0.872802734375,-0.50244140625,0.8544921278953552,0.9460448622703552,1.1596678495407104,100.0,35000.0,1.0
510040.892387,155570.65625,283806.46875,323143.125,292645.3125,294284.59375,273235.4375,252277.0,261366.65625,0.022216796875,0.8740234375,-0.499755859375,0.6713866591453552,1.0986326932907104,1.0986326932907104,100.0,35001.0,1.0
510040.8950351,155504.21875,283834.34375,323955.1875,292478.59375,295665.65625,273195.375,252358.0,261413.234375,0.023193359375,0.871337890625,-0.502685546875,0.5187987685203552,1.0986326932907104,0.9765624403953552,100.0,35002.0,1.0
510040.8975755,155432.25,283007.78125,321329.9375,291002.375,291692.59375,272120.78125,251521.234375,260266.3125,0.02392578125,0.870361328125,-0.50341796875,0.3662109076976776,1.1291502714157104,0.7934569716453552,100.0,35003.0,1.0
510040.8999678,155425.015625,282498.25,319170.78125,290317.96875,287990.875,271595.0625,250958.25,259558.578125,0.0244140625,0.87060546875,-0.50341796875,0.3662109076976776,1.2512205839157104,0.7324218153953552,100.0,35004.0,1.0
510040.9050615,155489.375,282999.65625,320454.5625,291272.125,289406.65625,272341.71875,251391.515625,260191.65625,0.024658203125,0.87060546875,-0.5029296875,0.1220703050494194,1.2512205839157104,0.5493163466453552,100.0,35005.0,1.0
510040.9074059,155573.0625,283860.65625,323614.46875,292615.90625,294007.53125,273405.125,252241.59375,261333.84375,0.0244140625,0.86962890625,-0.50439453125,0.0,1.4038084745407104,0.3967284858226776,100.0,35006.0,1.0
510040.9099,155583.96875,283903.03125,324422.1875,292476.53125,295451.4375,273348.71875,252335.921875,261403.75,0.026123046875,0.868896484375,-0.505126953125,-0.03051757626235485,1.3732908964157104,0.1220703050494194,100.0,35007.0,1.0
510040.9150243,155504.765625,283080.3125,321775.375,291013.03125,291521.5625,272265.53125,251510.6875,260263.71875,0.024658203125,0.87109375,-0.504150390625,0.0610351525247097,1.3732908964157104,0.0915527269244194,100.0,35008.0,1.0
510040.9175996,155441.734375,282569.0625,319562.28125,290309.5625,287802.3125,271708.25,250936.34375,259534.703125,0.023193359375,0.873779296875,-0.504150390625,-0.1220703050494194,1.5869139432907104,-0.0915527269244194,100.0,35009.0,1.0
510040.9176469,155499.65625,283069.3125,320788.3125,291238.25,289185.90625,272389.375,251354.9375,260148.84375,0.02197265625,0.8720703125,-0.504150390625,-0.1525878757238388,1.5563963651657104,-0.1220703050494194,100.0,35010.0,1.0
510040.9200772,155599.078125,283956.40625,323927.3125,292592.5,293827.375,273419.59375,252230.15625,261308.53125,0.024169921875,0.872802734375,-0.50830078125,-0.2746581733226776,1.5563963651657104,-0.3356933295726776,100.0,35011.0,1.0
510040.9224003,155597.65625,284022.125,324745.84375,292473.75,295341.46875,273347.625,252341.640625,261400.0,0.025634765625,0.873291015625,-0.50634765625,-0.3662109076976776,1.5563963651657104,-0.4272460639476776,100.0,35012.0,1.0
510040.9250643,155513.875,283185.875,322080.4375,291013.8125,291454.34375,272228.0,251514.453125,260261.125,0.0234375,0.87255859375,-0.50341796875,-0.5493163466453552,1.5869139432907104,-0.4882812201976776,100.0,35013.0,1.0
510040.9251072,155435.921875,282650.25,319802.4375,290294.375,287698.78125,271636.375,250929.09375,259519.5,0.023681640625,0.871826171875,-0.50341796875,-0.6103515028953552,1.5869139432907104,-0.5798339247703552,100.0,35014.0,1.0
510040.9275667,155471.59375,283143.34375,320972.59375,291231.53125,289030.59375,272323.84375,251349.578125,260136.765625,0.0234375,0.87255859375,-0.50537109375,-0.7629393935203552,1.5563963651657104,-0.6103515028953552,100.0,35015.0,1.0
510040.9325697,155509.046875,284021.21875,324067.5,292590.4375,293621.90625,273366.125,252214.765625,261289.40625,0.022705078125,0.86962890625,-0.50341796875,-0.8239745497703552,1.5869139432907104,-0.7934569716453552,100.0,35016.0,1.0
510040.9326105,155517.71875,284105.34375,324935.0,292510.84375,295171.6875,273322.875,252344.859375,261410.015625,0.02197265625,0.872314453125,-0.505126953125,-0.9460448622703552,1.6784666776657104,-0.8239745497703552,100.0,35017.0,1.0
510040.9350595,155493.578125,283317.3125,322380.9375,291076.78125,291362.4375,272238.53125,251545.5625,260299.75,0.021240234375,0.8720703125,-0.503662109375,-1.0070799589157104,1.6174315214157104,-0.8239745497703552,100.0,35018.0,1.0
510040.9462789,155447.625,282796.875,320137.4375,290343.4375,287621.46875,271651.40625,250957.171875,259548.734375,0.021728515625,0.870849609375,-0.50341796875,-1.1596678495407104,1.6174315214157104,-0.7934569716453552,100.0,35019.0,1.0
510040.9500907,155506.640625,283277.53125,321229.71875,291243.5,288860.5625,272320.0625,251364.59375,260147.859375,0.023193359375,0.870361328125,-0.504150390625,-1.2207030057907104,1.6479490995407104,-0.9460448622703552,100.0,35020.0,1.0
510040.9501332,155584.328125,284128.25,324201.34375,292565.40625,293322.21875,273336.1875,252204.046875,261277.78125,0.0205078125,0.871826171875,-0.502685546875,-1.3427733182907104,1.5869139432907104,-0.9460448622703552,100.0,35021.0,1.0
510040.9712796,155593.8125,284233.90625,325072.15625,292488.0625,294871.03125,273298.0,252326.171875,261391.953125,0.01904296875,0.872314453125,-0.5,-1.2817381620407104,1.6479490995407104,-0.9765624403953552,100.0,35022.0,1.0
510040.9713199,155556.796875,283493.90625,322673.09375,291077.9375,291173.59375,272249.71875,251548.875,260310.03125,0.016845703125,0.872802734375,-0.5,-1.5258787870407104,1.5869139432907104,-0.9460448622703552,100.0,35023.0,1.0
510041.0316757,155473.203125,282962.71875,320481.375,290329.59375,287439.5,271661.40625,250952.796875,259548.296875,0.018310546875,0.872314453125,-0.50439453125,-1.6479490995407104,1.6174315214157104,-0.7934569716453552,100.0,35024.0,1.0
510041.0317178,155465.953125,283391.625,321474.96875,291191.3125,288603.15625,272297.90625,251332.328125,260114.328125,0.016845703125,0.871337890625,-0.5029296875,-1.5869139432907104,1.6479490995407104,-0.6103515028953552,100.0,35025.0,1.0
510041.0317287,155493.40625,284220.9375,324346.90625,292511.03125,293047.3125,273301.59375,252172.21875,261249.890625,0.01513671875,0.87060546875,-0.502197265625,-1.6784666776657104,1.5258787870407104,-0.6408690810203552,100.0,35026.0,1.0
510041.051274,155509.234375,284325.125,325204.84375,292473.125,294686.5625,273295.5,252335.296875,261409.390625,0.01513671875,0.87060546875,-0.499267578125,-1.5563963651657104,1.4343260526657104,-0.6408690810203552,100.0,35027.0,1.0
510041.051316,155452.015625,283531.71875,322800.875,291054.5,291026.6875,272222.96875,251546.1875,260312.8125,0.014892578125,0.871826171875,-0.497802734375,-1.6174315214157104,1.3732908964157104,-0.6713866591453552,100.0,35028.0,1.0
510041.0538044,155380.03125,282961.125,320599.125,290288.75,287298.53125,271607.6875,250933.921875,259536.3125,0.014892578125,0.873046875,-0.4990234375,-1.8005369901657104,1.2817381620407104,-0.3051757514476776,100.0,35029.0,1.0
510041.0586119,155411.859375,283381.40625,321580.03125,291164.21875,288475.46875,272247.3125,251315.875,260097.703125,0.01318359375,0.874755859375,-0.497314453125,-1.9226073026657104,1.2207030057907104,-0.0915527269244194,100.0,35030.0,1.0
510041.0586483,155460.234375,284205.40625,324458.28125,292503.34375,292960.03125,273270.46875,252149.5,261228.421875,0.012939453125,0.874267578125,-0.499267578125,-2.044677495956421,1.0070799589157104,0.0610351525247097,100.0,35031.0,1.0
510041.0586576,155472.75,284342.8125,325394.375,292497.28125,294703.5625,273292.03125,252322.15625,261408.671875,0.013916015625,0.873046875,-0.4990234375,-2.075195074081421,1.0375975370407104,0.0915527269244194,100.0,35032.0,1.0
510041.0586654,155445.03125,283578.21875,323057.90625,291101.4375,291115.03125,272234.0625,251541.0,260323.8125,0.01318359375,0.873046875,-0.496826171875,-2.014159917831421,1.1291502714157104,0.0915527269244194,100.0,35033.0,1.0
510041.0586745,155404.890625,283044.71875,320892.03125,290346.3125,287407.5,271623.78125,250935.171875,259549.1875,0.013427734375,0.873046875,-0.498046875,-2.044677495956421,1.1596678495407104,0.1220703050494194,100.0,35034.0,1.0
510041.061069,155458.625,283479.9375,321787.4375,291220.625,288530.71875,272258.65625,251306.3125,260102.609375,0.01513671875,0.87451171875,-0.497314453125,-2.197265386581421,1.1291502714157104,0.2441406100988388,100.0,35035.0,1.0
510041.0635828,155546.515625,284320.8125,324574.96875,292562.8125,292941.8125,273285.9375,252142.703125,261236.734375,0.01513671875,0.87109375,-0.49462890625,-2.166747808456421,1.0681151151657104,0.1831054538488388,100.0,35036.0,1.0
510041.0661149,155581.203125,284477.375,325458.75,292547.15625,294654.03125,273309.1875,252310.609375,261411.796875,0.01513671875,0.871337890625,-0.494873046875,-2.136230230331421,1.0681151151657104,0.3051757514476776,100.0,35037.0,1.0
510041.0687135,155576.109375,283769.09375,323203.03125,291154.5625,291102.0625,272257.84375,251545.734375,260341.515625,0.014892578125,0.873046875,-0.494873046875,-2.136230230331421,1.0375975370407104,0.2746581733226776,100.0,35038.0,1.0
510041.0712368,155526.390625,283234.6875,321116.1875,290367.78125,287337.5,271610.0,250930.53125,259550.96875,0.013916015625,0.870849609375,-0.49658203125,-2.227782964706421,0.9460448622703552,0.2441406100988388,100.0,35039.0,1.0
510041.0762619,155546.328125,283665.1875,322059.25,291205.875,288413.25,272245.25,251310.6875,260099.65625,0.013916015625,0.8720703125,-0.496826171875,-2.136230230331421,1.0375975370407104,0.3356933295726776,100.0,35040.0,1.0
510041.0787569,155601.046875,284504.0,324841.59375,292557.34375,292883.0625,273321.96875,252176.140625,261258.109375,0.01318359375,0.869384765625,-0.4951171875,-2.105712652206421,1.0375975370407104,0.5187987685203552,100.0,35041.0,1.0
510041.0812236,155558.84375,284631.59375,325764.25,292558.6875,294690.25,273385.53125,252355.5,261443.546875,0.015869140625,0.871337890625,-0.4931640625,-1.9836424589157104,0.9460448622703552,0.5493163466453552,100.0,35042.0,1.0
