Time,FZ,C3,CZ,C4,PZ,PO7,OZ,PO8,AccX,AccY,AccZ,Gyro1,Gyro2,Gyro3,Battery,Counter,Validation
178404.341378,295611.9375,295450.1875,346194.5625,320986.96875,309653.46875,283841.25,289142.8125,298232.09375,-0.097412109375,0.868408203125,-0.4169921875,0.4272460639476776,-0.2441406100988388,0.7934569716453552,100.0,28105.0,1.0
178404.3414582,296476.9375,297784.96875,348144.625,322403.28125,311012.5625,284397.625,289684.0625,298428.96875,-0.0986328125,0.8681640625,-0.412841796875,0.3356933295726776,-0.3051757514476776,0.7629393935203552,100.0,28106.0,1.0
178404.3432222,297179.34375,299825.0625,350498.09375,323470.78125,312465.0625,284657.96875,289967.75,298472.15625,-0.10009765625,0.869873046875,-0.41650390625,0.3662109076976776,-0.3051757514476776,0.7934569716453552,100.0,28107.0,1.0
178404.3470259,296706.5625,298641.84375,349857.9375,322648.4375,311905.03125,284250.53125,289572.125,298276.53125,-0.1025390625,0.872802734375,-0.41455078125,0.2746581733226776,-0.4272460639476776,0.7629393935203552,100.0,28108.0,1.0
178404.3619286,295822.59375,296109.40625,347448.59375,321249.125,310315.8125,283798.15625,289092.375,298103.25,-0.10302734375,0.87109375,-0.41943359375,0.2746581733226776,-0.6103515028953552,0.6408690810203552,100.0,28109.0,1.0
178404.3619774,295610.78125,295448.40625,346267.53125,320975.34375,309664.65625,283835.25,289096.5,298138.125,-0.10009765625,0.869140625,-0.415283203125,0.0610351525247097,-0.7019042372703552,0.4577636420726776,100.0,28110.0,1.0
178404.3619946,296473.46875,297765.75,348193.71875,322385.3125,311007.46875,284389.84375,289647.25,298352.625,-0.09765625,0.867431640625,-0.416015625,-0.03051757626235485,-0.7629393935203552,0.4882812201976776,100.0,28111.0,1.0
178404.3645268,297182.375,299826.40625,350567.625,323473.84375,312471.3125,284657.0,289946.40625,298414.03125,-0.10009765625,0.8662109375,-0.414306640625,-0.1220703050494194,-0.7324218153953552,0.3967284858226776,100.0,28112.0,1.0
178404.367048,296726.5,298680.5625,349969.40625,322675.6875,311936.3125,284260.65625,289574.8125,298220.46875,-0.095703125,0.86669921875,-0.41748046875,0.0915527269244194,-0.7324218153953552,0.3662109076976776,100.0,28113.0,1.0
178404.3695013,295839.9375,296140.15625,347554.34375,321262.96875,310335.9375,283805.75,289108.125,298064.46875,-0.093994140625,0.86669921875,-0.4189453125,0.1831054538488388,-0.6713866591453552,0.3356933295726776,100.0,28114.0,1.0
178404.384458,295632.9375,295456.375,346360.59375,320980.90625,309679.59375,283843.84375,289121.71875,298120.15625,-0.091552734375,0.868408203125,-0.417236328125,0.1220703050494194,-0.7019042372703552,0.3967284858226776,100.0,28115.0,1.0
178404.3845095,296499.46875,297761.09375,348274.71875,322393.4375,311020.0625,284404.40625,289669.5,298344.65625,-0.09033203125,0.869384765625,-0.417236328125,-0.0915527269244194,-0.7019042372703552,0.4882812201976776,100.0,28116.0,1.0
178404.3845238,297226.34375,299853.75,350680.03125,323504.9375,312500.125,284684.4375,289974.375,298401.625,-0.08837890625,0.866455078125,-0.41796875,-0.0915527269244194,-0.6103515028953552,0.5493163466453552,100.0,28117.0,1.0
178404.3870276,296781.75,298744.03125,350122.46875,322719.0625,311987.8125,284284.4375,289602.90625,298224.0625,-0.088623046875,0.86572265625,-0.417236328125,-0.03051757626235485,-0.4882812201976776,0.8239745497703552,100.0,28118.0,1.0
178404.3895503,295896.6875,296205.25,347714.46875,321304.1875,310398.96875,283827.75,289134.03125,298077.96875,-0.088134765625,0.8642578125,-0.4150390625,-0.0610351525247097,-0.4577636420726776,1.0375975370407104,100.0,28119.0,1.0
178404.3932115,295658.6875,295467.71875,346471.1875,320986.25,309703.8125,283847.5,289127.25,298099.6875,-0.091552734375,0.8623046875,-0.415283203125,0.0610351525247097,-0.3051757514476776,1.1291502714157104,100.0,28120.0,1.0
178404.4020023,296501.90625,297728.8125,348336.65625,322370.375,311010.59375,284393.875,289667.71875,298322.65625,-0.089111328125,0.86328125,-0.413818359375,0.0,-0.2441406100988388,1.2207030057907104,100.0,28121.0,1.0
178404.4138819,297235.5625,299853.9375,350755.46875,323494.75,312514.0625,284684.34375,289977.6875,298403.65625,-0.09033203125,0.86474609375,-0.414306640625,0.0,-0.03051757626235485,1.1901854276657104,100.0,28122.0,1.0
178404.4139315,296798.1875,298777.46875,350223.34375,322725.3125,312022.15625,284282.90625,289607.0,298240.40625,-0.0947265625,0.862060546875,-0.416748046875,-0.0610351525247097,0.0,1.1901854276657104,100.0,28123.0,1.0
178404.4157828,295917.71875,296239.65625,347826.15625,321313.84375,310432.03125,283818.8125,289134.5,298114.4375,-0.09375,0.863037109375,-0.41748046875,0.0,0.0,1.3122557401657104,100.0,28124.0,1.0
178404.4182338,295685.6875,295485.25,346575.09375,320995.375,309728.125,283838.375,289128.78125,298190.875,-0.095703125,0.861083984375,-0.415283203125,-0.03051757626235485,-0.03051757626235485,1.1596678495407104,100.0,28125.0,1.0
178404.4207223,296535.96875,297743.21875,348442.96875,322381.8125,311028.75,284386.625,289665.5625,298432.09375,-0.09716796875,0.859375,-0.412841796875,-0.03051757626235485,0.0,1.2207030057907104,100.0,28126.0,1.0
178404.4251116,297289.65625,299900.78125,350920.0,323537.75,312553.125,284677.375,289979.03125,298509.4375,-0.09765625,0.8603515625,-0.412353515625,0.0610351525247097,0.0,1.2207030057907104,100.0,28127.0,1.0
178404.4251593,296877.03125,298866.875,350466.78125,322807.125,312100.8125,284297.125,289619.0625,298347.53125,-0.09814453125,0.8583984375,-0.41259765625,0.0915527269244194,-0.03051757626235485,1.2207030057907104,100.0,28128.0,1.0
178404.4269641,296000.78125,296330.9375,348105.09375,321400.84375,310522.34375,283833.71875,289148.78125,298211.96875,-0.097412109375,0.85888671875,-0.413818359375,0.1525878757238388,0.0,1.2207030057907104,100.0,28129.0,1.0
178404.4407958,295758.84375,295550.25,346852.40625,321067.28125,309806.71875,283841.34375,289136.46875,298266.34375,-0.097900390625,0.85791015625,-0.41162109375,0.1220703050494194,-0.0915527269244194,1.1291502714157104,100.0,28130.0,1.0
178404.4471288,296619.5625,297812.875,348735.15625,322462.5625,311110.28125,284399.5,289681.3125,298512.3125,-0.096923828125,0.85888671875,-0.4111328125,0.1525878757238388,-0.1220703050494194,0.9155272841453552,100.0,28131.0,1.0
178404.4471796,297388.8125,300013.09375,351259.90625,323639.0625,312655.21875,284703.9375,290003.71875,298611.71875,-0.098876953125,0.859130859375,-0.4111328125,0.2746581733226776,-0.0610351525247097,0.9155272841453552,100.0,28132.0,1.0
178404.4494486,296981.28125,299017.4375,350839.0625,322907.53125,312216.25,284320.625,289645.53125,298450.78125,-0.096435546875,0.85986328125,-0.412353515625,0.2136230319738388,-0.1525878757238388,0.8239745497703552,100.0,28133.0,1.0
178404.4587791,296089.46875,296465.15625,348455.75,321482.03125,310621.125,283850.4375,289164.34375,298315.15625,-0.0947265625,0.860107421875,-0.412109375,0.1831054538488388,-0.2441406100988388,0.6713866591453552,100.0,28134.0,1.0
178404.458826,295817.65625,295633.5,347145.21875,321107.9375,309873.875,283846.59375,289127.15625,298347.6875,-0.095703125,0.861083984375,-0.410400390625,0.1525878757238388,-0.3356933295726776,0.7324218153953552,100.0,28135.0,1.0
178404.4613975,296623.5,297830.84375,348930.3125,322434.75,311130.84375,284382.40625,289651.625,298557.375,-0.094482421875,0.86181640625,-0.41162109375,0.0915527269244194,-0.3356933295726776,0.7019042372703552,100.0,28136.0,1.0
178404.4614327,297367.96875,300024.1875,351402.78125,323589.09375,312666.9375,284688.1875,289981.1875,298624.0625,-0.09326171875,0.862548828125,-0.413818359375,-0.0610351525247097,-0.2441406100988388,0.6713866591453552,100.0,28137.0,1.0
178404.4694158,296947.3125,299037.65625,350954.40625,322856.5625,312231.4375,284306.875,289627.03125,298444.34375,-0.091796875,0.86328125,-0.41455078125,-0.03051757626235485,-0.3967284858226776,0.6713866591453552,100.0,28138.0,1.0
178404.4719285,296035.8125,296469.625,348531.125,321410.15625,310623.625,283829.78125,289143.4375,298275.71875,-0.09228515625,0.86376953125,-0.416015625,0.0,-0.4577636420726776,0.7019042372703552,100.0,28139.0,1.0
178404.4756439,295743.90625,295591.46875,347159.4375,321015.78125,309843.65625,283826.9375,289113.03125,298312.75,-0.091796875,0.864990234375,-0.416015625,-0.1831054538488388,-0.5493163466453552,0.7629393935203552,100.0,28140.0,1.0
178404.4819703,296560.375,297779.0625,348911.03125,322354.46875,311079.15625,284364.09375,289643.125,298537.78125,-0.093017578125,0.865234375,-0.414794921875,-0.2136230319738388,-0.7019042372703552,0.8239745497703552,100.0,28141.0,1.0
178404.5076656,297332.9375,300015.40625,351418.625,323548.65625,312636.8125,284682.46875,289980.1875,298616.09375,-0.09375,0.865478515625,-0.416259765625,-0.2746581733226776,-0.6713866591453552,0.9155272841453552,100.0,28142.0,1.0
178404.5077158,296938.1875,299076.90625,351031.84375,322854.6875,312238.3125,284315.625,289635.53125,298453.03125,-0.094482421875,0.863525390625,-0.4150390625,-0.3356933295726776,-0.7629393935203552,0.9460448622703552,100.0,28143.0,1.0
178404.5120111,296044.65625,296521.21875,348641.90625,321420.875,310648.75,283840.4375,289157.03125,298308.53125,-0.094482421875,0.86572265625,-0.4150390625,-0.4882812201976776,-0.7934569716453552,0.9155272841453552,100.0,28144.0,1.0
178404.5145491,295751.78125,295622.5625,347254.03125,321004.6875,309855.09375,283827.28125,289119.28125,298351.09375,-0.093994140625,0.865234375,-0.4150390625,-0.6103515028953552,-0.8239745497703552,0.9765624403953552,100.0,28145.0,1.0
178404.5170226,296551.78125,297778.09375,348968.5,322323.0625,311071.5625,284365.625,289641.875,298572.03125,-0.0947265625,0.866455078125,-0.4130859375,-0.6103515028953552,-0.7629393935203552,1.0070799589157104,100.0,28146.0,1.0
178404.5195237,297323.1875,300029.90625,351470.5625,323522.75,312635.5625,284688.90625,289984.3125,298662.15625,-0.093994140625,0.865966796875,-0.4140625,-0.7934569716453552,-0.9155272841453552,1.0070799589157104,100.0,28147.0,1.0
178404.5220204,296927.65625,299111.3125,351084.9375,322831.0,312244.40625,284318.21875,289641.0625,298498.4375,-0.09423828125,0.8642578125,-0.413818359375,-0.7324218153953552,-1.0070799589157104,1.2207030057907104,100.0,28148.0,1.0
178404.5245495,296028.84375,296545.34375,348674.96875,321395.3125,310650.90625,283846.875,289154.25,298342.59375,-0.09375,0.86572265625,-0.41357421875,-0.7324218153953552,-1.0070799589157104,1.2512205839157104,100.0,28149.0,1.0
178404.5269834,295727.09375,295613.28125,347250.28125,320971.96875,309841.0625,283832.125,289109.375,298381.3125,-0.0927734375,0.865478515625,-0.413330078125,-0.7934569716453552,-1.0070799589157104,1.3122557401657104,100.0,28150.0,1.0
178404.529525,296519.875,297742.15625,348929.25,322285.25,311036.53125,284369.28125,289626.21875,298600.0,-0.093994140625,0.865478515625,-0.414794921875,-0.6713866591453552,-0.9460448622703552,1.4038084745407104,100.0,28151.0,1.0
178404.532021,297313.4375,300028.65625,351466.71875,323523.90625,312625.09375,284706.34375,289989.84375,298707.75,-0.09375,0.864501953125,-0.416259765625,-0.7324218153953552,-1.0375975370407104,1.4038084745407104,100.0,28152.0,1.0
178404.5345532,296941.0625,299158.90625,351134.5625,322867.125,312266.75,284344.78125,289660.21875,298545.1875,-0.0927734375,0.864013671875,-0.415283203125,-0.7019042372703552,-1.0070799589157104,1.4648436307907104,100.0,28153.0,1.0
178404.537693,296039.75,296590.125,348735.6875,321428.5625,310675.40625,283863.6875,289172.03125,298387.03125,-0.09326171875,0.86376953125,-0.4169921875,-0.7629393935203552,-1.0375975370407104,1.6174315214157104,100.0,28154.0,1.0
178404.5377426,295716.90625,295614.53125,347275.6875,320976.25,309837.75,283838.03125,289118.5625,298418.96875,-0.0927734375,0.864990234375,-0.419189453125,-0.9460448622703552,-1.1596678495407104,1.4953612089157104,100.0,28155.0,1.0
178404.5395249,296502.6875,297719.53125,348927.5625,322275.34375,311019.53125,284375.90625,289634.71875,298651.25,-0.09326171875,0.8662109375,-0.414794921875,-0.7629393935203552,-1.1596678495407104,1.5258787870407104,100.0,28156.0,1.0
178404.55137,297301.5625,300024.71875,351475.9375,323520.40625,312617.15625,284717.78125,289990.90625,298751.90625,-0.091552734375,0.866943359375,-0.41455078125,-0.7934569716453552,-1.1596678495407104,1.4648436307907104,100.0,28157.0,1.0
178404.5514279,296939.8125,299188.03125,351174.53125,322880.34375,312285.53125,284365.4375,289662.15625,298585.25,-0.091064453125,0.86865234375,-0.415283203125,-0.7629393935203552,-1.0681151151657104,1.5563963651657104,100.0,28158.0,1.0
178404.5538265,296033.125,296616.15625,348774.65625,321437.40625,310695.0,283880.03125,289160.40625,298424.3125,-0.089111328125,0.87060546875,-0.4189453125,-0.8239745497703552,-1.1596678495407104,1.6784666776657104,100.0,28159.0,1.0
178404.5538753,295688.8125,295593.4375,347265.9375,320961.3125,309822.0,283844.5625,289088.90625,298443.46875,-0.08837890625,0.87158203125,-0.41796875,-0.7934569716453552,-1.0986326932907104,1.6784666776657104,100.0,28160.0,1.0
178404.5620318,296462.46875,297668.84375,348859.53125,322238.21875,310975.0,284377.25,289601.46875,298669.5625,-0.08837890625,0.869873046875,-0.412841796875,-0.8544921278953552,-1.0681151151657104,1.7395018339157104,100.0,28161.0,1.0
178404.566377,297256.40625,299991.1875,351393.84375,323481.78125,312579.3125,284716.34375,289964.8125,298761.65625,-0.089111328125,0.870361328125,-0.41845703125,-0.9155272841453552,-1.0375975370407104,1.7089842557907104,100.0,28162.0,1.0
178404.5664305,296893.6875,299175.96875,351109.34375,322847.375,312258.90625,284362.75,289636.5,298592.6875,-0.08837890625,0.87060546875,-0.417236328125,-1.0375975370407104,-0.9765624403953552,1.8005369901657104,100.0,28163.0,1.0
178404.5769782,295991.90625,296600.6875,348708.5,321400.5625,310663.59375,283884.0625,289140.75,298425.84375,-0.087890625,0.869140625,-0.41357421875,-1.0986326932907104,-0.9765624403953552,1.7395018339157104,100.0,28164.0,1.0
178404.5801207,295641.875,295553.28125,347166.5,320907.0625,309778.21875,283835.53125,289067.78125,298420.3125,-0.08984375,0.869384765625,-0.411376953125,-1.1291502714157104,-0.9155272841453552,1.6479490995407104,100.0,28165.0,1.0
178404.5801702,296393.96875,297589.34375,348708.34375,322156.25,310909.5625,284359.4375,289573.3125,298643.8125,-0.091552734375,0.86962890625,-0.41259765625,-1.1596678495407104,-0.9460448622703552,1.5563963651657104,100.0,28166.0,1.0
178404.5819842,297189.15625,299920.71875,351235.59375,323408.3125,312512.375,284708.5625,289935.40625,298739.65625,-0.090087890625,0.8671875,-0.4150390625,-1.2817381620407104,-0.8850097060203552,1.4343260526657104,100.0,28167.0,1.0
178404.5963746,296854.0625,299154.0625,350989.0,322810.0625,312219.375,284364.1875,289618.375,298582.3125,-0.087646484375,0.865478515625,-0.413330078125,-1.4343260526657104,-0.8850097060203552,1.3122557401657104,100.0,28168.0,1.0
178404.5964268,295959.375,296580.03125,348593.4375,321372.40625,310631.25,283878.15625,289125.71875,298409.46875,-0.0869140625,0.861083984375,-0.413818359375,-1.4953612089157104,-0.8850097060203552,1.1596678495407104,100.0,28169.0,1.0
178404.599414,295595.21875,295489.28125,347017.1875,320855.09375,309728.0625,283827.65625,289042.5,298420.03125,-0.08447265625,0.857421875,-0.4130859375,-1.4038084745407104,-0.8239745497703552,1.0986326932907104,100.0,28170.0,1.0
178404.5994627,296327.71875,297491.375,348503.3125,322081.40625,310830.34375,284339.9375,289544.96875,298634.15625,-0.084716796875,0.8544921875,-0.413818359375,-1.2512205839157104,-0.7324218153953552,1.0070799589157104,100.0,28171.0,1.0
178404.5994743,297143.125,299860.375,351047.21875,323360.46875,312456.21875,284699.8125,289929.5,298734.84375,-0.084228515625,0.855712890625,-0.41650390625,-1.0681151151657104,-0.6408690810203552,0.9460448622703552,100.0,28172.0,1.0
178404.6032819,296822.5,299131.875,350836.21875,322787.90625,312189.34375,284364.09375,289621.40625,298579.4375,-0.085693359375,0.858642578125,-0.419921875,-0.8850097060203552,-0.5493163466453552,0.8239745497703552,100.0,28173.0,1.0
178404.6207769,295934.0625,296564.65625,348461.9375,321363.84375,310612.0,283876.28125,289124.21875,298414.5625,-0.086181640625,0.86181640625,-0.420166015625,-0.7934569716453552,-0.4577636420726776,0.7934569716453552,100.0,28174.0,1.0
178404.6244685,295557.84375,295445.90625,346862.78125,320825.59375,309689.5,283812.09375,289035.59375,298429.25,-0.086181640625,0.863525390625,-0.4169921875,-0.8239745497703552,-0.4577636420726776,0.6713866591453552,100.0,28175.0,1.0
178404.6245216,296276.3125,297422.96875,348309.3125,322029.28125,310765.09375,284332.34375,289533.25,298641.5,-0.084716796875,0.86376953125,-0.415771484375,-0.8239745497703552,-0.4272460639476776,0.5798339247703552,100.0,28176.0,1.0
178404.6245354,297088.125,299805.125,350852.125,323314.78125,312392.5625,284698.75,289921.71875,298745.46875,-0.083740234375,0.859130859375,-0.415283203125,-0.8544921278953552,-0.3662109076976776,0.7019042372703552,100.0,28177.0,1.0
178404.627661,296786.5625,299121.4375,350689.84375,322772.15625,312156.6875,284365.6875,289620.59375,298592.40625,-0.082275390625,0.857421875,-0.417236328125,-0.7934569716453552,-0.2136230319738388,0.7629393935203552,100.0,28178.0,1.0
178404.6277106,295912.0,296568.875,348341.5,321354.1875,310589.03125,283873.15625,289127.53125,298430.75,-0.084716796875,0.85546875,-0.416259765625,-0.6713866591453552,-0.1220703050494194,0.7324218153953552,100.0,28179.0,1.0
178404.6358051,295530.5625,295418.5625,346721.34375,320805.65625,309649.28125,283812.90625,289037.03125,298438.625,-0.0859375,0.857177734375,-0.4140625,-0.3967284858226776,-0.03051757626235485,0.7324218153953552,100.0,28180.0,1.0
178404.6451229,296221.34375,297341.5,348109.03125,321982.96875,310692.46875,284317.25,289523.5,298643.90625,-0.091064453125,0.859375,-0.411865234375,-0.3356933295726776,0.0915527269244194,0.5493163466453552,100.0,28181.0,1.0
178404.6451724,297052.09375,299752.375,350664.65625,323292.0625,312340.53125,284696.25,289923.78125,298758.78125,-0.09521484375,0.85986328125,-0.414794921875,-0.2136230319738388,-0.03051757626235485,0.4272460639476776,100.0,28182.0,1.0
178404.6513805,296776.90625,299119.65625,350549.40625,322770.75,312139.34375,284377.40625,289625.25,298602.15625,-0.09912109375,0.86181640625,-0.41552734375,-0.2441406100988388,-0.0915527269244194,0.3356933295726776,100.0,28183.0,1.0
178404.6514333,295904.5625,296569.65625,348212.5625,321350.96875,310576.6875,283884.0625,289126.25,298434.59375,-0.102783203125,0.86279296875,-0.4150390625,-0.2136230319738388,-0.2441406100988388,0.1525878757238388,100.0,28184.0,1.0
178404.6576957,295518.0625,295393.59375,346567.21875,320782.59375,309620.9375,283810.9375,289029.34375,298440.25,-0.10400390625,0.861083984375,-0.416259765625,-0.2441406100988388,-0.4577636420726776,0.03051757626235485,100.0,28185.0,1.0
178404.6577446,296195.6875,297287.4375,347910.65625,321938.53125,310637.0625,284314.5625,289511.875,298648.28125,-0.102294921875,0.862548828125,-0.415771484375,-0.2441406100988388,-0.7019042372703552,-0.2136230319738388,100.0,28186.0,1.0
178404.6633,297015.28125,299704.71875,350456.78125,323245.125,312280.09375,284693.375,289908.3125,298756.65625,-0.102783203125,0.862548828125,-0.41357421875,-0.2441406100988388,-0.7629393935203552,-0.3967284858226776,100.0,28187.0,1.0
178404.6726542,296748.5625,299107.65625,350376.84375,322747.9375,312101.09375,284382.40625,289623.375,298602.96875,-0.099853515625,0.86328125,-0.41357421875,-0.2136230319738388,-0.9765624403953552,-0.3967284858226776,100.0,28188.0,1.0
178404.6727046,295882.40625,296570.65625,348064.59375,321340.125,310552.28125,283888.90625,289126.1875,298435.9375,-0.097900390625,0.86328125,-0.411865234375,-0.0915527269244194,-1.1291502714157104,-0.4577636420726776,100.0,28189.0,1.0
178404.6763668,295479.15625,295357.5625,346393.21875,320754.15625,309580.53125,283810.46875,289023.625,298443.71875,-0.09521484375,0.86376953125,-0.412353515625,-0.1220703050494194,-1.2512205839157104,-0.4577636420726776,100.0,28190.0,1.0
178404.6764258,296143.28125,297221.4375,347691.3125,321887.84375,310575.1875,284310.28125,289505.0,298663.5625,-0.09423828125,0.8671875,-0.4140625,-0.1220703050494194,-1.3732908964157104,-0.3662109076976776,100.0,28191.0,1.0
178404.6870274,296968.25,299654.5625,350234.6875,323203.03125,312223.75,284691.84375,289908.40625,298784.8125,-0.093994140625,0.86962890625,-0.416015625,-0.0610351525247097,-1.4648436307907104,-0.3051757514476776,100.0,28192.0,1.0
178404.6944603,296719.96875,299093.28125,350192.5625,322735.59375,312068.0,284389.21875,289628.28125,298640.25,-0.090087890625,0.87109375,-0.41455078125,-0.2746581733226776,-1.5258787870407104,-0.1831054538488388,100.0,28193.0,1.0
178404.6945094,295861.65625,296560.1875,347906.09375,321334.3125,310524.125,283898.1875,289123.3125,298466.96875,-0.089111328125,0.872314453125,-0.412353515625,-0.3967284858226776,-1.5563963651657104,0.03051757626235485,100.0,28194.0,1.0
178404.6945209,295451.90625,295322.25,346222.1875,320730.125,309533.5,283804.40625,289008.78125,298455.96875,-0.087646484375,0.872314453125,-0.412109375,-0.4577636420726776,-1.4648436307907104,0.0915527269244194,100.0,28195.0,1.0
178404.6970069,296112.71875,297168.15625,347498.03125,321852.875,310517.6875,284300.875,289490.875,298659.03125,-0.086669921875,0.87060546875,-0.41357421875,-0.4577636420726776,-1.4648436307907104,0.2441406100988388,100.0,28196.0,1.0
178404.7032447,296938.1875,299616.21875,350050.96875,323173.875,312172.4375,284687.03125,289898.46875,298780.0,-0.0859375,0.869384765625,-0.413818359375,-0.4272460639476776,-1.4038084745407104,0.4577636420726776,100.0,28197.0,1.0
178404.715126,296707.53125,299099.96875,350059.0,322733.1875,312045.46875,284386.4375,289626.78125,298634.0625,-0.089111328125,0.869140625,-0.41552734375,-0.5493163466453552,-1.3427733182907104,0.5493163466453552,100.0,28198.0,1.0
178404.7151745,295860.59375,296572.25,347794.40625,321343.28125,310514.125,283892.8125,289125.28125,298467.25,-0.08837890625,0.868408203125,-0.41650390625,-0.5493163466453552,-1.3427733182907104,0.7324218153953552,100.0,28199.0,1.0
178404.7176953,295438.3125,295296.5,346086.46875,320718.84375,309506.3125,283793.5,289001.625,298459.8125,-0.08935546875,0.867431640625,-0.4150390625,-0.6103515028953552,-1.3427733182907104,0.7629393935203552,100.0,28200.0,1.0
178404.7177439,296070.40625,297091.0,347306.4375,321807.46875,310452.59375,284279.4375,289473.0,298662.78125,-0.0908203125,0.865478515625,-0.4130859375,-0.5493163466453552,-1.4038084745407104,0.8239745497703552,100.0,28201.0,1.0
178404.719524,296902.53125,299560.0625,349863.28125,323142.9375,312118.625,284675.40625,289892.9375,298783.90625,-0.091552734375,0.86474609375,-0.413818359375,-0.6103515028953552,-1.3122557401657104,1.0681151151657104,100.0,28202.0,1.0
178404.7282464,296683.84375,299081.1875,349900.46875,322721.28125,312013.8125,284390.375,289631.5,298647.5625,-0.091552734375,0.86669921875,-0.4140625,-0.7324218153953552,-1.3427733182907104,1.1291502714157104,100.0,28203.0,1.0
178404.7326505,295838.125,296557.40625,347641.71875,321332.09375,310485.15625,283896.03125,289129.3125,298483.78125,-0.092529296875,0.867431640625,-0.41357421875,-0.6713866591453552,-1.3427733182907104,1.0681151151657104,100.0,28204.0,1.0
178404.7326986,295400.03125,295251.90625,345894.59375,320686.84375,309459.46875,283795.8125,289002.71875,298474.84375,-0.09326171875,0.8681640625,-0.412841796875,-0.5798339247703552,-1.3732908964157104,0.9765624403953552,100.0,28205.0,1.0
178404.7357165,295992.8125,297002.65625,347024.4375,321722.875,310366.5,284271.5625,289463.34375,298666.96875,-0.095458984375,0.86962890625,-0.412353515625,-0.8239745497703552,-1.4648436307907104,0.9765624403953552,100.0,28206.0,1.0
178404.7444968,296784.34375,299445.71875,349495.375,323024.375,311998.625,284669.875,289884.09375,298785.4375,-0.094970703125,0.86865234375,-0.412109375,-0.8850097060203552,-1.5258787870407104,0.9155272841453552,100.0,28207.0,1.0
178404.7513707,296555.1875,298982.3125,349500.125,322606.59375,311899.125,284387.25,289627.21875,298637.65625,-0.093994140625,0.866455078125,-0.416259765625,-0.9155272841453552,-1.6174315214157104,0.7019042372703552,100.0,28208.0,1.0
178404.7514231,295699.1875,296453.78125,347206.03125,321209.4375,310360.4375,283882.375,289117.40625,298467.15625,-0.0927734375,0.865478515625,-0.415283203125,-0.9765624403953552,-1.5563963651657104,0.6103515028953552,100.0,28209.0,1.0
178404.7532962,295262.90625,295128.15625,345419.9375,320554.6875,309319.8125,283779.8125,288990.71875,298469.90625,-0.09228515625,0.865234375,-0.416259765625,-0.9765624403953552,-1.5563963651657104,0.5187987685203552,100.0,28210.0,1.0
178404.7620501,295855.75,296849.34375,346510.4375,321598.15625,310206.65625,284249.5625,289451.96875,298669.125,-0.0947265625,0.86376953125,-0.413818359375,-1.0681151151657104,-1.5563963651657104,0.4272460639476776,100.0,28211.0,1.0
178404.766374,296685.96875,299336.0,349033.3125,322948.65625,311869.0625,284660.84375,289873.4375,298786.875,-0.092529296875,0.86376953125,-0.410888671875,-1.1596678495407104,-1.6174315214157104,0.3967284858226776,100.0,28212.0,1.0
178404.7664227,296512.09375,298949.5,349152.25,322591.84375,311825.09375,284391.625,289627.3125,298651.96875,-0.0927734375,0.86328125,-0.41162109375,-1.1291502714157104,-1.6479490995407104,0.3051757514476776,100.0,28213.0,1.0
178404.7682739,295696.15625,296462.8125,346947.90625,321233.5625,310317.40625,283892.46875,289125.0,298472.5,-0.0927734375,0.864501953125,-0.413330078125,-1.1291502714157104,-1.5563963651657104,0.1831054538488388,100.0,28214.0,1.0
178404.7795273,295262.90625,295123.59375,345193.28125,320576.59375,309273.3125,283775.0,288985.625,298452.75,-0.094970703125,0.864501953125,-0.4140625,-1.1291502714157104,-1.5258787870407104,0.1831054538488388,100.0,28215.0,1.0
178404.7826933,295855.84375,296827.0625,346287.375,321604.15625,310153.1875,284248.125,289443.9375,298653.375,-0.093505859375,0.863037109375,-0.41064453125,-1.0375975370407104,-1.6174315214157104,0.0610351525247097,100.0,28216.0,1.0
178404.7827417,296701.375,299339.59375,348847.53125,322968.875,311838.9375,284666.8125,289876.9375,298780.4375,-0.09228515625,0.861328125,-0.411865234375,-0.9765624403953552,-1.6174315214157104,-0.03051757626235485,100.0,28217.0,1.0
178404.7882822,296553.40625,298998.84375,349031.28125,322639.9375,311827.6875,284402.09375,289631.3125,298645.59375,-0.092041015625,0.859619140625,-0.41259765625,-0.9155272841453552,-1.6479490995407104,-0.0610351525247097,100.0,28218.0,1.0
178404.7926581,295759.8125,296532.46875,346889.78125,321294.28125,310345.84375,283905.4375,289127.0625,298470.5625,-0.092041015625,0.862060546875,-0.415283203125,-0.9155272841453552,-1.5258787870407104,-0.1220703050494194,100.0,28219.0,1.0
178404.7927102,295325.125,295166.96875,345152.625,320628.0,309298.28125,283782.21875,288981.53125,298456.25,-0.091796875,0.86083984375,-0.412841796875,-0.9155272841453552,-1.4648436307907104,-0.03051757626235485,100.0,28220.0,1.0
178404.7957954,295907.15625,296841.09375,346237.375,321641.25,310163.375,284247.9375,289432.84375,298661.78125,-0.09033203125,0.8583984375,-0.415283203125,-0.7629393935203552,-1.4038084745407104,-0.0610351525247097,100.0,28221.0,1.0
178404.8044946,296767.0,299386.96875,348838.875,323023.84375,311867.90625,284677.28125,289875.59375,298802.25,-0.091064453125,0.861572265625,-0.41259765625,-0.7934569716453552,-1.4953612089157104,-0.03051757626235485,100.0,28222.0,1.0
178404.8087109,296630.1875,299084.0625,349087.59375,322717.375,311883.75,284416.9375,289637.6875,298662.9375,-0.090087890625,0.862060546875,-0.41357421875,-0.7629393935203552,-1.4038084745407104,-0.03051757626235485,100.0,28223.0,1.0
178404.8087602,295842.53125,296629.84375,346993.0625,321384.75,310415.5,283913.9375,289130.8125,298494.5,-0.093017578125,0.862060546875,-0.415283203125,-0.7324218153953552,-1.4343260526657104,0.0610351525247097,100.0,28224.0,1.0
178404.8157757,295406.75,295249.21875,345265.4375,320710.4375,309362.03125,283786.78125,288979.5625,298481.28125,-0.09228515625,0.866455078125,-0.414794921875,-0.7934569716453552,-1.3122557401657104,0.1525878757238388,100.0,28225.0,1.0
178404.8182263,295966.34375,296883.84375,346313.375,321694.1875,310193.78125,284238.28125,289422.90625,298676.4375,-0.09326171875,0.863037109375,-0.41064453125,-0.7019042372703552,-1.2512205839157104,0.2746581733226776,100.0,28226.0,1.0
178404.822032,296821.15625,299432.125,348917.71875,323076.15625,311898.59375,284660.75,289870.75,298815.03125,-0.095703125,0.864501953125,-0.41162109375,-0.7019042372703552,-1.1901854276657104,0.3662109076976776,100.0,28227.0,1.0
178404.8369313,296709.9375,299183.3125,349225.71875,322798.375,311952.21875,284416.21875,289645.90625,298685.46875,-0.0947265625,0.86572265625,-0.41064453125,-0.8239745497703552,-1.3427733182907104,0.4272460639476776,100.0,28228.0,1.0
178404.8369808,295930.5,296741.9375,347163.46875,321467.09375,310498.375,283916.96875,289135.75,298513.5625,-0.09619140625,0.8662109375,-0.4072265625,-0.9460448622703552,-1.3732908964157104,0.4577636420726776,100.0,28229.0,1.0
178404.8369935,295478.90625,295320.28125,345418.0625,320769.28125,309428.28125,283778.5625,288978.84375,298496.03125,-0.095458984375,0.867431640625,-0.4033203125,-0.8239745497703552,-1.3732908964157104,0.6103515028953552,100.0,28230.0,1.0
178404.8395239,296025.0,296916.84375,346426.9375,321728.15625,310235.625,284233.125,289414.34375,298678.875,-0.095703125,0.8671875,-0.41064453125,-0.9765624403953552,-1.3122557401657104,0.5187987685203552,100.0,28231.0,1.0
178404.8420502,296874.28125,299470.375,349028.5,323105.03125,311936.59375,284659.21875,289855.5625,298816.09375,-0.097900390625,0.86767578125,-0.40966796875,-1.0070799589157104,-1.3427733182907104,0.5187987685203552,100.0,28232.0,1.0
178404.8569616,296767.96875,299257.0625,349375.3125,322845.65625,312010.6875,284422.28125,289640.0,298693.4375,-0.096435546875,0.866455078125,-0.408203125,-0.9155272841453552,-1.4038084745407104,0.4882812201976776,100.0,28233.0,1.0
178404.8570179,295989.15625,296821.25,347331.1875,321521.90625,310566.59375,283925.1875,289133.875,298515.34375,-0.0947265625,0.86767578125,-0.408203125,-0.8239745497703552,-1.3732908964157104,0.6103515028953552,100.0,28234.0,1.0
178404.8570304,295525.75,295372.5,345569.96875,320806.46875,309485.5625,283782.3125,288971.78125,298493.25,-0.096923828125,0.866943359375,-0.406005859375,-0.9765624403953552,-1.3427733182907104,0.4882812201976776,100.0,28235.0,1.0
178404.8600736,296054.3125,296933.1875,346540.65625,321733.34375,310271.1875,284229.53125,289406.65625,298689.59375,-0.0966796875,0.867431640625,-0.40771484375,-1.0375975370407104,-1.4343260526657104,0.5493163466453552,100.0,28236.0,1.0
178404.8601229,296910.21875,299502.125,349145.25,323120.78125,311979.9375,284672.8125,289861.375,298834.78125,-0.097412109375,0.865478515625,-0.4091796875,-1.1291502714157104,-1.4038084745407104,0.5187987685203552,100.0,28237.0,1.0
178404.8620225,296817.40625,299323.21875,349527.9375,322886.875,312081.0625,284446.34375,289652.4375,298701.21875,-0.099853515625,0.864501953125,-0.41015625,-1.0986326932907104,-1.5258787870407104,0.4882812201976776,100.0,28238.0,1.0
178404.8682824,296043.5,296891.96875,347500.25,321564.625,310644.8125,283947.90625,289150.3125,298526.15625,-0.095458984375,0.8642578125,-0.409423828125,-1.0070799589157104,-1.4648436307907104,0.4577636420726776,100.0,28239.0,1.0
178404.8769742,295568.65625,295410.15625,345718.28125,320829.625,309545.84375,283796.34375,288979.90625,298502.46875,-0.09375,0.86376953125,-0.408447265625,-0.9765624403953552,-1.5258787870407104,0.4882812201976776,100.0,28240.0,1.0
178404.8801216,296078.09375,296934.09375,346646.78125,321735.3125,310302.65625,284228.625,289401.5625,298682.625,-0.092529296875,0.865478515625,-0.412353515625,-1.0070799589157104,-1.4648436307907104,0.6103515028953552,100.0,28241.0,1.0
178404.880178,296934.8125,299512.9375,349252.28125,323131.21875,312014.09375,284668.6875,289862.8125,298816.1875,-0.091796875,0.865966796875,-0.410888671875,-0.9765624403953552,-1.4648436307907104,0.6103515028953552,100.0,28242.0,1.0
178404.8857735,296862.28125,299385.8125,349683.5,322923.1875,312149.5625,284446.15625,289675.3125,298708.1875,-0.09033203125,0.865478515625,-0.41259765625,-0.9155272841453552,-1.4343260526657104,0.5798339247703552,100.0,28243.0,1.0
178404.8894959,296087.21875,296964.3125,347668.34375,321594.78125,310716.4375,283942.1875,289162.84375,298536.875,-0.089599609375,0.86572265625,-0.41259765625,-0.8239745497703552,-1.3122557401657104,0.6713866591453552,100.0,28244.0,1.0
178404.8932404,295587.0,295431.5,345840.875,320830.53125,309575.15625,283779.1875,288970.875,298489.3125,-0.09033203125,0.8671875,-0.41162109375,-0.8239745497703552,-1.2207030057907104,0.7019042372703552,100.0,28245.0,1.0
178404.9075977,296086.25,296919.78125,346729.75,321721.375,310305.53125,284216.65625,289386.96875,298671.0,-0.089111328125,0.86669921875,-0.411376953125,-0.8239745497703552,-1.2207030057907104,0.7019042372703552,100.0,28246.0,1.0
178404.9076455,296956.8125,299522.40625,349359.21875,323137.75,312039.3125,284674.25,289856.625,298823.25,-0.08935546875,0.86669921875,-0.410400390625,-0.7934569716453552,-1.0681151151657104,0.7629393935203552,100.0,28247.0,1.0
178404.9093536,296882.9375,299417.8125,349813.65625,322942.3125,312184.6875,284454.46875,289659.65625,298705.25,-0.09130859375,0.865234375,-0.4130859375,-0.7629393935203552,-1.0375975370407104,0.7934569716453552,100.0,28248.0,1.0
178404.9163956,296113.5,297009.0,347820.25,321626.34375,310764.71875,283951.125,289149.5,298530.1875,-0.0908203125,0.868408203125,-0.412109375,-0.7324218153953552,-0.9155272841453552,0.7934569716453552,100.0,28249.0,1.0
178404.9164435,295615.78125,295468.71875,345990.625,320859.5625,309624.78125,283789.21875,288965.6875,298499.15625,-0.091064453125,0.865966796875,-0.41015625,-0.7324218153953552,-0.7629393935203552,0.8850097060203552,100.0,28250.0,1.0
178404.9182413,296105.90625,296933.0,346857.0625,321737.0,310343.78125,284223.0,289380.375,298681.71875,-0.0947265625,0.866455078125,-0.409423828125,-0.6713866591453552,-0.7324218153953552,1.0070799589157104,100.0,28251.0,1.0
178404.9208009,296963.9375,299527.96875,349467.40625,323146.4375,312060.125,284671.5625,289847.15625,298828.96875,-0.0947265625,0.863525390625,-0.409423828125,-0.6408690810203552,-0.6103515028953552,0.8850097060203552,100.0,28252.0,1.0
178404.9245485,296917.375,299482.09375,349979.34375,322983.96875,312250.125,284468.96875,289672.625,298727.78125,-0.095703125,0.864501953125,-0.40771484375,-0.5798339247703552,-0.5798339247703552,0.8239745497703552,100.0,28253.0,1.0
178404.9307147,296152.5,297083.75,348002.65625,321674.15625,310840.625,283970.25,289178.46875,298556.1875,-0.093017578125,0.864990234375,-0.40625,-0.5187987685203552,-0.5493163466453552,0.8850097060203552,100.0,28254.0,1.0
178404.9400931,295643.21875,295504.5625,346152.1875,320888.46875,309683.34375,283794.3125,288995.375,298514.96875,-0.092041015625,0.862060546875,-0.408203125,-0.5493163466453552,-0.5493163466453552,0.8544921278953552,100.0,28255.0,1.0
178404.9401431,296120.03125,296926.3125,346976.78125,321741.5,310368.75,284215.9375,289410.21875,298696.75,-0.0927734375,0.865234375,-0.408203125,-0.5493163466453552,-0.3967284858226776,0.7019042372703552,100.0,28256.0,1.0
178404.9419745,296990.6875,299544.15625,349602.59375,323163.40625,312097.96875,284676.40625,289891.15625,298856.4375,-0.090087890625,0.866455078125,-0.40771484375,-0.5187987685203552,-0.4882812201976776,0.5798339247703552,100.0,28257.0,1.0
178404.9457742,296952.15625,299524.3125,350132.59375,323008.03125,312296.875,284477.90625,289711.78125,298740.5625,-0.09228515625,0.865966796875,-0.4072265625,-0.4577636420726776,-0.3967284858226776,0.7019042372703552,100.0,28258.0,1.0
178404.9526656,296186.8125,297130.34375,348155.78125,321693.5625,310885.6875,283974.625,289193.84375,298555.46875,-0.093017578125,0.86474609375,-0.40771484375,-0.3662109076976776,-0.3051757514476776,0.5798339247703552,100.0,28259.0,1.0
178404.9527157,295673.90625,295533.71875,346290.125,320895.4375,309716.875,283798.78125,288998.3125,298516.40625,-0.092041015625,0.865234375,-0.405517578125,-0.3051757514476776,-0.0915527269244194,0.5798339247703552,100.0,28260.0,1.0
178404.9607752,296141.3125,296925.40625,347085.78125,321734.6875,310380.71875,284211.75,289403.15625,298699.96875,-0.093017578125,0.865478515625,-0.41015625,-0.3051757514476776,-0.1525878757238388,0.6713866591453552,100.0,28261.0,1.0
178404.9638752,297028.21875,299568.65625,349740.53125,323181.28125,312125.0625,284681.75,289886.125,298857.9375,-0.093505859375,0.868896484375,-0.408935546875,-0.2441406100988388,-0.1525878757238388,0.7019042372703552,100.0,28262.0,1.0
178404.9639237,297005.53125,299591.1875,350325.96875,323059.25,312356.625,284489.875,289723.6875,298754.5,-0.09326171875,0.866455078125,-0.40869140625,-0.2746581733226776,-0.0915527269244194,0.6103515028953552,100.0,28263.0,1.0
178404.9657996,296221.15625,297187.90625,348338.71875,321727.34375,310939.5,283984.90625,289209.875,298568.90625,-0.09228515625,0.867919921875,-0.408203125,-0.3662109076976776,-0.2136230319738388,0.6408690810203552,100.0,28264.0,1.0
178404.977002,295681.75,295553.375,346417.90625,320896.5,309744.40625,283799.03125,289006.375,298530.625,-0.09228515625,0.86669921875,-0.406494140625,-0.4577636420726776,-0.1220703050494194,0.6408690810203552,100.0,28265.0,1.0
178404.980122,296124.96875,296900.75,347146.65625,321706.09375,310385.0,284209.34375,289405.5625,298708.71875,-0.09130859375,0.866943359375,-0.40966796875,-0.3967284858226776,-0.0915527269244194,0.5493163466453552,100.0,28266.0,1.0
178404.980172,296991.03125,299527.875,349738.3125,323129.71875,312111.625,284677.65625,289888.1875,298861.875,-0.092041015625,0.8681640625,-0.40576171875,-0.3967284858226776,-0.0610351525247097,0.5798339247703552,100.0,28267.0,1.0
178404.9882244,296942.40625,299552.625,350276.875,322984.875,312330.40625,284471.8125,289713.84375,298747.96875,-0.092529296875,0.868896484375,-0.408447265625,-0.4577636420726776,-0.03051757626235485,0.7019042372703552,100.0,28268.0,1.0
178404.9907994,296161.625,297162.34375,348284.375,321660.75,310924.59375,283964.0,289207.1875,298561.125,-0.092529296875,0.867431640625,-0.407958984375,-0.3662109076976776,-0.0610351525247097,0.7934569716453552,100.0,28269.0,1.0
178404.9945044,295628.125,295508.21875,346357.03125,320835.0,309724.90625,283778.375,288998.6875,298511.6875,-0.0947265625,0.8671875,-0.40771484375,-0.3967284858226776,-0.03051757626235485,0.7019042372703552,100.0,28270.0,1.0
178405.0038246,296078.71875,296835.5625,347070.3125,321644.9375,310340.5,284190.03125,289387.96875,298671.25,-0.0947265625,0.865478515625,-0.4091796875,-0.3662109076976776,-0.0915527269244194,0.7934569716453552,100.0,28271.0,1.0
178405.003873,296979.96875,299501.40625,349719.4375,323111.5625,312090.8125,284676.125,289881.84375,298821.125,-0.091796875,0.86474609375,-0.407470703125,-0.2441406100988388,0.03051757626235485,0.7324218153953552,100.0,28272.0,1.0
178405.0058021,296991.21875,299607.1875,350379.96875,323044.5,312377.09375,284503.3125,289735.84375,298718.375,-0.09326171875,0.864990234375,-0.406494140625,-0.2746581733226776,-0.03051757626235485,0.8239745497703552,100.0,28273.0,1.0
178405.009572,296222.0625,297230.90625,348442.78125,321732.53125,310981.53125,283979.1875,289213.34375,298515.53125,-0.0927734375,0.864013671875,-0.409912109375,-0.2136230319738388,-0.03051757626235485,0.7019042372703552,100.0,28274.0,1.0
178405.0201445,295693.75,295566.875,346539.75,320901.40625,309782.40625,283787.78125,289000.5625,298459.625,-0.093505859375,0.8662109375,-0.40869140625,-0.1831054538488388,-0.1525878757238388,0.7324218153953552,100.0,28275.0,1.0
178405.0201934,296139.53125,296867.9375,347246.25,321700.34375,310388.78125,284199.84375,289395.75,298636.5,-0.093505859375,0.865966796875,-0.408203125,-0.1831054538488388,-0.1831054538488388,0.7324218153953552,100.0,28276.0,1.0
178405.0220302,297034.5,299533.875,349895.3125,323166.71875,312137.03125,284680.15625,289894.28125,298797.875,-0.093017578125,0.863525390625,-0.408935546875,-0.1525878757238388,-0.1525878757238388,0.7019042372703552,100.0,28277.0,1.0
178405.0257548,297044.6875,299669.5,350572.71875,323099.65625,312433.59375,284500.4375,289745.0625,298686.65625,-0.093017578125,0.864013671875,-0.41259765625,-0.0610351525247097,-0.1831054538488388,0.7019042372703552,100.0,28278.0,1.0
178405.0326935,296286.6875,297315.40625,348658.09375,321787.625,311061.46875,283984.5625,289237.21875,298523.9375,-0.0927734375,0.86376953125,-0.412353515625,-0.1220703050494194,-0.2746581733226776,0.7629393935203552,100.0,28279.0,1.0
178405.0327461,295744.15625,295615.96875,346732.09375,320932.625,309841.3125,283783.75,289015.3125,298485.65625,-0.0947265625,0.86181640625,-0.410888671875,-0.03051757626235485,-0.3051757514476776,0.7019042372703552,100.0,28280.0,1.0
178405.0383051,296179.59375,296886.15625,347417.46875,321709.46875,310428.0,284183.03125,289398.96875,298651.78125,-0.09423828125,0.861328125,-0.410400390625,0.0,-0.3051757514476776,0.5187987685203552,100.0,28281.0,1.0
178405.0476846,297076.25,299561.5,350072.21875,323174.84375,312175.9375,284667.375,289898.28125,298811.90625,-0.094970703125,0.862060546875,-0.4130859375,0.03051757626235485,-0.4577636420726776,0.3662109076976776,100.0,28282.0,1.0
178405.0477363,297087.15625,299728.3125,350780.59375,323122.03125,312492.6875,284497.21875,289753.1875,298704.0625,-0.094970703125,0.8623046875,-0.41162109375,0.1220703050494194,-0.4577636420726776,0.3967284858226776,100.0,28283.0,1.0
178405.0495528,296323.875,297376.75,348867.65625,321812.375,311126.90625,283998.0625,289248.75,298512.46875,-0.094482421875,0.865234375,-0.41259765625,0.0610351525247097,-0.4882812201976776,0.3967284858226776,100.0,28284.0,1.0
178405.0557988,295769.65625,295648.59375,346905.625,320939.6875,309888.90625,283790.53125,289022.5625,298455.25,-0.0927734375,0.865966796875,-0.410400390625,0.1220703050494194,-0.6408690810203552,0.3356933295726776,100.0,28285.0,1.0
178405.0600972,296194.875,296881.59375,347538.875,321696.5,310445.71875,284184.28125,289398.5,298627.46875,-0.093505859375,0.864990234375,-0.40869140625,0.1525878757238388,-0.6713866591453552,0.3356933295726776,100.0,28286.0,1.0
178405.0601439,297094.125,299565.59375,350195.78125,323171.71875,312199.53125,284668.625,289897.9375,298801.34375,-0.093505859375,0.865966796875,-0.40966796875,0.0610351525247097,-0.7629393935203552,0.3051757514476776,100.0,28287.0,1.0
178405.0632995,297109.59375,299763.1875,350921.40625,323125.59375,312529.4375,284505.90625,289759.90625,298708.375,-0.091796875,0.864501953125,-0.4091796875,0.1220703050494194,-0.7019042372703552,0.3967284858226776,100.0,28288.0,1.0
178405.0769882,296321.125,297400.625,348979.40625,321791.5625,311145.25,283991.53125,289244.5625,298511.6875,-0.093017578125,0.86572265625,-0.41162109375,0.1831054538488388,-0.7934569716453552,0.4272460639476776,100.0,28289.0,1.0
178405.0801191,295741.65625,295629.71875,346970.71875,320896.6875,309884.25,283775.4375,289014.59375,298458.03125,-0.092529296875,0.866943359375,-0.409912109375,0.1831054538488388,-0.8544921278953552,0.4272460639476776,100.0,28290.0,1.0
178405.0801726,296150.625,296819.46875,347539.78125,321637.15625,310410.75,284174.09375,289389.125,298636.40625,-0.093505859375,0.86572265625,-0.408447265625,0.2136230319738388,-0.8239745497703552,0.4577636420726776,100.0,28291.0,1.0
178405.0820102,297059.53125,299523.03125,350187.5625,323119.25,312172.78125,284663.59375,289894.0,298798.40625,-0.093994140625,0.8681640625,-0.410888671875,0.1831054538488388,-0.8239745497703552,0.3662109076976776,100.0,28292.0,1.0
178405.0844424,297080.09375,299753.71875,350929.65625,323090.8125,312521.03125,284500.0,289763.1875,298687.53125,-0.094482421875,0.86669921875,-0.409912109375,0.2441406100988388,-0.8544921278953552,0.3356933295726776,100.0,28293.0,1.0
178405.0931871,296301.34375,297403.46875,348996.59375,321772.0625,311149.71875,283991.53125,289248.75,298506.5625,-0.093017578125,0.870361328125,-0.410400390625,0.0915527269244194,-0.9460448622703552,0.5187987685203552,100.0,28294.0,1.0
178405.0962487,295728.25,295621.15625,346973.125,320876.21875,309884.96875,283779.28125,289013.53125,298455.15625,-0.092041015625,0.867431640625,-0.410400390625,0.1525878757238388,-1.0375975370407104,0.5798339247703552,100.0,28295.0,1.0
178405.096285,296124.40625,296775.125,347506.0625,321599.25,310381.78125,284158.90625,289377.15625,298611.28125,-0.093505859375,0.8671875,-0.411865234375,0.1831054538488388,-1.0681151151657104,0.7019042372703552,100.0,28296.0,1.0
178405.1125088,297039.78125,299482.375,350153.40625,323095.28125,312135.875,284659.84375,289891.5,298780.0625,-0.091796875,0.86572265625,-0.409423828125,0.1525878757238388,-1.0070799589157104,0.7019042372703552,100.0,28297.0,1.0
178405.1125596,297080.53125,299756.03125,350941.09375,323094.3125,312510.46875,284513.40625,289776.625,298690.03125,-0.091796875,0.86865234375,-0.408203125,0.0915527269244194,-1.0070799589157104,0.6408690810203552,100.0,28298.0,1.0
178405.1200918,296304.84375,297420.375,349025.71875,321780.28125,311148.71875,283998.0625,289269.84375,298499.4375,-0.09375,0.869384765625,-0.409423828125,0.0,-0.9765624403953552,0.6408690810203552,100.0,28299.0,1.0
178405.1201423,295744.53125,295643.9375,347024.625,320884.96875,309904.28125,283776.78125,289033.8125,298441.03125,-0.09326171875,0.8701171875,-0.4111328125,-0.0915527269244194,-0.9155272841453552,0.7324218153953552,100.0,28300.0,1.0
178405.1220355,296134.4375,296767.34375,347535.59375,321590.65625,310389.3125,284156.03125,289392.78125,298599.75,-0.09423828125,0.867919921875,-0.410400390625,-0.03051757626235485,-1.0375975370407104,0.7019042372703552,100.0,28301.0,1.0
178405.1488775,297048.0,299473.0625,350171.5625,323089.84375,312144.8125,284665.84375,289909.84375,298763.53125,-0.095458984375,0.86962890625,-0.40966796875,-0.2441406100988388,-1.0681151151657104,0.7324218153953552,100.0,28302.0,1.0
178405.1489312,297092.78125,299780.625,350976.3125,323102.71875,312543.5625,284516.1875,289801.5625,298679.59375,-0.094970703125,0.868408203125,-0.413330078125,-0.2441406100988388,-1.1596678495407104,0.7019042372703552,100.0,28303.0,1.0
178405.1513956,296296.71875,297439.25,349038.34375,321768.5,311174.84375,283996.71875,289282.71875,298488.34375,-0.093994140625,0.86669921875,-0.412109375,-0.3051757514476776,-1.1596678495407104,0.7934569716453552,100.0,28304.0,1.0
178405.1514436,295687.03125,295590.65625,346937.1875,320825.875,309864.21875,283769.1875,289033.1875,298431.21875,-0.09375,0.8671875,-0.412353515625,-0.3356933295726776,-1.1596678495407104,0.7629393935203552,100.0,28305.0,1.0
178405.1550697,296061.03125,296674.8125,347382.25,321513.9375,310321.0,284146.125,289393.0625,298594.03125,-0.091552734375,0.8671875,-0.411376953125,-0.4272460639476776,-1.0681151151657104,0.6713866591453552,100.0,28306.0,1.0
178405.1551183,296981.65625,299392.0625,349999.90625,323020.0,312076.9375,284661.1875,289914.3125,298764.25,-0.09130859375,0.8662109375,-0.413330078125,-0.5187987685203552,-1.1291502714157104,0.6713866591453552,100.0,28307.0,1.0
178405.1551286,297042.4375,299741.1875,350827.28125,323060.875,312502.0,284531.09375,289813.4375,298658.5625,-0.0888671875,0.865966796875,-0.41162109375,-0.3967284858226776,-1.0681151151657104,0.6103515028953552,100.0,28308.0,1.0
178405.1551392,296240.125,297403.90625,348878.65625,321719.03125,311134.40625,284003.59375,289289.34375,298448.46875,-0.0908203125,0.8671875,-0.412841796875,-0.4272460639476776,-0.9765624403953552,0.4882812201976776,100.0,28309.0,1.0
178405.15696,295603.71875,295513.59375,346721.4375,320740.84375,309796.28125,283762.65625,289024.78125,298391.25,-0.092529296875,0.86767578125,-0.414306640625,-0.4577636420726776,-1.0070799589157104,0.5187987685203552,100.0,28310.0,1.0
178405.1600746,295919.3125,296516.90625,347029.28125,321361.15625,310181.6875,284118.75,289364.90625,298544.75,-0.0927734375,0.86669921875,-0.41357421875,-0.4577636420726776,-1.0070799589157104,0.5187987685203552,100.0,28311.0,1.0
178405.1601224,296802.21875,299195.90625,349540.71875,322838.40625,311896.34375,284630.0625,289883.8125,298702.75,-0.092041015625,0.865234375,-0.412841796875,-0.3967284858226776,-0.9460448622703552,0.4882812201976776,100.0,28312.0,1.0
178405.162049,296879.8125,299586.625,350381.3125,322912.8125,312344.71875,284511.0625,289791.625,298590.625,-0.09326171875,0.863525390625,-0.4140625,-0.3662109076976776,-0.9460448622703552,0.3967284858226776,100.0,28313.0,1.0
178405.1758021,296115.9375,297294.3125,348484.8125,321620.6875,311008.71875,283999.125,289277.625,298389.71875,-0.093017578125,0.863037109375,-0.410888671875,-0.4272460639476776,-0.9460448622703552,0.3967284858226776,100.0,28314.0,1.0
178405.1788327,295528.15625,295434.71875,346388.9375,320687.5625,309700.0625,283764.71875,289015.75,298323.03125,-0.092041015625,0.86474609375,-0.410400390625,-0.4577636420726776,-0.8850097060203552,0.4882812201976776,100.0,28315.0,1.0
178405.178883,295889.09375,296452.28125,346764.09375,321344.4375,310106.15625,284118.75,289356.84375,298477.0625,-0.09326171875,0.863525390625,-0.41162109375,-0.3967284858226776,-0.8544921278953552,0.4882812201976776,100.0,28316.0,1.0
178405.1807572,296820.0,299181.0625,349381.75,322866.5,311863.71875,284628.5625,289884.09375,298654.71875,-0.090576171875,0.863037109375,-0.413330078125,-0.4272460639476776,-0.8850097060203552,0.3967284858226776,100.0,28317.0,1.0
178405.187037,296925.40625,299627.46875,350309.875,322966.1875,312353.40625,284511.625,289798.875,298561.65625,-0.093505859375,0.864013671875,-0.412109375,-0.3356933295726776,-0.7019042372703552,0.4577636420726776,100.0,28318.0,1.0
178405.1963705,296157.40625,297348.3125,348444.21875,321667.28125,311030.25,283994.46875,289287.5625,298369.78125,-0.093994140625,0.86474609375,-0.412841796875,-0.2746581733226776,-0.6713866591453552,0.3662109076976776,100.0,28319.0,1.0
178405.1964201,295522.96875,295427.65625,346290.75,320686.65625,309681.125,283743.96875,289014.875,298313.375,-0.095703125,0.863037109375,-0.4150390625,-0.1831054538488388,-0.7324218153953552,0.2746581733226776,100.0,28320.0,1.0
178405.1988753,295843.0625,296389.6875,346586.53125,321294.71875,310046.875,284089.0,289345.75,298475.65625,-0.09130859375,0.863525390625,-0.410400390625,-0.2746581733226776,-0.6408690810203552,0.2746581733226776,100.0,28321.0,1.0
178405.1989239,296737.9375,299087.09375,349126.40625,322783.875,311770.71875,284605.03125,289872.46875,298656.96875,-0.090576171875,0.865966796875,-0.410888671875,-0.3051757514476776,-0.5493163466453552,0.2746581733226776,100.0,28322.0,1.0
178405.2070504,296830.5625,299552.46875,350017.59375,322878.84375,312263.4375,284502.125,289799.6875,298590.09375,-0.092529296875,0.867431640625,-0.410888671875,-0.2746581733226776,-0.4577636420726776,0.1831054538488388,100.0,28323.0,1.0
178405.2113314,296050.84375,297275.53125,348114.59375,321573.59375,310940.75,283990.0,289289.78125,298399.65625,-0.092041015625,0.86669921875,-0.410400390625,-0.2441406100988388,-0.4882812201976776,0.3356933295726776,100.0,28324.0,1.0
178405.211377,295402.90625,295323.15625,345906.6875,320578.375,309570.96875,283737.875,289013.96875,298325.09375,-0.091064453125,0.86669921875,-0.411376953125,-0.2746581733226776,-0.5187987685203552,0.3356933295726776,100.0,28325.0,1.0
178405.214556,295717.25,296246.375,346137.6875,321174.09375,309906.78125,284077.71875,289343.625,298472.4375,-0.093505859375,0.865966796875,-0.40869140625,-0.3051757514476776,-0.5493163466453552,0.2746581733226776,100.0,28326.0,1.0
178405.2276521,296621.34375,298949.5,348659.875,322679.1875,311631.6875,284596.5625,289871.21875,298643.90625,-0.093017578125,0.865478515625,-0.411865234375,-0.2441406100988388,-0.5187987685203552,0.3356933295726776,100.0,28327.0,1.0
178405.2277023,296740.875,299458.75,349600.625,322815.4375,312150.96875,284500.34375,289804.3125,298583.375,-0.093505859375,0.867431640625,-0.4091796875,-0.2136230319738388,-0.4577636420726776,0.3662109076976776,100.0,28328.0,1.0
178405.2295384,296002.28125,297222.59375,347764.1875,321545.59375,310857.0,283995.5625,289298.90625,298386.78125,-0.09326171875,0.86767578125,-0.409912109375,-0.2136230319738388,-0.4882812201976776,0.5187987685203552,100.0,28329.0,1.0
178405.232077,295377.0625,295284.09375,345590.0,320556.03125,309503.625,283737.4375,289016.125,298317.3125,-0.09375,0.8671875,-0.409912109375,-0.3356933295726776,-0.5493163466453552,0.5493163466453552,100.0,28330.0,1.0
178405.2357231,295662.90625,296160.4375,345775.34375,321112.5,309809.9375,284067.96875,289326.0,298463.40625,-0.09375,0.866455078125,-0.409423828125,-0.2746581733226776,-0.3051757514476776,0.5187987685203552,100.0,28331.0,1.0
178405.2445503,296566.1875,298863.75,348285.625,322616.59375,311531.65625,284591.28125,289853.3125,298644.71875,-0.093505859375,0.86669921875,-0.40869140625,-0.3967284858226776,-0.4272460639476776,0.5187987685203552,100.0,28332.0,1.0
178405.2537672,296697.25,299409.78125,349251.46875,322776.28125,312073.09375,284507.21875,289793.78125,298565.125,-0.093994140625,0.86669921875,-0.408447265625,-0.3356933295726776,-0.4272460639476776,0.6408690810203552,100.0,28333.0,1.0
178405.2538166,295944.1875,297178.78125,347402.1875,321497.5,310779.21875,283996.8125,289287.5625,298376.125,-0.09423828125,0.869140625,-0.408447265625,-0.3356933295726776,-0.4272460639476776,0.6408690810203552,100.0,28334.0,1.0
178405.2558024,295280.3125,295185.28125,345154.59375,320463.0625,309384.0,283721.0625,288995.1875,298301.75,-0.094482421875,0.86865234375,-0.408203125,-0.4272460639476776,-0.4577636420726776,0.6408690810203552,100.0,28335.0,1.0
178405.2638721,295531.125,296002.90625,345244.53125,320979.03125,309646.0625,284044.0,289297.21875,298443.71875,-0.094482421875,0.869873046875,-0.4072265625,-0.4577636420726776,-0.4882812201976776,0.6103515028953552,100.0,28336.0,1.0
178405.263921,296374.3125,298655.09375,347626.25,322428.03125,311319.3125,284559.90625,289825.15625,298621.90625,-0.093505859375,0.86962890625,-0.408447265625,-0.5798339247703552,-0.4272460639476776,0.7019042372703552,100.0,28337.0,1.0
178405.265803,296446.0,299177.65625,348462.90625,322536.40625,311830.0,284467.0,289769.625,298536.875,-0.0927734375,0.86962890625,-0.408203125,-0.5493163466453552,-0.5187987685203552,0.8239745497703552,100.0,28338.0,1.0
178405.2682961,295688.65625,296949.65625,346560.59375,321265.75,310532.0,283962.21875,289266.625,298344.75,-0.094970703125,0.869873046875,-0.41015625,-0.7324218153953552,-0.5798339247703552,0.9460448622703552,100.0,28339.0,1.0
178405.2720517,295091.84375,294994.75,344379.25,320310.875,309176.125,283710.96875,288989.5625,298282.875,-0.09521484375,0.86767578125,-0.40869140625,-0.7324218153953552,-0.6408690810203552,0.9460448622703552,100.0,28340.0,1.0
178405.2807735,295415.5,295842.53125,344569.5,320899.0,309471.71875,284039.71875,289301.15625,298439.96875,-0.0927734375,0.8662109375,-0.40869140625,-0.7934569716453552,-0.6103515028953552,0.8239745497703552,100.0,28341.0,1.0
178405.28516,296390.59375,298613.40625,347184.125,322482.9375,311241.96875,284584.3125,289852.0625,298631.375,-0.09130859375,0.8662109375,-0.4111328125,-0.7629393935203552,-0.6713866591453552,0.7629393935203552,100.0,28342.0,1.0
178405.2852084,296637.96875,299325.0,348396.3125,322778.25,311903.59375,284522.34375,289820.6875,298561.75,-0.0908203125,0.868896484375,-0.412353515625,-0.7324218153953552,-0.5798339247703552,0.8544921278953552,100.0,28343.0,1.0
178405.2938623,295992.90625,297217.78125,346810.5,321612.03125,310713.40625,284021.21875,289323.75,298377.75,-0.09228515625,0.8681640625,-0.411865234375,-0.7629393935203552,-0.6103515028953552,0.8544921278953552,100.0,28344.0,1.0
178405.293913,295406.5625,295272.71875,344765.40625,320643.65625,309379.09375,283757.5625,289033.46875,298314.53125,-0.089599609375,0.86767578125,-0.41259765625,-0.7934569716453552,-0.5798339247703552,0.8544921278953552,100.0,28345.0,1.0
178405.2957835,295681.84375,296064.59375,344958.34375,321158.71875,309641.875,284070.375,289321.71875,298463.5625,-0.089599609375,0.867431640625,-0.41064453125,-0.7934569716453552,-0.5493163466453552,0.8850097060203552,100.0,28346.0,1.0
178405.2995557,296618.03125,298808.6875,347564.375,322689.75,311396.75,284603.6875,289863.59375,298651.96875,-0.09033203125,0.865966796875,-0.409912109375,-0.7629393935203552,-0.4882812201976776,0.9155272841453552,100.0,28347.0,1.0
178405.3138348,296859.96875,299552.5625,348821.53125,322974.3125,312091.53125,284555.96875,289840.71875,298589.09375,-0.091796875,0.867431640625,-0.411376953125,-0.7629393935203552,-0.4272460639476776,0.8544921278953552,100.0,28348.0,1.0
178405.313884,296190.9375,297433.34375,347245.4375,321784.59375,310902.59375,284056.0,289340.21875,298395.1875,-0.089599609375,0.864990234375,-0.41064453125,-0.7324218153953552,-0.4882812201976776,0.8850097060203552,100.0,28349.0,1.0
178405.3233154,295568.03125,295436.78125,345163.53125,320766.6875,309540.375,283773.65625,289033.1875,298301.84375,-0.08935546875,0.8642578125,-0.40966796875,-0.6713866591453552,-0.3356933295726776,0.8239745497703552,100.0,28350.0,1.0
178405.3233641,295812.75,296175.65625,345295.03125,321237.3125,309767.65625,284068.6875,289308.5625,298434.96875,-0.091796875,0.86376953125,-0.41015625,-0.6408690810203552,-0.3356933295726776,0.7934569716453552,100.0,28351.0,1.0
178405.3295797,296725.6875,298896.46875,347858.4375,322745.625,311497.5,284598.96875,289844.75,298621.5625,-0.092529296875,0.863525390625,-0.410400390625,-0.5798339247703552,-0.3051757514476776,0.7324218153953552,100.0,28352.0,1.0
178405.331972,296945.71875,299639.8125,349103.15625,323024.21875,312180.46875,284545.59375,289821.125,298559.96875,-0.092041015625,0.86279296875,-0.41015625,-0.4272460639476776,-0.3662109076976776,0.6713866591453552,100.0,28353.0,1.0
178405.3345536,296273.5625,297537.3125,347538.8125,321839.46875,311004.78125,284044.09375,289322.6875,298367.28125,-0.091796875,0.864501953125,-0.41015625,-0.4272460639476776,-0.3967284858226776,0.6713866591453552,100.0,28354.0,1.0
178405.3370497,295644.3125,295524.78125,345443.53125,320813.34375,309639.09375,283747.90625,289018.09375,298285.03125,-0.0927734375,0.8642578125,-0.409912109375,-0.4272460639476776,-0.3967284858226776,0.6713866591453552,100.0,28355.0,1.0
178405.3401454,295865.0625,296215.96875,345523.90625,321257.4375,309836.40625,284044.09375,289292.5625,298415.375,-0.095458984375,0.8662109375,-0.4111328125,-0.3356933295726776,-0.4577636420726776,0.5493163466453552,100.0,28356.0,1.0
178405.3401935,296771.71875,298929.125,348063.4375,322763.75,311557.75,284587.34375,289837.84375,298607.96875,-0.093994140625,0.8662109375,-0.408935546875,-0.2746581733226776,-0.3356933295726776,0.6103515028953552,100.0,28357.0,1.0
178405.3432222,296992.46875,299699.4375,349325.0625,323055.0625,312249.9375,284543.0,289821.0625,298557.0,-0.09375,0.8671875,-0.412841796875,-0.4577636420726776,-0.3967284858226776,0.5493163466453552,100.0,28358.0,1.0
178405.3576982,296330.3125,297625.84375,347783.25,321877.75,311090.6875,284040.53125,289332.25,298374.625,-0.093994140625,0.8671875,-0.409423828125,-0.4272460639476776,-0.5187987685203552,0.4272460639476776,100.0,28359.0,1.0
178405.3577468,295690.71875,295586.0,345667.40625,320838.28125,309711.25,283747.28125,289024.53125,298300.9375,-0.093994140625,0.869384765625,-0.40966796875,-0.4272460639476776,-0.4272460639476776,0.4272460639476776,100.0,28360.0,1.0
178405.3595286,295896.6875,296237.34375,345701.46875,321261.71875,309876.8125,284029.25,289297.375,298436.84375,-0.0908203125,0.8701171875,-0.411376953125,-0.5798339247703552,-0.5493163466453552,0.4272460639476776,100.0,28361.0,1.0
178405.36205,296800.25,298948.34375,348222.65625,322768.0625,311588.53125,284570.34375,289848.0625,298612.0,-0.095703125,0.8681640625,-0.41064453125,-0.5187987685203552,-0.6103515028953552,0.6408690810203552,100.0,28362.0,1.0
178405.3657229,297041.1875,299762.75,349518.4375,323089.03125,312313.53125,284533.53125,289843.9375,298549.9375,-0.09423828125,0.869140625,-0.40966796875,-0.4882812201976776,-0.5798339247703552,0.5493163466453552,100.0,28363.0,1.0
178405.3745497,296371.625,297695.65625,347986.1875,321911.28125,311158.90625,284044.90625,289346.28125,298353.0625,-0.092529296875,0.86865234375,-0.40771484375,-0.5493163466453552,-0.6713866591453552,0.4272460639476776,100.0,28364.0,1.0
178405.3776959,295715.125,295626.5,345848.46875,320855.90625,309763.09375,283750.125,289023.53125,298258.75,-0.091796875,0.8671875,-0.407958984375,-0.7019042372703552,-0.7019042372703552,0.4577636420726776,100.0,28365.0,1.0
178405.3777477,295907.96875,296236.8125,345839.875,321252.53125,309905.96875,284024.4375,289279.15625,298379.34375,-0.09326171875,0.8662109375,-0.407958984375,-0.7324218153953552,-0.6408690810203552,0.5187987685203552,100.0,28366.0,1.0
178405.3795063,296799.96875,298927.6875,348328.96875,322744.1875,311598.4375,284563.125,289823.5625,298570.40625,-0.093017578125,0.866455078125,-0.409423828125,-0.7324218153953552,-0.6713866591453552,0.5493163466453552,100.0,28367.0,1.0
178405.3938962,297044.6875,299773.75,349644.5,323082.5,312336.9375,284532.1875,289825.53125,298510.4375,-0.09228515625,0.868408203125,-0.407958984375,-0.7934569716453552,-0.7019042372703552,0.3967284858226776,100.0,28368.0,1.0
178405.3939457,296377.96875,297724.53125,348131.75,321917.0,311196.375,284045.4375,289330.90625,298312.5625,-0.090087890625,0.869873046875,-0.4072265625,-0.7934569716453552,-0.7629393935203552,0.4272460639476776,100.0,28369.0,1.0
178405.3957463,295714.65625,295638.9375,345984.09375,320848.84375,309793.6875,283748.34375,289008.6875,298213.0625,-0.08984375,0.867919921875,-0.408447265625,-0.7019042372703552,-0.7629393935203552,0.5493163466453552,100.0,28370.0,1.0
178405.3983111,295897.25,296217.03125,345934.125,321228.28125,309911.0625,284020.59375,289264.03125,298329.28125,-0.08935546875,0.867431640625,-0.409912109375,-0.7324218153953552,-0.7324218153953552,0.5798339247703552,100.0,28371.0,1.0
178405.4020499,296788.8125,298910.78125,348409.25,322724.59375,311599.78125,284558.375,289809.96875,298519.4375,-0.090576171875,0.865234375,-0.410400390625,-0.6713866591453552,-0.7019042372703552,0.7324218153953552,100.0,28372.0,1.0
178405.4057298,297050.5,299799.65625,349760.84375,323087.34375,312365.03125,284543.1875,289823.8125,298460.25,-0.092041015625,0.863525390625,-0.40966796875,-0.7629393935203552,-0.6103515028953552,0.6408690810203552,100.0,28373.0,1.0
178405.4213539,296393.53125,297774.4375,348274.71875,321934.6875,311239.65625,284054.5625,289337.625,298267.3125,-0.094970703125,0.866943359375,-0.409423828125,-0.7019042372703552,-0.6103515028953552,0.7019042372703552,100.0,28374.0,1.0
178405.421403,295743.625,295691.5,346137.875,320874.875,309844.71875,283755.84375,289014.96875,298179.15625,-0.0947265625,0.869140625,-0.408447265625,-0.6713866591453552,-0.5798339247703552,0.5798339247703552,100.0,28375.0,1.0
178405.4238388,295912.0,296222.9375,346046.0625,321229.8125,309930.09375,284009.875,289265.375,298312.84375,-0.0966796875,0.86767578125,-0.410400390625,-0.6713866591453552,-0.7019042372703552,0.6103515028953552,100.0,28376.0,1.0
178405.4238795,296806.6875,298910.6875,348511.1875,322724.875,311617.5,284559.34375,289821.40625,298502.28125,-0.095458984375,0.865966796875,-0.410400390625,-0.6103515028953552,-0.7019042372703552,0.4882812201976776,100.0,28377.0,1.0
178405.4257012,297082.3125,299835.78125,349892.71875,323107.34375,312404.4375,284554.34375,289847.0625,298450.59375,-0.09716796875,0.8662109375,-0.406982421875,-0.6713866591453552,-0.7934569716453552,0.4882812201976776,100.0,28378.0,1.0
178405.4333258,296437.25,297833.25,348427.6875,321964.28125,311293.65625,284067.71875,289363.5625,298270.625,-0.095458984375,0.866943359375,-0.40478515625,-0.7629393935203552,-0.8850097060203552,0.5798339247703552,100.0,28379.0,1.0
178405.4357584,295764.5625,295713.6875,346258.84375,320879.25,309872.625,283750.9375,289032.5625,298187.65625,-0.095947265625,0.8662109375,-0.40869140625,-0.6408690810203552,-0.9765624403953552,0.4882812201976776,100.0,28380.0,1.0
178405.4382483,295908.59375,296197.5625,346116.78125,321208.34375,309925.5625,284005.125,289268.875,298302.5625,-0.095458984375,0.865966796875,-0.4072265625,-0.6103515028953552,-1.0681151151657104,0.4577636420726776,100.0,28381.0,1.0
178405.4420087,296794.25,298869.9375,348552.125,322695.375,311597.5625,284549.0,289816.21875,298481.09375,-0.09619140625,0.866943359375,-0.4052734375,-0.6408690810203552,-1.2512205839157104,0.3662109076976776,100.0,28382.0,1.0
178405.4563986,297095.03125,299845.1875,349972.71875,323106.0,312419.5625,284554.34375,289854.3125,298443.46875,-0.09423828125,0.864501953125,-0.406982421875,-0.6408690810203552,-1.1901854276657104,0.4577636420726776,100.0,28383.0,1.0
178405.4564471,296451.03125,297859.90625,348530.15625,321971.4375,311322.875,284065.46875,289372.21875,298247.65625,-0.09375,0.86572265625,-0.40771484375,-0.6103515028953552,-1.1901854276657104,0.4272460639476776,100.0,28384.0,1.0
178405.4589002,295776.0,295726.28125,346356.3125,320880.40625,309897.21875,283750.75,289040.0,298133.65625,-0.093017578125,0.866943359375,-0.405029296875,-0.5187987685203552,-1.3427733182907104,0.4882812201976776,100.0,28385.0,1.0
178405.4589488,295912.25,296182.0,346183.75,321191.53125,309933.5,283998.5,289272.1875,298241.65625,-0.091552734375,0.8662109375,-0.40771484375,-0.5187987685203552,-1.3732908964157104,0.5493163466453552,100.0,28386.0,1.0
178405.4607996,296792.375,298847.40625,348593.0,322672.9375,311586.8125,284545.15625,289819.71875,298415.125,-0.09228515625,0.865966796875,-0.406005859375,-0.5493163466453552,-1.3122557401657104,0.4577636420726776,100.0,28387.0,1.0
178405.4670582,297094.5625,299848.21875,350028.34375,323099.40625,312417.3125,284561.15625,289857.71875,298361.28125,-0.09033203125,0.86572265625,-0.406005859375,-0.4577636420726776,-1.3427733182907104,0.4272460639476776,100.0,28388.0,1.0
178405.4739018,296468.46875,297900.75,348621.6875,321985.65625,311349.96875,284075.75,289379.28125,298152.09375,-0.089111328125,0.86669921875,-0.408935546875,-0.4272460639476776,-1.4038084745407104,0.3356933295726776,100.0,28389.0,1.0
178405.4739597,295795.40625,295760.25,346449.71875,320897.3125,309928.9375,283759.78125,289047.21875,298047.21875,-0.08837890625,0.86669921875,-0.40869140625,-0.3662109076976776,-1.2512205839157104,0.4577636420726776,100.0,28390.0,1.0
178405.4826969,295922.0,296176.4375,346235.6875,321188.78125,309936.46875,283996.4375,289275.65625,298151.53125,-0.088134765625,0.866943359375,-0.412109375,-0.3356933295726776,-1.1901854276657104,0.4882812201976776,100.0,28391.0,1.0
178405.4827464,296805.96875,298844.71875,348641.28125,322672.46875,311594.34375,284543.71875,289826.84375,298335.53125,-0.088623046875,0.865234375,-0.408447265625,-0.3356933295726776,-1.1901854276657104,0.5493163466453552,100.0,28392.0,1.0
178405.4851481,297116.84375,299881.21875,350109.15625,323118.96875,312445.9375,284564.375,289872.375,298299.96875,-0.087646484375,0.866455078125,-0.407470703125,-0.2441406100988388,-1.1596678495407104,0.7019042372703552,100.0,28393.0,1.0
178405.4851998,296490.375,297946.8125,348714.0625,322013.46875,311383.5,284080.03125,289394.9375,298131.0625,-0.090576171875,0.867919921875,-0.406005859375,-0.3051757514476776,-1.1291502714157104,0.6408690810203552,100.0,28394.0,1.0
178405.4958,295812.3125,295787.25,346521.625,320905.625,309948.4375,283760.875,289052.40625,298033.09375,-0.09375,0.86767578125,-0.405029296875,-0.2746581733226776,-1.0681151151657104,0.4882812201976776,100.0,28395.0,1.0
178405.5026976,295922.09375,296162.15625,346266.90625,321165.78125,309935.5625,283997.625,289271.8125,298140.71875,-0.09423828125,0.868408203125,-0.40380859375,-0.1831054538488388,-1.0375975370407104,0.5493163466453552,100.0,28396.0,1.0
178405.5027492,296805.4375,298819.21875,348654.34375,322643.6875,311587.09375,284543.875,289826.5,298339.9375,-0.094482421875,0.86962890625,-0.406494140625,-0.2136230319738388,-1.0986326932907104,0.6103515028953552,100.0,28397.0,1.0
178405.5113964,297134.09375,299894.34375,350151.8125,323112.8125,312464.71875,284565.96875,289877.5625,298306.3125,-0.093505859375,0.86865234375,-0.405517578125,-0.2136230319738388,-1.0070799589157104,0.4882812201976776,100.0,28398.0,1.0
178405.511445,296514.5,297980.15625,348783.34375,322016.9375,311418.65625,284081.125,289397.78125,298097.375,-0.091796875,0.867431640625,-0.404296875,-0.2746581733226776,-1.0070799589157104,0.4577636420726776,100.0,28399.0,1.0
178405.5138989,295831.4375,295803.53125,346590.5625,320905.0,309977.84375,283748.875,289049.1875,298022.625,-0.09033203125,0.866943359375,-0.40673828125,-0.3356933295726776,-0.9155272841453552,0.4272460639476776,100.0,28400.0,1.0
178405.5139511,295933.625,296146.15625,346306.21875,321154.96875,309947.4375,283976.4375,289264.21875,298151.1875,-0.092041015625,0.86572265625,-0.406982421875,-0.3051757514476776,-0.8544921278953552,0.3967284858226776,100.0,28401.0,1.0
178405.5245521,296811.15625,298790.0,348664.15625,322631.4375,311582.96875,284524.21875,289818.625,298346.28125,-0.09326171875,0.863525390625,-0.40625,-0.2136230319738388,-0.8239745497703552,0.2441406100988388,100.0,28402.0,1.0
178405.5395497,297141.78125,299891.21875,350184.8125,323118.625,312475.78125,284564.375,289872.90625,298324.53125,-0.09423828125,0.863525390625,-0.40576171875,-0.1220703050494194,-0.9155272841453552,0.2136230319738388,100.0,28403.0,1.0
178405.5395979,296526.65625,298003.03125,348848.25,322033.3125,311448.78125,284074.3125,289399.125,298136.34375,-0.093017578125,0.86279296875,-0.40869140625,-0.0610351525247097,-0.7629393935203552,0.1220703050494194,100.0,28404.0,1.0
178405.5396099,295846.71875,295820.96875,346653.03125,320916.875,310003.6875,283737.4375,289054.375,298042.90625,-0.09130859375,0.86328125,-0.4072265625,-0.0610351525247097,-0.7934569716453552,0.03051757626235485,100.0,28405.0,1.0
178405.5451451,295928.875,296120.03125,346321.0,321139.78125,309936.71875,283961.75,289250.90625,298173.28125,-0.09326171875,0.865478515625,-0.40966796875,0.0610351525247097,-0.7019042372703552,-0.0610351525247097,100.0,28406.0,1.0
178405.545195,296801.6875,298761.46875,348666.03125,322612.65625,311563.84375,284519.3125,289809.4375,298364.34375,-0.091064453125,0.8662109375,-0.4072265625,0.0610351525247097,-0.6408690810203552,0.03051757626235485,100.0,28407.0,1.0
178405.5469837,297150.625,299910.09375,350218.25,323127.46875,312480.96875,284570.1875,289883.375,298322.40625,-0.09033203125,0.8671875,-0.405517578125,0.0610351525247097,-0.7019042372703552,0.0915527269244194,100.0,28408.0,1.0
178405.5495516,296540.96875,298039.25,348892.34375,322047.34375,311459.6875,284092.375,289412.0,298149.125,-0.092041015625,0.869384765625,-0.40771484375,0.1525878757238388,-0.6103515028953552,0.1220703050494194,100.0,28409.0,1.0
178405.5545758,295855.75,295841.71875,346694.71875,320925.5625,310014.34375,283761.65625,289063.59375,298080.09375,-0.091552734375,0.86767578125,-0.40673828125,0.1220703050494194,-0.5493163466453552,0.0610351525247097,100.0,28410.0,1.0
178405.5570531,295922.0,296100.28125,346328.0625,321126.71875,309925.46875,283970.34375,289252.59375,298186.15625,-0.091796875,0.8662109375,-0.40771484375,0.0610351525247097,-0.5187987685203552,0.1831054538488388,100.0,28411.0,1.0
178405.5608001,296789.875,298732.96875,348651.28125,322592.71875,311545.5,284522.15625,289810.125,298386.0625,-0.09130859375,0.86474609375,-0.4091796875,0.03051757626235485,-0.6103515028953552,0.2441406100988388,100.0,28412.0,1.0
178405.5676383,297147.875,299914.28125,350227.96875,323122.46875,312481.96875,284577.15625,289889.25,298359.59375,-0.093994140625,0.864013671875,-0.406494140625,0.0915527269244194,-0.5798339247703552,0.3356933295726776,100.0,28413.0,1.0
178405.5676874,296551.5,298078.9375,348942.125,322061.28125,311490.625,284103.75,289422.65625,298182.03125,-0.0927734375,0.86474609375,-0.4072265625,0.1525878757238388,-0.4882812201976776,0.3356933295726776,100.0,28414.0,1.0
178405.5733011,295855.125,295864.34375,346732.96875,320921.625,310035.96875,283770.6875,289061.34375,298093.6875,-0.093505859375,0.863525390625,-0.409912109375,0.2746581733226776,-0.4577636420726776,0.3662109076976776,100.0,28415.0,1.0
178405.5827053,295901.4375,296073.71875,346309.375,321086.3125,309907.125,283967.46875,289238.65625,298179.09375,-0.09130859375,0.866943359375,-0.411376953125,0.3662109076976776,-0.4272460639476776,0.3662109076976776,100.0,28416.0,1.0
178405.5827551,296763.9375,298687.4375,348598.71875,322546.5,311504.03125,284517.4375,289791.8125,298378.8125,-0.092529296875,0.8642578125,-0.41015625,0.3051757514476776,-0.4272460639476776,0.4577636420726776,100.0,28417.0,1.0
178405.5888956,297137.84375,299905.8125,350208.03125,323104.0625,312467.03125,284575.71875,289879.34375,298348.6875,-0.093017578125,0.86572265625,-0.409912109375,0.4272460639476776,-0.3662109076976776,0.4272460639476776,100.0,28418.0,1.0
178405.5889481,296549.90625,298099.40625,348953.75,322057.375,311497.3125,284103.90625,289418.8125,298175.40625,-0.090576171875,0.86474609375,-0.409423828125,0.4272460639476776,-0.3967284858226776,0.5493163466453552,100.0,28419.0,1.0
178405.5951479,295846.375,295867.65625,346737.09375,320914.5625,310034.4375,283759.34375,289058.40625,298095.65625,-0.08837890625,0.865478515625,-0.407470703125,0.4577636420726776,-0.3051757514476776,0.5798339247703552,100.0,28420.0,1.0
178405.5951958,295892.59375,296059.0625,346303.5625,321078.8125,309906.3125,283957.8125,289240.09375,298201.78125,-0.088623046875,0.8681640625,-0.408935546875,0.5493163466453552,-0.3051757514476776,0.6408690810203552,100.0,28421.0,1.0
178405.6008232,296759.75,298675.1875,348592.8125,322540.78125,311508.78125,284513.65625,289800.46875,298409.46875,-0.09130859375,0.870849609375,-0.412109375,0.5493163466453552,-0.2136230319738388,0.6713866591453552,100.0,28422.0,1.0
178405.6101063,297142.59375,299922.34375,350227.8125,323114.6875,312485.8125,284583.9375,289897.9375,298406.53125,-0.091064453125,0.86962890625,-0.4091796875,0.5798339247703552,-0.2136230319738388,0.6103515028953552,100.0,28423.0,1.0
178405.6101525,296557.9375,298136.0625,348992.375,322082.65625,311526.46875,284116.4375,289443.3125,298231.75,-0.09375,0.869873046875,-0.408935546875,0.5187987685203552,-0.2746581733226776,0.6713866591453552,100.0,28424.0,1.0
178405.6120024,295853.78125,295897.3125,346775.96875,320935.65625,310066.0,283768.03125,289076.09375,298132.40625,-0.09765625,0.870849609375,-0.41015625,0.5493163466453552,-0.2441406100988388,0.6408690810203552,100.0,28425.0,1.0
178405.6232999,295882.65625,296044.125,346295.0625,321072.1875,309902.75,283950.125,289246.78125,298227.375,-0.100341796875,0.873046875,-0.40771484375,0.4272460639476776,-0.3051757514476776,0.5493163466453552,100.0,28426.0,1.0
178405.6282446,296746.59375,298647.5625,348559.28125,322527.5625,311489.28125,284501.59375,289804.25,298427.90625,-0.10302734375,0.87255859375,-0.40576171875,0.3662109076976776,-0.3356933295726776,0.5187987685203552,100.0,28427.0,1.0
178405.6282953,297141.4375,299932.09375,350223.15625,323123.375,312489.21875,284590.84375,289910.90625,298406.1875,-0.1005859375,0.874267578125,-0.40771484375,0.2441406100988388,-0.4272460639476776,0.2441406100988388,100.0,28428.0,1.0
178405.6283088,296562.4375,298171.3125,349016.25,322097.0625,311551.9375,284123.59375,289456.4375,298227.625,-0.101806640625,0.8740234375,-0.40869140625,0.2136230319738388,-0.8239745497703552,0.3051757514476776,100.0,28429.0,1.0
178405.6320546,295850.9375,295914.59375,346791.4375,320940.3125,310079.34375,283771.59375,289085.75,298133.84375,-0.097900390625,0.872314453125,-0.407470703125,0.0,-1.0681151151657104,0.2136230319738388,100.0,28430.0,1.0
178405.6380915,295866.84375,296020.625,346274.03125,321050.09375,309886.9375,283956.125,289249.125,298228.6875,-0.10009765625,0.871337890625,-0.40966796875,-0.1525878757238388,-1.0681151151657104,0.0610351525247097,100.0,28431.0,1.0
178405.6451479,296727.46875,298613.34375,348519.6875,322502.53125,311464.6875,284516.1875,289806.46875,298425.5,-0.0966796875,0.87060546875,-0.412109375,-0.1831054538488388,-1.1291502714157104,0.0610351525247097,100.0,28432.0,1.0
178405.6451949,297135.96875,299933.96875,350211.4375,323118.0,312486.34375,284610.40625,289922.78125,298405.28125,-0.09423828125,0.873291015625,-0.41162109375,-0.1831054538488388,-1.1291502714157104,0.0915527269244194,100.0,28433.0,1.0
178405.6470559,296563.9375,298199.8125,349028.59375,322103.75,311561.59375,284153.1875,289470.46875,298190.96875,-0.093017578125,0.87158203125,-0.410400390625,-0.2136230319738388,-1.1596678495407104,0.1220703050494194,100.0,28434.0,1.0
178405.6558342,295837.78125,295920.5625,346787.25,320929.125,310080.5,283791.625,289084.5,298050.34375,-0.09228515625,0.871826171875,-0.409912109375,-0.3967284858226776,-1.0986326932907104,0.3051757514476776,100.0,28435.0,1.0
178405.6600833,295841.28125,295986.28125,346229.6875,321017.90625,309866.09375,283969.375,289236.59375,298119.4375,-0.0908203125,0.874267578125,-0.411865234375,-0.3967284858226776,-1.1901854276657104,0.4577636420726776,100.0,28436.0,1.0
178405.6601493,296698.40625,298560.40625,348450.5625,322462.90625,311431.15625,284523.0625,289794.03125,298297.375,-0.090576171875,0.871826171875,-0.410400390625,-0.4882812201976776,-1.1291502714157104,0.6103515028953552,100.0,28437.0,1.0
178405.6708277,297122.5625,299917.15625,350170.84375,323102.78125,312473.8125,284616.125,289912.6875,298279.21875,-0.0888671875,0.86962890625,-0.408935546875,-0.5187987685203552,-1.0681151151657104,0.6713866591453552,100.0,28438.0,1.0
178405.6738778,296558.65625,298211.0,349021.25,322106.1875,311575.8125,284149.78125,289464.21875,298080.71875,-0.087646484375,0.870361328125,-0.408935546875,-0.4272460639476776,-1.0070799589157104,0.8850097060203552,100.0,28439.0,1.0
178405.6739267,295826.34375,295920.40625,346779.03125,320926.1875,310093.28125,283782.9375,289079.3125,297953.6875,-0.087890625,0.867431640625,-0.409912109375,-0.3662109076976776,-0.8850097060203552,0.9460448622703552,100.0,28440.0,1.0
178405.6758101,295820.15625,295956.15625,346191.96875,321001.28125,309863.59375,283954.15625,289230.34375,298037.8125,-0.087890625,0.8681640625,-0.409423828125,-0.3967284858226776,-0.7934569716453552,1.0986326932907104,100.0,28441.0,1.0
178405.6851673,296676.15625,298527.59375,348393.4375,322442.4375,311416.3125,284508.40625,289786.53125,298248.90625,-0.08740234375,0.8662109375,-0.410888671875,-0.3051757514476776,-0.6103515028953552,1.0375975370407104,100.0,28442.0,1.0
178405.6852219,297114.5,299924.84375,350149.75,323106.5625,312483.46875,284613.53125,289924.03125,298261.25,-0.091552734375,0.86474609375,-0.41259765625,-0.2441406100988388,-0.6103515028953552,1.2512205839157104,100.0,28443.0,1.0
178405.6870788,296547.65625,298230.65625,349015.1875,322114.40625,311591.03125,284157.375,289475.125,298081.625,-0.092529296875,0.86328125,-0.408935546875,-0.2136230319738388,-0.4577636420726776,1.3122557401657104,100.0,28444.0,1.0
178405.6958278,295805.5,295920.65625,346751.46875,320920.46875,310090.6875,283775.0,289086.5625,297959.59375,-0.09326171875,0.862060546875,-0.40673828125,-0.1831054538488388,-0.4272460639476776,1.3427733182907104,100.0,28445.0,1.0
178405.7001448,295790.84375,295921.5625,346126.34375,320974.90625,309831.9375,283934.5,289228.8125,298041.125,-0.0947265625,0.86328125,-0.407958984375,-0.1831054538488388,-0.5493163466453552,1.3122557401657104,100.0,28446.0,1.0
178405.7001945,296659.6875,298493.96875,348332.1875,322423.84375,311389.3125,284499.375,289790.75,298236.9375,-0.094482421875,0.864990234375,-0.407470703125,-0.1831054538488388,-0.5187987685203552,1.0986326932907104,100.0,28447.0,1.0
178405.7063952,297110.84375,299924.46875,350123.5625,323108.6875,312474.1875,284612.71875,289926.5625,298227.8125,-0.094970703125,0.866455078125,-0.40869140625,-0.1831054538488388,-0.5187987685203552,1.0375975370407104,100.0,28448.0,1.0
178405.7064472,296556.53125,298263.3125,349020.1875,322129.25,311597.90625,284155.59375,289476.84375,298039.4375,-0.09619140625,0.864501953125,-0.41015625,-0.1525878757238388,-0.5493163466453552,0.8850097060203552,100.0,28449.0,1.0
178405.7083252,295819.53125,295953.125,346770.96875,320937.90625,310106.40625,283784.28125,289087.28125,297929.90625,-0.095947265625,0.864013671875,-0.4091796875,-0.1220703050494194,-0.5798339247703552,0.8850097060203552,100.0,28450.0,1.0
178405.7220517,295799.875,295923.0625,346131.0,320982.0625,309830.40625,283939.59375,289224.0625,298018.40625,-0.09375,0.866455078125,-0.409423828125,-0.1525878757238388,-0.6408690810203552,0.7629393935203552,100.0,28451.0,1.0
178405.7251515,296666.125,298482.71875,348323.96875,322423.03125,311366.34375,284496.3125,289777.78125,298229.40625,-0.093505859375,0.86572265625,-0.40771484375,-0.2136230319738388,-0.6408690810203552,0.7019042372703552,100.0,28452.0,1.0
178405.7252009,297139.46875,299958.1875,350164.15625,323133.71875,312483.03125,284624.8125,289927.71875,298251.0625,-0.091796875,0.865478515625,-0.41064453125,-0.2441406100988388,-0.5798339247703552,0.5798339247703552,100.0,28453.0,1.0
178405.7270236,296593.1875,298328.65625,349098.6875,322165.1875,311630.1875,284176.59375,289485.40625,298086.71875,-0.091796875,0.865234375,-0.408203125,-0.2746581733226776,-0.6103515028953552,0.5493163466453552,100.0,28454.0,1.0
178405.7333272,295849.75,296007.5625,346845.09375,320962.46875,310130.65625,283793.5,289091.84375,297983.5625,-0.090576171875,0.864990234375,-0.406005859375,-0.3051757514476776,-0.5798339247703552,0.3051757514476776,100.0,28455.0,1.0
178405.7476968,295817.125,295939.78125,346175.34375,320979.8125,309830.15625,283937.25,289214.96875,298075.8125,-0.09033203125,0.86669921875,-0.406494140625,-0.3051757514476776,-0.6103515028953552,0.3051757514476776,100.0,28456.0,1.0
178405.7477468,296693.75,298501.5625,348374.21875,322428.40625,311368.5,284499.09375,289774.8125,298300.40625,-0.088623046875,0.8662109375,-0.40771484375,-0.2746581733226776,-0.5493163466453552,0.3051757514476776,100.0,28457.0,1.0
178405.7495524,297190.40625,300026.6875,350261.96875,323167.4375,312511.375,284638.3125,289937.375,298320.96875,-0.089599609375,0.86669921875,-0.40478515625,-0.3662109076976776,-0.5493163466453552,0.2441406100988388,100.0,28458.0,1.0
178405.7520529,296641.5625,298417.71875,349224.75,322203.90625,311673.46875,284183.59375,289499.0,298144.3125,-0.0888671875,0.86767578125,-0.405517578125,-0.4882812201976776,-0.4882812201976776,0.2441406100988388,100.0,28459.0,1.0
178405.7545744,295901.4375,296095.8125,346990.65625,321001.28125,310183.03125,283802.71875,289100.96875,298032.4375,-0.089111328125,0.86669921875,-0.405029296875,-0.5493163466453552,-0.3967284858226776,0.3051757514476776,100.0,28460.0,1.0
178405.7570817,295867.0,296000.40625,346313.125,321007.53125,309864.40625,283939.15625,289217.625,298118.1875,-0.090576171875,0.869140625,-0.405517578125,-0.6713866591453552,-0.4577636420726776,0.3967284858226776,100.0,28461.0,1.0
178405.7633107,296747.125,298552.4375,348505.09375,322452.625,311390.3125,284501.78125,289780.8125,298335.09375,-0.091552734375,0.869140625,-0.40673828125,-0.6713866591453552,-0.4882812201976776,0.4272460639476776,100.0,28462.0,1.0
178405.7888547,297249.15625,300107.3125,350425.9375,323207.40625,312555.90625,284647.59375,289955.59375,298345.5625,-0.091796875,0.86865234375,-0.407958984375,-0.6408690810203552,-0.5187987685203552,0.4882812201976776,100.0,28463.0,1.0
178405.7889064,296689.8125,298516.59375,349399.09375,322242.34375,311730.75,284188.6875,289520.90625,298164.59375,-0.0908203125,0.868408203125,-0.40869140625,-0.6103515028953552,-0.3662109076976776,0.4882812201976776,100.0,28464.0,1.0
178405.7907588,295916.1875,296159.375,347125.90625,321010.5,310218.0,283796.96875,289111.25,298034.96875,-0.094482421875,0.865966796875,-0.4111328125,-0.7934569716453552,-0.4882812201976776,0.4577636420726776,100.0,28465.0,1.0
178405.793281,295887.125,296039.65625,346436.59375,321017.90625,309890.0625,283940.75,289226.03125,298095.3125,-0.093017578125,0.8681640625,-0.409423828125,-0.6713866591453552,-0.3967284858226776,0.5493163466453552,100.0,28466.0,1.0
178405.7958143,296816.0625,298614.40625,348692.9375,322506.28125,311439.9375,284514.21875,289791.625,298309.25,-0.0927734375,0.8671875,-0.40771484375,-0.6408690810203552,-0.4272460639476776,0.6408690810203552,100.0,28467.0,1.0
178405.7982467,297375.3125,300235.09375,350730.96875,323312.71875,312653.90625,284668.0625,289968.46875,298325.34375,-0.0927734375,0.8671875,-0.40966796875,-0.5493163466453552,-0.3967284858226776,0.6713866591453552,100.0,28468.0,1.0
178405.8008155,296831.4375,298680.65625,349782.5625,322360.8125,311859.34375,284217.46875,289532.53125,298152.4375,-0.09521484375,0.867919921875,-0.40869140625,-0.4882812201976776,-0.4577636420726776,0.6713866591453552,100.0,28469.0,1.0
178405.8033238,296037.15625,296308.96875,347509.84375,321105.71875,310344.6875,283816.46875,289118.65625,298019.75,-0.095458984375,0.8662109375,-0.408203125,-0.5493163466453552,-0.4882812201976776,0.7934569716453552,100.0,28470.0,1.0
178405.8063955,295958.21875,296120.21875,346739.78125,321059.21875,309970.6875,283932.96875,289219.59375,298075.71875,-0.093505859375,0.865478515625,-0.40869140625,-0.5798339247703552,-0.4882812201976776,0.7019042372703552,100.0,28471.0,1.0
178405.8064444,296840.375,298639.25,348907.34375,322498.5,311467.1875,284490.15625,289772.15625,298278.6875,-0.093994140625,0.86474609375,-0.409912109375,-0.3967284858226776,-0.4882812201976776,0.7934569716453552,100.0,28472.0,1.0
178405.808249,297359.03125,300243.5,350885.65625,323278.9375,312659.15625,284647.15625,289953.0,298290.40625,-0.096923828125,0.865478515625,-0.4111328125,-0.3051757514476776,-0.6103515028953552,0.8239745497703552,100.0,28473.0,1.0
178405.8108046,296792.75,298692.46875,349893.875,322319.40625,311866.84375,284207.8125,289528.40625,298120.875,-0.0966796875,0.86474609375,-0.410888671875,-0.2441406100988388,-0.7629393935203552,0.8544921278953552,100.0,28474.0,1.0
178405.8151012,295982.15625,296293.75,347565.0,321048.59375,310336.65625,283812.8125,289113.84375,298012.78125,-0.096435546875,0.865966796875,-0.409423828125,-0.1220703050494194,-0.8850097060203552,0.7019042372703552,100.0,28475.0,1.0
178405.8151491,295906.1875,296071.21875,346755.25,320993.5,309947.625,283930.28125,289206.8125,298101.75,-0.095703125,0.86767578125,-0.411376953125,-0.1525878757238388,-0.9765624403953552,0.7324218153953552,100.0,28476.0,1.0
178405.8288694,296787.625,298572.125,348886.53125,322431.8125,311431.25,284484.875,289759.71875,298319.28125,-0.094482421875,0.86669921875,-0.409423828125,-0.1220703050494194,-0.9155272841453552,0.6713866591453552,100.0,28477.0,1.0
178405.8289186,297314.875,300210.5,350865.8125,323233.5,312641.5625,284648.21875,289951.40625,298335.90625,-0.0927734375,0.8662109375,-0.40966796875,-0.0610351525247097,-0.8544921278953552,0.7629393935203552,100.0,28478.0,1.0
178405.8314017,296725.40625,298666.875,349841.03125,322260.40625,311845.5625,284205.84375,289524.9375,298154.21875,-0.091796875,0.86669921875,-0.411865234375,-0.03051757626235485,-0.9460448622703552,0.7629393935203552,100.0,28479.0,1.0
178405.8314531,295885.625,296238.59375,347450.03125,320962.9375,310293.09375,283802.0,289105.625,298033.15625,-0.09033203125,0.8671875,-0.41064453125,0.0610351525247097,-0.9765624403953552,0.7324218153953552,100.0,28480.0,1.0
178405.8332812,295786.375,295967.25,346557.09375,320877.09375,309861.875,283909.09375,289192.96875,298114.875,-0.089599609375,0.870361328125,-0.4111328125,0.1831054538488388,-0.9460448622703552,0.7934569716453552,100.0,28481.0,1.0
178405.8483033,296667.46875,298447.03125,348634.84375,322314.3125,311323.96875,284467.4375,289748.28125,298330.0,-0.0888671875,0.869873046875,-0.410400390625,0.2136230319738388,-0.8544921278953552,0.8239745497703552,100.0,28482.0,1.0
178405.8513977,297221.09375,300121.09375,350636.125,323153.84375,312555.625,284642.59375,289949.53125,298354.6875,-0.088623046875,0.87451171875,-0.407958984375,0.2136230319738388,-0.8239745497703552,0.8544921278953552,100.0,28483.0,1.0
178405.8514474,296651.84375,298616.0,349656.65625,322209.53125,311787.28125,284193.40625,289521.625,298165.5,-0.089599609375,0.873046875,-0.41015625,0.0915527269244194,-0.8239745497703552,0.8850097060203552,100.0,28484.0,1.0
178405.8533072,295821.78125,296193.1875,347278.34375,320918.75,310233.65625,283787.15625,289102.03125,298039.34375,-0.088623046875,0.873779296875,-0.409912109375,0.0,-0.8544921278953552,0.7629393935203552,100.0,28485.0,1.0
178405.857078,295735.84375,295913.96875,346394.9375,320843.3125,309805.125,283903.03125,289194.21875,298109.875,-0.09033203125,0.87451171875,-0.40576171875,-0.0610351525247097,-0.7934569716453552,0.7629393935203552,100.0,28486.0,1.0
178405.8614087,296645.65625,298406.53125,348504.40625,322298.84375,311281.84375,284462.34375,289752.90625,298318.71875,-0.093017578125,0.873779296875,-0.408447265625,-0.0915527269244194,-0.7324218153953552,0.7934569716453552,100.0,28487.0,1.0
178405.8614592,297236.46875,300133.6875,350582.3125,323178.4375,312547.75,284652.15625,289962.5,298348.0625,-0.0908203125,0.873046875,-0.409912109375,-0.1525878757238388,-0.7324218153953552,0.6408690810203552,100.0,28488.0,1.0
178405.8695509,296687.59375,298664.75,349667.75,322255.3125,311804.0,284211.65625,289533.875,298157.1875,-0.088134765625,0.867919921875,-0.410400390625,-0.1831054538488388,-0.7324218153953552,0.5493163466453552,100.0,28489.0,1.0
178405.873898,295861.75,296241.8125,347326.375,320966.40625,310266.0,283802.53125,289110.875,298026.46875,-0.08837890625,0.86279296875,-0.410888671875,-0.2746581733226776,-0.7019042372703552,0.6713866591453552,100.0,28490.0,1.0
178405.8739493,295755.0,295908.6875,346413.0625,320858.9375,309809.78125,283899.625,289188.59375,298102.625,-0.0849609375,0.858642578125,-0.41015625,-0.3051757514476776,-0.6408690810203552,0.6713866591453552,100.0,28491.0,1.0
178405.879557,296653.625,298369.875,348488.75,322297.59375,311254.84375,284456.625,289740.59375,298314.96875,-0.08349609375,0.855224609375,-0.41259765625,-0.2441406100988388,-0.5798339247703552,0.6713866591453552,100.0,28492.0,1.0
178405.8888958,297258.53125,300128.34375,350595.34375,323191.84375,312539.4375,284651.1875,289957.03125,298347.25,-0.084716796875,0.857177734375,-0.41259765625,0.03051757626235485,-0.3051757514476776,0.6103515028953552,100.0,28493.0,1.0
178405.8889523,296735.78125,298713.28125,349742.78125,322301.96875,311839.84375,284215.6875,289549.59375,298167.1875,-0.086181640625,0.86083984375,-0.413818359375,0.2746581733226776,-0.1525878757238388,0.4577636420726776,100.0,28494.0,1.0
178405.8932531,295897.15625,296283.90625,347397.34375,320999.84375,310298.65625,283801.71875,289123.0625,298033.875,-0.090087890625,0.86474609375,-0.412353515625,0.4882812201976776,-0.1525878757238388,0.2441406100988388,100.0,28495.0,1.0
178405.8977029,295768.03125,295912.4375,346434.625,320860.125,309808.96875,283894.09375,289187.0625,298095.75,-0.091796875,0.867919921875,-0.412353515625,0.5187987685203552,-0.1831054538488388,0.1220703050494194,100.0,28496.0,1.0
178405.8977687,296666.75,298362.28125,348490.1875,322292.0625,311244.375,284454.9375,289739.59375,298316.15625,-0.0908203125,0.867431640625,-0.41259765625,0.4272460639476776,-0.1220703050494194,0.1525878757238388,100.0,28497.0,1.0
178405.9033081,297263.46875,300130.75,350599.09375,323190.15625,312529.0,284646.625,289959.0,298345.5625,-0.090087890625,0.864013671875,-0.4111328125,0.2746581733226776,-0.2441406100988388,0.1525878757238388,100.0,28498.0,1.0
178405.9176951,296726.03125,298730.71875,349747.5,322294.75,311837.15625,284219.96875,289552.46875,298173.09375,-0.087890625,0.861083984375,-0.409912109375,0.3356933295726776,-0.2441406100988388,0.2136230319738388,100.0,28499.0,1.0
178405.9177447,295877.3125,296287.21875,347383.0625,320985.0,310295.78125,283807.96875,289128.59375,298046.9375,-0.08837890625,0.858154296875,-0.412109375,0.3356933295726776,-0.2136230319738388,0.2136230319738388,100.0,28500.0,1.0
178405.9201492,295734.96875,295869.96875,346376.5,320823.1875,309784.28125,283891.65625,289186.71875,298093.15625,-0.0927734375,0.85888671875,-0.4111328125,0.5187987685203552,-0.1220703050494194,0.2441406100988388,100.0,28501.0,1.0
178405.9201981,296615.8125,298280.03125,348378.0625,322231.96875,311192.28125,284439.71875,289725.1875,298291.28125,-0.09326171875,0.861328125,-0.409912109375,0.6713866591453552,-0.1831054538488388,0.1525878757238388,100.0,28502.0,1.0
178405.9257571,297233.0625,300093.8125,350507.8125,323153.40625,312506.28125,284643.9375,289960.53125,298341.625,-0.09912109375,0.86474609375,-0.41015625,0.8239745497703552,-0.1831054538488388,0.03051757626235485,100.0,28503.0,1.0
178405.9377018,296694.65625,298723.03125,349667.84375,322263.96875,311832.15625,284219.34375,289557.28125,298156.71875,-0.105712890625,0.866455078125,-0.4111328125,0.6408690810203552,-0.3662109076976776,-0.1220703050494194,100.0,28504.0,1.0
178405.9377503,295822.65625,296260.9375,347274.59375,320933.78125,310278.625,283801.0,289124.3125,297991.6875,-0.106689453125,0.86572265625,-0.41064453125,0.5798339247703552,-0.5493163466453552,-0.3356933295726776,100.0,28505.0,1.0
178405.9445096,295651.71875,295797.90625,346196.25,320741.03125,309732.25,283873.6875,289172.9375,298030.9375,-0.107421875,0.8642578125,-0.412109375,0.5187987685203552,-0.9155272841453552,-0.3967284858226776,100.0,28506.0,1.0
178405.9445582,296521.21875,298186.3125,348133.4375,322135.9375,311111.625,284422.46875,289714.90625,298260.71875,-0.10595703125,0.86279296875,-0.412841796875,0.3967284858226776,-1.0681151151657104,-0.6103515028953552,100.0,28507.0,1.0
178405.9445696,297142.75,300017.03125,350254.1875,323072.9375,312421.0,284637.5,289954.875,298317.46875,-0.102294921875,0.866943359375,-0.41064453125,0.3051757514476776,-1.3122557401657104,-0.7019042372703552,100.0,28508.0,1.0
178405.9488739,296629.65625,298689.78125,349455.15625,322219.625,311769.125,284224.4375,289560.6875,298150.65625,-0.0986328125,0.865966796875,-0.410888671875,0.4272460639476776,-1.4343260526657104,-0.7629393935203552,100.0,28509.0,1.0
178405.9489224,295770.0,296234.9375,347088.1875,320902.59375,310224.78125,283800.5625,289125.8125,298014.9375,-0.097412109375,0.868408203125,-0.411865234375,0.3967284858226776,-1.6479490995407104,-0.6713866591453552,100.0,28510.0,1.0
178405.9595085,295614.0,295754.53125,346019.9375,320713.84375,309676.5625,283869.125,289173.90625,298063.3125,-0.095458984375,0.870361328125,-0.41064453125,0.2136230319738388,-1.7395018339157104,-0.5493163466453552,100.0,28511.0,1.0
178405.9638976,296498.21875,298131.6875,347975.0,322115.375,311060.40625,284418.28125,289716.71875,298284.5,-0.0927734375,0.8701171875,-0.4130859375,0.2136230319738388,-1.7700194120407104,-0.3662109076976776,100.0,28512.0,1.0
178405.9639457,297135.6875,299995.03125,350135.0,323068.90625,312396.3125,284633.9375,289960.78125,298342.875,-0.0927734375,0.873291015625,-0.410888671875,0.0915527269244194,-1.8005369901657104,-0.0915527269244194,100.0,28513.0,1.0
178405.9776957,296620.8125,298692.28125,349354.65625,322215.0,311763.9375,284225.875,289565.875,298168.1875,-0.090087890625,0.87451171875,-0.412109375,-0.0610351525247097,-1.7395018339157104,0.2746581733226776,100.0,28514.0,1.0
178405.9777596,295743.90625,296225.0,346958.1875,320877.0,310210.125,283802.15625,289125.90625,298031.28125,-0.087890625,0.87548828125,-0.41162109375,-0.2441406100988388,-1.7089842557907104,0.3051757514476776,100.0,28515.0,1.0
178405.980112,295537.625,295679.34375,345798.03125,320637.21875,309612.28125,283854.46875,289159.78125,298080.46875,-0.085205078125,0.873046875,-0.41162109375,-0.3967284858226776,-1.6174315214157104,0.4272460639476776,100.0,28516.0,1.0
178405.9801604,296387.53125,298012.34375,347660.9375,322011.3125,310951.9375,284403.96875,289701.5,298295.3125,-0.08935546875,0.871826171875,-0.412109375,-0.5187987685203552,-1.5258787870407104,0.7019042372703552,100.0,28517.0,1.0
178405.9938981,297038.5,299912.5,349823.40625,322994.53125,312308.5,284638.65625,289960.53125,298346.4375,-0.088134765625,0.868896484375,-0.4130859375,-0.7324218153953552,-1.3732908964157104,0.9765624403953552,100.0,28518.0,1.0
178405.9939505,296536.5,298650.15625,349073.8125,322168.03125,311705.71875,284237.125,289574.8125,298169.5,-0.0869140625,0.868896484375,-0.41015625,-0.6713866591453552,-1.2512205839157104,1.0986326932907104,100.0,28519.0,1.0
178405.9964007,295663.25,296182.8125,346684.34375,320837.65625,310160.96875,283818.625,289141.09375,298048.53125,-0.089599609375,0.8701171875,-0.41162109375,-0.7324218153953552,-1.1901854276657104,1.3122557401657104,100.0,28520.0,1.0
178405.9964499,295433.9375,295588.5,345471.4375,320568.375,309535.5625,283851.78125,289162.125,298096.28125,-0.08935546875,0.869384765625,-0.416259765625,-0.7629393935203552,-1.1596678495407104,1.3427733182907104,100.0,28521.0,1.0
178406.005148,296267.125,297893.59375,347274.40625,321917.09375,310855.90625,284391.375,289698.46875,298314.53125,-0.091064453125,0.869873046875,-0.41259765625,-0.8544921278953552,-1.0986326932907104,1.3732908964157104,100.0,28522.0,1.0
178406.0051998,296913.25,299805.3125,349415.375,322899.03125,312215.25,284629.90625,289960.34375,298377.75,-0.09228515625,0.86865234375,-0.409423828125,-0.8544921278953552,-1.0986326932907104,1.4648436307907104,100.0,28523.0,1.0
178406.0114045,296415.96875,298568.625,348670.875,322082.03125,311619.53125,284229.34375,289576.0625,298183.90625,-0.0927734375,0.868896484375,-0.41015625,-0.8850097060203552,-1.1291502714157104,1.4648436307907104,100.0,28524.0,1.0
178406.0114552,295545.25,296103.75,346279.78125,320754.15625,310067.53125,283800.90625,289131.71875,298027.90625,-0.093505859375,0.871337890625,-0.410888671875,-1.0070799589157104,-1.0070799589157104,1.2817381620407104,100.0,28525.0,1.0
178406.0176975,295329.3125,295499.5625,345054.0,320488.0,309430.78125,283838.75,289149.0625,298068.46875,-0.093505859375,0.868408203125,-0.4111328125,-1.2512205839157104,-1.0375975370407104,1.0986326932907104,100.0,28526.0,1.0
178406.0177498,296178.875,297796.6875,346863.6875,321856.09375,310745.9375,284377.0625,289682.90625,298286.8125,-0.093505859375,0.8681640625,-0.410400390625,-1.3122557401657104,-1.0375975370407104,0.9460448622703552,100.0,28527.0,1.0
178406.0220763,296871.25,299756.84375,349086.25,322893.40625,312132.1875,284624.625,289951.59375,298348.5,-0.093505859375,0.86962890625,-0.4130859375,-1.3732908964157104,-0.9765624403953552,0.9460448622703552,100.0,28528.0,1.0
178406.0245135,296439.65625,298588.5625,348472.65625,322141.40625,311591.28125,284239.1875,289577.21875,298185.96875,-0.094970703125,0.8701171875,-0.411865234375,-1.4953612089157104,-1.0375975370407104,0.7324218153953552,100.0,28529.0,1.0
178406.033333,295619.8125,296161.78125,346198.9375,320847.59375,310085.3125,283807.4375,289135.125,298053.28125,-0.09326171875,0.86962890625,-0.40966796875,-1.4953612089157104,-1.0375975370407104,0.5798339247703552,100.0,28530.0,1.0
178406.0357948,295428.03125,295549.8125,345046.125,320590.71875,309465.5625,283844.625,289151.9375,298097.28125,-0.091064453125,0.86865234375,-0.408935546875,-1.6174315214157104,-1.0070799589157104,0.3967284858226776,100.0,28531.0,1.0
178406.0395769,296281.40625,297836.90625,346885.78125,321942.90625,310770.4375,284380.28125,289680.0625,298303.0,-0.08984375,0.8681640625,-0.41015625,-1.5258787870407104,-0.9765624403953552,0.3051757514476776,100.0,28532.0,1.0
178406.0538918,296999.625,299850.625,349193.1875,323005.15625,312197.1875,284644.21875,289960.34375,298338.21875,-0.08935546875,0.8701171875,-0.408447265625,-1.6174315214157104,-0.8239745497703552,0.2441406100988388,100.0,28533.0,1.0
178406.0539414,296566.1875,298712.65625,348640.375,322262.8125,311676.21875,284251.25,289589.03125,298136.4375,-0.087890625,0.870361328125,-0.4111328125,-1.5869139432907104,-0.7019042372703552,0.1525878757238388,100.0,28534.0,1.0
178406.057233,295722.90625,296264.875,346369.71875,320948.28125,310155.5,283814.25,289143.625,297955.75,-0.08984375,0.8701171875,-0.40966796875,-1.6784666776657104,-0.7019042372703552,0.1220703050494194,100.0,28535.0,1.0
178406.0626476,295500.28125,295609.34375,345177.28125,320651.34375,309506.40625,283843.28125,289154.96875,297965.21875,-0.09033203125,0.86962890625,-0.40869140625,-1.7700194120407104,-0.5493163466453552,0.0915527269244194,100.0,28536.0,1.0
178406.0626987,296338.71875,297868.5625,346977.84375,321982.71875,310793.34375,284378.65625,289684.78125,298159.15625,-0.0927734375,0.868896484375,-0.408203125,-1.6784666776657104,-0.5187987685203552,0.0610351525247097,100.0,28537.0,1.0
178406.0645845,297043.875,299880.21875,349270.53125,323036.625,312211.40625,284630.0625,289963.84375,298197.59375,-0.093017578125,0.866943359375,-0.40869140625,-1.6174315214157104,-0.6103515028953552,0.03051757626235485,100.0,28538.0,1.0
178406.0670922,296622.78125,298774.0,348747.75,322308.25,311717.8125,284240.875,289598.875,298046.03125,-0.093994140625,0.867919921875,-0.406982421875,-1.6479490995407104,-0.6408690810203552,0.0,100.0,28539.0,1.0
178406.0708435,295782.71875,296330.84375,346491.21875,320995.21875,310213.875,283806.46875,289151.375,297896.65625,-0.094970703125,0.864990234375,-0.40576171875,-1.7089842557907104,-0.6408690810203552,0.0915527269244194,100.0,28540.0,1.0
178406.0795745,295537.8125,295640.0,345265.09375,320671.375,309547.1875,283831.59375,289151.65625,297870.1875,-0.0947265625,0.864990234375,-0.40625,-1.5869139432907104,-0.6408690810203552,0.0610351525247097,100.0,28541.0,1.0
178406.0826958,296342.65625,297852.65625,347009.875,321977.0625,310805.40625,284360.875,289675.40625,297937.3125,-0.095458984375,0.864501953125,-0.405517578125,-1.5563963651657104,-0.6408690810203552,0.2441406100988388,100.0,28542.0,1.0
178406.0827432,297064.34375,299898.5625,349319.25,323059.6875,312248.875,284633.5625,289971.53125,297948.15625,-0.096435546875,0.86279296875,-0.40576171875,-1.5258787870407104,-0.6713866591453552,0.2136230319738388,100.0,28543.0,1.0
178406.0958264,296657.90625,298834.96875,348836.0,322351.40625,311778.96875,284252.78125,289612.375,297736.0625,-0.099365234375,0.862548828125,-0.405029296875,-1.4038084745407104,-0.6713866591453552,0.2746581733226776,100.0,28544.0,1.0
178406.0988427,295822.9375,296398.09375,346595.03125,321037.59375,310272.53125,283815.65625,289166.21875,297544.46875,-0.098388671875,0.862548828125,-0.405029296875,-1.3732908964157104,-0.7019042372703552,0.3662109076976776,100.0,28545.0,1.0
178406.0988892,295565.28125,295667.0,345344.21875,320699.625,309582.125,283829.96875,289156.21875,297487.25,-0.098876953125,0.86474609375,-0.402587890625,-1.2207030057907104,-0.7019042372703552,0.4272460639476776,100.0,28546.0,1.0
178406.1007095,296357.15625,297846.3125,347047.9375,321982.78125,310807.625,284342.53125,289674.5,297632.96875,-0.10009765625,0.865234375,-0.4033203125,-1.0375975370407104,-0.8544921278953552,0.4272460639476776,100.0,28547.0,1.0
178406.1044538,297093.0625,299924.03125,349386.03125,323077.59375,312268.71875,284629.8125,289978.59375,297696.28125,-0.097900390625,0.867919921875,-0.402099609375,-1.0375975370407104,-1.0070799589157104,0.4272460639476776,100.0,28548.0,1.0
178406.1081899,296709.59375,298907.75,348961.4375,322398.09375,311837.0625,284264.9375,289628.71875,297518.8125,-0.09814453125,0.870849609375,-0.40478515625,-0.9765624403953552,-1.0070799589157104,0.5187987685203552,100.0,28549.0,1.0
178406.1176959,295865.84375,296456.3125,346727.78125,321078.625,310329.21875,283824.53125,289169.71875,297330.34375,-0.099365234375,0.87158203125,-0.40380859375,-0.9765624403953552,-1.0681151151657104,0.6103515028953552,100.0,28550.0,1.0
178406.1177457,295589.84375,295681.6875,345442.28125,320706.6875,309609.40625,283829.875,289147.90625,297268.03125,-0.09765625,0.870849609375,-0.4013671875,-1.0375975370407104,-1.2207030057907104,0.7019042372703552,100.0,28551.0,1.0
178406.1201484,296381.5625,297853.625,347136.09375,321983.0625,310832.125,284361.15625,289662.96875,297420.71875,-0.097900390625,0.868408203125,-0.40185546875,-1.0070799589157104,-1.2207030057907104,0.7019042372703552,100.0,28552.0,1.0
178406.1202019,297109.78125,299938.6875,349481.875,323083.03125,312291.53125,284647.6875,289965.53125,297462.125,-0.0986328125,0.87109375,-0.400390625,-1.0681151151657104,-1.2512205839157104,0.7324218153953552,100.0,28553.0,1.0
178406.1308312,296736.0625,298955.59375,349088.03125,322419.375,311872.90625,284285.5,289620.96875,297297.96875,-0.098388671875,0.873046875,-0.405029296875,-1.0681151151657104,-1.3122557401657104,0.9155272841453552,100.0,28554.0,1.0
178406.1338966,295899.28125,296513.59375,346868.5,321105.25,310374.375,283845.625,289168.65625,297153.3125,-0.0986328125,0.872314453125,-0.407958984375,-1.0986326932907104,-1.3122557401657104,0.9460448622703552,100.0,28555.0,1.0
178406.1339469,295608.0,295705.46875,345556.71875,320713.9375,309638.46875,283840.4375,289140.9375,297172.1875,-0.09521484375,0.871337890625,-0.405517578125,-1.0681151151657104,-1.3732908964157104,0.9155272841453552,100.0,28556.0,1.0
178406.1358289,296380.84375,297840.5,347199.3125,321965.0,310827.75,284356.75,289652.15625,297403.28125,-0.094970703125,0.870849609375,-0.406494140625,-1.0681151151657104,-1.4343260526657104,0.9765624403953552,100.0,28557.0,1.0
178406.1445764,297122.46875,299952.75,349561.375,323083.40625,312307.53125,284646.34375,289963.65625,297514.6875,-0.09619140625,0.86962890625,-0.404541015625,-1.2207030057907104,-1.4343260526657104,1.0681151151657104,100.0,28558.0,1.0
178406.147079,296750.96875,298988.21875,349191.9375,322432.6875,311907.53125,284287.46875,289618.71875,297351.4375,-0.093994140625,0.867431640625,-0.40087890625,-1.0986326932907104,-1.4343260526657104,1.1291502714157104,100.0,28559.0,1.0
178406.1507148,295911.4375,296535.5,346969.1875,321112.96875,310401.71875,283839.8125,289159.53125,297195.15625,-0.09326171875,0.86669921875,-0.4033203125,-1.0070799589157104,-1.4343260526657104,1.1596678495407104,100.0,28560.0,1.0
178406.1594828,295619.8125,295707.96875,345637.90625,320712.5,309655.8125,283815.84375,289131.375,297208.9375,-0.09130859375,0.86669921875,-0.401611328125,-0.8850097060203552,-1.4038084745407104,1.0681151151657104,100.0,28561.0,1.0
178406.1688982,296379.3125,297808.5,347246.53125,321953.125,310829.90625,284327.71875,289641.15625,297379.25,-0.091064453125,0.866943359375,-0.402099609375,-0.7629393935203552,-1.3732908964157104,1.0375975370407104,100.0,28562.0,1.0
178406.1689528,297136.25,299949.59375,349627.0625,323097.25,312327.8125,284636.15625,289970.90625,297338.9375,-0.092529296875,0.866943359375,-0.401611328125,-0.7324218153953552,-1.3122557401657104,1.0375975370407104,100.0,28563.0,1.0
178406.1713793,296797.90625,299042.84375,349313.78125,322480.6875,311967.4375,284283.96875,289644.75,297041.65625,-0.090087890625,0.867431640625,-0.405517578125,-0.6103515028953552,-1.2512205839157104,0.9765624403953552,100.0,28564.0,1.0
178406.1714253,295958.9375,296592.03125,347103.65625,321155.0625,310465.21875,283829.875,289183.125,296788.1875,-0.091064453125,0.8681640625,-0.40673828125,-0.5187987685203552,-1.1291502714157104,1.0070799589157104,100.0,28565.0,1.0
178406.1732863,295651.0,295720.5625,345740.65625,320730.125,309693.28125,283811.5625,289142.0,296698.6875,-0.08984375,0.8671875,-0.40576171875,-0.5493163466453552,-1.0986326932907104,0.9460448622703552,100.0,28566.0,1.0
178406.1870068,296405.25,297802.21875,347321.0,321954.375,310849.65625,284318.84375,289644.375,296887.78125,-0.087890625,0.86572265625,-0.404296875,-0.4577636420726776,-1.0681151151657104,0.9460448622703552,100.0,28567.0,1.0
178406.1901477,297158.3125,299952.1875,349708.71875,323102.4375,312347.40625,284624.4375,289968.46875,297217.0625,-0.08935546875,0.86669921875,-0.405517578125,-0.4577636420726776,-0.9155272841453552,0.8544921278953552,100.0,28568.0,1.0
178406.1902039,296822.34375,299066.90625,349425.5625,322496.4375,311998.09375,284287.65625,289646.625,297251.40625,-0.08984375,0.86767578125,-0.403564453125,-0.2746581733226776,-0.8239745497703552,0.9155272841453552,100.0,28569.0,1.0
178406.1927132,295985.65625,296623.03125,347225.25,321172.15625,310498.8125,283847.21875,289183.125,297192.375,-0.089111328125,0.868408203125,-0.403076171875,-0.2441406100988388,-0.7324218153953552,0.7629393935203552,100.0,28570.0,1.0
178406.1927605,295657.96875,295715.46875,345827.1875,320719.21875,309699.4375,283820.6875,289131.28125,297267.40625,-0.088623046875,0.869873046875,-0.40380859375,-0.2136230319738388,-0.5493163466453552,0.7934569716453552,100.0,28571.0,1.0
178406.2058301,296394.34375,297764.9375,347365.875,321927.375,310832.03125,284327.0625,289632.03125,297515.5,-0.08984375,0.869873046875,-0.40234375,-0.2136230319738388,-0.5187987685203552,0.6408690810203552,100.0,28572.0,1.0
178406.2132357,297156.25,299944.78125,349770.21875,323092.15625,312347.84375,284643.65625,289973.65625,297634.15625,-0.089599609375,0.869140625,-0.406005859375,-0.1831054538488388,-0.5493163466453552,0.6713866591453552,100.0,28573.0,1.0
178406.2132835,296824.84375,299092.0,349511.90625,322503.3125,312018.375,284301.6875,289655.03125,297488.84375,-0.089111328125,0.86962890625,-0.4072265625,-0.1220703050494194,-0.4272460639476776,0.7019042372703552,100.0,28574.0,1.0
178406.2132952,295987.28125,296649.875,347323.25,321181.25,310526.09375,283849.8125,289185.53125,297334.71875,-0.089111328125,0.8701171875,-0.4072265625,-0.1525878757238388,-0.4272460639476776,0.4577636420726776,100.0,28575.0,1.0
178406.2164031,295651.90625,295718.0625,345905.59375,320718.84375,309713.28125,283812.90625,289132.0,297351.8125,-0.090576171875,0.869873046875,-0.405517578125,-0.1220703050494194,-0.3662109076976776,0.6103515028953552,100.0,28576.0,1.0
178406.2164558,296378.6875,297744.375,347413.0,321911.90625,310827.75,284318.59375,289632.65625,297585.875,-0.091796875,0.870849609375,-0.404052734375,-0.03051757626235485,-0.3051757514476776,0.5187987685203552,100.0,28577.0,1.0
178406.2270761,297153.59375,299946.125,349822.875,323091.625,312347.9375,284645.375,289979.5625,297682.96875,-0.08984375,0.8701171875,-0.4033203125,-0.1220703050494194,-0.3356933295726776,0.4577636420726776,100.0,28578.0,1.0
178406.2344331,296848.09375,299140.375,349611.34375,322531.9375,312050.5625,284317.6875,289667.53125,297524.1875,-0.090576171875,0.869873046875,-0.403076171875,-0.1220703050494194,-0.2441406100988388,0.4272460639476776,100.0,28579.0,1.0
178406.2344759,296015.875,296700.5625,347439.46875,321216.5625,310568.5625,283861.71875,289202.8125,297404.1875,-0.090087890625,0.8701171875,-0.403564453125,0.0,-0.2136230319738388,0.4577636420726776,100.0,28580.0,1.0
178406.2344885,295666.3125,295733.09375,345995.625,320732.25,309733.9375,283814.34375,289135.125,297442.8125,-0.091064453125,0.8701171875,-0.4013671875,0.0,-0.1831054538488388,0.5798339247703552,100.0,28581.0,1.0
178406.2369868,296383.78125,297727.125,347467.375,321907.34375,310822.5625,284312.6875,289623.625,297654.53125,-0.091064453125,0.867431640625,-0.403564453125,-0.0610351525247097,-0.0610351525247097,0.5187987685203552,100.0,28582.0,1.0
178406.2407384,297163.875,299946.21875,349889.84375,323097.34375,312350.625,284634.1875,289967.59375,297786.59375,-0.091796875,0.8681640625,-0.403076171875,-0.0610351525247097,-0.1525878757238388,0.5187987685203552,100.0,28583.0,1.0
178406.2470831,296877.21875,299178.375,349716.125,322558.5625,312078.375,284311.625,289667.34375,297655.4375,-0.092529296875,0.8671875,-0.404296875,0.03051757626235485,-0.1831054538488388,0.5493163466453552,100.0,28584.0,1.0
178406.2533283,296041.53125,296734.0,347549.875,321236.59375,310599.78125,283851.96875,289199.03125,297485.625,-0.09326171875,0.86865234375,-0.406005859375,0.1220703050494194,-0.2441406100988388,0.6408690810203552,100.0,28585.0,1.0
178406.2626956,295690.25,295739.15625,346087.375,320740.03125,309755.6875,283806.0,289132.625,297492.78125,-0.09423828125,0.868408203125,-0.403564453125,0.0610351525247097,-0.1831054538488388,0.5798339247703552,100.0,28586.0,1.0
178406.2627454,296406.3125,297710.9375,347533.53125,321909.03125,310829.53125,284308.5625,289620.96875,297693.40625,-0.09326171875,0.8671875,-0.403564453125,0.1220703050494194,-0.2441406100988388,0.7019042372703552,100.0,28587.0,1.0
178406.2738959,297196.75,299953.1875,349979.4375,323120.15625,312373.25,284641.0,289971.96875,297785.875,-0.09326171875,0.869873046875,-0.404296875,0.03051757626235485,-0.2441406100988388,0.6408690810203552,100.0,28588.0,1.0
178406.2739502,296914.34375,299218.625,349842.28125,322595.6875,312120.03125,284319.84375,289671.46875,297625.375,-0.092529296875,0.8701171875,-0.403564453125,0.1525878757238388,-0.2136230319738388,0.5798339247703552,100.0,28589.0,1.0
178406.2907862,296081.15625,296783.53125,347694.90625,321275.6875,310647.59375,283860.09375,289198.15625,297473.40625,-0.090576171875,0.870361328125,-0.40673828125,0.1220703050494194,-0.2746581733226776,0.4882812201976776,100.0,28590.0,1.0
178406.2908359,295712.625,295754.8125,346210.9375,320762.125,309782.0625,283803.34375,289122.15625,297535.8125,-0.091552734375,0.86962890625,-0.40625,0.1525878757238388,-0.2441406100988388,0.6103515028953552,100.0,28591.0,1.0
178406.2908477,296413.03125,297694.9375,347627.21875,321908.3125,310830.625,284297.75,289607.46875,297799.8125,-0.0908203125,0.8681640625,-0.40625,0.1831054538488388,-0.1831054538488388,0.7629393935203552,100.0,28592.0,1.0
178406.2932724,297226.4375,299976.25,350102.46875,323139.09375,312397.375,284653.6875,289977.59375,297933.03125,-0.091552734375,0.869384765625,-0.405029296875,0.0915527269244194,-0.2136230319738388,0.7019042372703552,100.0,28593.0,1.0
178406.2969909,296952.59375,299277.34375,350000.25,322628.125,312169.75,284343.4375,289680.0625,297773.8125,-0.093017578125,0.86865234375,-0.40625,0.2136230319738388,-0.1525878757238388,0.7324218153953552,100.0,28594.0,1.0
178406.2970388,296107.78125,296829.3125,347839.125,321292.3125,310686.40625,283869.9375,289205.125,297590.0625,-0.090576171875,0.869384765625,-0.40478515625,0.1525878757238388,-0.2136230319738388,0.7324218153953552,100.0,28595.0,1.0
178406.2970507,295728.25,295765.375,346316.96875,320754.15625,309798.84375,283804.84375,289123.40625,297599.1875,-0.091796875,0.871337890625,-0.40673828125,0.1525878757238388,-0.1831054538488388,0.7324218153953552,100.0,28596.0,1.0
178406.2995356,296420.1875,297679.03125,347691.78125,321886.25,310828.8125,284291.9375,289602.71875,297810.71875,-0.093505859375,0.87255859375,-0.406494140625,0.1525878757238388,-0.2136230319738388,0.7324218153953552,100.0,28597.0,1.0
178406.3020815,297224.9375,299962.125,350157.0,323112.90625,312388.4375,284643.9375,289972.0625,297939.1875,-0.09375,0.8720703125,-0.406005859375,0.1525878757238388,-0.2746581733226776,0.7324218153953552,100.0,28598.0,1.0
178406.305767,296959.84375,299292.46875,350080.71875,322620.09375,312175.5625,284338.25,289680.9375,297815.90625,-0.093505859375,0.869384765625,-0.40283203125,0.1220703050494194,-0.2746581733226776,0.6103515028953552,100.0,28599.0,1.0
178406.3195373,296129.6875,296865.34375,347946.6875,321302.40625,310711.875,283877.375,289212.375,297675.28125,-0.092529296875,0.8681640625,-0.405029296875,0.0610351525247097,-0.3662109076976776,0.6103515028953552,100.0,28600.0,1.0
178406.3226568,295739.875,295776.09375,346408.5,320754.53125,309813.0,283806.625,289125.0,297670.53125,-0.093994140625,0.866455078125,-0.40673828125,0.1220703050494194,-0.4272460639476776,0.6408690810203552,100.0,28601.0,1.0
178406.3227267,296413.90625,297660.34375,347740.78125,321868.875,310819.0,284290.6875,289599.5,297871.6875,-0.093505859375,0.866455078125,-0.407958984375,0.0610351525247097,-0.4577636420726776,0.7324218153953552,100.0,28602.0,1.0
178406.3245773,297226.0,299967.21875,350211.09375,323116.375,312390.9375,284651.1875,289976.53125,297984.875,-0.09375,0.867919921875,-0.406005859375,0.0915527269244194,-0.4882812201976776,0.6103515028953552,100.0,28603.0,1.0
178406.3270006,296965.65625,299329.5625,350150.1875,322635.03125,312193.4375,284345.3125,289691.0625,297831.375,-0.092529296875,0.866943359375,-0.405029296875,0.1525878757238388,-0.4577636420726776,0.6103515028953552,100.0,28604.0,1.0
178406.3308259,296120.03125,296890.8125,348001.84375,321299.90625,310721.71875,283873.96875,289213.625,297663.125,-0.08935546875,0.868408203125,-0.4091796875,0.1831054538488388,-0.4577636420726776,0.5493163466453552,100.0,28605.0,1.0
178406.3451726,295711.28125,295760.25,346426.9375,320730.125,309804.03125,283802.25,289123.21875,297670.1875,-0.091064453125,0.86962890625,-0.408447265625,0.1220703050494194,-0.4882812201976776,0.6408690810203552,100.0,28606.0,1.0
178406.3452266,296374.125,297607.5,347714.3125,321828.3125,310790.125,284290.59375,289599.3125,297881.8125,-0.093994140625,0.86865234375,-0.40673828125,0.1831054538488388,-0.5493163466453552,0.6103515028953552,100.0,28607.0,1.0
178406.3470344,297198.90625,299940.5625,350195.0,323091.25,312377.28125,284656.53125,289984.65625,298010.375,-0.09423828125,0.86767578125,-0.405029296875,0.2136230319738388,-0.6408690810203552,0.6408690810203552,100.0,28608.0,1.0
178406.35013,296954.21875,299343.6875,350177.03125,322635.09375,312207.9375,284358.375,289706.34375,297860.625,-0.0947265625,0.86865234375,-0.40478515625,0.1220703050494194,-0.7934569716453552,0.6408690810203552,100.0,28609.0,1.0
178406.3501767,296117.34375,296909.9375,348037.59375,321305.34375,310737.0,283895.34375,289230.875,297706.28125,-0.094482421875,0.86767578125,-0.40869140625,0.2136230319738388,-0.8239745497703552,0.5187987685203552,100.0,28610.0,1.0
178406.3520354,295708.75,295757.21875,346438.90625,320719.5625,309803.59375,283817.28125,289129.03125,297704.6875,-0.09375,0.86767578125,-0.406005859375,0.2746581733226776,-0.8239745497703552,0.5493163466453552,100.0,28611.0,1.0
178406.3608256,296358.5625,297576.46875,347684.4375,321795.75,310762.03125,284293.375,289597.1875,297894.0625,-0.09228515625,0.869873046875,-0.40380859375,0.1525878757238388,-0.8544921278953552,0.5798339247703552,100.0,28612.0,1.0
178406.3639245,297181.03125,299914.1875,350163.0625,323060.875,312347.75,284657.15625,289982.25,298011.8125,-0.092041015625,0.868896484375,-0.407958984375,0.1831054538488388,-0.9155272841453552,0.6408690810203552,100.0,28613.0,1.0
178406.3639734,296962.6875,299360.78125,350184.96875,322629.375,312209.90625,284370.625,289716.4375,297893.4375,-0.094482421875,0.86962890625,-0.406982421875,0.2136230319738388,-1.0070799589157104,0.6103515028953552,100.0,28614.0,1.0
178406.3733309,296137.375,296938.8125,348067.625,321308.84375,310755.875,283897.75,289240.875,297731.15625,-0.09326171875,0.870849609375,-0.407470703125,0.1525878757238388,-1.0375975370407104,0.5798339247703552,100.0,28615.0,1.0
178406.3758514,295712.6875,295747.03125,346440.6875,320706.15625,309799.125,283805.9375,289131.8125,297724.0,-0.09228515625,0.86962890625,-0.40869140625,0.1525878757238388,-0.9460448622703552,0.5798339247703552,100.0,28616.0,1.0
178406.3820786,296352.6875,297532.3125,347651.4375,321770.625,310737.0,284282.375,289598.0625,297925.0625,-0.088134765625,0.868408203125,-0.408203125,0.2441406100988388,-0.9460448622703552,0.5493163466453552,100.0,28617.0,1.0
178406.3877461,297186.3125,299889.0,350132.6875,323052.5625,312328.0,284658.25,289990.84375,298048.375,-0.090576171875,0.868408203125,-0.40673828125,0.1220703050494194,-1.0070799589157104,0.5798339247703552,100.0,28618.0,1.0
178406.3877946,296976.46875,299369.0,350186.21875,322642.8125,312211.6875,284368.84375,289730.03125,297906.375,-0.090576171875,0.8662109375,-0.40771484375,0.1525878757238388,-0.9155272841453552,0.5798339247703552,100.0,28619.0,1.0
178406.3895508,296149.1875,296946.59375,348077.5625,321325.65625,310761.59375,283901.0625,289254.65625,297757.34375,-0.091064453125,0.86572265625,-0.406982421875,0.1220703050494194,-0.8544921278953552,0.5798339247703552,100.0,28620.0,1.0
178406.3957704,295712.96875,295731.21875,346427.75,320703.5625,309790.1875,283802.53125,289133.6875,297735.8125,-0.0888671875,0.868408203125,-0.406494140625,0.1831054538488388,-0.8239745497703552,0.5798339247703552,100.0,28621.0,1.0
