Time,FZ,C3,CZ,C4,PZ,PO7,OZ,PO8,AccX,AccY,AccZ,Gyro1,Gyro2,Gyro3,Battery,Counter,Validation
509712.6874951,265355.53125,279374.125,284317.25,269461.5625,285263.09375,268232.375,253573.765625,257292.1875,-0.028564453125,0.8876953125,-0.455810546875,-3.784179449081421,-3.143310308456421,-1.7700194120407104,100.0,66214.0,1.0
509712.6875118,266040.5,279277.5625,284105.875,269026.59375,284669.0625,267713.125,253361.78125,257002.421875,-0.028564453125,0.88720703125,-0.45556640625,-3.387450933456421,-3.509521245956421,-1.7700194120407104,100.0,66215.0,1.0
509712.6898379,267413.5,279422.5625,283521.53125,268126.1875,281379.78125,266822.0,252696.9375,255956.0,-0.026611328125,0.886474609375,-0.452880859375,-3.051757574081421,-3.753661870956421,-1.7089842557907104,100.0,66216.0,1.0
509712.6924386,267521.59375,279564.09375,283344.40625,267986.4375,279977.53125,266772.46875,252487.546875,255597.9375,-0.025146484375,0.885009765625,-0.453369140625,-2.746581792831421,-4.089354991912842,-1.6174315214157104,100.0,66217.0,1.0
509712.694991,266335.71875,279554.1875,283822.375,268772.6875,282259.4375,267602.96875,253001.28125,256379.796875,-0.025146484375,0.8818359375,-0.4541015625,-2.258300542831421,-4.333495616912842,-1.4953612089157104,100.0,66218.0,1.0
509712.6975199,265401.40625,279387.6875,284328.25,269467.09375,285235.8125,268215.84375,253569.375,257283.703125,-0.02490234375,0.883544921875,-0.458251953125,-1.8615721464157104,-4.577636241912842,-1.5258787870407104,100.0,66219.0,1.0
509712.7016485,266060.0625,279278.625,284117.15625,269038.9375,284672.1875,267701.59375,253351.84375,256992.59375,-0.023681640625,0.8818359375,-0.45947265625,-1.6479490995407104,-4.791259288787842,-1.5869139432907104,100.0,66220.0,1.0
509712.7086123,267443.90625,279440.09375,283544.6875,268138.5,281410.96875,266824.5,252698.203125,255956.1875,-0.02587890625,0.8818359375,-0.461181640625,-1.2512205839157104,-4.974364757537842,-1.4648436307907104,100.0,66221.0,1.0
509712.7113288,267581.40625,279611.5625,283381.15625,268003.0625,280014.875,266790.53125,252508.921875,255609.734375,-0.025390625,0.881103515625,-0.46240234375,-0.7324218153953552,-5.096435070037842,-1.4953612089157104,100.0,66222.0,1.0
509712.7138234,266398.28125,279600.9375,283858.0625,268797.875,282268.46875,267620.5,253024.265625,256387.125,-0.0234375,0.880126953125,-0.46435546875,-0.2441406100988388,-5.340575695037842,-1.5563963651657104,100.0,66223.0,1.0
509712.7162324,265415.1875,279391.8125,284335.3125,269474.0625,285222.125,268211.75,253563.203125,257267.25,-0.02490234375,0.881591796875,-0.4638671875,0.0610351525247097,-5.401610851287842,-1.5258787870407104,100.0,66224.0,1.0
509712.718709,266067.03125,279296.5,284146.5625,269066.65625,284726.90625,267731.71875,253369.546875,257007.4375,-0.02587890625,0.87890625,-0.46337890625,0.5187987685203552,-5.523681163787842,-1.4038084745407104,100.0,66225.0,1.0
509712.7236409,267462.15625,279468.25,283585.09375,268172.3125,281491.96875,266865.1875,252721.171875,255980.421875,-0.027587890625,0.874755859375,-0.4638671875,0.8850097060203552,-5.645751476287842,-1.4343260526657104,100.0,66226.0,1.0
509712.7262952,267608.96875,279630.53125,283407.09375,268016.375,280039.375,266804.03125,252510.265625,255612.953125,-0.0283203125,0.87158203125,-0.462646484375,1.2512205839157104,-5.950927257537842,-1.3732908964157104,100.0,66227.0,1.0
509712.7287822,266412.25,279603.4375,283863.40625,268782.6875,282241.65625,267619.3125,253012.453125,256375.0625,-0.02783203125,0.8681640625,-0.46142578125,1.5258787870407104,-5.920409679412842,-1.3732908964157104,100.0,66228.0,1.0
509712.7288242,265420.8125,279399.21875,284350.21875,269473.09375,285209.875,268226.75,253560.34375,257267.78125,-0.023193359375,0.868408203125,-0.463134765625,1.9531248807907104,-5.950927257537842,-1.2817381620407104,100.0,66229.0,1.0
509712.73124,266055.40625,279305.53125,284168.65625,269070.3125,284756.40625,267752.375,253376.609375,257022.453125,-0.019287109375,0.8681640625,-0.46484375,2.380370855331421,-5.950927257537842,-1.0986326932907104,100.0,66230.0,1.0
509712.7337136,267436.21875,279459.75,283586.6875,268154.15625,281501.28125,266863.46875,252709.640625,255971.75,-0.017822265625,0.870361328125,-0.46533203125,2.746581792831421,-5.889892101287842,-0.9460448622703552,100.0,66231.0,1.0
509712.7363573,267586.25,279615.6875,283392.25,267981.4375,280006.40625,266790.53125,252490.328125,255586.21875,-0.0146484375,0.873291015625,-0.469482421875,3.204345464706421,-5.706786632537842,-0.7324218153953552,100.0,66232.0,1.0
509712.7363993,266394.4375,279579.9375,283835.0625,268743.8125,282167.71875,267585.34375,252978.046875,256331.0625,-0.01416015625,0.873046875,-0.470703125,3.479003667831421,-5.493163585662842,-0.6408690810203552,100.0,66233.0,1.0
509712.7387986,265392.1875,279368.9375,284324.40625,269442.5,285153.1875,268191.53125,253528.15625,257230.953125,-0.015625,0.87353515625,-0.466796875,3.814697027206421,-5.493163585662842,-0.3356933295726776,100.0,66234.0,1.0
509712.7437402,266015.625,279274.96875,284155.0625,269063.875,284747.5625,267735.375,253353.453125,257004.484375,-0.016845703125,0.872314453125,-0.4677734375,3.997802495956421,-5.340575695037842,-0.1831054538488388,100.0,66235.0,1.0
509712.7463251,267416.375,279447.15625,283590.375,268167.21875,281518.4375,266865.0,252705.34375,255978.53125,-0.0146484375,0.871337890625,-0.470947265625,4.272460460662842,-5.126952648162842,0.0,100.0,66236.0,1.0
509712.7463685,267576.40625,279591.625,283380.0,267976.5,279981.375,266771.46875,252469.578125,255574.6875,-0.013671875,0.870849609375,-0.475830078125,4.455565929412842,-4.913329601287842,0.1220703050494194,100.0,66237.0,1.0
509712.7488348,266386.40625,279554.875,283813.625,268729.125,282109.4375,267557.0,252952.015625,256307.375,-0.01171875,0.87255859375,-0.47900390625,4.638671398162842,-4.638671398162842,0.3051757514476776,100.0,66238.0,1.0
509712.7513506,265364.9375,279344.0625,284304.71875,269436.96875,285112.25,268169.4375,253507.5,257212.4375,-0.0126953125,0.8759765625,-0.4775390625,5.126952648162842,-4.394530773162842,0.4882812201976776,100.0,66239.0,1.0
509712.7513931,265964.40625,279249.125,284142.625,269071.75,284759.4375,267728.40625,253352.03125,257006.265625,-0.01025390625,0.873046875,-0.483642578125,5.310058116912842,-4.241942882537842,0.6103515028953552,100.0,66240.0,1.0
509712.7537454,267346.0,279406.03125,283558.09375,268151.375,281524.15625,266847.84375,252700.25,255968.96875,-0.01025390625,0.87158203125,-0.48681640625,5.584716320037842,-3.906249761581421,0.7629393935203552,100.0,66241.0,1.0
509712.7600843,267533.40625,279558.28125,283343.0625,267953.53125,279936.75,266749.125,252457.6875,255552.609375,-0.01123046875,0.870361328125,-0.488037109375,5.859374523162842,-3.601073980331421,0.9765624403953552,100.0,66242.0,1.0
509712.7751311,266388.09375,279554.09375,283806.375,268725.03125,282069.28125,267560.0625,252960.421875,256309.171875,-0.010986328125,0.86767578125,-0.48828125,6.042479991912842,-3.295898199081421,1.1901854276657104,100.0,66243.0,1.0
509712.7751726,265375.21875,279353.28125,284314.03125,269445.28125,285104.46875,268178.84375,253522.53125,257225.671875,-0.015380859375,0.8671875,-0.493408203125,6.347655773162842,-2.990722417831421,1.2512205839157104,100.0,66244.0,1.0
509712.778938,265959.75,279259.21875,284162.75,269090.6875,284800.03125,267748.25,253370.265625,257028.359375,-0.017822265625,0.8671875,-0.49560546875,6.622313976287842,-2.685546636581421,1.2817381620407104,100.0,66245.0,1.0
509712.7789752,267334.75,279405.65625,283567.21875,268163.8125,281554.9375,266861.34375,252699.625,255977.640625,-0.022216796875,0.8681640625,-0.494140625,6.958007335662842,-2.471923589706421,1.1291502714157104,100.0,66246.0,1.0
509712.7789859,267543.96875,279572.15625,283351.65625,267964.875,279947.03125,266766.65625,252454.03125,255554.125,-0.025390625,0.870361328125,-0.499755859375,7.049560070037842,-2.349853277206421,1.1291502714157104,100.0,66247.0,1.0
509712.8276216,266409.90625,279574.03125,283812.09375,268734.6875,282049.0625,267566.5,252943.96875,256296.015625,-0.02783203125,0.87158203125,-0.499755859375,7.171630382537842,-2.136230230331421,1.0070799589157104,100.0,66248.0,1.0
509712.8324761,265391.9375,279377.40625,284329.59375,269466.125,285103.125,268192.59375,253500.4375,257216.90625,-0.02783203125,0.874267578125,-0.501708984375,7.202147960662842,-2.105712652206421,1.0070799589157104,100.0,66249.0,1.0
509712.8362972,265951.625,279271.5625,284179.5625,269115.90625,284837.3125,267772.9375,253356.140625,257030.59375,-0.028564453125,0.876708984375,-0.502685546875,7.232665538787842,-2.044677495956421,0.8544921278953552,100.0,66250.0,1.0
509712.8363385,267321.59375,279406.9375,283571.84375,268176.0625,281584.4375,266883.15625,252693.8125,255982.109375,-0.02783203125,0.878662109375,-0.506103515625,7.324218273162842,-2.075195074081421,0.8544921278953552,100.0,66251.0,1.0
509712.8363496,267543.59375,279568.21875,283336.28125,267959.96875,279923.25,266772.8125,252442.84375,255549.5625,-0.027587890625,0.881103515625,-0.5078125,7.171630382537842,-1.9226073026657104,0.8239745497703552,100.0,66252.0,1.0
509712.8388081,266432.0,279581.0,283795.375,268733.0625,282002.5,267573.46875,252932.265625,256293.609375,-0.0322265625,0.882080078125,-0.509765625,7.232665538787842,-1.8920897245407104,0.7324218153953552,100.0,66253.0,1.0
509712.842762,265411.0625,279386.53125,284327.53125,269474.96875,285076.5625,268203.875,253495.34375,257224.953125,-0.0322265625,0.8837890625,-0.506591796875,7.263183116912842,-1.9226073026657104,0.4882812201976776,100.0,66254.0,1.0
509712.8428026,265937.3125,279270.84375,284181.53125,269123.875,284852.25,267789.125,253362.3125,257055.71875,-0.030517578125,0.8828125,-0.507568359375,7.019042491912842,-1.8615721464157104,0.3051757514476776,100.0,66255.0,1.0
509712.8428134,267302.75,279403.25,283570.875,268179.09375,281599.53125,266899.5,252703.46875,256013.765625,-0.03125,0.87841796875,-0.51171875,6.988524913787842,-1.7089842557907104,0.1220703050494194,100.0,66256.0,1.0
509712.8474633,267554.78125,279573.9375,283343.25,267962.65625,279906.78125,266785.96875,252454.375,255578.703125,-0.02880859375,0.874267578125,-0.513427734375,6.896972179412842,-1.4648436307907104,0.0610351525247097,100.0,66257.0,1.0
509712.8525963,266424.125,279553.375,283769.8125,268693.71875,281913.0,267540.90625,252894.984375,256268.03125,-0.0283203125,0.870849609375,-0.514404296875,6.927489757537842,-1.4648436307907104,-0.0610351525247097,100.0,66258.0,1.0
509712.8550952,265405.6875,279377.0625,284317.5,269447.0625,285028.03125,268190.1875,253467.1875,257209.140625,-0.0283203125,0.865966796875,-0.518310546875,7.141112804412842,-1.3427733182907104,-0.2746581733226776,100.0,66259.0,1.0
509712.8574507,265915.84375,279261.90625,284175.09375,269109.90625,284848.15625,267783.375,253333.15625,257048.46875,-0.030517578125,0.8642578125,-0.523681640625,7.232665538787842,-1.2207030057907104,-0.3967284858226776,100.0,66260.0,1.0
509712.8626132,267254.375,279367.21875,283537.71875,268145.9375,281568.0625,266872.78125,252650.984375,255984.796875,-0.0322265625,0.860107421875,-0.521728515625,7.415771007537842,-1.1901854276657104,-0.5187987685203552,100.0,66261.0,1.0
509712.8626589,267505.78125,279522.4375,283286.5625,267899.09375,279816.9375,266733.03125,252377.84375,255521.484375,-0.034912109375,0.855712890625,-0.52197265625,7.659911632537842,-1.1291502714157104,-0.7019042372703552,100.0,66262.0,1.0
509712.8649735,266430.65625,279547.46875,283756.125,268670.125,281850.875,267520.875,252858.40625,256247.828125,-0.03662109375,0.853515625,-0.525390625,7.812499523162842,-1.1596678495407104,-0.8850097060203552,100.0,66263.0,1.0
509712.8675293,265421.4375,279389.125,284332.8125,269455.125,285005.59375,268190.1875,253452.796875,257213.34375,-0.04052734375,0.852294921875,-0.522216796875,8.117674827575684,-1.0986326932907104,-1.1291502714157104,100.0,66264.0,1.0
509712.8701119,265911.03125,279269.0625,284199.84375,269132.8125,284874.25,267793.84375,253335.21875,257071.359375,-0.041259765625,0.850341796875,-0.524169921875,8.392333030700684,-1.1291502714157104,-1.2207030057907104,100.0,66265.0,1.0
509712.8725541,267239.71875,279356.0625,283546.8125,268159.78125,281588.09375,266870.8125,252653.3125,256001.96875,-0.04443359375,0.84716796875,-0.52392578125,8.575438499450684,-1.2512205839157104,-1.5563963651657104,100.0,66266.0,1.0
509712.8749307,267512.5,279517.4375,283293.4375,267908.125,279802.5625,266726.78125,252393.046875,255539.734375,-0.048583984375,0.844970703125,-0.52490234375,8.758543968200684,-1.3427733182907104,-1.8310545682907104,100.0,66267.0,1.0
509712.8774475,266439.5,279534.15625,283747.09375,268656.28125,281770.5,267490.3125,252845.890625,256230.9375,-0.049072265625,0.8427734375,-0.52783203125,8.880614280700684,-1.4648436307907104,-2.105712652206421,100.0,66268.0,1.0
509712.8800245,265423.21875,279378.5,284327.25,269442.15625,284933.15625,268164.4375,253433.5625,257190.453125,-0.05029296875,0.84228515625,-0.526123046875,9.094237327575684,-1.6479490995407104,-2.197265386581421,100.0,66269.0,1.0
509712.8800649,265882.3125,279247.6875,284191.1875,269121.625,284834.90625,267772.46875,253314.203125,257050.265625,-0.052734375,0.84228515625,-0.526123046875,9.307860374450684,-1.7395018339157104,-2.410888433456421,100.0,66270.0,1.0
509712.8825085,267200.0,279334.875,283535.75,268144.78125,281557.34375,266859.09375,252646.15625,255989.71875,-0.054443359375,0.84375,-0.526123046875,9.368895530700684,-2.044677495956421,-2.593993902206421,100.0,66271.0,1.0
509712.8900904,267475.375,279482.90625,283259.375,267875.375,279710.5625,266694.5,252359.796875,255497.34375,-0.05517578125,0.843994140625,-0.524169921875,9.460448265075684,-2.258300542831421,-2.807616949081421,100.0,66272.0,1.0
509712.8901342,266449.0,279540.40625,283744.15625,268651.71875,281682.96875,267488.6875,252837.046875,256210.546875,-0.054443359375,0.84521484375,-0.52490234375,9.429930686950684,-2.319335699081421,-2.990722417831421,100.0,66273.0,1.0
509712.8926838,265443.15625,279413.1875,284356.125,269461.28125,284901.25,268193.125,253458.875,257205.640625,-0.0546875,0.847412109375,-0.5263671875,9.307860374450684,-2.441406011581421,-3.082275152206421,100.0,66274.0,1.0
509712.8950787,265862.21875,279262.96875,284211.65625,269139.6875,284845.0,267806.0,253342.015625,257071.09375,-0.0546875,0.846923828125,-0.52294921875,9.246825218200684,-2.716064214706421,-3.234863042831421,100.0,66275.0,1.0
509712.8951155,267162.8125,279334.5,283538.96875,268152.46875,281571.71875,266887.4375,252669.765625,256008.578125,-0.052978515625,0.850341796875,-0.5244140625,9.277342796325684,-2.929687261581421,-3.387450933456421,100.0,66276.0,1.0
509712.8976186,267445.59375,279471.75,283238.375,267862.59375,279675.21875,266702.375,252365.78125,255493.953125,-0.051513671875,0.855224609375,-0.525390625,9.094237327575684,-3.021239995956421,-3.509521245956421,100.0,66277.0,1.0
509712.9301225,266438.0,279534.3125,283718.40625,268630.4375,281623.84375,267481.625,252832.21875,256195.078125,-0.05224609375,0.8583984375,-0.5263671875,8.972167015075684,-3.234863042831421,-3.448486089706421,100.0,66278.0,1.0
509712.9301641,265444.9375,279420.78125,284346.3125,269459.9375,284869.59375,268190.0,253454.578125,257195.8125,-0.054931640625,0.861328125,-0.52490234375,8.728026390075684,-3.570556402206421,-3.387450933456421,100.0,66279.0,1.0
509712.9326195,265854.875,279276.65625,284217.28125,269157.5625,284866.65625,267814.6875,253350.15625,257082.890625,-0.0546875,0.862060546875,-0.526611328125,8.422850608825684,-3.662109136581421,-3.448486089706421,100.0,66280.0,1.0
509712.9349401,267150.125,279343.09375,283537.78125,268171.25,281599.0,266888.25,252681.390625,256027.984375,-0.05078125,0.865966796875,-0.528076171875,8.056639671325684,-3.570556402206421,-3.326415777206421,100.0,66281.0,1.0
509712.9375893,267443.03125,279479.0625,283229.96875,267868.25,279670.5,266694.15625,252373.640625,255502.265625,-0.04931640625,0.868896484375,-0.52783203125,7.659911632537842,-3.479003667831421,-3.112792730331421,100.0,66282.0,1.0
509712.939951,266450.96875,279545.0625,283711.96875,268628.09375,281584.25,267464.375,252836.234375,256186.234375,-0.046875,0.86865234375,-0.528564453125,7.263183116912842,-3.417968511581421,-2.807616949081421,100.0,66283.0,1.0
509712.9425689,265443.59375,279421.0625,284338.0625,269452.625,284826.78125,268159.15625,253441.171875,257168.09375,-0.045166015625,0.86474609375,-0.53076171875,6.774901866912842,-3.509521245956421,-2.563476324081421,100.0,66284.0,1.0
509712.9449493,265836.8125,279281.40625,284226.21875,269170.1875,284883.46875,267805.21875,253353.375,257078.953125,-0.0419921875,0.862548828125,-0.52978515625,6.469726085662842,-3.509521245956421,-2.258300542831421,100.0,66285.0,1.0
509712.9525407,267118.125,279331.09375,283533.5,268176.78125,281620.09375,266877.4375,252679.6875,256019.84375,-0.03955078125,0.86474609375,-0.52587890625,6.103515148162842,-3.448486089706421,-1.9836424589157104,100.0,66286.0,1.0
509712.9625427,267441.0625,279467.8125,283217.71875,267869.21875,279657.34375,266676.875,252365.6875,255485.90625,-0.04150390625,0.866455078125,-0.5283203125,5.889892101287842,-3.295898199081421,-1.7395018339157104,100.0,66287.0,1.0
509712.9651056,266473.125,279535.5,283699.0,268631.40625,281538.03125,267445.59375,252816.75,256169.515625,-0.04052734375,0.866455078125,-0.52978515625,5.523681163787842,-3.051757574081421,-1.3732908964157104,100.0,66288.0,1.0
509712.9651493,265471.59375,279428.90625,284342.8125,269468.25,284802.90625,268159.0,253430.703125,257171.578125,-0.03759765625,0.867919921875,-0.530029296875,5.065917491912842,-2.929687261581421,-1.1291502714157104,100.0,66289.0,1.0
509712.9676271,265850.3125,279291.0625,284239.375,269189.5,284895.625,267818.0,253348.1875,257090.578125,-0.039794921875,0.865478515625,-0.531494140625,4.730224132537842,-2.777099370956421,-0.7934569716453552,100.0,66290.0,1.0
509712.9701121,267119.1875,279328.34375,283536.625,268181.875,281619.84375,266882.875,252658.59375,256015.109375,-0.03955078125,0.865478515625,-0.531494140625,4.364013195037842,-2.685546636581421,-0.5187987685203552,100.0,66291.0,1.0
509712.9701504,267453.3125,279467.71875,283215.21875,267861.4375,279608.1875,266672.96875,252335.828125,255469.28125,-0.041259765625,0.864013671875,-0.529052734375,4.089354991912842,-2.532958745956421,-0.3051757514476776,100.0,66292.0,1.0
509712.972601,266482.25,279530.125,283678.4375,268595.84375,281428.9375,267423.15625,252768.5625,256128.46875,-0.043212890625,0.86572265625,-0.528564453125,3.692626714706421,-2.471923589706421,-0.1220703050494194,100.0,66293.0,1.0
509712.9750418,265483.40625,279434.46875,284338.6875,269449.75,284701.6875,268154.78125,253394.9375,257139.390625,-0.046142578125,0.8642578125,-0.52880859375,3.387450933456421,-2.227782964706421,-0.03051757626235485,100.0,66294.0,1.0
509712.9774437,265839.6875,279291.21875,284245.71875,269186.375,284837.6875,267826.5625,253327.359375,257077.34375,-0.050537109375,0.8642578125,-0.528564453125,3.051757574081421,-2.227782964706421,0.03051757626235485,100.0,66295.0,1.0
509712.9800505,267099.875,279321.90625,283536.71875,268178.84375,281566.46875,266890.03125,252645.890625,256007.328125,-0.050537109375,0.85986328125,-0.52880859375,2.807616949081421,-2.258300542831421,0.1831054538488388,100.0,66296.0,1.0
509712.9850072,267442.3125,279454.5,283199.21875,267842.65625,279506.6875,266664.1875,252312.9375,255445.21875,-0.04931640625,0.857421875,-0.52490234375,2.410888433456421,-2.410888433456421,0.1831054538488388,100.0,66297.0,1.0
509712.9850495,266501.75,279541.125,283679.40625,268591.625,281307.4375,267426.375,252761.671875,256114.34375,-0.043701171875,0.853271484375,-0.524169921875,2.197265386581421,-2.410888433456421,0.2441406100988388,100.0,66298.0,1.0
509712.9876174,265496.34375,279450.5625,284350.0625,269453.15625,284600.03125,268169.34375,253403.96875,257141.28125,-0.036865234375,0.854248046875,-0.524169921875,2.044677495956421,-2.227782964706421,0.3356933295726776,100.0,66299.0,1.0
509712.9876507,265824.46875,279291.125,284249.46875,269191.28125,284770.4375,267835.96875,253331.015625,257078.0625,-0.03466796875,0.85498046875,-0.525390625,1.9836424589157104,-1.9836424589157104,0.3967284858226776,100.0,66300.0,1.0
509713.0000494,267075.28125,279312.40625,283532.59375,268170.875,281514.96875,266890.9375,252644.28125,256002.671875,-0.02880859375,0.85888671875,-0.528076171875,1.7700194120407104,-1.7395018339157104,0.4882812201976776,100.0,66301.0,1.0
509713.0024591,267433.1875,279451.28125,283194.8125,267825.3125,279441.53125,266657.75,252315.359375,255436.28125,-0.02734375,0.861328125,-0.52685546875,1.5258787870407104,-1.4953612089157104,0.5798339247703552,100.0,66302.0,1.0
509713.0025001,266507.375,279544.0625,283672.0,268573.46875,281224.125,267414.59375,252754.515625,256092.984375,-0.025390625,0.858642578125,-0.52587890625,1.3427733182907104,-1.3427733182907104,0.7629393935203552,100.0,66303.0,1.0
509713.005069,265517.625,279477.09375,284363.09375,269452.78125,284559.96875,268172.5625,253411.03125,257137.4375,-0.02197265625,0.8544921875,-0.52685546875,1.0681151151657104,-0.8850097060203552,0.7324218153953552,100.0,66304.0,1.0
509713.0251053,265827.625,279319.03125,284274.96875,269201.21875,284788.34375,267844.09375,253345.0625,257089.234375,-0.02099609375,0.85302734375,-0.523681640625,0.9155272841453552,-0.4577636420726776,0.8239745497703552,100.0,66305.0,1.0
509713.0251489,267071.53125,279331.28125,283555.9375,268186.34375,281547.78125,266890.5625,252648.390625,256011.4375,-0.01904296875,0.85205078125,-0.525634765625,0.7629393935203552,-0.03051757626235485,0.8239745497703552,100.0,66306.0,1.0
509713.0363378,267450.53125,279477.1875,283213.78125,267832.375,279451.625,266652.84375,252312.765625,255438.703125,-0.020751953125,0.852783203125,-0.52490234375,0.7934569716453552,0.3967284858226776,0.9155272841453552,100.0,66307.0,1.0
509713.0388804,266527.5625,279563.21875,283679.15625,268563.71875,281201.5,267394.90625,252744.234375,256079.390625,-0.021728515625,0.857177734375,-0.524658203125,0.6408690810203552,0.8239745497703552,0.9460448622703552,100.0,66308.0,1.0
509713.0389188,265501.0,279468.0,284347.90625,269434.46875,284525.46875,268135.5625,253376.078125,257102.296875,-0.022705078125,0.85888671875,-0.52490234375,0.5187987685203552,1.1901854276657104,1.0070799589157104,100.0,66309.0,1.0
509713.0413631,265805.96875,279323.25,284285.0625,269215.96875,284831.25,267846.0625,253344.421875,257092.28125,-0.0244140625,0.858154296875,-0.52490234375,0.4577636420726776,1.5563963651657104,0.9765624403953552,100.0,66310.0,1.0
509713.0462964,267064.28125,279345.40625,283578.75,268210.65625,281629.40625,266914.09375,252677.453125,256043.796875,-0.022705078125,0.857666015625,-0.522705078125,0.2746581733226776,1.8920897245407104,0.8850097060203552,100.0,66311.0,1.0
509713.0487794,267449.53125,279481.65625,283218.15625,267836.75,279492.84375,266661.5,252336.71875,255459.0,-0.025634765625,0.85595703125,-0.521728515625,0.2441406100988388,2.319335699081421,0.7629393935203552,100.0,66312.0,1.0
509713.0513282,266522.21875,279554.25,283661.0,268544.59375,281178.96875,267382.65625,252752.734375,256077.59375,-0.027099609375,0.85302734375,-0.519775390625,0.0915527269244194,2.716064214706421,0.7019042372703552,100.0,66313.0,1.0
509713.0536772,265520.78125,279494.625,284363.65625,269438.59375,284532.96875,268169.34375,253430.265625,257136.453125,-0.02587890625,0.8505859375,-0.521240234375,-0.0915527269244194,2.990722417831421,0.3967284858226776,100.0,66314.0,1.0
509713.0563504,265795.78125,279333.78125,284300.15625,269224.8125,284868.34375,267884.59375,253405.21875,257133.40625,-0.027587890625,0.852783203125,-0.523193359375,-0.03051757626235485,3.326415777206421,0.1525878757238388,100.0,66315.0,1.0
509713.0563944,267010.09375,279298.75,283544.9375,268192.6875,281604.53125,266901.9375,252670.65625,256021.0,-0.028076171875,0.851806640625,-0.5263671875,-0.0610351525247097,3.662109136581421,-0.2136230319738388,100.0,66316.0,1.0
509713.0588891,267429.59375,279448.75,283184.375,267822.625,279418.09375,266648.71875,252313.65625,255420.90625,-0.028076171875,0.851806640625,-0.526611328125,-0.03051757626235485,3.814697027206421,-0.4272460639476776,100.0,66317.0,1.0
509713.0612185,266528.28125,279546.5625,283633.90625,268531.8125,281081.34375,267387.125,252733.875,256045.59375,-0.02685546875,0.850341796875,-0.521728515625,0.03051757626235485,4.150390148162842,-0.6408690810203552,100.0,66318.0,1.0
509713.0764348,265490.71875,279462.09375,284315.28125,269409.0,284417.65625,268155.5,253382.875,257087.546875,-0.02783203125,0.84765625,-0.521484375,-0.0610351525247097,4.486083507537842,-0.8544921278953552,100.0,66319.0,1.0
509713.0764754,265753.84375,279303.9375,284264.21875,269211.9375,284794.40625,267887.28125,253359.53125,257102.390625,-0.0244140625,0.84814453125,-0.517578125,0.0,4.821776866912842,-1.1901854276657104,100.0,66320.0,1.0
509713.0764861,266992.9375,279300.625,283547.0,268204.40625,281596.59375,266936.53125,252674.59375,256044.4375,-0.02392578125,0.84765625,-0.51416015625,0.0610351525247097,5.157470226287842,-1.4038084745407104,100.0,66321.0,1.0
509713.0787958,267413.0625,279431.34375,283171.65625,267816.375,279368.84375,266656.6875,252304.71875,255426.265625,-0.021484375,0.848388671875,-0.5185546875,0.0,5.584716320037842,-1.7395018339157104,100.0,66322.0,1.0
509713.0813385,266532.125,279540.0625,283625.40625,268523.6875,281001.0625,267392.6875,252730.03125,256044.875,-0.020263671875,0.84765625,-0.520751953125,-0.0915527269244194,5.981444835662842,-2.075195074081421,100.0,66323.0,1.0
509713.0850879,265502.34375,279478.09375,284328.15625,269422.03125,284370.96875,268177.59375,253400.390625,257102.65625,-0.01708984375,0.849365234375,-0.519287109375,-0.1831054538488388,6.408690929412842,-2.380370855331421,100.0,66324.0,1.0
509713.0998535,265738.84375,279313.125,284286.3125,269235.1875,284803.625,267907.5625,253385.28125,257129.03125,-0.016357421875,0.850830078125,-0.52392578125,-0.2746581733226776,6.988524913787842,-2.624511480331421,100.0,66325.0,1.0
509713.1024458,266976.21875,279297.5625,283573.09375,268227.90625,281636.28125,266945.46875,252709.109375,256083.234375,-0.014404296875,0.85107421875,-0.521728515625,-0.2136230319738388,7.537841320037842,-2.807616949081421,100.0,66326.0,1.0
509713.1024592,267414.5,279417.03125,283183.46875,267824.53125,279379.65625,266639.34375,252331.0,255456.21875,-0.01318359375,0.852783203125,-0.52197265625,-0.2136230319738388,8.178709983825684,-3.051757574081421,100.0,66327.0,1.0
509713.1050135,266541.34375,279517.4375,283615.21875,268514.46875,280960.625,267351.375,252732.796875,256047.828125,-0.007568359375,0.85546875,-0.523193359375,-0.3051757514476776,8.728026390075684,-3.417968511581421,100.0,66328.0,1.0
509713.1073397,265499.5625,279449.5625,284307.40625,269406.84375,284316.34375,268129.40625,253384.125,257085.578125,-0.004150390625,0.858154296875,-0.523681640625,-0.3967284858226776,9.429930686950684,-3.784179449081421,100.0,66329.0,1.0
509713.118785,265721.75,279279.59375,284269.15625,269233.5625,284779.65625,267865.1875,253362.578125,257112.21875,-0.001953125,0.86083984375,-0.522216796875,-0.4272460639476776,10.101317405700684,-4.089354991912842,100.0,66330.0,1.0
509713.1188006,266962.46875,279268.0625,283564.34375,268238.46875,281637.1875,266910.15625,252691.484375,256077.953125,-0.000244140625,0.863525390625,-0.5244140625,-0.6408690810203552,10.833739280700684,-4.394530773162842,100.0,66331.0,1.0
509713.1212766,267417.625,279390.125,283170.34375,267827.8125,279341.65625,266596.15625,252311.0625,255441.109375,-0.002685546875,0.86572265625,-0.524169921875,-0.8850097060203552,11.718749046325684,-4.730224132537842,100.0,66332.0,1.0
509713.1236736,266562.96875,279504.71875,283602.875,268514.8125,280887.0625,267311.6875,252709.640625,256024.140625,-0.003662109375,0.869140625,-0.522216796875,-1.0375975370407104,12.512206077575684,-5.065917491912842,100.0,66333.0,1.0
509713.1275228,265520.0625,279458.96875,284306.5,269409.96875,284265.375,268116.53125,253373.671875,257071.984375,-0.005126953125,0.870849609375,-0.518310546875,-1.3427733182907104,13.336180686950684,-5.432128429412842,100.0,66334.0,1.0
509713.1913566,265730.0625,279302.59375,284290.34375,269260.9375,284802.0,267883.53125,253381.359375,257126.875,-0.00537109375,0.869873046875,-0.51708984375,-1.7089842557907104,14.221190452575684,-5.828856945037842,100.0,66335.0,1.0
509713.1913998,266971.125,279286.9375,283596.09375,268284.25,281685.28125,266934.1875,252727.875,256106.125,-0.005126953125,0.871337890625,-0.517578125,-1.8615721464157104,15.014647483825684,-6.164550304412842,100.0,66336.0,1.0
509713.1989361,267438.71875,279398.875,283193.84375,267863.6875,279353.46875,266605.71875,252334.84375,255450.328125,-0.008056640625,0.869140625,-0.51904296875,-2.105712652206421,15.869139671325684,-6.622313976287842,100.0,66337.0,1.0
509713.198978,266619.84375,279545.15625,283648.3125,268553.8125,280896.09375,267354.59375,252765.34375,256052.125,-0.010009765625,0.867431640625,-0.518310546875,-2.319335699081421,16.662595748901367,-7.049560070037842,100.0,66338.0,1.0
509713.1989876,265574.5,279521.0,284369.28125,269453.0625,284300.0,268182.15625,253455.828125,257111.765625,-0.013427734375,0.86767578125,-0.515625,-2.380370855331421,17.303464889526367,-7.568358898162842,100.0,66339.0,1.0
509713.198998,265748.03125,279346.21875,284353.53125,269305.09375,284861.03125,267943.53125,253457.625,257163.0,-0.015380859375,0.86669921875,-0.516357421875,-2.593993902206421,18.066404342651367,-8.209227561950684,100.0,66340.0,1.0
509713.2087097,266978.90625,279301.96875,283651.78125,268328.78125,281734.53125,266970.78125,252785.015625,256131.875,-0.020263671875,0.864501953125,-0.516845703125,-2.807616949081421,18.585203170776367,-8.636473655700684,100.0,66341.0,1.0
509713.2113552,267455.1875,279402.0,283236.03125,267896.3125,279351.9375,266622.25,252382.140625,255466.234375,-0.02197265625,0.864990234375,-0.516845703125,-3.112792730331421,19.073484420776367,-9.216307640075684,100.0,66342.0,1.0
509713.2138291,266610.71875,279523.15625,283641.78125,268534.59375,280814.8125,267333.5,252763.375,256013.046875,-0.020263671875,0.86083984375,-0.5185546875,-3.387450933456421,19.592283248901367,-9.613036155700684,100.0,66343.0,1.0
509713.2163083,265564.03125,279516.53125,284357.46875,269428.9375,284226.125,268187.40625,253449.921875,257071.265625,-0.029052734375,0.859130859375,-0.520263671875,-3.509521245956421,20.202634811401367,-10.070799827575684,100.0,66344.0,1.0
509713.2187149,265737.5,279358.46875,284362.84375,269306.15625,284864.5,267987.9375,253493.65625,257166.75,-0.034423828125,0.85986328125,-0.52099609375,-3.387450933456421,20.843503952026367,-10.589598655700684,100.0,66345.0,1.0
509713.2212993,266958.59375,279290.0625,283658.3125,268341.09375,281755.65625,266996.78125,252834.265625,256148.140625,-0.035888671875,0.857177734375,-0.520263671875,-3.448486089706421,21.087644577026367,-11.169432640075684,100.0,66346.0,1.0
509713.2237122,267445.25,279377.34375,283232.65625,267898.53125,279334.3125,266621.28125,252424.875,255473.75,-0.039794921875,0.85498046875,-0.519775390625,-3.448486089706421,21.362302780151367,-11.566161155700684,100.0,66347.0,1.0
509713.2261712,266624.40625,279522.71875,283647.84375,268532.4375,280772.25,267350.65625,252817.734375,256023.859375,-0.042724609375,0.8525390625,-0.52294921875,-3.417968511581421,21.728513717651367,-12.023924827575684,100.0,66348.0,1.0
509713.2288614,265579.78125,279549.09375,284381.15625,269429.8125,284218.625,268239.625,253532.09375,257098.09375,-0.048828125,0.852783203125,-0.521728515625,-3.479003667831421,21.850584030151367,-12.451170921325684,100.0,66349.0,1.0
509713.2312741,265732.65625,279390.46875,284394.75,269326.28125,284911.25,268043.125,253579.5625,257201.171875,-0.0498046875,0.8525390625,-0.52197265625,-3.479003667831421,21.820066452026367,-12.908934593200684,100.0,66350.0,1.0
509713.2386803,266928.125,279271.65625,283666.09375,268360.0625,281775.75,266999.03125,252873.171875,256154.21875,-0.0478515625,0.8505859375,-0.520751953125,-3.479003667831421,21.820066452026367,-13.336180686950684,100.0,66351.0,1.0
509713.2412888,267424.34375,279341.75,283223.625,267910.15625,279298.375,266589.71875,252432.296875,255458.90625,-0.048095703125,0.8486328125,-0.52099609375,-3.387450933456421,21.759031295776367,-13.671874046325684,100.0,66352.0,1.0
509713.2438306,266612.5,279494.8125,283622.5625,268522.53125,280683.5625,267309.625,252803.15625,255983.453125,-0.04150390625,0.85107421875,-0.523193359375,-3.326415777206421,21.820066452026367,-13.916014671325684,100.0,66353.0,1.0
509713.2454219,265556.8125,279518.5,284340.5,269403.4375,284103.75,268193.84375,253485.25,257028.0,-0.038330078125,0.854248046875,-0.52685546875,-3.204345464706421,22.308347702026367,-14.099120140075684,100.0,66354.0,1.0
509713.2524249,265698.59375,279369.1875,284371.0625,269314.65625,284844.75,268014.25,253540.59375,257148.421875,-0.0380859375,0.8544921875,-0.5283203125,-3.082275152206421,22.766111373901367,-14.129637718200684,100.0,66355.0,1.0
509713.2550615,266908.375,279266.09375,283672.53125,268382.15625,281763.0625,266984.90625,252871.203125,256144.828125,-0.0361328125,0.855712890625,-0.528076171875,-3.173827886581421,22.857664108276367,-14.312743186950684,100.0,66356.0,1.0
509713.2576046,267432.46875,279335.21875,283233.09375,267936.09375,279257.625,266560.3125,252437.125,255457.203125,-0.034423828125,0.856201171875,-0.52734375,-3.204345464706421,23.101804733276367,-14.312743186950684,100.0,66357.0,1.0
509713.2601037,266610.625,279472.0,283595.625,268503.46875,280579.125,267253.65625,252780.890625,255949.65625,-0.031494140625,0.85888671875,-0.5234375,-3.234863042831421,23.529050827026367,-14.129637718200684,100.0,66358.0,1.0
509713.2601472,265552.6875,279520.03125,284318.0625,269377.0625,284022.46875,268166.75,253490.609375,257012.625,-0.031005859375,0.8583984375,-0.5205078125,-3.265380620956421,23.956296920776367,-14.129637718200684,100.0,66359.0,1.0
509713.2639422,265663.375,279346.9375,284340.125,269300.09375,284781.90625,267978.90625,253549.0,257142.96875,-0.031494140625,0.85986328125,-0.52099609375,-3.387450933456421,24.322507858276367,-13.916014671325684,100.0,66360.0,1.0
509713.2639804,266833.0,279184.3125,283610.65625,268363.8125,281667.03125,266901.375,252842.5,256122.390625,-0.02734375,0.85986328125,-0.521484375,-3.509521245956421,24.597166061401367,-13.671874046325684,100.0,66361.0,1.0
509713.2639909,267345.28125,279213.0,283138.84375,267898.46875,279089.34375,266440.9375,252370.078125,255407.046875,-0.02734375,0.85986328125,-0.518798828125,-3.601073980331421,24.902341842651367,-13.366698265075684,100.0,66362.0,1.0
509713.2687957,266573.53125,279392.71875,283528.125,268480.3125,280392.375,267171.5,252738.703125,255921.046875,-0.030029296875,0.861328125,-0.517333984375,-3.692626714706421,25.390623092651367,-13.183592796325684,100.0,66363.0,1.0
509713.271366,265519.875,279469.6875,284262.0,269349.4375,283845.09375,268114.65625,253448.765625,256979.265625,-0.031005859375,0.864013671875,-0.514404296875,-3.784179449081421,25.817869186401367,-13.183592796325684,100.0,66364.0,1.0
509713.2737183,265620.28125,279315.5625,284307.21875,269294.53125,284671.46875,267962.03125,253520.03125,257126.796875,-0.033935546875,0.865478515625,-0.514892578125,-3.906249761581421,26.153562545776367,-13.031004905700684,100.0,66365.0,1.0
509713.2788492,266786.84375,279142.625,283584.46875,268371.25,281580.75,266880.65625,252821.84375,256121.765625,-0.037841796875,0.86669921875,-0.513916015625,-4.119872570037842,26.336668014526367,-12.878417015075684,100.0,66366.0,1.0
509713.2788914,267304.71875,279155.5,283098.53125,267890.40625,278949.15625,266390.875,252327.0625,255387.734375,-0.039306640625,0.86669921875,-0.513427734375,-4.211425304412842,26.702878952026367,-12.756346702575684,100.0,66367.0,1.0
509713.2813023,266551.4375,279356.21875,283483.15625,268456.34375,280209.875,267128.75,252689.25,255888.0625,-0.043701171875,0.866943359375,-0.514892578125,-4.272460460662842,27.038572311401367,-12.603758811950684,100.0,66368.0,1.0
509713.2838379,265509.78125,279476.46875,284236.6875,269331.75,283686.375,268116.6875,253419.359375,256961.390625,-0.048828125,0.864990234375,-0.51513671875,-4.455565929412842,27.130125045776367,-12.512206077575684,100.0,66369.0,1.0
509713.2862157,265580.3125,279312.25,284284.15625,269286.3125,284552.46875,267970.59375,253491.234375,257118.65625,-0.0556640625,0.863525390625,-0.51611328125,-4.516601085662842,27.099607467651367,-12.420653343200684,100.0,66370.0,1.0
509713.2886649,266735.375,279100.6875,283554.96875,268382.25,281461.125,266867.5,252781.609375,256116.671875,-0.062744140625,0.860595703125,-0.516357421875,-4.364013195037842,26.885984420776367,-12.481688499450684,100.0,66371.0,1.0
509713.293854,267271.96875,279085.15625,283051.96875,267899.4375,278772.59375,266355.375,252281.640625,255384.703125,-0.068115234375,0.857177734375,-0.513671875,-4.394530773162842,26.702878952026367,-12.573241233825684,100.0,66372.0,1.0
509713.2986432,266514.71875,279258.78125,283397.4375,268427.3125,279932.28125,267054.90625,252602.265625,255840.3125,-0.073974609375,0.855224609375,-0.513916015625,-4.333495616912842,26.489255905151367,-12.756346702575684,100.0,66373.0,1.0
509713.3013116,265465.5,279378.40625,284143.71875,269286.5,283381.5,268048.3125,253335.21875,256907.390625,-0.0791015625,0.852294921875,-0.512939453125,-4.241942882537842,26.184080123901367,-12.939452171325684,100.0,66374.0,1.0
509713.303462,265511.28125,279196.0,284192.6875,269252.78125,284258.40625,267903.0,253418.640625,257075.375,-0.08154296875,0.849609375,-0.508056640625,-4.058837413787842,25.756834030151367,-13.244627952575684,100.0,66375.0,1.0
509713.3035053,266668.46875,278966.25,283476.09375,268382.0625,281164.65625,266788.28125,252732.96875,256103.53125,-0.08642578125,0.849853515625,-0.508544921875,-4.058837413787842,25.238035202026367,-13.366698265075684,100.0,66376.0,1.0
509713.3288079,267191.59375,278903.65625,282935.1875,267879.59375,278378.84375,266206.59375,252190.1875,255325.59375,-0.0888671875,0.84814453125,-0.511474609375,-4.089354991912842,24.688718795776367,-13.397215843200684,100.0,66377.0,1.0
509713.3313521,266447.90625,279087.46875,283270.03125,268388.84375,279487.65625,266901.84375,252505.875,255765.75,-0.088134765625,0.844970703125,-0.511474609375,-4.089354991912842,24.169919967651367,-13.305663108825684,100.0,66378.0,1.0
509713.336353,265404.28125,279243.84375,284024.875,269247.25,282952.28125,267927.78125,253248.3125,256838.453125,-0.086669921875,0.842529296875,-0.50927734375,-3.906249761581421,23.712156295776367,-13.488768577575684,100.0,66379.0,1.0
509713.3363964,265441.5625,279082.1875,284093.46875,269232.9375,283897.03125,267808.15625,253343.265625,257023.890625,-0.086181640625,0.843017578125,-0.50732421875,-3.692626714706421,23.132322311401367,-13.488768577575684,100.0,66380.0,1.0
509713.338869,266580.15625,278834.28125,283377.40625,268368.125,280837.15625,266674.03125,252636.140625,256047.65625,-0.08544921875,0.84521484375,-0.506103515625,-3.540038824081421,22.552488327026367,-13.427733421325684,100.0,66381.0,1.0
509713.3411861,267151.0,278805.84375,282875.03125,267890.0625,278081.5625,266118.28125,252111.859375,255304.765625,-0.084716796875,0.846435546875,-0.50146484375,-3.326415777206421,22.064207077026367,-13.366698265075684,100.0,66382.0,1.0
509713.343846,266443.28125,279032.5625,283227.71875,268396.09375,279200.21875,266845.34375,252437.84375,255755.921875,-0.082275390625,0.8466796875,-0.50341796875,-3.234863042831421,21.545408248901367,-13.214110374450684,100.0,66383.0,1.0
509713.3462096,265402.21875,279213.4375,283983.40625,269246.71875,282684.125,267893.4375,253164.546875,256821.28125,-0.080810546875,0.848876953125,-0.499267578125,-3.112792730331421,21.240232467651367,-12.878417015075684,100.0,66384.0,1.0
509713.3486684,265415.1875,279055.5625,284058.78125,269242.5,283694.53125,267787.5,253260.65625,257022.359375,-0.08154296875,0.851318359375,-0.5009765625,-3.143310308456421,20.874021530151367,-12.847899436950684,100.0,66385.0,1.0
509713.3502655,266545.8125,278788.6875,283341.28125,268398.0625,280664.4375,266639.34375,252542.625,256053.375,-0.080322265625,0.854736328125,-0.501220703125,-3.082275152206421,20.446775436401367,-12.573241233825684,100.0,66386.0,1.0
509713.357594,267105.0625,278730.65625,282813.40625,267899.96875,277865.09375,266045.75,251984.734375,255284.734375,-0.084716796875,0.855712890625,-0.50244140625,-3.051757574081421,20.050046920776367,-12.145995140075684,100.0,66387.0,1.0
509713.3600222,266409.125,278970.4375,283173.1875,268390.09375,278974.5625,266776.65625,252325.8125,255742.5,-0.08935546875,0.8544921875,-0.4990234375,-2.929687261581421,19.592283248901367,-11.779784202575684,100.0,66388.0,1.0
509713.3624763,265360.625,279165.625,283934.03125,269225.0625,282482.0625,267839.96875,253067.171875,256801.703125,-0.092529296875,0.852294921875,-0.49853515625,-3.021239995956421,19.165037155151367,-11.474608421325684,100.0,66389.0,1.0
509713.3625138,265377.625,279038.65625,284039.53125,269241.625,283574.1875,267774.96875,253184.296875,257024.328125,-0.09423828125,0.850341796875,-0.494873046875,-2.899169683456421,18.707273483276367,-11.322020530700684,100.0,66390.0,1.0
509713.3650754,266529.09375,278805.84375,283365.9375,268425.15625,280648.34375,266664.09375,252514.828125,256098.078125,-0.09521484375,0.84619140625,-0.49658203125,-2.868652105331421,18.005369186401367,-10.955809593200684,100.0,66391.0,1.0
509713.3674687,267122.125,278772.65625,282861.15625,267938.59375,277889.78125,266089.84375,251987.59375,255347.59375,-0.093017578125,0.847412109375,-0.4990234375,-2.929687261581421,17.517087936401367,-10.437010765075684,100.0,66392.0,1.0
509713.36993,266454.1875,279039.71875,283222.1875,268423.90625,278995.03125,266844.15625,252333.140625,255795.875,-0.090087890625,0.850341796875,-0.503173828125,-2.746581792831421,17.059324264526367,-10.070799827575684,100.0,66393.0,1.0
509713.3739185,265421.25,279283.0,284007.09375,269261.71875,282565.3125,267959.34375,253118.40625,256882.53125,-0.0849609375,0.854248046875,-0.502685546875,-2.685546636581421,16.632078170776367,-9.765624046325684,100.0,66394.0,1.0
509713.3739684,265424.65625,279168.125,284133.34375,269296.15625,283751.84375,267928.0625,253277.375,257132.421875,-0.0810546875,0.858642578125,-0.512451171875,-2.502441167831421,16.326902389526367,-9.460448265075684,100.0,66395.0,1.0
509713.373979,266535.90625,278872.96875,283431.65625,268482.375,280819.65625,266781.40625,252582.953125,256188.90625,-0.07958984375,0.86279296875,-0.512939453125,-2.319335699081421,15.960692405700684,-9.002684593200684,100.0,66396.0,1.0
509713.3775391,267087.90625,278751.375,282859.90625,267957.90625,277953.0,266122.75,251997.25,255392.109375,-0.075927734375,0.867919921875,-0.516357421875,-2.197265386581421,15.686034202575684,-8.422850608825684,100.0,66397.0,1.0
509713.3838726,266389.96875,278951.40625,283158.25,268400.75,278928.40625,266804.75,252286.921875,255790.96875,-0.07470703125,0.871337890625,-0.51904296875,-2.136230230331421,15.258788108825684,-7.934569835662842,100.0,66398.0,1.0
509713.3839154,265325.84375,279167.5,283905.78125,269206.46875,282428.0625,267895.59375,253030.609375,256840.59375,-0.0703125,0.874755859375,-0.520751953125,-1.9836424589157104,15.075682640075684,-7.263183116912842,100.0,66399.0,1.0
509713.3999931,265302.15625,279055.375,284017.90625,269246.96875,283625.40625,267871.1875,253168.5625,257093.0,-0.070068359375,0.8759765625,-0.5263671875,-1.9531248807907104,14.892577171325684,-6.683349132537842,100.0,66400.0,1.0
509713.4051036,266416.71875,278775.875,283315.96875,268445.28125,280728.625,266723.03125,252466.8125,256172.375,-0.068359375,0.875732421875,-0.525390625,-1.7089842557907104,14.556883811950684,-6.317138195037842,100.0,66401.0,1.0
509713.4051461,267030.21875,278710.4375,282778.90625,267937.25,277909.4375,266087.15625,251923.3125,255416.25,-0.064453125,0.87548828125,-0.528564453125,-1.7700194120407104,14.251708030700684,-5.676269054412842,100.0,66402.0,1.0
509713.4075754,266389.53125,278972.6875,283084.5,268377.6875,278920.1875,266805.71875,252243.65625,255868.296875,-0.059326171875,0.873046875,-0.5263671875,-1.5869139432907104,14.068602561950684,-5.065917491912842,100.0,66403.0,1.0
509713.4101059,265368.5,279239.09375,283828.1875,269203.71875,282491.65625,267953.96875,253024.703125,257004.65625,-0.056396484375,0.871826171875,-0.5205078125,-1.4953612089157104,13.977049827575684,-4.425048351287842,100.0,66404.0,1.0
509713.4126424,265349.5625,279134.0625,283947.71875,269265.75,283825.25,267981.6875,253227.65625,257350.484375,-0.054931640625,0.871826171875,-0.52197265625,-1.4343260526657104,13.916014671325684,-3.997802495956421,100.0,66405.0,1.0
509713.4176233,266453.71875,278832.125,283248.03125,268470.21875,280988.1875,266833.875,252551.03125,256458.296875,-0.053466796875,0.870361328125,-0.520751953125,-1.5258787870407104,13.824461936950684,-3.295898199081421,100.0,66406.0,1.0
509713.4176665,267085.375,278772.125,282716.78125,267975.15625,278149.21875,266177.09375,251986.15625,255692.171875,-0.050048828125,0.867919921875,-0.523681640625,-1.4038084745407104,13.824461936950684,-2.593993902206421,100.0,66407.0,1.0
509713.421369,266460.34375,279013.34375,282957.8125,268405.9375,279115.09375,266899.6875,252289.96875,256165.21875,-0.049072265625,0.86474609375,-0.524169921875,-1.3122557401657104,13.641356468200684,-1.9531248807907104,100.0,66408.0,1.0
509713.4526327,265437.34375,279304.8125,283748.34375,269228.21875,282706.5625,268061.625,253087.296875,257253.921875,-0.046142578125,0.863037109375,-0.5244140625,-1.1596678495407104,13.488768577575684,-1.1291502714157104,100.0,66409.0,1.0
509713.4526748,265387.5625,279228.65625,283959.09375,269292.5,284082.71875,268082.46875,253285.421875,257502.65625,-0.04638671875,0.859375,-0.5234375,-1.0986326932907104,13.488768577575684,-0.4577636420726776,100.0,66410.0,1.0
509713.4614076,266473.125,278922.78125,283312.84375,268509.8125,281288.75,266930.625,252607.984375,256561.109375,-0.044921875,0.85986328125,-0.522216796875,-0.6103515028953552,13.458250999450684,0.03051757626235485,100.0,66411.0,1.0
509713.4614466,267107.90625,278834.71875,282799.5625,268007.0,278433.09375,266266.25,252040.96875,255754.390625,-0.04541015625,0.85888671875,-0.521484375,-0.3356933295726776,13.366698265075684,0.4882812201976776,100.0,66412.0,1.0
509713.4687105,266480.1875,279097.03125,283130.8125,268423.8125,279376.0625,266969.15625,252347.09375,256120.421875,-0.045654296875,0.858642578125,-0.52001953125,-0.03051757626235485,13.214110374450684,0.9155272841453552,100.0,66413.0,1.0
509713.4714562,265426.8125,279369.46875,283913.65625,269227.59375,282931.78125,268111.5,253114.03125,257154.953125,-0.04638671875,0.860107421875,-0.52001953125,0.03051757626235485,13.061522483825684,1.3427733182907104,100.0,66414.0,1.0
509713.4737467,265386.375,279299.625,284112.84375,269327.4375,284354.09375,268175.4375,253343.359375,257463.59375,-0.04833984375,0.8623046875,-0.5185546875,0.1525878757238388,12.878417015075684,1.7089842557907104,100.0,66415.0,1.0
509713.4761729,266466.34375,278980.71875,283442.125,268546.75,281574.59375,267021.09375,252667.703125,256536.703125,-0.05126953125,0.860107421875,-0.516357421875,0.0610351525247097,12.634276390075684,2.227782964706421,100.0,66416.0,1.0
509713.4788277,267099.25,278872.34375,282894.34375,268016.28125,278663.875,266324.53125,252078.0625,255714.96875,-0.049560546875,0.85595703125,-0.51025390625,0.03051757626235485,12.268065452575684,2.502441167831421,100.0,66417.0,1.0
509713.4812287,266498.53125,279141.90625,283209.3125,268419.59375,279535.40625,267014.84375,252362.46875,256067.671875,-0.048583984375,0.8505859375,-0.51123046875,0.1220703050494194,12.084959983825684,2.899169683456421,100.0,66418.0,1.0
509713.4837085,265479.46875,279456.625,284019.4375,269234.90625,283106.59375,268194.84375,253161.59375,257129.921875,-0.05029296875,0.852294921875,-0.51025390625,0.3356933295726776,11.962889671325684,3.143310308456421,100.0,66419.0,1.0
509713.4862049,265413.84375,279383.9375,284222.375,269339.6875,284570.53125,268267.53125,253392.078125,257447.5,-0.04833984375,0.852783203125,-0.506103515625,0.4272460639476776,11.688231468200684,3.204345464706421,100.0,66420.0,1.0
509713.4886694,266479.3125,279052.96875,283550.9375,268579.375,281824.40625,267109.875,252732.53125,256545.28125,-0.05126953125,0.85595703125,-0.5068359375,0.5493163466453552,11.444090843200684,3.326415777206421,100.0,66421.0,1.0
509713.4913297,267104.25,278906.78125,282971.21875,268050.09375,278868.59375,266375.6875,252129.75,255716.390625,-0.051513671875,0.857666015625,-0.506103515625,0.6713866591453552,11.016844749450684,3.387450933456421,100.0,66422.0,1.0
509713.4937022,266501.125,279148.71875,283251.5,268432.65625,279668.625,267027.28125,252390.8125,256053.015625,-0.0517578125,0.858642578125,-0.505126953125,0.5798339247703552,10.650633811950684,3.295898199081421,100.0,66423.0,1.0
509713.5013773,265481.59375,279465.125,284045.71875,269242.5,283219.78125,268207.625,253176.515625,257113.015625,-0.052734375,0.857666015625,-0.49951171875,0.5493163466453552,10.314940452575684,3.234863042831421,100.0,66424.0,1.0
509713.5014183,265412.84375,279414.25,284259.3125,269354.09375,284737.625,268307.65625,253420.328125,257453.3125,-0.052734375,0.8603515625,-0.4951171875,0.4577636420726776,9.979247093200684,3.143310308456421,100.0,66425.0,1.0
509713.5037801,266505.125,279116.625,283623.28125,268614.15625,282065.875,267184.53125,252788.046875,256591.59375,-0.052001953125,0.861083984375,-0.49609375,0.3356933295726776,9.796141624450684,2.990722417831421,100.0,66426.0,1.0
509713.5038185,267174.34375,279001.28125,283060.1875,268078.625,279126.90625,266464.625,252197.609375,255768.703125,-0.047607421875,0.865966796875,-0.49853515625,0.1831054538488388,9.674071311950684,2.716064214706421,100.0,66427.0,1.0
509713.5063117,266596.96875,279258.25,283344.5,268441.59375,279919.65625,267114.1875,252460.109375,256087.171875,-0.044189453125,0.87060546875,-0.499755859375,0.03051757626235485,9.521483421325684,2.563476324081421,100.0,66428.0,1.0
509713.5113337,265571.625,279573.75,284131.53125,269236.625,283471.8125,268279.15625,253232.21875,257119.546875,-0.0400390625,0.872802734375,-0.500732421875,-0.1525878757238388,9.246825218200684,2.532958745956421,100.0,66429.0,1.0
509713.5138442,265495.28125,279537.0,284364.625,269368.21875,285061.8125,268393.15625,253506.703125,257481.296875,-0.0380859375,0.870361328125,-0.502197265625,-0.3662109076976776,9.033202171325684,2.563476324081421,100.0,66430.0,1.0
509713.5152164,266562.90625,279221.21875,283721.53125,268626.5,282437.8125,267249.375,252879.25,256626.734375,-0.034423828125,0.86865234375,-0.4990234375,-0.3967284858226776,9.094237327575684,2.563476324081421,100.0,66431.0,1.0
509713.5379206,267239.15625,279091.75,283152.8125,268093.8125,279493.8125,266492.625,252284.953125,255806.609375,-0.0341796875,0.866455078125,-0.499267578125,-0.5493163466453552,9.002684593200684,2.349853277206421,100.0,66432.0,1.0
509713.5626318,266677.96875,279350.59375,283432.125,268460.1875,280255.03125,267120.53125,252541.90625,256124.890625,-0.03564453125,0.865234375,-0.50244140625,-0.6408690810203552,8.972167015075684,2.288818120956421,100.0,66433.0,1.0
509713.5626757,265648.4375,279681.9375,284227.21875,269252.78125,283824.25,268295.34375,253327.625,257174.09375,-0.037841796875,0.864013671875,-0.50244140625,-0.6103515028953552,8.850096702575684,2.136230230331421,100.0,66434.0,1.0
509713.5652643,265524.625,279619.625,284445.09375,269376.4375,285440.65625,268392.4375,253572.421875,257521.875,-0.037841796875,0.86328125,-0.50634765625,-0.6103515028953552,8.789061546325684,1.9836424589157104,100.0,66435.0,1.0
509713.5653004,266592.3125,279307.84375,283813.15625,268647.59375,282860.96875,267256.59375,252948.265625,256679.40625,-0.03857421875,0.862548828125,-0.505615234375,-0.3662109076976776,8.514403343200684,1.8005369901657104,100.0,66436.0,1.0
509713.5653112,267273.5,279165.78125,283227.28125,268097.46875,279893.03125,266482.96875,252336.90625,255843.796875,-0.03857421875,0.86328125,-0.504638671875,-0.3356933295726776,8.453368186950684,1.5869139432907104,100.0,66437.0,1.0
509713.5726371,266729.90625,279429.4375,283503.90625,268455.28125,280626.0625,267109.875,252590.90625,256157.0,-0.037109375,0.864013671875,-0.507080078125,-0.2136230319738388,8.300780296325684,1.2207030057907104,100.0,66438.0,1.0
509713.572675,265717.1875,279784.65625,284320.1875,269263.15625,284220.5,268319.375,253407.1875,257229.15625,-0.033203125,0.865478515625,-0.5068359375,-0.0915527269244194,8.178709983825684,1.0681151151657104,100.0,66439.0,1.0
509713.5764777,265580.59375,279730.21875,284559.28125,269402.28125,285906.0,268453.5,253686.40625,257616.65625,-0.03173828125,0.866455078125,-0.509033203125,0.0,8.117674827575684,0.8850097060203552,100.0,66440.0,1.0
509713.5765161,266612.875,279366.78125,283907.125,268668.6875,283325.90625,267297.625,253045.359375,256767.734375,-0.02880859375,0.865966796875,-0.509521484375,0.0610351525247097,7.995604991912842,0.6713866591453552,100.0,66441.0,1.0
509713.5765261,267333.40625,279233.46875,283336.53125,268139.0625,280345.53125,266539.46875,252453.671875,255949.75,-0.025634765625,0.864013671875,-0.509033203125,-0.03051757626235485,8.026122093200684,0.4882812201976776,100.0,66442.0,1.0
509713.5765356,266796.78125,279486.5,283588.125,268477.0,281016.6875,267152.25,252692.65625,256232.71875,-0.023681640625,0.859130859375,-0.515625,0.0610351525247097,8.117674827575684,0.3967284858226776,100.0,66443.0,1.0
509713.5787903,265760.03125,279822.21875,284378.5625,269262.0,284570.71875,268348.25,253477.5625,257272.609375,-0.024169921875,0.85693359375,-0.5166015625,0.3967284858226776,8.178709983825684,0.2746581733226776,100.0,66444.0,1.0
509713.5788224,265616.6875,279775.1875,284631.40625,269414.875,286294.65625,268514.75,253750.421875,257666.359375,-0.023681640625,0.853271484375,-0.52294921875,0.7629393935203552,8.239745140075684,0.0915527269244194,100.0,66445.0,1.0
509713.5812125,266647.46875,279420.25,283990.71875,268693.09375,283760.0625,267385.09375,253114.390625,256828.171875,-0.018798828125,0.849365234375,-0.52490234375,1.3122557401657104,8.239745140075684,0.0,100.0,66446.0,1.0
509713.5837654,267359.25,279275.59375,283407.25,268151.3125,280766.28125,266607.5,252516.515625,255992.65625,-0.017578125,0.84423828125,-0.5302734375,1.7395018339157104,8.239745140075684,-0.1220703050494194,100.0,66447.0,1.0
509713.5862969,266854.8125,279556.78125,283677.90625,268493.46875,281433.40625,267239.4375,252782.421875,256291.46875,-0.017822265625,0.841552734375,-0.5322265625,2.441406011581421,8.331297874450684,-0.1831054538488388,100.0,66448.0,1.0
509713.588824,265857.75,279943.28125,284502.75,269301.4375,285019.4375,268476.28125,253599.234375,257357.46875,-0.01171875,0.837890625,-0.535888671875,3.112792730331421,8.300780296325684,-0.3051757514476776,100.0,66449.0,1.0
509713.5911939,265717.0,279938.96875,284778.6875,269471.125,286820.1875,268667.0,253898.21875,257762.46875,-0.010986328125,0.837646484375,-0.5390625,3.814697027206421,8.483885765075684,-0.2441406100988388,100.0,66450.0,1.0
509713.5988074,266773.96875,279656.90625,284174.625,268769.46875,284390.375,267567.375,253297.9375,256939.390625,-0.00537109375,0.841552734375,-0.540771484375,4.547118663787842,8.575438499450684,-0.2746581733226776,100.0,66451.0,1.0
509713.601352,267546.1875,279593.6875,283626.21875,268219.0625,281461.9375,266827.4375,252708.921875,256099.5,0.0009765625,0.83984375,-0.54443359375,4.943847179412842,8.636473655700684,-0.1831054538488388,100.0,66452.0,1.0
509713.6013958,267124.46875,279983.15625,283960.5,268549.15625,282226.625,267533.21875,252990.90625,256399.828125,0.007568359375,0.8388671875,-0.54443359375,5.584716320037842,8.911131858825684,-0.2136230319738388,100.0,66453.0,1.0
509713.6074672,266194.09375,280463.8125,284864.3125,269359.71875,285940.34375,268844.90625,253846.453125,257488.171875,0.012451171875,0.835693359375,-0.544677734375,6.286620616912842,9.368895530700684,-0.1220703050494194,100.0,66454.0,1.0
509713.6162792,266107.28125,280546.3125,285220.4375,269544.09375,287886.90625,269093.46875,254183.953125,257918.84375,0.0166015625,0.84033203125,-0.548583984375,6.988524913787842,9.796141624450684,0.0610351525247097,100.0,66455.0,1.0
509713.6188532,267110.875,280199.0625,284603.25,268824.96875,285498.65625,267942.96875,253582.609375,257093.625,0.020263671875,0.843505859375,-0.547607421875,7.568358898162842,10.162352561950684,0.3662109076976776,100.0,66456.0,1.0
509713.6188964,267719.1875,279901.4375,283925.90625,268264.9375,282427.34375,267040.40625,252949.703125,256231.109375,0.024169921875,0.845703125,-0.547119140625,7.843017101287842,10.589598655700684,1.0375975370407104,100.0,66457.0,1.0
509713.6262888,267075.90625,279977.53125,284036.40625,268559.1875,282890.9375,267501.5,253129.859375,256454.546875,0.021240234375,0.84765625,-0.54833984375,7.934569835662842,10.772704124450684,1.3732908964157104,100.0,66458.0,1.0
509713.6288328,265956.09375,280215.875,284743.09375,269347.84375,286354.1875,268634.46875,253910.375,257485.9375,0.019287109375,0.84716796875,-0.545654296875,8.148192405700684,11.230467796325684,1.6479490995407104,100.0,66459.0,1.0
509713.6312498,265711.03125,280097.6875,284964.46875,269557.9375,288152.8125,268792.4375,254229.46875,257926.171875,0.020751953125,0.846923828125,-0.545166015625,8.392333030700684,11.657713890075684,1.8005369901657104,100.0,66460.0,1.0
509713.6312911,266647.03125,279628.65625,284274.25,268875.0625,285648.34375,267619.875,253611.046875,257130.09375,0.01904296875,0.847900390625,-0.5419921875,8.453368186950684,12.145995140075684,2.044677495956421,100.0,66461.0,1.0
509713.6337114,267342.25,279373.21875,283603.0625,268305.09375,282490.84375,266747.59375,252964.1875,256263.203125,0.017822265625,0.849853515625,-0.54345703125,8.636473655700684,12.573241233825684,2.166747808456421,100.0,66462.0,1.0
509713.65007,266856.875,279593.6875,283793.0625,268584.65625,282931.0,267289.6875,253151.21875,256478.140625,0.0166015625,0.8544921875,-0.543701171875,8.941649436950684,12.939452171325684,2.258300542831421,100.0,66463.0,1.0
509713.6550721,265880.1875,279990.40625,284611.125,269381.53125,286435.90625,268533.0625,253950.875,257518.125,0.020263671875,0.85546875,-0.545166015625,8.972167015075684,13.244627952575684,2.380370855331421,100.0,66464.0,1.0
509713.6551155,265691.71875,279983.6875,284914.21875,269585.5625,288315.0,268758.09375,254283.5625,257965.609375,0.02294921875,0.854248046875,-0.54541015625,9.063719749450684,13.488768577575684,2.502441167831421,100.0,66465.0,1.0
509713.6575956,266620.84375,279547.28125,284256.8125,268868.78125,285838.15625,267579.71875,253639.65625,257117.3125,0.022705078125,0.85498046875,-0.54541015625,8.941649436950684,13.763426780700684,2.624511480331421,100.0,66466.0,1.0
509713.6601112,267327.9375,279309.75,283598.59375,268291.9375,282659.09375,266705.40625,252962.84375,256217.875,0.01806640625,0.8515625,-0.54150390625,8.758543968200684,14.221190452575684,2.563476324081421,100.0,66467.0,1.0
509713.6624465,266878.40625,279565.25,283794.40625,268579.375,283067.0625,267270.28125,253141.46875,256444.890625,0.0146484375,0.848388671875,-0.541259765625,8.758543968200684,14.587401390075684,2.380370855331421,100.0,66468.0,1.0
509713.6663183,265903.4375,279982.6875,284609.96875,269355.6875,286554.125,268510.71875,253922.4375,257479.6875,0.010009765625,0.845458984375,-0.54345703125,8.666991233825684,14.923094749450684,2.258300542831421,100.0,66469.0,1.0
509713.7000332,265689.21875,279967.9375,284898.75,269543.53125,288440.4375,268731.71875,254224.28125,257906.59375,0.00390625,0.836181640625,-0.546875,8.605956077575684,15.075682640075684,2.044677495956421,100.0,66470.0,1.0
509713.7000471,266610.09375,279535.5,284231.40625,268856.28125,286005.96875,267577.40625,253601.203125,257106.765625,-0.002197265625,0.828369140625,-0.552978515625,8.544920921325684,15.075682640075684,1.7700194120407104,100.0,66471.0,1.0
509713.7025363,267295.3125,279252.0625,283533.0625,268269.9375,282772.375,266674.03125,252924.390625,256213.40625,-0.00732421875,0.82177734375,-0.55419921875,8.728026390075684,15.106200218200684,1.4038084745407104,100.0,66472.0,1.0
509713.7025501,266853.375,279492.5625,283720.28125,268540.5,283101.125,267209.9375,253094.71875,256413.953125,-0.012451171875,0.813720703125,-0.557861328125,8.941649436950684,14.953612327575684,0.9460448622703552,100.0,66473.0,1.0
509713.7048269,265867.84375,279899.03125,284525.03125,269305.625,286527.75,268433.375,253861.640625,257423.171875,-0.016845703125,0.80615234375,-0.56103515625,9.216307640075684,14.770506858825684,0.4882812201976776,100.0,66474.0,1.0
509713.7073934,265641.90625,279891.96875,284828.125,269521.5625,288430.5,268680.59375,254188.4375,257874.859375,-0.0234375,0.801513671875,-0.565185546875,9.643553733825684,14.556883811950684,0.1525878757238388,100.0,66475.0,1.0
509713.7099685,266555.5625,279461.09375,284159.875,268830.25,285999.34375,267529.375,253560.53125,257068.234375,-0.027587890625,0.798828125,-0.5673828125,10.131834983825684,14.190672874450684,-0.3356933295726776,100.0,66476.0,1.0
509713.7124721,267287.1875,279217.46875,283481.65625,268231.3125,282753.0625,266631.8125,252877.8125,256167.0,-0.02734375,0.80078125,-0.568359375,10.528563499450684,13.702391624450684,-0.6408690810203552,100.0,66477.0,1.0
509713.7150057,266882.78125,279480.0625,283674.3125,268481.5625,283032.90625,267155.125,253029.0,256345.109375,-0.02490234375,0.805908203125,-0.573974609375,10.894774436950684,13.122557640075684,-0.9155272841453552,100.0,66478.0,1.0
509713.7175293,265944.03125,279941.65625,284518.0625,269262.34375,286475.09375,268405.5625,253819.09375,257364.53125,-0.03076171875,0.810791015625,-0.5732421875,11.230467796325684,12.542723655700684,-1.1901854276657104,100.0,66479.0,1.0
509713.7199917,265697.0,279944.53125,284839.5625,269483.375,288428.34375,268665.84375,254155.0,257824.53125,-0.033203125,0.820068359375,-0.56689453125,11.596678733825684,11.901854515075684,-1.3732908964157104,100.0,66480.0,1.0
509713.7225139,266561.09375,279474.5,284164.09375,268804.15625,286028.40625,267506.6875,253536.921875,257036.40625,-0.033447265625,0.8251953125,-0.563720703125,11.505125999450684,11.291502952575684,-1.5258787870407104,100.0,66481.0,1.0
509713.7250502,267253.21875,279160.6875,283444.625,268207.8125,282725.0,266567.1875,252834.359375,256122.21875,-0.02978515625,0.831787109375,-0.5634765625,11.322020530700684,10.894774436950684,-1.7089842557907104,100.0,66482.0,1.0
509713.7250692,266835.5,279392.4375,283613.34375,268455.8125,282943.25,267071.25,252983.84375,256295.3125,-0.02880859375,0.83447265625,-0.565673828125,11.352538108825684,10.528563499450684,-1.8615721464157104,100.0,66483.0,1.0
509713.7273795,265873.375,279834.375,284438.65625,269225.34375,286348.5625,268316.25,253763.484375,257304.265625,-0.0283203125,0.83544921875,-0.570068359375,11.138915061950684,9.948729515075684,-1.9226073026657104,100.0,66484.0,1.0
509713.731288,265607.03125,279837.59375,284766.4375,269459.0625,288334.84375,268595.125,254106.265625,257780.984375,-0.027587890625,0.841064453125,-0.5693359375,10.955809593200684,9.368895530700684,-2.075195074081421,100.0,66485.0,1.0
509713.7313081,266462.75,279379.5625,284097.5625,268799.15625,285980.84375,267460.375,253502.140625,257010.03125,-0.030029296875,0.844970703125,-0.564697265625,10.833739280700684,8.575438499450684,-2.227782964706421,100.0,66486.0,1.0
509713.7500939,267168.71875,279081.125,283373.5625,268203.59375,282675.71875,266522.65625,252804.953125,256100.046875,-0.026123046875,0.8486328125,-0.568115234375,10.375975608825684,8.117674827575684,-2.410888433456421,100.0,66487.0,1.0
509713.750134,266762.4375,279307.21875,283519.71875,268423.28125,282831.125,267002.59375,252923.59375,256239.0625,-0.02099609375,0.851806640625,-0.5693359375,10.101317405700684,7.965087413787842,-2.441406011581421,100.0,66488.0,1.0
509713.7574881,265819.5625,279757.40625,284345.21875,269177.25,286201.9375,268229.96875,253674.703125,257219.6875,-0.01904296875,0.856201171875,-0.568115234375,9.552000999450684,7.659911632537842,-2.563476324081421,100.0,66489.0,1.0
509713.7575301,265565.03125,279793.6875,284698.90625,269422.84375,288233.0,268529.75,254030.265625,257703.203125,-0.01513671875,0.856689453125,-0.566650390625,9.002684593200684,7.293700695037842,-2.746581792831421,100.0,66490.0,1.0
509713.7599776,266432.0,279362.5625,284054.5625,268781.875,285936.75,267419.6875,253445.640625,256953.703125,-0.010986328125,0.855712890625,-0.5634765625,8.636473655700684,6.866454601287842,-2.807616949081421,100.0,66491.0,1.0
509713.762545,267162.46875,279083.96875,283344.40625,268194.03125,282635.40625,266493.59375,252763.46875,256052.296875,-0.006103515625,0.858642578125,-0.558837890625,8.056639671325684,6.622313976287842,-2.532958745956421,100.0,66492.0,1.0
509713.7649954,266782.46875,279319.5625,283497.90625,268405.40625,282752.09375,266966.65625,252884.78125,256186.671875,-0.0009765625,0.86083984375,-0.558837890625,7.354735851287842,6.530761241912842,-2.441406011581421,100.0,66493.0,1.0
509713.7674136,265865.875,279800.3125,284354.53125,269165.25,286121.5625,268220.84375,253669.25,257195.28125,0.001953125,0.863037109375,-0.559814453125,6.591796398162842,6.439208507537842,-2.288818120956421,100.0,66494.0,1.0
509713.7713293,265626.96875,279862.90625,284746.9375,269439.65625,288198.125,268557.75,254057.359375,257710.53125,0.0029296875,0.865234375,-0.560302734375,6.011962413787842,6.622313976287842,-1.8920897245407104,100.0,66495.0,1.0
509713.7800962,266461.3125,279403.875,284089.0625,268791.4375,285916.09375,267440.34375,253452.515625,256946.546875,0.005859375,0.862548828125,-0.5556640625,5.401610851287842,6.591796398162842,-1.5563963651657104,100.0,66496.0,1.0
509713.7801395,267177.84375,279096.84375,283351.375,268179.1875,282569.34375,266487.25,252737.796875,256018.953125,0.0048828125,0.858154296875,-0.555908203125,4.669188976287842,6.561278820037842,-1.3122557401657104,100.0,66497.0,1.0
509713.7826656,266828.53125,279350.96875,283516.78125,268396.4375,282650.4375,266972.65625,252874.421875,256166.921875,0.008544921875,0.853759765625,-0.556884765625,4.119872570037842,6.805419445037842,-1.0070799589157104,100.0,66498.0,1.0
509713.7827036,265893.3125,279811.75,284346.84375,269130.9375,285956.875,268208.6875,253633.390625,257144.578125,0.008056640625,0.849365234375,-0.5576171875,3.570556402206421,6.927489757537842,-0.8239745497703552,100.0,66499.0,1.0
509713.8001078,265608.46875,279858.25,284718.9375,269385.65625,288030.125,268544.0625,254002.203125,257646.421875,0.005615234375,0.84716796875,-0.55322265625,3.143310308456421,7.232665538787842,-0.6408690810203552,100.0,66500.0,1.0
509713.8025164,266456.0625,279427.03125,284092.5625,268776.25,285808.46875,267468.6875,253428.5625,256922.578125,0.001708984375,0.846435546875,-0.556640625,2.807616949081421,7.324218273162842,-0.3356933295726776,100.0,66501.0,1.0
509713.8025534,267194.8125,279130.21875,283369.4375,268183.03125,282473.84375,266530.71875,252732.078125,256012.15625,-0.00390625,0.84814453125,-0.558349609375,2.471923589706421,7.263183116912842,-0.1831054538488388,100.0,66502.0,1.0
509713.8050968,266839.15625,279363.90625,283505.96875,268379.46875,282488.96875,266983.8125,252844.375,256137.40625,-0.0078125,0.846923828125,-0.5576171875,2.166747808456421,7.171630382537842,-0.0915527269244194,100.0,66503.0,1.0
509713.8074258,265906.75,279830.96875,284335.5625,269118.9375,285767.4375,268218.625,253603.171875,257118.5625,-0.011474609375,0.84716796875,-0.555908203125,1.7395018339157104,7.019042491912842,-0.1220703050494194,100.0,66504.0,1.0
509713.8100527,265606.59375,279876.9375,284713.125,269379.9375,287862.6875,268566.3125,253972.328125,257622.734375,-0.015625,0.849609375,-0.553466796875,1.5258787870407104,6.927489757537842,-0.2136230319738388,100.0,66505.0,1.0
509713.813709,266444.34375,279451.53125,284099.0,268773.84375,285693.125,267501.3125,253414.796875,256911.765625,-0.018798828125,0.85205078125,-0.550048828125,1.2512205839157104,6.622313976287842,-0.2441406100988388,100.0,66506.0,1.0
509713.8301232,267197.0625,279151.65625,283376.59375,268182.59375,282360.5625,266558.96875,252718.046875,256003.65625,-0.019775390625,0.853759765625,-0.549560546875,0.7629393935203552,6.500243663787842,-0.3662109076976776,100.0,66507.0,1.0
509713.8301644,266853.46875,279371.875,283495.6875,268367.65625,282327.5,266990.78125,252817.734375,256110.140625,-0.02099609375,0.85595703125,-0.548095703125,0.4272460639476776,6.408690929412842,-0.3662109076976776,100.0,66508.0,1.0
509713.8325181,265914.0625,279825.625,284307.84375,269091.6875,285574.3125,268209.78125,253568.390625,257075.109375,-0.021484375,0.85888671875,-0.5458984375,-0.1831054538488388,6.256103038787842,-0.3662109076976776,100.0,66509.0,1.0
509713.8350461,265610.25,279885.53125,284703.75,269369.375,287724.09375,268580.0,253964.46875,257602.890625,-0.021240234375,0.861572265625,-0.544677734375,-0.8544921278953552,6.011962413787842,-0.4272460639476776,100.0,66510.0,1.0
509713.8375852,266441.21875,279465.46875,284100.96875,268774.65625,285613.8125,267527.40625,253414.796875,256902.921875,-0.020263671875,0.86279296875,-0.54296875,-1.5563963651657104,5.798339366912842,-0.5493163466453552,100.0,66511.0,1.0
509713.8413373,267193.75,279158.1875,283367.75,268175.4375,282279.3125,266561.8125,252704.453125,255977.015625,-0.01806640625,0.865234375,-0.53955078125,-2.288818120956421,5.554198741912842,-0.6713866591453552,100.0,66512.0,1.0
509713.8413803,266842.65625,279357.125,283470.28125,268343.78125,282206.96875,266970.0625,252792.609375,256068.390625,-0.016845703125,0.86669921875,-0.541015625,-2.899169683456421,5.615233898162842,-0.8544921278953552,100.0,66513.0,1.0
509713.8750731,265879.1875,279791.0,284264.3125,269053.0625,285424.1875,268176.15625,253533.4375,257022.71875,-0.015625,0.868896484375,-0.540283203125,-3.356933355331421,5.493163585662842,-0.8850097060203552,100.0,66514.0,1.0
509713.8814889,265548.40625,279845.71875,284660.3125,269338.96875,287601.0625,268550.59375,253923.78125,257555.046875,-0.015625,0.86962890625,-0.537353515625,-3.967284917831421,5.401610851287842,-0.8544921278953552,100.0,66515.0,1.0
509713.8815306,266383.71875,279441.4375,284079.40625,268768.84375,285558.9375,267520.71875,253385.109375,256877.875,-0.014404296875,0.871826171875,-0.534912109375,-4.425048351287842,5.340575695037842,-0.8544921278953552,100.0,66516.0,1.0
509713.8815418,267164.6875,279156.9375,283367.28125,268183.125,282263.03125,266572.71875,252698.203125,255978.984375,-0.0126953125,0.87353515625,-0.533203125,-4.760741710662842,5.310058116912842,-0.8544921278953552,100.0,66517.0,1.0
509713.9229095,266823.6875,279350.78125,283453.03125,268335.65625,282145.71875,266955.125,252773.296875,256052.125,-0.012451171875,0.870849609375,-0.5322265625,-5.249022960662842,5.340575695037842,-0.9155272841453552,100.0,66518.0,1.0
509713.9299698,265850.59375,279770.09375,284230.0625,269026.59375,285317.34375,268140.9375,253500.0,256989.46875,-0.0126953125,0.871826171875,-0.533203125,-5.767821788787842,5.523681163787842,-1.0070799589157104,100.0,66519.0,1.0
509713.9325075,265502.4375,279833.125,284634.09375,269318.0625,287523.09375,268531.09375,253904.5625,257535.5625,-0.012451171875,0.872314453125,-0.533203125,-6.225585460662842,5.462646007537842,-0.9765624403953552,100.0,66520.0,1.0
509713.9325515,266345.71875,279449.9375,284078.4375,268769.1875,285540.875,267528.125,253387.96875,256877.34375,-0.01123046875,0.872802734375,-0.531494140625,-6.561278820037842,5.462646007537842,-0.9765624403953552,100.0,66521.0,1.0
509713.935169,267149.3125,279170.0,283375.875,268183.9375,282248.625,266581.9375,252707.578125,255981.21875,-0.01318359375,0.874267578125,-0.529296875,-6.958007335662842,5.554198741912842,-1.0070799589157104,100.0,66522.0,1.0
509713.937612,266817.4375,279350.875,283452.3125,268332.96875,282085.1875,266956.5625,252775.265625,256044.4375,-0.015380859375,0.87646484375,-0.526123046875,-7.385253429412842,5.493163585662842,-1.0070799589157104,100.0,66523.0,1.0
509713.9418152,265837.0,279762.75,284216.40625,269028.125,285225.53125,268143.15625,253502.671875,256978.015625,-0.01513671875,0.878173828125,-0.522705078125,-7.812499523162842,5.493163585662842,-1.0070799589157104,100.0,66524.0,1.0
509713.9675681,265453.8125,279790.65625,284596.1875,269309.3125,287428.78125,268522.0625,253887.578125,257507.578125,-0.017578125,0.876953125,-0.518798828125,-8.209227561950684,5.432128429412842,-0.9155272841453552,100.0,66525.0,1.0
509713.9700616,266296.71875,279409.34375,284052.5,268765.53125,285496.96875,267528.125,253380.1875,256866.890625,-0.02197265625,0.878173828125,-0.5166015625,-8.789061546325684,5.401610851287842,-1.0070799589157104,100.0,66526.0,1.0
509713.9724466,267133.21875,279144.59375,283362.71875,268191.0,282209.28125,266581.40625,252702.125,255976.03125,-0.02587890625,0.87646484375,-0.51416015625,-9.124754905700684,5.432128429412842,-1.0986326932907104,100.0,66527.0,1.0
509713.9750232,266799.46875,279308.5625,283408.40625,268310.25,281979.25,266922.21875,252744.328125,256009.5625,-0.0283203125,0.874755859375,-0.514404296875,-9.521483421325684,5.279540538787842,-1.1291502714157104,100.0,66528.0,1.0
509713.9775865,265794.625,279694.8125,284148.4375,268987.6875,285067.71875,268090.9375,253456.359375,256930.453125,-0.031005859375,0.87548828125,-0.513916015625,-9.948729515075684,4.943847179412842,-1.2817381620407104,100.0,66529.0,1.0
509713.980057,265416.96875,279748.09375,284559.625,269300.1875,287315.78125,268511.15625,253876.125,257497.109375,-0.033203125,0.874267578125,-0.511962890625,-10.284422874450684,4.791259288787842,-1.2817381620407104,100.0,66530.0,1.0
509713.9825942,266268.84375,279381.625,284041.59375,268778.75,285435.0,267541.71875,253383.234375,256873.765625,-0.034912109375,0.87109375,-0.51318359375,-10.589598655700684,4.547118663787842,-1.3732908964157104,100.0,66531.0,1.0
509713.9938732,267119.28125,279112.25,283354.875,268202.875,282138.46875,266579.78125,252693.1875,255972.015625,-0.037353515625,0.87060546875,-0.509765625,-10.894774436950684,4.211425304412842,-1.5258787870407104,100.0,66532.0,1.0
509713.9939155,266798.5625,279268.34375,283392.25,268319.90625,281857.65625,266903.90625,252725.46875,255996.15625,-0.041748046875,0.86669921875,-0.509033203125,-11.138915061950684,3.967284917831421,-1.6479490995407104,100.0,66533.0,1.0
509713.9988558,265789.78125,279659.59375,284122.34375,268992.0,284919.125,268075.46875,253447.421875,256921.609375,-0.04345703125,0.868408203125,-0.5078125,-11.291502952575684,3.692626714706421,-1.7089842557907104,100.0,66534.0,1.0
509713.9988949,265376.09375,279694.375,284513.3125,269286.9375,287163.96875,268480.5,253857.984375,257477.53125,-0.04736328125,0.87158203125,-0.507568359375,-11.322020530700684,3.234863042831421,-1.8005369901657104,100.0,66535.0,1.0
509714.0028471,266233.0625,279345.5,284010.5,268775.625,285322.1875,267516.78125,253367.40625,256860.890625,-0.048583984375,0.871337890625,-0.507080078125,-11.535643577575684,2.777099370956421,-1.9226073026657104,100.0,66536.0,1.0
509714.0028861,267112.21875,279095.15625,283336.09375,268201.625,282031.8125,266551.71875,252682.640625,255965.484375,-0.050048828125,0.870361328125,-0.50390625,-11.718749046325684,2.319335699081421,-1.9531248807907104,100.0,66537.0,1.0
509714.002897,266790.96875,279233.375,283355.59375,268301.78125,281698.78125,266851.6875,252702.75,255975.3125,-0.051513671875,0.869873046875,-0.502197265625,-11.840819358825684,1.8005369901657104,-1.9836424589157104,100.0,66538.0,1.0
509714.0051694,265746.96875,279574.1875,284040.875,268952.65625,284678.8125,267981.59375,253380.015625,256862.5,-0.05322265625,0.86669921875,-0.499755859375,-11.932372093200684,1.4343260526657104,-1.9226073026657104,100.0,66539.0,1.0
509714.0052074,265336.125,279632.21875,284456.90625,269268.78125,286976.46875,268429.1875,253820.34375,257454.46875,-0.05517578125,0.864501953125,-0.498779296875,-12.054442405700684,1.0681151151657104,-1.9226073026657104,100.0,66540.0,1.0
509714.0076536,266215.0,279315.46875,283992.59375,268784.03125,285211.75,267499.53125,253361.421875,256871.984375,-0.0546875,0.865234375,-0.499755859375,-12.176512718200684,0.5187987685203552,-1.8920897245407104,100.0,66541.0,1.0
509714.0076912,267119.09375,279071.375,283330.46875,268215.125,281924.25,266526.9375,252672.71875,255972.1875,-0.0546875,0.8623046875,-0.49951171875,-12.145995140075684,0.03051757626235485,-1.8920897245407104,100.0,66542.0,1.0
509714.0099596,266806.71875,279204.40625,283337.78125,268303.65625,281550.1875,266806.78125,252682.546875,255968.171875,-0.05419921875,0.8603515625,-0.502197265625,-12.176512718200684,-0.5493163466453552,-1.8615721464157104,100.0,66543.0,1.0
509714.0125643,265741.25,279533.53125,284004.5,268939.875,284505.1875,267932.25,253359.0,256849.71875,-0.052978515625,0.8603515625,-0.5,-12.115477561950684,-1.0986326932907104,-1.8310545682907104,100.0,66544.0,1.0
509714.01512,265299.125,279574.125,284402.96875,269256.46875,286794.34375,268372.125,253782.4375,257426.21875,-0.0556640625,0.857666015625,-0.4990234375,-11.840819358825684,-1.6174315214157104,-1.5869139432907104,100.0,66545.0,1.0
509714.0174685,266191.5,279279.0625,283965.59375,268787.25,285081.84375,267464.65625,253337.359375,256857.9375,-0.056640625,0.8583984375,-0.4931640625,-11.779784202575684,-2.075195074081421,-1.4953612089157104,100.0,66546.0,1.0
509714.0274071,267115.25,279039.625,283309.28125,268206.0,281790.0625,266484.125,252641.6875,255946.0,-0.056640625,0.857177734375,-0.49267578125,-11.566161155700684,-2.563476324081421,-1.4953612089157104,100.0,66547.0,1.0
509714.0301106,266813.59375,279159.4375,283312.03125,268283.34375,281367.0,266750.5625,252643.390625,255931.15625,-0.056396484375,0.85595703125,-0.4931640625,-11.169432640075684,-3.021239995956421,-1.4343260526657104,100.0,66548.0,1.0
509714.0301548,265718.71875,279453.25,283954.6875,268902.5,284262.4375,267855.375,253300.078125,256789.1875,-0.05615234375,0.8564453125,-0.494384765625,-10.925292015075684,-3.448486089706421,-1.2512205839157104,100.0,66549.0,1.0
509714.0339587,265251.84375,279479.875,284352.375,269227.59375,286559.84375,268296.9375,253713.59375,257363.0,-0.054443359375,0.853271484375,-0.4931640625,-10.681151390075684,-3.753661870956421,-1.0070799589157104,100.0,66550.0,1.0
509714.033997,266158.3125,279210.9375,283951.46875,268771.4375,284903.9375,267417.53125,253284.078125,256812.796875,-0.0556640625,0.853515625,-0.490478515625,-10.284422874450684,-4.241942882537842,-0.9155272841453552,100.0,66551.0,1.0
509714.0340073,267120.15625,279025.25,283369.09375,268202.25,281649.78125,266454.1875,252618.265625,255876.171875,-0.05615234375,0.85302734375,-0.49267578125,-10.009764671325684,-4.791259288787842,-0.7934569716453552,100.0,66552.0,1.0
509714.0387152,266816.1875,279152.375,283378.125,268266.53125,281181.03125,266691.09375,252608.34375,255777.8125,-0.056884765625,0.853759765625,-0.4921875,-9.521483421325684,-5.187987804412842,-0.7019042372703552,100.0,66553.0,1.0
509714.0438665,265706.28125,279419.53125,283984.65625,268883.8125,284036.3125,267789.90625,253258.59375,256633.4375,-0.054931640625,0.85205078125,-0.492431640625,-9.185790061950684,-5.584716320037842,-0.7019042372703552,100.0,66554.0,1.0
509714.0461946,265225.71875,279449.46875,284385.0,269232.6875,286377.625,268259.9375,253702.6875,257248.5625,-0.0537109375,0.850341796875,-0.491455078125,-8.819579124450684,-6.011962413787842,-0.4577636420726776,100.0,66555.0,1.0
509714.0488064,266123.8125,279174.09375,283968.5625,268786.09375,284763.84375,267388.125,253278.171875,256719.28125,-0.053955078125,0.850341796875,-0.4892578125,-8.392333030700684,-6.378173351287842,-0.3051757514476776,100.0,66556.0,1.0
509714.0564093,267076.28125,278933.78125,283303.90625,268194.21875,281455.0625,266392.40625,252569.1875,255810.453125,-0.055419921875,0.85107421875,-0.492919921875,-7.904052257537842,-6.652831554412842,-0.1525878757238388,100.0,66557.0,1.0
509714.0564501,266772.46875,279014.34375,283252.3125,268257.34375,280903.78125,266600.53125,252538.78125,255774.875,-0.05322265625,0.852783203125,-0.490234375,-7.354735851287842,-6.866454601287842,-0.1525878757238388,100.0,66558.0,1.0
509714.0564606,265627.78125,279238.9375,283829.34375,268876.84375,283680.5625,267650.34375,253166.234375,256628.703125,-0.052734375,0.854248046875,-0.490234375,-6.927489757537842,-7.263183116912842,-0.1220703050494194,100.0,66559.0,1.0
509714.0625473,265106.71875,279222.28125,284205.46875,269225.34375,285969.5625,268086.3125,253580.90625,257231.75,-0.049560546875,0.852294921875,-0.490478515625,-6.500243663787842,-7.507323741912842,-0.03051757626235485,100.0,66560.0,1.0
509714.0676949,265983.1875,278925.03125,283786.78125,268772.6875,284330.46875,267193.75,253136.46875,256689.859375,-0.04736328125,0.854248046875,-0.4892578125,-6.103515148162842,-7.690429210662842,0.03051757626235485,100.0,66561.0,1.0
509714.0699523,266974.0,278712.59375,283149.0625,268187.78125,281016.78125,266212.15625,252436.6875,255784.53125,-0.047119140625,0.854736328125,-0.491943359375,-5.737304210662842,-7.812499523162842,0.1525878757238388,100.0,66562.0,1.0
509714.072511,266696.46875,278803.0625,283100.3125,268240.71875,280431.53125,266428.15625,252395.375,255734.1875,-0.044677734375,0.854248046875,-0.494140625,-5.279540538787842,-8.026122093200684,0.0915527269244194,100.0,66563.0,1.0
509714.0750808,265579.0625,279060.75,283692.75,268862.53125,283206.0,267508.71875,253026.5,256585.4375,-0.039306640625,0.85546875,-0.49267578125,-5.004882335662842,-8.026122093200684,0.1831054538488388,100.0,66564.0,1.0
509714.0774851,265073.375,279117.25,284111.25,269213.625,285592.8125,268015.5,253469.953125,257203.40625,-0.0390625,0.857177734375,-0.4931640625,-4.547118663787842,-7.873534679412842,0.3051757514476776,100.0,66565.0,1.0
509714.0799532,266018.5,278967.21875,283793.125,268786.0,284152.46875,267245.4375,253094.453125,256705.859375,-0.035888671875,0.85791015625,-0.493408203125,-4.211425304412842,-7.934569835662842,0.3051757514476776,100.0,66566.0,1.0
509714.0824495,267091.5625,278896.6875,283243.71875,268215.5,281004.625,266358.40625,252454.828125,255827.796875,-0.03564453125,0.859375,-0.49365234375,-3.814697027206421,-7.812499523162842,0.3356933295726776,100.0,66567.0,1.0
509714.0849312,266840.78125,279044.46875,283216.46875,268249.46875,280483.21875,266591.9375,252421.84375,255758.78125,-0.034912109375,0.8583984375,-0.493896484375,-3.479003667831421,-7.720946788787842,0.2746581733226776,100.0,66568.0,1.0
509714.0875059,265716.3125,279328.15625,283823.4375,268870.9375,283321.875,267689.25,253074.6875,256613.5,-0.033203125,0.860595703125,-0.496337890625,-3.326415777206421,-7.537841320037842,0.3662109076976776,100.0,66569.0,1.0
509714.0875483,265196.21875,279390.84375,284262.71875,269235.1875,285794.4375,268218.4375,253543.0,257256.703125,-0.033447265625,0.8603515625,-0.499267578125,-2.960204839706421,-7.476806163787842,0.1831054538488388,100.0,66570.0,1.0
509714.0891708,266138.84375,279242.40625,283966.0625,268813.1875,284442.59375,267471.53125,253182.953125,256778.109375,-0.033203125,0.86083984375,-0.49755859375,-2.868652105331421,-7.354735851287842,0.2136230319738388,100.0,66571.0,1.0
509714.0963025,267217.1875,279161.59375,283419.96875,268237.125,281319.4375,266572.71875,252547.015625,255886.359375,-0.03173828125,0.861328125,-0.497802734375,-2.624511480331421,-7.141112804412842,0.2136230319738388,100.0,66572.0,1.0
509714.0988161,266958.15625,279281.03125,283377.03125,268261.53125,280762.875,266772.46875,252512.9375,255792.390625,-0.030517578125,0.861328125,-0.499267578125,-2.410888433456421,-6.927489757537842,0.2746581733226776,100.0,66573.0,1.0
509714.1013508,265811.6875,279516.90625,283956.5625,268878.0,283557.28125,267840.15625,253155.6875,256635.859375,-0.029541015625,0.86328125,-0.49609375,-2.227782964706421,-6.713866710662842,0.1525878757238388,100.0,66574.0,1.0
509714.1013926,265271.21875,279563.21875,284391.09375,269259.21875,286053.53125,268364.96875,253629.546875,257287.1875,-0.029296875,0.86376953125,-0.499267578125,-2.105712652206421,-6.469726085662842,0.0,100.0,66575.0,1.0
509714.1037378,266183.4375,279398.4375,284077.46875,268832.125,284725.84375,267609.9375,253265.21875,256803.9375,-0.0283203125,0.8642578125,-0.498779296875,-1.9226073026657104,-6.195067882537842,-0.03051757626235485,100.0,66576.0,1.0
509714.1062238,267252.75,279294.0,283508.5625,268238.375,281579.15625,266696.1875,252613.53125,255911.484375,-0.03076171875,0.86279296875,-0.50244140625,-1.8310545682907104,-5.950927257537842,-0.1220703050494194,100.0,66577.0,1.0
509714.1062645,267000.09375,279388.78125,283444.625,268258.40625,280976.71875,266876.8125,252576.15625,255832.796875,-0.030029296875,0.86376953125,-0.500244140625,-1.6784666776657104,-5.645751476287842,-0.1831054538488388,100.0,66578.0,1.0
509714.1087932,265831.375,279577.5,283985.28125,268866.375,283703.46875,267896.5,253195.125,256656.25,-0.02734375,0.86328125,-0.4970703125,-1.5869139432907104,-5.462646007537842,-0.2441406100988388,100.0,66579.0,1.0
509714.1114653,265268.90625,279604.5,284411.03125,269247.6875,286197.65625,268413.09375,253667.1875,257311.59375,-0.028076171875,0.862060546875,-0.501953125,-1.5869139432907104,-5.096435070037842,-0.3356933295726776,100.0,66580.0,1.0
509714.1115035,266181.40625,279446.25,284117.59375,268838.75,284917.0625,267676.90625,253321.984375,256855.359375,-0.0263671875,0.86376953125,-0.504150390625,-1.5258787870407104,-4.760741710662842,-0.5798339247703552,100.0,66581.0,1.0
509714.1163345,267269.84375,279341.84375,283550.65625,268243.125,281761.90625,266756.8125,252664.75,255955.296875,-0.02685546875,0.866455078125,-0.5068359375,-1.5258787870407104,-4.608153820037842,-0.5798339247703552,100.0,66582.0,1.0
509714.1262717,267026.46875,279416.125,283464.375,268247.9375,281087.5,266903.4375,252591.078125,255837.90625,-0.026123046875,0.864501953125,-0.507080078125,-1.5258787870407104,-4.272460460662842,-0.5798339247703552,100.0,66583.0,1.0
509714.1287706,265871.96875,279622.9375,284017.71875,268867.28125,283806.1875,267932.15625,253215.234375,256666.796875,-0.028076171875,0.86279296875,-0.508056640625,-1.5563963651657104,-3.997802495956421,-0.6408690810203552,100.0,66584.0,1.0
509714.1287839,265296.53125,279655.28125,284450.375,269259.21875,286331.59375,268461.8125,253695.265625,257330.90625,-0.027099609375,0.86279296875,-0.5078125,-1.6479490995407104,-3.662109136581421,-0.7019042372703552,100.0,66585.0,1.0
509714.1312682,266198.46875,279511.625,284163.03125,268851.96875,285101.4375,267741.28125,253365.4375,256886.46875,-0.02685546875,0.863037109375,-0.507080078125,-1.6174315214157104,-3.387450933456421,-0.6713866591453552,100.0,66586.0,1.0
509714.1498659,267291.65625,279410.0625,283593.9375,268257.0625,281949.21875,266813.21875,252717.78125,255989.0,-0.02490234375,0.861572265625,-0.507080078125,-1.6479490995407104,-3.143310308456421,-0.7324218153953552,100.0,66587.0,1.0
509714.1525149,267050.875,279470.59375,283495.5,268255.28125,281236.1875,266941.0,252641.875,255861.953125,-0.027099609375,0.860595703125,-0.50537109375,-1.6479490995407104,-2.838134527206421,-0.7019042372703552,100.0,66588.0,1.0
509714.1525312,265878.75,279643.21875,284027.125,268868.25,283899.90625,267942.8125,253243.21875,256673.59375,-0.027587890625,0.859375,-0.509765625,-1.4648436307907104,-2.563476324081421,-0.9155272841453552,100.0,66589.0,1.0
509714.1549826,265270.875,279650.8125,284447.78125,269260.40625,286427.6875,268467.1875,253710.546875,257335.828125,-0.026611328125,0.85888671875,-0.5107421875,-1.4343260526657104,-2.380370855331421,-0.8544921278953552,100.0,66590.0,1.0
509714.1574799,266160.21875,279489.8125,284161.21875,268858.0625,285216.0625,267747.34375,253372.140625,256892.90625,-0.026611328125,0.85888671875,-0.51123046875,-1.3427733182907104,-1.9836424589157104,-0.8850097060203552,100.0,66591.0,1.0
509714.1661602,267259.71875,279383.5,283583.375,268250.4375,282041.03125,266809.21875,252714.015625,255987.921875,-0.0263671875,0.85888671875,-0.512451171875,-1.2512205839157104,-1.7700194120407104,-0.7629393935203552,100.0,66592.0,1.0
509714.1687084,267037.03125,279442.15625,283474.84375,268243.125,281273.75,266919.625,252628.1875,255853.453125,-0.0283203125,0.85888671875,-0.5126953125,-1.2817381620407104,-1.5563963651657104,-0.8239745497703552,100.0,66593.0,1.0
509714.171275,265874.09375,279618.1875,284004.5,268856.53125,283909.71875,267922.59375,253229.265625,256664.921875,-0.0263671875,0.859130859375,-0.514404296875,-1.1596678495407104,-1.1901854276657104,-0.8239745497703552,100.0,66594.0,1.0
509714.1737939,265253.875,279625.96875,284429.1875,269251.28125,286446.8125,268450.46875,253696.25,257327.515625,-0.02734375,0.859619140625,-0.51318359375,-1.0986326932907104,-0.9155272841453552,-0.7324218153953552,100.0,66595.0,1.0
509714.1762355,266138.46875,279483.09375,284158.46875,268857.0,285276.59375,267744.125,253374.5625,256905.0625,-0.02734375,0.859130859375,-0.521240234375,-1.0986326932907104,-0.7019042372703552,-0.6713866591453552,100.0,66596.0,1.0
509714.1762615,267240.5,279365.34375,283567.5625,268235.78125,282072.21875,266788.375,252701.953125,255984.171875,-0.030029296875,0.858642578125,-0.519287109375,-0.9460448622703552,-0.4882812201976776,-0.7324218153953552,100.0,66597.0,1.0
509714.1800486,267035.84375,279408.34375,283445.4375,268221.9375,281234.21875,266877.6875,252595.375,255826.015625,-0.028076171875,0.857421875,-0.51611328125,-0.7934569716453552,-0.2746581733226776,-0.8850097060203552,100.0,66598.0,1.0
509714.2001312,265884.125,279579.46875,283972.65625,268837.0625,283828.8125,267875.75,253188.0625,256635.953125,-0.02783203125,0.857177734375,-0.517578125,-0.6713866591453552,-0.1220703050494194,-0.8544921278953552,100.0,66599.0,1.0
509714.200171,265255.125,279595.03125,284411.3125,269247.53125,286390.40625,268424.25,253671.21875,257318.484375,-0.02734375,0.85693359375,-0.515625,-0.5798339247703552,0.1220703050494194,-0.5798339247703552,100.0,66600.0,1.0
509714.2050016,266113.09375,279443.03125,284139.6875,268851.96875,285249.40625,267724.75,253354.625,256898.09375,-0.026611328125,0.85498046875,-0.516845703125,-0.5187987685203552,0.4882812201976776,-0.4577636420726776,100.0,66601.0,1.0
509714.2050439,267225.5,279327.53125,283558.28125,268235.25,282047.46875,266768.625,252686.578125,255982.109375,-0.028076171875,0.85595703125,-0.520751953125,-0.3662109076976776,0.5798339247703552,-0.3662109076976776,100.0,66602.0,1.0
509714.2074774,267036.84375,279386.1875,283438.90625,268214.6875,281192.75,266860.1875,252583.046875,255823.234375,-0.028564453125,0.858642578125,-0.523681640625,-0.2441406100988388,0.8544921278953552,-0.3356933295726776,100.0,66603.0,1.0
509714.2100205,265874.5625,279558.46875,283953.4375,268820.78125,283763.53125,267854.65625,253169.375,256617.96875,-0.02978515625,0.8603515625,-0.5224609375,-0.1220703050494194,1.1291502714157104,-0.2746581733226776,100.0,66604.0,1.0
509714.2150976,265239.59375,279586.8125,284407.28125,269248.59375,286369.5,268425.875,253669.25,257317.140625,-0.030029296875,0.8603515625,-0.5224609375,-0.1831054538488388,1.4038084745407104,-0.2746581733226776,100.0,66605.0,1.0
509714.2174337,266081.09375,279429.8125,284137.71875,268863.875,285268.53125,267732.0625,253352.921875,256904.171875,-0.029541015625,0.857666015625,-0.5205078125,-0.2136230319738388,1.4953612089157104,-0.1831054538488388,100.0,66606.0,1.0
509714.2201125,267193.46875,279309.90625,283549.25,268240.34375,282063.28125,266768.71875,252683.359375,255986.578125,-0.02880859375,0.85888671875,-0.521240234375,-0.0915527269244194,1.6784666776657104,-0.0610351525247097,100.0,66607.0,1.0
509714.2225176,267013.3125,279364.46875,283416.75,268207.90625,281170.28125,266843.09375,252572.578125,255818.234375,-0.026123046875,0.858154296875,-0.518310546875,-0.0610351525247097,1.8920897245407104,0.03051757626235485,100.0,66608.0,1.0
509714.2225611,265869.0,279547.5625,283934.5,268821.3125,283726.875,267840.78125,253161.5,256612.515625,-0.0263671875,0.858154296875,-0.518798828125,0.1220703050494194,2.075195074081421,0.1220703050494194,100.0,66609.0,1.0
509714.2492322,265220.09375,279575.71875,284385.625,269259.78125,286345.8125,268417.5625,253655.5625,257312.765625,-0.025634765625,0.856689453125,-0.524658203125,0.0610351525247097,2.319335699081421,0.1831054538488388,100.0,66610.0,1.0
509714.2988489,266042.09375,279420.15625,284125.375,268878.09375,285294.375,267742.4375,253354.796875,256919.375,-0.0244140625,0.859130859375,-0.5244140625,0.1831054538488388,2.471923589706421,0.4577636420726776,100.0,66611.0,1.0
509714.2988927,267164.5,279298.65625,283535.375,268245.34375,282090.375,266777.375,252688.09375,255998.65625,-0.024169921875,0.861572265625,-0.52490234375,0.2746581733226776,2.624511480331421,0.5798339247703552,100.0,66612.0,1.0
509714.300263,266991.0625,279336.75,283382.21875,268192.25,281134.96875,266824.15625,252557.015625,255804.1875,-0.025146484375,0.85986328125,-0.5205078125,0.3356933295726776,2.746581792831421,0.6408690810203552,100.0,66613.0,1.0
509714.3101082,265845.75,279512.15625,283890.5,268796.09375,283650.71875,267807.625,253134.234375,256585.15625,-0.027587890625,0.857666015625,-0.522705078125,0.3662109076976776,3.112792730331421,0.7324218153953552,100.0,66614.0,1.0
509714.3125285,265182.71875,279546.84375,284358.90625,269235.90625,286302.53125,268405.125,253650.828125,257307.578125,-0.0283203125,0.856689453125,-0.520263671875,0.3356933295726776,3.204345464706421,0.7629393935203552,100.0,66615.0,1.0
509714.3175861,265993.28125,279388.15625,284106.875,268868.625,285283.1875,267740.65625,253355.515625,256925.171875,-0.0283203125,0.855224609375,-0.520751953125,0.5187987685203552,3.326415777206421,0.8850097060203552,100.0,66616.0,1.0
509714.3199668,267118.46875,279263.5,283513.21875,268241.96875,282062.5625,266764.3125,252681.03125,256002.046875,-0.028564453125,0.8525390625,-0.522705078125,0.6408690810203552,3.662109136581421,1.0375975370407104,100.0,66617.0,1.0
509714.3224077,266959.3125,279299.625,283351.5625,268183.40625,281062.375,266797.40625,252533.953125,255789.078125,-0.027587890625,0.851318359375,-0.5224609375,0.7019042372703552,3.723144292831421,1.1291502714157104,100.0,66618.0,1.0
509714.3250109,265817.15625,279476.65625,283854.375,268778.84375,283542.0,267772.46875,253098.015625,256559.234375,-0.02490234375,0.8525390625,-0.525390625,0.8850097060203552,3.784179449081421,1.1596678495407104,100.0,66619.0,1.0
509714.3313097,265154.09375,279520.375,284331.09375,269231.78125,286210.0625,268381.96875,253616.671875,257289.515625,-0.022705078125,0.8544921875,-0.527099609375,1.0681151151657104,3.936767339706421,1.3122557401657104,100.0,66620.0,1.0
509714.3461884,265949.46875,279353.375,284078.25,268866.09375,285215.5,267722.40625,253322.609375,256911.671875,-0.020751953125,0.85546875,-0.52734375,1.1596678495407104,4.119872570037842,1.4648436307907104,100.0,66621.0,1.0
509714.3488073,267077.34375,279214.25,283471.375,268225.9375,281972.625,266734.90625,252633.640625,255974.25,-0.02099609375,0.858154296875,-0.52880859375,1.3732908964157104,4.364013195037842,1.6479490995407104,100.0,66622.0,1.0
509714.3513093,266947.625,279255.09375,283312.5,268170.78125,280930.96875,266765.65625,252482.359375,255761.375,-0.02197265625,0.85888671875,-0.5234375,1.3732908964157104,4.516601085662842,1.6479490995407104,100.0,66623.0,1.0
509714.3538259,265823.6875,279448.9375,283829.09375,268779.21875,283402.78125,267759.25,253062.53125,256545.203125,-0.022705078125,0.856689453125,-0.5244140625,1.4953612089157104,4.699706554412842,1.9226073026657104,100.0,66624.0,1.0
509714.3562161,265124.6875,279468.6875,284285.6875,269215.59375,286060.3125,268352.90625,253561.234375,257256.4375,-0.02685546875,0.856201171875,-0.524169921875,1.6174315214157104,4.821776866912842,1.9226073026657104,100.0,66625.0,1.0
509714.3586182,265912.5625,279311.0,284051.25,268861.46875,285117.96875,267705.15625,253280.6875,256900.328125,-0.0283203125,0.85888671875,-0.5234375,1.7089842557907104,4.791259288787842,2.044677495956421,100.0,66626.0,1.0
509714.3688143,267052.5,279175.28125,283453.03125,268229.625,281882.6875,266710.0625,252596.0,255973.53125,-0.03125,0.860595703125,-0.5224609375,1.7089842557907104,4.943847179412842,2.105712652206421,100.0,66627.0,1.0
509714.371185,266943.84375,279218.71875,283292.5625,268170.53125,280808.5625,266730.4375,252444.015625,255759.484375,-0.034423828125,0.86279296875,-0.524658203125,1.6784666776657104,4.821776866912842,2.197265386581421,100.0,66628.0,1.0
509714.3737186,265832.0,279412.71875,283803.25,268767.9375,283247.40625,267712.84375,253014.15625,256528.84375,-0.03662109375,0.861572265625,-0.527099609375,1.5869139432907104,4.852294445037842,2.166747808456421,100.0,66629.0,1.0
509714.3762763,265136.3125,279453.875,284279.25,269221.9375,285943.65625,268335.03125,253527.0,257253.921875,-0.03662109375,0.861572265625,-0.525146484375,1.7700194120407104,4.699706554412842,2.166747808456421,100.0,66630.0,1.0
509714.3787956,265896.0,279282.28125,284037.40625,268870.75,285021.21875,267689.0625,253241.34375,256896.03125,-0.034912109375,0.8623046875,-0.5244140625,1.7395018339157104,4.608153820037842,2.014159917831421,100.0,66631.0,1.0
509714.3813015,267035.5,279137.8125,283428.71875,268232.375,281764.125,266681.90625,252546.46875,255960.921875,-0.0361328125,0.861572265625,-0.52392578125,1.6784666776657104,4.455565929412842,1.9836424589157104,100.0,66632.0,1.0
509714.3837564,266952.625,279191.375,283265.1875,268172.5625,280652.4375,266696.90625,252390.90625,255740.0,-0.03515625,0.8642578125,-0.5234375,1.5258787870407104,4.211425304412842,1.9226073026657104,100.0,66633.0,1.0
509714.3837928,265836.5625,279377.59375,283759.625,268750.59375,283050.96875,267669.40625,252946.390625,256492.8125,-0.033935546875,0.8642578125,-0.52294921875,1.4953612089157104,4.058837413787842,1.9531248807907104,100.0,66634.0,1.0
509714.3888213,265134.78125,279428.375,284247.3125,269209.15625,285774.3125,268303.46875,253471.5625,257232.65625,-0.0302734375,0.862548828125,-0.525390625,1.4038084745407104,3.875732183456421,1.8310545682907104,100.0,66635.0,1.0
509714.3888647,265888.125,279265.9375,284018.34375,268867.53125,284903.03125,267670.90625,253198.25,256888.703125,-0.030029296875,0.862060546875,-0.521728515625,1.3122557401657104,3.814697027206421,1.8920897245407104,100.0,66636.0,1.0
509714.392763,267036.5625,279115.0,283409.03125,268230.15625,281653.375,266664.71875,252505.703125,255954.390625,-0.028076171875,0.863037109375,-0.524658203125,1.1596678495407104,3.784179449081421,1.9226073026657104,100.0,66637.0,1.0
509714.3927999,266962.53125,279151.03125,283226.75,268150.5,280485.15625,266651.9375,252329.484375,255708.703125,-0.02685546875,0.864013671875,-0.520263671875,1.2512205839157104,3.753661870956421,1.9836424589157104,100.0,66638.0,1.0
509714.3928101,265867.65625,279355.59375,283729.84375,268739.59375,282865.71875,267626.46875,252889.703125,256464.90625,-0.024169921875,0.86279296875,-0.51904296875,1.1901854276657104,3.723144292831421,1.8920897245407104,100.0,66639.0,1.0
509714.3950408,265151.0625,279414.53125,284219.4375,269203.875,285603.28125,268268.875,253414.96875,257203.5,-0.022216796875,0.862060546875,-0.517822265625,1.1291502714157104,3.631591558456421,2.014159917831421,100.0,66640.0,1.0
509714.4026483,265875.4375,279244.28125,283988.59375,268864.125,284762.84375,267640.4375,253143.4375,256863.671875,-0.02099609375,0.860595703125,-0.52001953125,1.0375975370407104,3.662109136581421,1.9531248807907104,100.0,66641.0,1.0
509714.4026913,267024.9375,279097.21875,283389.46875,268234.0,281524.78125,266634.78125,252467.609375,255947.609375,-0.019775390625,0.860595703125,-0.521484375,0.9765624403953552,3.753661870956421,2.136230230331421,100.0,66642.0,1.0
509714.4027022,266948.9375,279119.65625,283191.78125,268142.0,280301.25,266596.25,252278.15625,255686.71875,-0.0185546875,0.861083984375,-0.520263671875,0.9765624403953552,3.814697027206421,2.136230230331421,100.0,66643.0,1.0
509714.4053617,265844.25,279309.375,283673.875,268711.4375,282614.21875,267551.8125,252819.609375,256421.546875,-0.020263671875,0.8583984375,-0.5205078125,0.8544921278953552,3.845214605331421,2.227782964706421,100.0,66644.0,1.0
509714.4053993,265124.4375,279382.0625,284184.84375,269195.84375,285373.59375,268228.46875,253370.984375,257186.515625,-0.0205078125,0.85986328125,-0.519287109375,0.7934569716453552,3.906249761581421,2.258300542831421,100.0,66645.0,1.0
509714.4054095,265819.75,279196.5625,283948.0,268853.59375,284548.53125,267597.875,253100.890625,256850.25,-0.020751953125,0.858642578125,-0.518310546875,0.7019042372703552,3.997802495956421,2.349853277206421,100.0,66646.0,1.0
509714.412571,266976.03125,279038.9375,283338.9375,268222.09375,281288.59375,266576.125,252418.171875,255925.25,-0.022216796875,0.858154296875,-0.51708984375,0.6103515028953552,3.967284917831421,2.380370855331421,100.0,66647.0,1.0
509714.4150819,266919.53125,279057.34375,283133.9375,268123.40625,280017.5625,266530.875,252223.890625,255653.71875,-0.02392578125,0.857177734375,-0.518798828125,0.4882812201976776,3.967284917831421,2.319335699081421,100.0,66648.0,1.0
509714.4176149,265825.90625,279249.21875,283615.75,268692.3125,282305.59375,267492.0,252763.46875,256382.65625,-0.024658203125,0.854736328125,-0.518798828125,0.4272460639476776,3.936767339706421,2.227782964706421,100.0,66649.0,1.0
509714.417658,265082.40625,279298.5625,284101.875,269163.125,285039.90625,268141.5625,253280.6875,257116.953125,-0.02392578125,0.855712890625,-0.518310546875,0.4272460639476776,3.814697027206421,2.166747808456421,100.0,66650.0,1.0
509714.4200942,265781.3125,279132.8125,283893.46875,268848.03125,284269.6875,267545.375,253033.65625,256808.6875,-0.02587890625,0.853515625,-0.515380859375,0.3967284858226776,3.753661870956421,2.105712652206421,100.0,66651.0,1.0
509714.4201336,266945.75,278983.21875,283297.75,268216.84375,281023.9375,266538.5,252359.171875,255895.03125,-0.02392578125,0.853759765625,-0.516357421875,0.4577636420726776,3.601073980331421,2.105712652206421,100.0,66652.0,1.0
509714.4224713,266904.6875,279006.65625,283088.34375,268105.625,279722.96875,266486.53125,252154.875,255612.953125,-0.026611328125,0.8544921875,-0.518798828125,0.4577636420726776,3.540038824081421,2.014159917831421,100.0,66653.0,1.0
509714.4250534,265813.21875,279211.21875,283567.75,268665.5625,281987.65625,267442.5625,252691.9375,256332.59375,-0.02734375,0.853271484375,-0.517822265625,0.3662109076976776,3.387450933456421,1.8005369901657104,100.0,66654.0,1.0
509714.4275827,265078.5625,279297.5625,284086.9375,269161.5,284784.46875,268135.5625,253247.515625,257100.6875,-0.029541015625,0.85595703125,-0.51806640625,0.3051757514476776,3.265380620956421,1.6479490995407104,100.0,66655.0,1.0
509714.4299408,265781.5625,279154.875,283904.8125,268869.40625,284086.65625,267570.40625,253028.109375,256820.484375,-0.030517578125,0.856689453125,-0.51611328125,0.2746581733226776,3.051757574081421,1.5563963651657104,100.0,66656.0,1.0
509714.4324223,266938.75,278991.0,283295.3125,268229.8125,280835.46875,266543.65625,252345.03125,255898.703125,-0.030517578125,0.858154296875,-0.513671875,0.1831054538488388,2.899169683456421,1.3122557401657104,100.0,66657.0,1.0
509714.4350082,266902.5625,278997.34375,283066.875,268108.125,279484.09375,266462.03125,252124.5625,255596.6875,-0.0302734375,0.85888671875,-0.514404296875,0.1525878757238388,2.838134527206421,1.1291502714157104,100.0,66658.0,1.0
509714.4376361,265816.875,279193.34375,283533.84375,268660.1875,281709.40625,267411.625,252647.5,256298.171875,-0.03173828125,0.85888671875,-0.516357421875,0.1525878757238388,2.685546636581421,1.0070799589157104,100.0,66659.0,1.0
509714.4376784,265071.75,279280.21875,284059.03125,269156.84375,284522.25,268114.1875,253207.8125,257072.609375,-0.031005859375,0.860107421875,-0.51806640625,0.0,2.532958745956421,0.8850097060203552,100.0,66660.0,1.0
509714.4399177,265748.65625,279117.875,283873.0625,268864.125,283853.84375,267542.4375,252981.4375,256792.671875,-0.0283203125,0.8603515625,-0.51708984375,-0.1831054538488388,2.471923589706421,0.7629393935203552,100.0,66661.0,1.0
509714.442574,266885.03125,278913.75,283233.53125,268197.15625,280567.15625,266475.1875,252259.5625,255833.96875,-0.02978515625,0.861328125,-0.515380859375,-0.3051757514476776,2.380370855331421,0.6103515028953552,100.0,66662.0,1.0
509714.444993,266889.6875,278943.71875,283020.21875,268083.53125,279192.0,266398.90625,252057.421875,255544.734375,-0.029052734375,0.863037109375,-0.51708984375,-0.3356933295726776,2.227782964706421,0.4272460639476776,100.0,66663.0,1.0
509714.4450356,265814.65625,279146.03125,283484.15625,268633.1875,281390.6875,267343.0625,252579.015625,256248.8125,-0.027587890625,0.861572265625,-0.516357421875,-0.3662109076976776,2.197265386581421,0.4882812201976776,100.0,66664.0,1.0
509714.4475857,265055.59375,279240.4375,284014.34375,269131.46875,284227.75,268061.34375,253141.828125,257030.40625,-0.028564453125,0.862548828125,-0.518798828125,-0.5798339247703552,2.044677495956421,0.3662109076976776,100.0,66665.0,1.0
509714.4751231,265729.71875,279095.15625,283850.4375,268855.90625,283625.21875,267515.53125,252933.78125,256767.28125,-0.028564453125,0.86279296875,-0.52001953125,-0.7324218153953552,1.9531248807907104,0.1831054538488388,100.0,66666.0,1.0
509714.4751674,266908.53125,278932.53125,283255.09375,268224.78125,280410.78125,266491.5625,252256.703125,255849.515625,-0.029541015625,0.86376953125,-0.51806640625,-0.7629393935203552,1.8005369901657104,0.1220703050494194,100.0,66667.0,1.0
509714.4788904,266914.4375,278950.78125,283028.875,268092.28125,279019.625,266400.875,252035.6875,255540.0,-0.029296875,0.863037109375,-0.519287109375,-0.8239745497703552,1.7089842557907104,0.1220703050494194,100.0,66668.0,1.0
509714.4789266,265856.3125,279170.09375,283500.875,268636.59375,281220.46875,267355.40625,252559.171875,256238.265625,-0.02978515625,0.8642578125,-0.521728515625,-1.0070799589157104,1.7089842557907104,-0.03051757626235485,100.0,66669.0,1.0
509714.4789362,265096.25,279286.5,284044.1875,269141.5625,284104.90625,268095.15625,253132.984375,257025.046875,-0.029296875,0.864013671875,-0.51708984375,-1.0986326932907104,1.5869139432907104,-0.0610351525247097,100.0,66670.0,1.0
509714.4789457,265752.875,279151.75,283893.1875,268876.375,283578.75,267570.40625,252941.03125,256780.78125,-0.03173828125,0.863525390625,-0.5146484375,-1.0986326932907104,1.5258787870407104,-0.1525878757238388,100.0,66671.0,1.0
509714.4813602,266919.90625,278983.40625,283295.0625,268238.90625,280388.625,266539.90625,252260.09375,255857.65625,-0.030029296875,0.86328125,-0.5146484375,-1.2817381620407104,1.4343260526657104,-0.2136230319738388,100.0,66672.0,1.0
509714.4813929,266945.46875,279012.28125,283075.5625,268106.59375,278996.46875,266449.71875,252046.421875,255549.65625,-0.03271484375,0.864501953125,-0.514404296875,-1.4038084745407104,1.3732908964157104,-0.1831054538488388,100.0,66673.0,1.0
509714.4838611,265886.4375,279241.0625,283551.90625,268646.6875,281199.96875,267415.46875,252581.15625,256252.03125,-0.033935546875,0.864501953125,-0.512939453125,-1.5563963651657104,1.2512205839157104,-0.2136230319738388,100.0,66674.0,1.0
509714.4875685,265097.96875,279354.53125,284095.6875,269149.53125,284112.9375,268164.875,253168.65625,257052.140625,-0.034423828125,0.865478515625,-0.5126953125,-1.6784666776657104,1.1596678495407104,-0.2136230319738388,100.0,66675.0,1.0
509714.5001159,265717.5625,279202.1875,283938.34375,268881.9375,283624.96875,267642.03125,252983.140625,256817.53125,-0.03662109375,0.86767578125,-0.515380859375,-1.8005369901657104,1.0375975370407104,-0.2441406100988388,100.0,66676.0,1.0
509714.5001581,266870.71875,278998.78125,283311.78125,268228.625,280402.90625,266575.9375,252278.25,255876.25,-0.039306640625,0.86767578125,-0.515625,-1.9531248807907104,0.9155272841453552,-0.1220703050494194,100.0,66677.0,1.0
509714.5025674,266905.15625,279003.6875,283062.25,268081.5625,278927.0,266448.09375,252040.96875,255544.5625,-0.0390625,0.86669921875,-0.516357421875,-2.105712652206421,0.7324218153953552,-0.1525878757238388,100.0,66678.0,1.0
509714.5049255,265864.28125,279219.15625,283520.1875,268627.21875,281048.0625,267387.59375,252566.046875,256233.890625,-0.03955078125,0.867919921875,-0.517822265625,-2.105712652206421,0.4577636420726776,-0.2441406100988388,100.0,66679.0,1.0
509714.5136269,265080.71875,279328.0625,284061.28125,269147.75,283930.75,268136.375,253151.046875,257031.75,-0.04150390625,0.868408203125,-0.515869140625,-2.319335699081421,0.3051757514476776,-0.4272460639476776,100.0,66680.0,1.0
509714.533614,265671.0625,279145.5,283884.875,268870.125,283419.25,267593.21875,252948.53125,256782.3125,-0.037841796875,0.8662109375,-0.51171875,-2.410888433456421,0.1831054538488388,-0.4577636420726776,100.0,66681.0,1.0
509714.5336243,266827.28125,278923.9375,283254.1875,268221.46875,280165.0,266508.09375,252244.71875,255845.328125,-0.034912109375,0.8642578125,-0.511962890625,-2.471923589706421,0.0915527269244194,-0.5493163466453552,100.0,66682.0,1.0
509714.5336263,266852.46875,278873.15625,282957.625,268047.6875,278567.375,266310.84375,251961.03125,255472.3125,-0.03125,0.8642578125,-0.51318359375,-2.624511480331421,0.0,-0.5187987685203552,100.0,66683.0,1.0
509714.5360682,265813.03125,279061.625,283387.84375,268585.5625,280577.09375,267218.15625,252464.03125,256142.234375,-0.02783203125,0.864013671875,-0.516357421875,-2.624511480331421,-0.03051757626235485,-0.5798339247703552,100.0,66684.0,1.0
509714.5360745,264987.375,279125.65625,283890.78125,269082.65625,283380.4375,267936.09375,253022.828125,256924.015625,-0.02734375,0.8662109375,-0.515869140625,-2.777099370956421,0.1831054538488388,-0.4577636420726776,100.0,66685.0,1.0
509714.5385659,265561.53125,278923.5,283706.3125,268819.625,282845.59375,267380.78125,252811.109375,256683.328125,-0.02734375,0.864990234375,-0.513916015625,-2.899169683456421,0.1831054538488388,-0.3051757514476776,100.0,66686.0,1.0
509714.5410283,266734.71875,278707.59375,283080.03125,268182.15625,279569.65625,266294.40625,252104.265625,255754.75,-0.02587890625,0.864501953125,-0.51171875,-2.929687261581421,0.3051757514476776,-0.3967284858226776,100.0,66687.0,1.0
509714.5434919,266796.34375,278686.75,282809.40625,268019.25,277965.9375,266129.09375,251835.59375,255398.734375,-0.02490234375,0.861328125,-0.509033203125,-2.868652105331421,0.4272460639476776,-0.2136230319738388,100.0,66688.0,1.0
509714.5487406,265768.875,278909.1875,283255.28125,268549.53125,279993.25,267062.59375,252335.828125,256065.359375,-0.02392578125,0.859619140625,-0.510498046875,-2.899169683456421,0.5187987685203552,-0.1525878757238388,100.0,66689.0,1.0
509714.5512753,264969.9375,279034.4375,283806.375,269078.28125,282881.8125,267836.75,252913.84375,256865.28125,-0.02783203125,0.85986328125,-0.5078125,-2.777099370956421,0.6408690810203552,-0.1525878757238388,100.0,66690.0,1.0
509714.5612271,265574.21875,278911.0625,283698.0,268854.9375,282502.90625,267365.84375,252758.453125,256679.046875,-0.0302734375,0.859375,-0.50830078125,-2.655029058456421,0.7324218153953552,-0.1220703050494194,100.0,66691.0,1.0
509714.5612401,266763.0625,278732.15625,283106.40625,268214.96875,279331.28125,266313.34375,252080.390625,255768.4375,-0.032470703125,0.8603515625,-0.50927734375,-2.746581792831421,0.7629393935203552,-0.03051757626235485,100.0,66692.0,1.0
509714.5662578,266859.375,278742.90625,282851.59375,268047.9375,277767.71875,266157.6875,251822.90625,255410.53125,-0.0361328125,0.861083984375,-0.511962890625,-2.685546636581421,0.8544921278953552,-0.1525878757238388,100.0,66693.0,1.0
509714.5687428,265838.34375,278968.75,283292.625,268565.4375,279796.5625,267093.4375,252315.984375,256060.96875,-0.038818359375,0.85888671875,-0.50927734375,-2.471923589706421,0.8239745497703552,-0.1220703050494194,100.0,66694.0,1.0
509714.5712523,265035.71875,279123.3125,283866.8125,269104.65625,282763.09375,267904.96875,252921.625,256882.890625,-0.0390625,0.85888671875,-0.5107421875,-2.410888433456421,0.7019042372703552,-0.2746581733226776,100.0,66695.0,1.0
509714.5787245,265617.25,279001.1875,283768.65625,268884.78125,282482.15625,267455.34375,252786.0,256714.265625,-0.040283203125,0.85791015625,-0.509765625,-2.349853277206421,0.7324218153953552,-0.3662109076976776,100.0,66696.0,1.0
509714.5812426,266808.40625,278813.53125,283180.625,268251.875,279357.3125,266410.53125,252111.0625,255808.75,-0.040771484375,0.859375,-0.509521484375,-2.227782964706421,0.6103515028953552,-0.3051757514476776,100.0,66697.0,1.0
509714.6133681,266914.1875,278824.4375,282923.46875,268081.03125,277794.65625,266257.84375,251854.109375,255447.453125,-0.0400390625,0.861328125,-0.5107421875,-2.136230230331421,0.5493163466453552,-0.3356933295726776,100.0,66698.0,1.0
509714.6134036,265888.3125,279047.5,283351.1875,268583.21875,279810.59375,267184.90625,252338.328125,256085.828125,-0.03857421875,0.86181640625,-0.5068359375,-2.075195074081421,0.6103515028953552,-0.3051757514476776,100.0,66699.0,1.0
509714.6553283,265075.78125,279204.9375,283929.9375,269123.5,282815.28125,268009.78125,252951.125,256915.34375,-0.037841796875,0.86083984375,-0.50634765625,-2.014159917831421,0.5187987685203552,-0.3356933295726776,100.0,66700.0,1.0
509714.6637131,265653.625,279096.78125,283856.25,268924.40625,282623.78125,267588.21875,252846.796875,256775.328125,-0.036865234375,0.861328125,-0.505126953125,-1.9531248807907104,0.5798339247703552,-0.2136230319738388,100.0,66701.0,1.0
509714.6687325,266828.34375,278890.25,283255.96875,268283.0,279521.28125,266524.625,252161.484375,255859.890625,-0.033447265625,0.862548828125,-0.506591796875,-1.8920897245407104,0.5798339247703552,-0.2746581733226776,100.0,66702.0,1.0
509714.6712739,266931.6875,278880.125,282972.46875,268087.1875,277916.5,266334.46875,251881.28125,255469.8125,-0.03173828125,0.86376953125,-0.510009765625,-1.7089842557907104,0.6103515028953552,-0.2746581733226776,100.0,66703.0,1.0
509714.6737126,265928.625,279117.875,283407.09375,268589.46875,279918.34375,267259.71875,252374.09375,256109.34375,-0.029296875,0.86181640625,-0.51025390625,-1.7089842557907104,0.7324218153953552,-0.3051757514476776,100.0,66704.0,1.0
509714.6761949,265115.84375,279290.96875,283996.4375,269129.84375,282944.3125,268097.03125,253002.359375,256947.0,-0.02783203125,0.863037109375,-0.509033203125,-1.6479490995407104,0.9155272841453552,-0.0915527269244194,100.0,66705.0,1.0
509714.6787506,265663.46875,279179.03125,283916.4375,268918.3125,282775.5,267668.9375,252888.90625,256797.6875,-0.027099609375,0.861572265625,-0.51025390625,-1.6174315214157104,1.0375975370407104,0.0610351525247097,100.0,66706.0,1.0
509714.6812367,266882.0,279009.59375,283350.21875,268302.84375,279703.5,266629.78125,252234.171875,255907.453125,-0.02783203125,0.864013671875,-0.51025390625,-1.3427733182907104,1.0986326932907104,0.1831054538488388,100.0,66707.0,1.0
509714.6838063,266990.09375,278989.03125,283044.28125,268078.25,278046.6875,266408.75,251933.046875,255488.59375,-0.0283203125,0.863037109375,-0.51123046875,-1.2817381620407104,1.2207030057907104,0.2746581733226776,100.0,66708.0,1.0
509714.6860805,265990.15625,279229.4375,283463.84375,268564.53125,280005.0625,267325.8125,252417.90625,256109.78125,-0.029052734375,0.863037109375,-0.5126953125,-1.0375975370407104,1.3427733182907104,0.4577636420726776,100.0,66709.0,1.0
509714.6886862,265161.8125,279409.59375,284042.9375,269094.4375,283023.875,268163.1875,253036.59375,256932.78125,-0.030029296875,0.861328125,-0.510498046875,-1.0070799589157104,1.5258787870407104,0.5493163466453552,100.0,66710.0,1.0
509714.6912478,265712.09375,279305.96875,283976.0625,268907.9375,282879.59375,267753.0,252934.59375,256796.875,-0.031494140625,0.861572265625,-0.511962890625,-0.9155272841453552,1.7089842557907104,0.6713866591453552,100.0,66711.0,1.0
509714.6939334,266900.125,279092.03125,283377.75,268268.875,279768.125,266676.25,252262.25,255889.484375,-0.031982421875,0.86279296875,-0.5087890625,-0.9460448622703552,1.7395018339157104,0.6713866591453552,100.0,66712.0,1.0
509714.696092,267029.96875,279057.4375,283063.84375,268049.1875,278042.125,266437.53125,251961.21875,255472.765625,-0.032470703125,0.862548828125,-0.50830078125,-0.7934569716453552,1.8005369901657104,0.8544921278953552,100.0,66713.0,1.0
509714.6987438,266033.875,279284.96875,283465.90625,268525.375,279923.34375,267341.09375,252431.3125,256074.921875,-0.033203125,0.86328125,-0.5087890625,-0.7324218153953552,1.9531248807907104,0.9460448622703552,100.0,66714.0,1.0
509714.7012608,265195.3125,279462.0,284048.5625,269065.9375,282937.25,268187.59375,253053.234375,256904.609375,-0.03369140625,0.864013671875,-0.507080078125,-0.7019042372703552,2.044677495956421,1.0986326932907104,100.0,66715.0,1.0
509714.7036287,265713.625,279342.90625,283985.09375,268885.78125,282836.75,267779.8125,252951.671875,256778.28125,-0.032958984375,0.8642578125,-0.509765625,-0.7019042372703552,2.075195074081421,1.0681151151657104,100.0,66716.0,1.0
509714.7060942,266897.28125,279117.96875,283391.15625,268253.40625,279739.15625,266692.34375,252270.828125,255867.765625,-0.03369140625,0.862060546875,-0.510009765625,-0.7629393935203552,1.9226073026657104,1.1901854276657104,100.0,66717.0,1.0
509714.7085885,267047.65625,279083.09375,283081.1875,268036.15625,277984.46875,266442.0,251949.859375,255431.8125,-0.03564453125,0.8642578125,-0.50732421875,-0.7019042372703552,1.9531248807907104,1.2512205839157104,100.0,66718.0,1.0
509714.7111188,266089.5625,279352.90625,283515.1875,268526.8125,279878.8125,267369.15625,252441.59375,256054.265625,-0.034912109375,0.86328125,-0.5107421875,-0.6713866591453552,1.8920897245407104,1.2512205839157104,100.0,66719.0,1.0
509714.7162427,265255.0625,279554.71875,284121.53125,269083.8125,282931.875,268240.0,253078.359375,256896.125,-0.036865234375,0.862060546875,-0.509765625,-0.7324218153953552,1.8615721464157104,1.1901854276657104,100.0,66720.0,1.0
509714.7187656,265768.6875,279456.09375,284086.9375,268929.125,282908.625,267869.5625,253003.25,256794.734375,-0.03759765625,0.862548828125,-0.50927734375,-0.5798339247703552,1.8615721464157104,1.3122557401657104,100.0,66721.0,1.0
509714.7202224,266967.5625,279251.625,283517.3125,268315.09375,279866.03125,266806.78125,252343.34375,255909.609375,-0.03857421875,0.861328125,-0.50927734375,-0.6408690810203552,1.8920897245407104,1.2207030057907104,100.0,66722.0,1.0
509714.7287828,267124.0,279213.8125,283194.46875,268072.71875,278089.59375,266530.71875,252014.234375,255461.765625,-0.03662109375,0.86279296875,-0.507568359375,-0.5187987685203552,1.8310545682907104,1.2207030057907104,100.0,66723.0,1.0
509714.7288256,266168.25,279468.25,283607.53125,268541.1875,279943.71875,267428.25,252482.90625,256056.5,-0.03466796875,0.8623046875,-0.509521484375,-0.4882812201976776,1.7395018339157104,1.1291502714157104,100.0,66724.0,1.0
509714.7288366,265325.84375,279670.75,284213.4375,269094.90625,283012.34375,268298.1875,253116.703125,256896.65625,-0.03515625,0.863037109375,-0.5087890625,-0.5187987685203552,1.7395018339157104,1.1291502714157104,100.0,66725.0,1.0
509714.7337129,265821.53125,279562.59375,284182.15625,268949.0625,283033.09375,267919.5625,253042.6875,256804.921875,-0.033447265625,0.8642578125,-0.509521484375,-0.4577636420726776,1.8005369901657104,1.0986326932907104,100.0,66726.0,1.0
509714.7337571,266973.625,279287.125,283564.34375,268301.3125,279950.875,266792.5,252338.328125,255878.84375,-0.033935546875,0.864013671875,-0.510009765625,-0.3967284858226776,1.6784666776657104,1.0681151151657104,100.0,66727.0,1.0
509714.7376726,267149.65625,279240.96875,283246.6875,268070.46875,278167.375,266517.28125,252023.34375,255444.953125,-0.033935546875,0.865478515625,-0.5107421875,-0.4882812201976776,1.5869139432907104,0.9765624403953552,100.0,66728.0,1.0
509714.7377109,266222.0625,279515.90625,283672.53125,268562.125,280018.5625,267430.5,252509.90625,256059.890625,-0.03662109375,0.86474609375,-0.508544921875,-0.4577636420726776,1.5869139432907104,0.9155272841453552,100.0,66729.0,1.0
