Time,FZ,C3,CZ,C4,PZ,PO7,OZ,PO8,AccX,AccY,AccZ,Gyro1,Gyro2,Gyro3,Battery,Counter,Validation
559299.3854401,308168.875,299573.65625,321407.625,316015.5,334430.03125,299526.625,298849.0,299750.40625,-0.1064453125,0.77490234375,-0.662353515625,-36.773677825927734,26.031492233276367,2.227782964706421,100.0,141435.0,1.0
559299.3879661,308503.1875,300087.03125,322074.625,316346.125,337263.96875,300148.96875,299776.96875,299968.84375,-0.10498046875,0.77490234375,-0.66552734375,-37.384029388427734,27.252195358276367,2.502441167831421,100.0,141436.0,1.0
559299.3879794,309017.96875,299810.3125,321742.03125,315869.6875,334745.65625,298996.96875,298929.375,299417.09375,-0.103759765625,0.768310546875,-0.66552734375,-36.987300872802734,28.045652389526367,2.716064214706421,100.0,141437.0,1.0
559299.3952548,308950.65625,299095.9375,320842.15625,315250.28125,330545.3125,297713.71875,297664.46875,298851.96875,-0.0966796875,0.769287109375,-0.6591796875,-36.254878997802734,28.533933639526367,2.899169683456421,100.0,141438.0,1.0
559299.3970012,308444.4375,298937.53125,320620.5,315364.875,330375.4375,298052.125,297794.8125,299019.78125,-0.0947265625,0.762939453125,-0.65869140625,-35.125728607177734,28.900144577026367,3.143310308456421,100.0,141439.0,1.0
559299.420114,308177.09375,299560.40625,321419.4375,316079.875,334735.375,299643.5625,299375.78125,299722.6875,-0.093994140625,0.760986328125,-0.654052734375,-33.416744232177734,28.991697311401367,3.234863042831421,100.0,141440.0,1.0
559299.4201277,308517.21875,300022.21875,322078.8125,316358.1875,337593.0625,300266.46875,300273.625,300006.5625,-0.089599609375,0.765380859375,-0.654052734375,-31.372068405151367,29.022214889526367,3.509521245956421,100.0,141441.0,1.0
559299.4257589,309030.0625,299677.90625,321715.90625,315823.28125,335037.71875,299062.78125,299324.375,299486.03125,-0.085205078125,0.774658203125,-0.6513671875,-29.388425827026367,28.930662155151367,4.058837413787842,100.0,141442.0,1.0
559299.4516915,308953.34375,298918.21875,320781.96875,315213.78125,330742.09375,297701.90625,297981.21875,298896.3125,-0.092041015625,0.777587890625,-0.6494140625,-27.832029342651367,28.656003952026367,4.882812023162842,100.0,141443.0,1.0
559299.4542436,308437.46875,298750.125,320533.25,315358.28125,330474.59375,297981.3125,298042.65625,299042.125,-0.09765625,0.77392578125,-0.646240234375,-25.878904342651367,28.198240280151367,5.218505382537842,100.0,141444.0,1.0
559299.4567484,308155.90625,299403.5,321316.0,316074.59375,334791.40625,299556.21875,299542.0,299740.3125,-0.1005859375,0.774658203125,-0.64404296875,-23.834226608276367,27.862546920776367,4.974364757537842,100.0,141445.0,1.0
559299.4591588,308482.15625,299903.375,321965.375,316343.90625,337607.8125,300165.4375,300379.21875,299997.34375,-0.107421875,0.777587890625,-0.644775390625,-21.667478561401367,27.404783248901367,4.699706554412842,100.0,141446.0,1.0
559299.4616424,308995.1875,299605.125,321611.75,315852.53125,334995.90625,298953.625,299365.875,299446.96875,-0.114013671875,0.77978515625,-0.64453125,-19.470212936401367,26.977537155151367,4.241942882537842,100.0,141447.0,1.0
559299.4642609,308925.09375,298888.0,320693.53125,315344.6875,330672.09375,297611.78125,297859.09375,298859.90625,-0.121826171875,0.783203125,-0.642578125,-17.486570358276367,26.214597702026367,3.784179449081421,100.0,141448.0,1.0
559299.4666041,308424.40625,298755.21875,320462.6875,315555.3125,330434.4375,297942.59375,297860.6875,299020.84375,-0.1259765625,0.79541015625,-0.646728515625,-15.594481468200684,25.634763717651367,3.295898199081421,100.0,141449.0,1.0
559299.4691673,308169.0625,299427.46875,321294.09375,316236.59375,334849.8125,299590.28125,299443.46875,299745.5,-0.12744140625,0.801513671875,-0.641357421875,-14.129637718200684,25.268552780151367,2.838134527206421,100.0,141450.0,1.0
559299.4717844,308528.84375,299923.21875,322010.96875,316471.75,337791.125,300260.28125,300313.03125,300035.25,-0.137451171875,0.80859375,-0.635009765625,-12.786864280700684,24.963376998901367,1.9226073026657104,100.0,141451.0,1.0
559299.4741596,309067.78125,299612.4375,321701.625,315941.84375,335279.03125,299084.5,299341.1875,299540.9375,-0.142578125,0.815673828125,-0.626953125,-11.718749046325684,24.475095748901367,1.0986326932907104,100.0,141452.0,1.0
559299.4767146,309018.59375,298907.75,320807.53125,315362.21875,331025.78125,297769.59375,297968.96875,298970.34375,-0.148193359375,0.827392578125,-0.6220703125,-11.291502952575684,24.322507858276367,0.1220703050494194,100.0,141453.0,1.0
559299.4791636,308540.0,298824.78125,320609.6875,315515.71875,330878.25,298131.5,298046.5,299137.53125,-0.15185546875,0.83447265625,-0.619384765625,-11.352538108825684,24.169919967651367,-0.8544921278953552,100.0,141454.0,1.0
559299.4818134,308309.0625,299597.53125,321482.28125,316269.34375,335439.0,299835.625,299608.15625,299883.0,-0.1591796875,0.8427734375,-0.6123046875,-11.627196311950684,23.895261764526367,-2.014159917831421,100.0,141455.0,1.0
559299.4841512,308666.96875,300161.59375,322204.0,316570.53125,338529.96875,300552.65625,300550.78125,300182.6875,-0.160400390625,0.84423828125,-0.608154296875,-12.573241233825684,23.620603561401367,-3.387450933456421,100.0,141456.0,1.0
559299.4881043,309177.21875,299810.75,321860.21875,316033.46875,336043.03125,299354.6875,299593.40625,299644.28125,-0.162353515625,0.84521484375,-0.603271484375,-13.763426780700684,23.468015670776367,-4.364013195037842,100.0,141457.0,1.0
559299.488144,309096.125,299040.875,320945.5,315408.875,331710.8125,297982.84375,298134.5625,299037.3125,-0.1669921875,0.8427734375,-0.595458984375,-15.197752952575684,23.162839889526367,-5.615233898162842,100.0,141458.0,1.0
559299.4881541,308580.15625,298980.53125,320755.25,315529.21875,331537.90625,298333.5625,298184.53125,299174.53125,-0.17041015625,0.83984375,-0.595947265625,-16.815183639526367,22.949216842651367,-6.896972179412842,100.0,141459.0,1.0
559299.4931285,308298.0625,299800.65625,321619.09375,316240.375,336158.90625,300046.25,299767.5,299884.96875,-0.16796875,0.83544921875,-0.592041015625,-17.944334030151367,22.521970748901367,-8.026122093200684,100.0,141460.0,1.0
559299.4968383,308606.96875,300343.625,322293.84375,316494.625,339290.375,300731.75,300673.28125,300139.59375,-0.16796875,0.82958984375,-0.590576171875,-19.348142623901367,22.094724655151367,-9.338377952575684,100.0,141461.0,1.0
559299.4968795,309086.5625,299920.90625,321876.40625,315930.21875,336760.53125,299450.625,299666.1875,299562.90625,-0.16552734375,0.8251953125,-0.592041015625,-20.507810592651367,21.606443405151367,-10.742186546325684,100.0,141462.0,1.0
559299.4968899,308989.90625,299084.78125,320882.8125,315285.5,332350.59375,298002.3125,298170.0625,298925.71875,-0.16259765625,0.821533203125,-0.592041015625,-21.453855514526367,21.118162155151367,-11.718749046325684,100.0,141463.0,1.0
559299.4992863,308475.8125,298962.375,320652.875,315397.0625,332138.8125,298331.875,298190.0625,299047.40625,-0.157470703125,0.820068359375,-0.590087890625,-22.552488327026367,20.660398483276367,-12.695311546325684,100.0,141464.0,1.0
559299.5017945,308196.96875,299714.90625,321513.0625,316105.1875,336731.0,300043.65625,299752.375,299761.5,-0.151611328125,0.816650390625,-0.5908203125,-23.376462936401367,20.202634811401367,-13.519286155700684,100.0,141465.0,1.0
559299.5043386,308490.65625,300175.34375,322164.8125,316346.3125,339774.15625,300691.15625,300614.15625,300015.78125,-0.149658203125,0.813232421875,-0.59033203125,-24.047849655151367,19.714353561401367,-13.946532249450684,100.0,141466.0,1.0
559299.5043749,308947.53125,299656.625,321697.40625,315765.625,337078.625,299347.09375,299564.8125,299429.4375,-0.14501953125,0.81103515625,-0.5908203125,-24.261472702026367,19.287107467651367,-14.678954124450684,100.0,141467.0,1.0
559299.5067635,308844.625,298755.125,320665.375,315117.15625,332469.78125,297831.71875,298039.875,298776.40625,-0.144775390625,0.807373046875,-0.58837890625,-24.169919967651367,19.104001998901367,-15.014647483825684,100.0,141468.0,1.0
559299.5104754,308325.34375,298646.0625,320399.84375,315225.25,332095.09375,298127.59375,298028.15625,298889.15625,-0.14599609375,0.805419921875,-0.589111328125,-23.864744186401367,18.768308639526367,-15.136717796325684,100.0,141469.0,1.0
559299.5380628,308058.1875,299438.75,321247.875,315942.0,336609.5,299861.0,299567.21875,299608.96875,-0.146484375,0.793212890625,-0.587158203125,-23.437498092651367,18.554685592651367,-15.533446311950684,100.0,141470.0,1.0
559299.5381017,308363.34375,299939.6875,321938.09375,316203.34375,339616.4375,300537.09375,300444.65625,299874.25,-0.149169921875,0.782470703125,-0.584228515625,-22.460935592651367,18.402097702026367,-15.838622093200684,100.0,141471.0,1.0
559299.5419035,308840.59375,299450.71875,321519.40625,315642.0625,336897.75,299209.40625,299399.3125,299294.625,-0.151611328125,0.777587890625,-0.580810546875,-21.362302780151367,18.157957077026367,-16.143796920776367,100.0,141472.0,1.0
559299.5419387,308752.53125,298591.6875,320515.8125,315004.3125,332268.8125,297723.1875,297863.5625,298654.46875,-0.156494140625,0.771484375,-0.577392578125,-20.355222702026367,17.974851608276367,-16.632078170776367,100.0,141473.0,1.0
559299.5419475,308249.4375,298578.5625,320295.96875,315128.6875,331871.125,298044.96875,297859.625,298786.78125,-0.16064453125,0.768798828125,-0.579345703125,-19.104001998901367,18.005369186401367,-16.967771530151367,100.0,141474.0,1.0
559299.5419567,307989.09375,299465.03125,321178.65625,315854.5625,336413.875,299802.09375,299413.34375,299516.25,-0.169677734375,0.76611328125,-0.574951171875,-17.791746139526367,17.211912155151367,-17.517087936401367,100.0,141475.0,1.0
559299.5456393,308313.375,300044.375,321897.15625,316138.625,339571.84375,300536.75,300326.8125,299807.4375,-0.17041015625,0.765380859375,-0.571533203125,-17.272947311401367,16.784666061401367,-17.944334030151367,100.0,141476.0,1.0
559299.5456766,308819.59375,299613.78125,321544.6875,315606.90625,337039.375,299258.21875,299337.34375,299256.34375,-0.173095703125,0.767578125,-0.5673828125,-16.784666061401367,16.479490280151367,-18.280027389526367,100.0,141477.0,1.0
559299.5456861,308771.40625,298799.125,320638.5625,314994.3125,332606.125,297823.6875,297852.375,298638.28125,-0.1748046875,0.7705078125,-0.564208984375,-16.540525436401367,15.899657249450684,-18.737791061401367,100.0,141478.0,1.0
559299.5469223,308299.875,298801.625,320501.5,315129.9375,332437.34375,298207.59375,297890.375,298788.5625,-0.181884765625,0.771728515625,-0.560791015625,-16.601560592651367,15.167235374450684,-19.073484420776367,100.0,141479.0,1.0
559299.5555059,308050.3125,299727.78125,321439.46875,315868.0625,337212.03125,299985.5625,299487.0,299521.78125,-0.1875,0.7607421875,-0.557861328125,-16.876218795776367,14.678954124450684,-19.409177780151367,100.0,141480.0,1.0
559299.5879088,308381.3125,300322.78125,322194.875,316173.3125,340541.53125,300739.53125,300450.28125,299772.75,-0.18701171875,0.74658203125,-0.553466796875,-16.876218795776367,13.977049827575684,-19.714353561401367,100.0,141481.0,1.0
559299.5879489,308889.6875,299859.9375,321833.65625,315638.46875,338093.3125,299449.03125,299450.625,299207.96875,-0.1923828125,0.74365234375,-0.54931640625,-16.571043014526367,13.763426780700684,-20.141599655151367,100.0,141482.0,1.0
559299.5919602,308831.375,298997.15625,320879.0625,315003.5,333653.8125,297970.03125,297941.71875,298582.75,-0.198974609375,0.735595703125,-0.548583984375,-16.387937545776367,13.244627952575684,-20.263669967651367,100.0,141483.0,1.0
559299.591997,308326.25,298947.96875,320650.53125,315097.375,333370.375,298313.46875,297924.90625,298700.40625,-0.20263671875,0.72802734375,-0.548583984375,-16.113279342651367,12.634276390075684,-20.507810592651367,100.0,141484.0,1.0
559299.592006,308046.46875,299861.8125,321509.28125,315805.03125,338026.15625,300111.0,299462.78125,299419.78125,-0.205078125,0.71435546875,-0.552001953125,-15.716551780700684,12.237547874450684,-20.690916061401367,100.0,141485.0,1.0
559299.5920149,308362.53125,300454.3125,322227.40625,316095.34375,341294.15625,300854.84375,300383.84375,299710.25,-0.205322265625,0.708740234375,-0.553955078125,-14.923094749450684,12.115477561950684,-20.721433639526367,100.0,141486.0,1.0
559299.5943046,308878.0625,300027.125,321895.53125,315584.125,338864.8125,299579.1875,299410.3125,299167.28125,-0.2138671875,0.706298828125,-0.55615234375,-13.824461936950684,11.932372093200684,-20.690916061401367,100.0,141487.0,1.0
559299.5967258,308811.8125,299180.71875,320945.5,314954.5,334410.71875,298098.34375,297884.03125,298524.8125,-0.218505859375,0.703857421875,-0.55517578125,-12.817381858825684,11.596678733825684,-20.629880905151367,100.0,141488.0,1.0
559299.5991427,308298.34375,299180.15625,320723.0625,315049.28125,334129.4375,298438.8125,297843.90625,298636.21875,-0.216796875,0.70556640625,-0.55712890625,-11.566161155700684,11.291502952575684,-20.416257858276367,100.0,141489.0,1.0
559299.6017699,308032.0,300150.9375,321635.53125,315769.625,338861.3125,300257.34375,299390.8125,299372.84375,-0.218994140625,0.705810546875,-0.55517578125,-10.223387718200684,11.169432640075684,-19.836423873901367,100.0,141490.0,1.0
559299.6042716,308376.40625,300803.25,322431.875,316094.1875,342325.9375,301072.125,300351.5,299705.875,-0.216796875,0.70849609375,-0.552490234375,-8.819579124450684,10.986327171325684,-19.409177780151367,100.0,141491.0,1.0
559299.6066099,308890.9375,300388.9375,322115.375,315596.625,340043.0,299827.125,299408.875,299179.09375,-0.2197265625,0.70751953125,-0.544189453125,-7.354735851287842,10.803221702575684,-18.920896530151367,100.0,141492.0,1.0
559299.6092387,308834.59375,299531.8125,321187.6875,314975.96875,335655.1875,298350.5625,297911.125,298549.5,-0.22265625,0.711669921875,-0.544677734375,-6.134032726287842,10.314940452575684,-18.188474655151367,100.0,141493.0,1.0
559299.612899,308348.21875,299508.5625,321004.0625,315087.28125,335513.375,298695.59375,297898.53125,298678.875,-0.2236328125,0.712646484375,-0.54150390625,-4.821776866912842,9.765624046325684,-17.486570358276367,100.0,141494.0,1.0
559299.6129403,308109.6875,300460.3125,321942.46875,315827.21875,340495.6875,300556.3125,299499.34375,299442.40625,-0.225341796875,0.717529296875,-0.539794921875,-3.570556402206421,9.124754905700684,-16.723630905151367,100.0,141495.0,1.0
559299.6379574,308441.84375,301141.5,322726.125,316149.96875,344088.84375,301390.40625,300487.125,299774.375,-0.22998046875,0.725830078125,-0.54052734375,-2.532958745956421,8.575438499450684,-15.930174827575684,100.0,141496.0,1.0
559299.6379934,308943.3125,300695.71875,322373.9375,315643.75,341774.1875,300101.0625,299529.84375,299240.34375,-0.22998046875,0.733154296875,-0.538330078125,-1.8615721464157104,7.568358898162842,-14.953612327575684,100.0,141497.0,1.0
559299.6403897,308874.5625,299779.28125,321385.75,315013.34375,337314.3125,298586.59375,298004.28125,298595.28125,-0.23046875,0.74169921875,-0.537109375,-0.9460448622703552,6.683349132537842,-13.946532249450684,100.0,141498.0,1.0
559299.6429928,308394.1875,299758.0,321178.84375,315117.0625,337113.21875,298940.375,297982.03125,298726.15625,-0.233154296875,0.751708984375,-0.53466796875,-0.2441406100988388,6.011962413787842,-13.092040061950684,100.0,141499.0,1.0
559299.6504914,308155.46875,300772.0625,322153.75,315854.40625,342076.375,300821.9375,299570.53125,299489.15625,-0.233642578125,0.76123046875,-0.53662109375,0.1831054538488388,5.249022960662842,-12.084959983825684,100.0,141500.0,1.0
559299.6530253,308484.9375,301419.1875,322965.65625,316184.03125,345710.15625,301668.375,300536.46875,299801.8125,-0.236083984375,0.770751953125,-0.537841796875,0.7324218153953552,4.425048351287842,-11.047362327575684,100.0,141501.0,1.0
559299.671771,308977.9375,300931.75,322614.28125,315684.78125,343424.5625,300391.46875,299508.84375,299255.09375,-0.236328125,0.7763671875,-0.537353515625,0.8544921278953552,3.723144292831421,-10.009764671325684,100.0,141502.0,1.0
559299.6742197,308913.625,300049.125,321644.125,315054.28125,338988.90625,298881.09375,297916.5,298616.5625,-0.23974609375,0.78076171875,-0.541748046875,1.2207030057907104,3.479003667831421,-9.094237327575684,100.0,141503.0,1.0
559299.6742543,308436.21875,300038.03125,321453.6875,315152.28125,338818.84375,299234.25,297859.4375,298722.6875,-0.24609375,0.78466796875,-0.5458984375,1.7395018339157104,3.021239995956421,-8.270262718200684,100.0,141504.0,1.0
559299.6767711,308200.09375,301032.6875,322421.5,315885.0625,343838.96875,301123.96875,299456.15625,299474.40625,-0.250732421875,0.795166015625,-0.554443359375,1.7395018339157104,2.593993902206421,-7.446288585662842,100.0,141505.0,1.0
559299.679159,308516.84375,301624.375,323180.40625,316188.78125,347475.9375,301935.78125,300463.15625,299791.4375,-0.256591796875,0.79736328125,-0.557373046875,1.5869139432907104,2.471923589706421,-6.530761241912842,100.0,141506.0,1.0
559299.6817467,308981.5,300991.28125,322726.21875,315657.59375,345096.5625,300571.6875,299490.9375,299230.78125,-0.2626953125,0.7978515625,-0.558837890625,1.4343260526657104,2.410888433456421,-5.645751476287842,100.0,141507.0,1.0
559299.6842774,308895.40625,299922.34375,321643.75,315011.375,340510.78125,298957.1875,297922.46875,298582.3125,-0.270263671875,0.797607421875,-0.562744140625,1.4953612089157104,2.197265386581421,-4.974364757537842,100.0,141508.0,1.0
559299.6866364,308408.75,299804.5,321387.0,315103.8125,340220.21875,299245.625,297881.4375,298703.53125,-0.271728515625,0.794189453125,-0.562744140625,1.4953612089157104,2.410888433456421,-4.211425304412842,100.0,141509.0,1.0
559299.6892792,308163.59375,300768.03125,322331.46875,315829.625,345147.78125,301100.71875,299484.25,299453.75,-0.271484375,0.794921875,-0.56494140625,1.4038084745407104,2.502441167831421,-3.540038824081421,100.0,141510.0,1.0
559299.6916788,308486.375,301356.15625,323093.5,316150.5,348724.6875,301896.34375,300463.6875,299771.34375,-0.272705078125,0.79833984375,-0.5703125,1.4953612089157104,2.563476324081421,-2.777099370956421,100.0,141511.0,1.0
559299.6941426,308955.75,300735.6875,322639.65625,315635.0,346288.1875,300514.46875,299474.78125,299219.15625,-0.2734375,0.804443359375,-0.5771484375,1.3427733182907104,2.563476324081421,-2.044677495956421,100.0,141512.0,1.0
559299.6966897,308858.75,299694.34375,321543.4375,314985.34375,341591.34375,298864.46875,297886.71875,298563.8125,-0.27197265625,0.810546875,-0.579345703125,1.5563963651657104,2.655029058456421,-1.4343260526657104,100.0,141513.0,1.0
559299.6967296,308375.0625,299667.34375,321303.5625,315085.125,341191.0,299147.625,297817.0625,298706.84375,-0.271240234375,0.81787109375,-0.58251953125,1.6174315214157104,2.593993902206421,-0.7629393935203552,100.0,141514.0,1.0
559299.7017545,308153.9375,300777.875,322308.5,315840.71875,346110.15625,301055.5625,299443.90625,299507.40625,-0.27099609375,0.820556640625,-0.587890625,1.5563963651657104,2.319335699081421,0.03051757626235485,100.0,141515.0,1.0
559299.7067961,308479.46875,301484.71875,323110.40625,316167.125,349718.4375,301897.53125,300464.59375,299839.90625,-0.26953125,0.819091796875,-0.587890625,1.6479490995407104,2.075195074081421,1.0070799589157104,100.0,141516.0,1.0
559299.7068362,308938.6875,300933.96875,322665.875,315643.40625,347254.125,300534.0625,299485.5,299274.0625,-0.270263671875,0.819580078125,-0.587646484375,1.8310545682907104,1.8310545682907104,1.8310545682907104,100.0,141517.0,1.0
559299.7092941,308853.375,299944.875,321598.4375,314998.5,342537.5625,298922.5,297929.53125,298610.375,-0.2705078125,0.8212890625,-0.586669921875,2.044677495956421,1.4648436307907104,2.685546636581421,100.0,141518.0,1.0
559299.7117394,308396.0625,299949.15625,321417.125,315108.46875,342254.65625,299268.5,297919.96875,298735.71875,-0.27099609375,0.827880859375,-0.588134765625,2.227782964706421,1.1596678495407104,3.479003667831421,100.0,141519.0,1.0
559299.7179891,308203.75,301097.9375,322507.4375,315880.59375,347424.1875,301257.09375,299607.71875,299522.59375,-0.270751953125,0.833740234375,-0.593505859375,2.288818120956421,0.7324218153953552,4.241942882537842,100.0,141520.0,1.0
559299.7217808,308574.59375,301882.59375,323434.40625,316255.28125,351419.875,302232.625,300724.5,299897.9375,-0.26708984375,0.840576171875,-0.595947265625,2.380370855331421,0.4272460639476776,5.096435070037842,100.0,141521.0,1.0
559299.721822,309060.53125,301369.75,323077.0625,315766.15625,349335.96875,300968.5625,299805.84375,299355.40625,-0.267578125,0.851318359375,-0.597900390625,2.441406011581421,0.2441406100988388,5.981444835662842,100.0,141522.0,1.0
559299.7492307,308987.125,300389.75,322057.90625,315130.5625,344951.625,299414.25,298290.40625,298703.625,-0.264892578125,0.853271484375,-0.596923828125,2.197265386581421,0.0,6.835937023162842,100.0,141523.0,1.0
559299.7541612,308547.59375,300430.78125,321925.65625,315244.1875,344978.90625,299818.1875,298333.03125,298848.46875,-0.263427734375,0.85205078125,-0.595458984375,2.014159917831421,0.03051757626235485,7.598876476287842,100.0,141524.0,1.0
559299.7541744,308362.8125,301601.125,323039.9375,316012.65625,350425.84375,301843.25,300064.6875,299651.4375,-0.263671875,0.8515625,-0.595947265625,1.8920897245407104,0.03051757626235485,8.483885765075684,100.0,141525.0,1.0
559299.7567083,308690.21875,302279.65625,323879.90625,316342.09375,354491.0,302756.90625,301155.625,299990.03125,-0.263916015625,0.851806640625,-0.593017578125,1.6479490995407104,0.0610351525247097,9.155272483825684,100.0,141526.0,1.0
559299.7581642,309122.0625,301589.5,323369.40625,315790.65625,352256.09375,301375.65625,300192.71875,299419.15625,-0.2646484375,0.85107421875,-0.595458984375,1.4038084745407104,0.1525878757238388,9.613036155700684,100.0,141527.0,1.0
559299.7645458,308995.4375,300449.03125,322199.34375,315104.8125,347604.15625,299693.8125,298597.78125,298731.71875,-0.2607421875,0.857177734375,-0.596923828125,1.1596678495407104,0.1220703050494194,10.192870140075684,100.0,141528.0,1.0
559299.7932975,308518.1875,300406.84375,321960.625,315205.03125,347358.71875,300002.625,298570.6875,298850.34375,-0.262451171875,0.85791015625,-0.60107421875,0.6103515028953552,0.2136230319738388,10.833739280700684,100.0,141529.0,1.0
559299.8044955,308308.25,301543.71875,323008.90625,315967.75,352578.59375,301967.4375,300253.0625,299629.96875,-0.26025390625,0.860595703125,-0.6025390625,-0.0915527269244194,0.3051757514476776,11.108397483825684,100.0,141530.0,1.0
559299.8095666,308632.1875,302240.21875,323826.1875,316296.0625,356469.3125,302847.71875,301316.09375,299970.34375,-0.25732421875,0.86083984375,-0.600341796875,-1.0070799589157104,0.3051757514476776,11.688231468200684,100.0,141531.0,1.0
559299.8179076,309076.0,301592.625,323320.21875,315762.40625,354083.65625,301453.78125,300327.25,299409.6875,-0.2509765625,0.859619140625,-0.599365234375,-1.8920897245407104,0.1831054538488388,11.962889671325684,100.0,141532.0,1.0
559299.8179482,308962.625,300481.9375,322150.875,315091.9375,349280.96875,299761.6875,298714.375,298728.21875,-0.244140625,0.857421875,-0.595458984375,-2.899169683456421,0.2441406100988388,12.207030296325684,100.0,141533.0,1.0
559299.8203778,308487.4375,300452.34375,321910.8125,315191.0,348922.46875,300071.8125,298671.4375,298846.3125,-0.237548828125,0.854736328125,-0.59814453125,-3.997802495956421,0.3967284858226776,12.512206077575684,100.0,141534.0,1.0
559299.8229719,308284.3125,301605.4375,322969.40625,315963.90625,354084.09375,302077.75,300364.71875,299641.5,-0.2294921875,0.84912109375,-0.597412109375,-5.187987804412842,0.7629393935203552,12.847899436950684,100.0,141535.0,1.0
559299.8254957,308616.71875,302313.53125,323799.09375,316306.0625,357942.8125,302998.46875,301448.4375,299990.71875,-0.220458984375,0.848876953125,-0.597412109375,-6.347655773162842,1.0986326932907104,13.214110374450684,100.0,141536.0,1.0
559299.8278592,309065.90625,301651.65625,323298.40625,315765.53125,355540.71875,301613.46875,300463.0625,299423.90625,-0.21533203125,0.847412109375,-0.601318359375,-7.415771007537842,1.4343260526657104,13.427733421325684,100.0,141537.0,1.0
559299.8305202,308968.28125,300531.8125,322151.875,315093.28125,350779.0,299938.34375,298856.4375,298744.75,-0.20703125,0.84716796875,-0.597412109375,-8.392333030700684,1.8920897245407104,13.732909202575684,100.0,141538.0,1.0
559299.8329941,308508.96875,300510.8125,321950.6875,315197.78125,350514.09375,300264.21875,298833.71875,298870.1875,-0.20166015625,0.84765625,-0.598876953125,-9.307860374450684,2.380370855331421,14.068602561950684,100.0,141539.0,1.0
559299.8353639,308323.46875,301706.625,323063.09375,315986.1875,355815.03125,302286.15625,300557.5,299681.75,-0.19482421875,0.847412109375,-0.602294921875,-10.223387718200684,2.899169683456421,14.129637718200684,100.0,141540.0,1.0
559299.8379604,308666.34375,302437.0,323935.71875,316337.1875,359849.96875,303229.5,301670.6875,300041.15625,-0.187255859375,0.845947265625,-0.602294921875,-10.894774436950684,3.601073980331421,14.282225608825684,100.0,141541.0,1.0
559299.8403612,309121.875,301770.5625,323458.0,315794.65625,357594.03125,301850.3125,300696.96875,299465.8125,-0.1767578125,0.848876953125,-0.604736328125,-11.444090843200684,4.241942882537842,14.434813499450684,100.0,141542.0,1.0
559299.8453929,309040.0625,300694.1875,322360.71875,315131.53125,352998.25,300201.46875,299116.15625,298790.0,-0.16845703125,0.8544921875,-0.60546875,-12.023924827575684,4.882812023162842,14.404295921325684,100.0,141543.0,1.0
559299.8554488,308615.90625,300773.84375,322241.4375,315270.125,352982.6875,300610.40625,299158.34375,298941.625,-0.159423828125,0.858642578125,-0.608642578125,-12.603758811950684,5.615233898162842,14.617918968200684,100.0,141544.0,1.0
559299.8579398,308456.9375,302096.0,323442.375,316092.40625,358617.5625,302739.0,300963.3125,299784.65625,-0.1552734375,0.86181640625,-0.607666015625,-13.458250999450684,6.378173351287842,14.709471702575684,100.0,141545.0,1.0
559299.8666762,308812.25,302937.9375,324378.53125,316463.25,362960.6875,303768.53125,302141.875,300172.5,-0.146240234375,0.86669921875,-0.607177734375,-14.190672874450684,7.141112804412842,14.801024436950684,100.0,141546.0,1.0
559299.8691566,309261.78125,302326.84375,323920.875,315918.9375,360906.9375,302433.4375,301202.03125,299609.59375,-0.138671875,0.86572265625,-0.603271484375,-15.106200218200684,8.148192405700684,14.739989280700684,100.0,141547.0,1.0
559299.8715631,309173.71875,301270.78125,322822.59375,315254.28125,356420.75,300799.96875,299638.1875,298939.125,-0.1328125,0.85986328125,-0.594482421875,-16.235349655151367,9.277342796325684,14.953612327575684,100.0,141548.0,1.0
559299.875545,308740.71875,301376.71875,322700.03125,315385.09375,356505.78125,301232.15625,299696.9375,299099.15625,-0.125,0.84912109375,-0.5927734375,-17.333982467651367,10.375975608825684,15.106200218200684,100.0,141549.0,1.0
559299.8755626,308579.15625,302737.84375,323907.8125,316207.28125,362301.21875,303423.6875,301553.21875,299956.65625,-0.123046875,0.840087890625,-0.5908203125,-18.341062545776367,11.688231468200684,14.862059593200684,100.0,141550.0,1.0
559299.8755652,308939.9375,303621.09375,324863.9375,316583.34375,366823.53125,304509.1875,302778.25,300348.71875,-0.12158203125,0.835205078125,-0.5888671875,-19.439695358276367,13.092040061950684,14.801024436950684,100.0,141551.0,1.0
559299.8755681,309407.0625,303042.8125,324436.03125,316056.0,364914.96875,303195.625,301865.59375,299794.84375,-0.123779296875,0.836181640625,-0.590087890625,-20.477293014526367,14.160155296325684,14.801024436950684,100.0,141552.0,1.0
559299.8779427,309336.625,301987.46875,323342.84375,315401.625,360506.03125,301564.28125,300310.8125,299130.09375,-0.120849609375,0.83203125,-0.591552734375,-21.850584030151367,15.167235374450684,14.617918968200684,100.0,141553.0,1.0
559299.8803437,308920.625,302082.78125,323207.75,315554.4375,360623.15625,301998.625,300387.4375,299308.8125,-0.121337890625,0.825439453125,-0.59375,-23.193357467651367,16.204832077026367,14.434813499450684,100.0,141554.0,1.0
559299.8803619,308731.78125,303363.34375,324349.21875,316362.5,366362.0,304140.75,302210.4375,300144.6875,-0.12109375,0.8154296875,-0.59423828125,-24.261472702026367,17.150876998901367,14.068602561950684,100.0,141555.0,1.0
559299.8828555,309057.0625,304098.34375,325204.84375,316713.3125,370723.28125,305138.0625,303384.8125,300504.5625,-0.1240234375,0.810546875,-0.59033203125,-24.963376998901367,18.218992233276367,13.763426780700684,100.0,141556.0,1.0
559299.8853881,309497.75,303336.78125,324657.21875,316155.875,368528.15625,303694.59375,302393.28125,299922.96875,-0.12890625,0.806884765625,-0.589111328125,-25.695798873901367,18.890378952026367,13.214110374450684,100.0,141557.0,1.0
559299.8879472,309415.75,302159.65625,323493.78125,315484.53125,363885.15625,301959.65625,300764.46875,299243.65625,-0.12841796875,0.802978515625,-0.587890625,-26.245115280151367,19.500730514526367,12.664793968200684,100.0,141558.0,1.0
559299.8903849,309000.46875,302256.03125,323373.0625,315640.875,363992.8125,302388.8125,300824.0,299423.625,-0.1279296875,0.794677734375,-0.5859375,-26.458738327026367,20.141599655151367,12.329100608825684,100.0,141559.0,1.0
559299.8929697,308866.6875,303683.875,324639.6875,316511.71875,370015.90625,304661.0,302744.375,300317.4375,-0.12841796875,0.791015625,-0.58642578125,-26.611326217651367,20.568845748901367,11.810301780700684,100.0,141560.0,1.0
559299.8929918,309260.8125,304630.0625,325673.6875,316922.90625,374856.75,305838.5625,304039.625,300745.34375,-0.130615234375,0.790283203125,-0.586181640625,-26.336668014526367,20.782468795776367,11.047362327575684,100.0,141561.0,1.0
559299.8954636,309763.90625,304063.84375,325303.5625,316411.125,373197.96875,304565.15625,303155.65625,300207.09375,-0.1279296875,0.785888671875,-0.581787109375,-26.184080123901367,20.996091842651367,10.437010765075684,100.0,141562.0,1.0
559299.8979321,309719.28125,303038.78125,324274.90625,315777.40625,369028.5625,302951.4375,301601.3125,299551.46875,-0.12353515625,0.77880859375,-0.578369140625,-25.970457077026367,21.057126998901367,9.918211936950684,100.0,141563.0,1.0
559299.9029871,309318.375,303290.21875,324269.8125,316002.09375,369616.15625,303491.46875,301695.0,299756.125,-0.123291015625,0.7744140625,-0.578125,-25.970457077026367,20.996091842651367,9.307860374450684,100.0,141564.0,1.0
559299.9055515,309222.71875,304963.28125,325701.40625,317038.84375,376322.40625,305951.0625,303720.96875,300707.25,-0.126220703125,0.771484375,-0.5771484375,-25.909421920776367,21.026609420776367,8.819579124450684,100.0,141565.0,1.0
559299.9055882,309677.09375,306160.8125,326904.03125,317548.375,381925.4375,307332.03125,305176.0625,301194.40625,-0.126953125,0.772216796875,-0.578369140625,-25.634763717651367,21.026609420776367,8.178709983825684,100.0,141566.0,1.0
559299.9078643,310188.0625,305655.75,326575.625,316966.34375,380753.65625,306115.65625,304358.09375,300651.0,-0.1279296875,0.77099609375,-0.5751953125,-25.665281295776367,20.935056686401367,7.385253429412842,100.0,141567.0,1.0
559299.9105109,310133.40625,304614.59375,325550.75,316239.125,376938.3125,304525.46875,302848.1875,299980.8125,-0.131591796875,0.78125,-0.5732421875,-25.146482467651367,20.812986373901367,6.347655773162842,100.0,141568.0,1.0
559299.9129677,309762.375,304946.75,325630.0625,316413.1875,378067.625,305195.84375,303047.75,300213.96875,-0.134765625,0.78955078125,-0.572021484375,-24.719236373901367,20.538328170776367,5.676269054412842,100.0,141569.0,1.0
559299.9478823,309679.78125,306716.46875,327151.6875,317325.6875,385421.96875,307800.875,305181.78125,301169.5625,-0.135009765625,0.79638671875,-0.572021484375,-24.353025436401367,20.355222702026367,5.096435070037842,100.0,141570.0,1.0
559299.9479122,310050.53125,307801.15625,328272.65625,317722.09375,391349.1875,309133.84375,306606.65625,301595.59375,-0.140380859375,0.79296875,-0.57080078125,-23.681638717651367,19.744871139526367,4.608153820037842,100.0,141571.0,1.0
559299.9503331,310448.5,306999.53125,327713.96875,317101.4375,390053.6875,307700.3125,305617.75,300955.53125,-0.14208984375,0.797607421875,-0.56787109375,-22.674558639526367,19.287107467651367,3.692626714706421,100.0,141572.0,1.0
559299.9503503,310324.75,305692.125,326469.5,316370.28125,385927.5625,305891.0625,303914.1875,300197.8125,-0.14404296875,0.802734375,-0.5654296875,-21.636960983276367,18.737791061401367,2.929687261581421,100.0,141573.0,1.0
559299.9766126,309933.25,305930.65625,326461.1875,316552.21875,386935.71875,306484.0,304037.90625,300379.03125,-0.141845703125,0.8076171875,-0.562255859375,-20.751951217651367,18.188474655151367,2.410888433456421,100.0,141574.0,1.0
559299.9766193,309844.28125,307718.09375,327977.96875,317476.40625,394373.3125,309114.71875,306145.78125,301338.46875,-0.138671875,0.810302734375,-0.558837890625,-19.897459030151367,17.364500045776367,1.8615721464157104,100.0,141575.0,1.0
559299.9766213,310177.6875,308716.84375,329008.40625,317831.375,400232.78125,310389.03125,307491.53125,301741.0625,-0.134521484375,0.813232421875,-0.55517578125,-18.859861373901367,16.815183639526367,1.4953612089157104,100.0,141576.0,1.0
559299.9766233,310484.53125,307611.15625,328200.875,317118.78125,398417.0,308711.65625,306332.71875,301024.28125,-0.1337890625,0.818359375,-0.549560546875,-17.944334030151367,16.296384811401367,1.0681151151657104,100.0,141577.0,1.0
559299.9814758,310275.5,305976.4375,326703.65625,316304.125,393593.59375,306619.71875,304420.40625,300186.53125,-0.13623046875,0.8251953125,-0.54833984375,-17.272947311401367,15.533446311950684,0.8850097060203552,100.0,141578.0,1.0
559299.9840258,309864.84375,306083.65625,326594.9375,316461.90625,394157.75,307075.625,304425.15625,300342.90625,-0.135986328125,0.825927734375,-0.548583984375,-16.510007858276367,14.770506858825684,0.7934569716453552,100.0,141579.0,1.0
559299.9864843,309788.40625,307877.15625,328112.34375,317405.59375,401442.96875,309690.84375,306518.53125,301312.15625,-0.13525390625,0.822509765625,-0.54736328125,-16.021726608276367,14.007567405700684,0.4272460639476776,100.0,141580.0,1.0
559299.9890672,310094.625,308765.59375,329058.65625,317746.34375,407043.96875,310878.90625,307805.96875,301696.53125,-0.136962890625,0.823486328125,-0.54833984375,-15.563963890075684,13.183592796325684,0.3967284858226776,100.0,141581.0,1.0
559299.9890726,310339.875,307386.03125,328043.59375,316962.875,404642.5,308977.65625,306491.0625,300938.8125,-0.134765625,0.81884765625,-0.548583984375,-15.197752952575684,11.962889671325684,0.4272460639476776,100.0,141582.0,1.0
559299.9940212,310091.5,305534.875,326383.40625,316091.3125,399207.8125,306694.28125,304454.375,300089.96875,-0.130859375,0.81494140625,-0.550537109375,-15.136717796325684,11.444090843200684,0.3662109076976776,100.0,141583.0,1.0
559300.0041695,309696.65625,305624.09375,326261.53125,316258.5,399422.90625,307098.40625,304409.3125,300237.75,-0.123291015625,0.814208984375,-0.55224609375,-14.343260765075684,10.650633811950684,0.2136230319738388,100.0,141584.0,1.0
559300.0066187,309647.3125,307497.4375,327835.1875,317216.15625,406586.46875,309737.09375,306473.90625,301213.71875,-0.124755859375,0.812255859375,-0.55029296875,-13.702391624450684,9.948729515075684,0.2746581733226776,100.0,141585.0,1.0
559300.0090419,309937.8125,308351.1875,328741.96875,317530.0625,411913.875,310867.8125,307696.375,301585.21875,-0.1220703125,0.803955078125,-0.5556640625,-13.183592796325684,9.033202171325684,0.3051757514476776,100.0,141586.0,1.0
559300.0114581,310113.3125,306759.1875,327536.5,316697.78125,408827.375,308749.3125,306214.1875,300747.375,-0.11669921875,0.797607421875,-0.558837890625,-12.115477561950684,8.453368186950684,0.4272460639476776,100.0,141587.0,1.0
559300.0140226,309762.375,304539.03125,325569.09375,315756.65625,402328.75,306118.25,303923.03125,299769.1875,-0.1162109375,0.8017578125,-0.56201171875,-10.742186546325684,8.056639671325684,0.5187987685203552,100.0,141588.0,1.0
559300.0164727,309339.125,304416.75,325286.75,315915.375,401680.28125,306314.75,303731.53125,299889.4375,-0.11474609375,0.79736328125,-0.5634765625,-9.063719749450684,7.598876476287842,0.3967284858226776,100.0,141589.0,1.0
559300.0190226,309317.59375,306304.75,326884.96875,316926.46875,408430.125,308927.3125,305771.78125,300887.40625,-0.112548828125,0.800048828125,-0.5634765625,-7.141112804412842,7.537841320037842,0.4577636420726776,100.0,141590.0,1.0
559300.021496,309573.1875,307076.78125,327721.28125,317225.1875,413256.3125,309946.8125,306913.4375,301240.71875,-0.110595703125,0.803955078125,-0.560791015625,-5.218505382537842,7.385253429412842,0.7324218153953552,100.0,141591.0,1.0
559300.0215014,309667.875,305223.28125,326303.21875,316305.4375,409288.96875,307572.0,305238.46875,300335.5,-0.107421875,0.797119140625,-0.560546875,-3.021239995956421,7.263183116912842,0.8544921278953552,100.0,141592.0,1.0
559300.0240184,309307.375,302875.625,324241.9375,315350.84375,402011.4375,304781.96875,302798.46875,299323.84375,-0.102294921875,0.80029296875,-0.56103515625,-0.4882812201976776,7.293700695037842,0.7629393935203552,100.0,141593.0,1.0
559300.0264438,308883.59375,302703.78125,323922.375,315509.09375,400756.78125,304876.8125,302526.5,299421.84375,-0.10009765625,0.80615234375,-0.559326171875,2.960204839706421,7.446288585662842,0.7629393935203552,100.0,141594.0,1.0
559300.0290264,308826.5625,304459.75,325401.09375,316479.34375,406728.09375,307335.25,304454.09375,300378.5,-0.09814453125,0.80517578125,-0.5537109375,5.279540538787842,7.476806163787842,0.6713866591453552,100.0,141595.0,1.0
559300.0314594,309065.71875,305152.1875,326150.6875,316758.3125,410758.125,308233.15625,305470.40625,300701.0625,-0.094970703125,0.80615234375,-0.54296875,7.446288585662842,7.720946788787842,0.6713866591453552,100.0,141596.0,1.0
559300.0342003,309185.78125,303339.46875,324756.1875,315865.5625,406269.4375,305820.15625,303770.3125,299785.1875,-0.093505859375,0.8134765625,-0.534912109375,9.246825218200684,7.781981945037842,0.5798339247703552,100.0,141597.0,1.0
559300.0342058,308901.21875,301167.25,322846.28125,314967.84375,398849.28125,303107.8125,301424.09375,298831.9375,-0.0908203125,0.81884765625,-0.521240234375,10.955809593200684,7.934569835662842,0.7019042372703552,100.0,141598.0,1.0
559300.0366458,308542.96875,301220.96875,322707.71875,315170.59375,397634.96875,303325.78125,301216.6875,298994.375,-0.086669921875,0.82666015625,-0.515869140625,12.390135765075684,8.148192405700684,0.5187987685203552,100.0,141599.0,1.0
559300.039054,308525.625,303167.0,324336.78125,316178.5,403702.9375,305879.0625,303207.0625,299991.625,-0.0849609375,0.830078125,-0.511962890625,13.702391624450684,8.422850608825684,0.6103515028953552,100.0,141600.0,1.0
559300.0427822,308789.71875,303959.25,325186.15625,316482.375,407841.40625,306840.5625,304297.125,300340.40625,-0.084716796875,0.829833984375,-0.5009765625,14.831542015075684,8.636473655700684,0.6713866591453552,100.0,141601.0,1.0
559300.0427933,308925.875,302176.46875,323845.21875,315600.9375,403400.1875,304473.40625,302642.28125,299460.28125,-0.0830078125,0.82373046875,-0.4921875,15.563963890075684,8.789061546325684,0.7019042372703552,100.0,141602.0,1.0
559300.0675973,308642.65625,300014.6875,321961.4375,314710.625,395933.625,301785.9375,300318.78125,298515.4375,-0.080322265625,0.810302734375,-0.488525390625,16.204832077026367,8.941649436950684,0.6713866591453552,100.0,141603.0,1.0
559300.067611,308299.25,300111.625,321865.40625,314936.625,394654.84375,302046.125,300163.90625,298688.625,-0.076416015625,0.79638671875,-0.4814453125,16.845701217651367,9.307860374450684,0.5798339247703552,100.0,141604.0,1.0
559300.0754042,308309.0625,302157.96875,323573.78125,315965.4375,400723.15625,304691.84375,302226.53125,299718.21875,-0.075927734375,0.785888671875,-0.478759765625,17.211912155151367,9.582518577575684,0.2441406100988388,100.0,141605.0,1.0
559300.0754191,308601.4375,303059.1875,324507.03125,316302.59375,404914.21875,305745.9375,303394.09375,300098.1875,-0.07568359375,0.76611328125,-0.475830078125,17.395017623901367,9.735106468200684,0.0915527269244194,100.0,141606.0,1.0
559300.0754217,308765.03125,301371.1875,323227.4375,315455.09375,400501.15625,303435.125,301820.8125,299243.1875,-0.075927734375,0.75048828125,-0.475830078125,17.578123092651367,9.796141624450684,0.0610351525247097,100.0,141607.0,1.0
559300.0778233,308517.375,299313.375,321420.15625,314585.875,393086.1875,300809.25,299572.03125,298322.3125,-0.076416015625,0.73876953125,-0.479736328125,17.852781295776367,9.918211936950684,-0.1525878757238388,100.0,141608.0,1.0
559300.0778341,308225.46875,299547.0,321445.71875,314840.25,391960.9375,301167.6875,299484.78125,298529.1875,-0.079345703125,0.736083984375,-0.48486328125,18.402097702026367,9.948729515075684,-0.5187987685203552,100.0,141609.0,1.0
559300.0801998,308280.46875,301740.25,323281.15625,315903.65625,398287.375,303920.0,301601.3125,299589.5625,-0.08251953125,0.7392578125,-0.4912109375,19.012449264526367,9.826659202575684,-0.7934569716453552,100.0,141610.0,1.0
559300.0853224,308622.53125,302850.15625,324383.65625,316286.21875,402915.875,305137.4375,302875.71875,300024.25,-0.085693359375,0.7470703125,-0.501953125,19.989011764526367,9.765624046325684,-1.0070799589157104,100.0,141611.0,1.0
559300.0878172,308822.1875,301372.59375,323270.6875,315474.59375,399025.96875,303003.03125,301415.78125,299217.90625,-0.090576171875,0.76025390625,-0.50634765625,21.209714889526367,9.674071311950684,-1.5258787870407104,100.0,141612.0,1.0
559300.0905099,308616.28125,299523.65625,321626.25,314649.71875,392144.125,300545.78125,299271.625,298347.875,-0.09326171875,0.77197265625,-0.51123046875,22.827146530151367,9.490965843200684,-1.9531248807907104,100.0,141613.0,1.0
559300.0953117,308383.09375,300013.09375,321856.03125,314949.78125,391658.28125,301105.375,299313.21875,298606.4375,-0.096923828125,0.780517578125,-0.5126953125,24.475095748901367,9.307860374450684,-2.349853277206421,100.0,141614.0,1.0
559300.0991514,308496.03125,302462.375,323897.71875,316052.25,398664.03125,304067.875,301559.75,299710.4375,-0.09765625,0.785400390625,-0.512939453125,26.306150436401367,9.216307640075684,-2.685546636581421,100.0,141615.0,1.0
559300.099164,308800.1875,303573.4375,324979.0,316404.0625,403542.96875,305308.125,302841.84375,300118.0625,-0.095703125,0.79248046875,-0.51220703125,28.198240280151367,9.185790061950684,-2.960204839706421,100.0,141616.0,1.0
559300.1028665,308897.1875,301848.625,323638.34375,315514.65625,399370.875,303015.8125,301285.09375,299238.65625,-0.0927734375,0.80126953125,-0.510498046875,29.968259811401367,9.277342796325684,-3.479003667831421,100.0,141617.0,1.0
559300.1028799,308615.8125,299741.90625,321774.46875,314623.78125,392059.0,300385.1875,299028.8125,298299.96875,-0.08935546875,0.807373046875,-0.5087890625,31.646726608276367,9.246825218200684,-3.692626714706421,100.0,141618.0,1.0
559300.1129608,308349.9375,300065.75,321866.5625,314889.0625,391188.0,300813.71875,298974.34375,298519.625,-0.084228515625,0.81298828125,-0.50830078125,32.684322357177734,9.002684593200684,-3.692626714706421,100.0,141619.0,1.0
559300.1793027,308413.75,302338.5625,323759.5,315945.15625,397744.75,303626.375,301102.40625,299578.5625,-0.079345703125,0.811279296875,-0.505615234375,33.294673919677734,9.033202171325684,-3.753661870956421,100.0,141620.0,1.0
559300.1793448,308654.375,303187.9375,324625.65625,316237.0625,402018.3125,304660.90625,302232.71875,299932.53125,-0.07861328125,0.813720703125,-0.506591796875,33.691402435302734,8.850096702575684,-3.387450933456421,100.0,141621.0,1.0
559300.1817337,308673.59375,301147.5625,323030.46875,315289.0625,397125.4375,302114.5,300505.90625,298998.75,-0.078125,0.8154296875,-0.50634765625,33.660884857177734,8.575438499450684,-3.204345464706421,100.0,141622.0,1.0
559300.1817757,308322.125,298743.40625,320950.21875,314348.96875,389074.25,299254.65625,298090.3125,298014.75,-0.075927734375,0.8173828125,-0.50537109375,33.355709075927734,8.331297874450684,-3.295898199081421,100.0,141623.0,1.0
559300.1867019,308034.78125,298856.78125,320895.0625,314583.75,387541.34375,299510.09375,297890.75,298201.25,-0.07421875,0.81689453125,-0.503662109375,32.836910247802734,7.904052257537842,-3.204345464706421,100.0,141624.0,1.0
559300.1892349,308105.21875,300964.8125,322685.34375,315621.3125,393486.46875,302161.8125,299860.8125,299219.15625,-0.075927734375,0.82177734375,-0.501953125,32.073970794677734,7.720946788787842,-2.868652105331421,100.0,141625.0,1.0
559300.1942969,308316.9375,301669.4375,323449.59375,315895.96875,397133.125,303052.375,300878.53125,299546.75,-0.072265625,0.818115234375,-0.505859375,30.761716842651367,7.385253429412842,-2.502441167831421,100.0,141626.0,1.0
559300.1966597,308305.5,299525.8125,321767.59375,314944.5,391637.28125,300417.5625,299110.875,298614.5,-0.0712890625,0.811767578125,-0.50341796875,29.510496139526367,7.354735851287842,-2.258300542831421,100.0,141627.0,1.0
559300.1966995,307968.6875,297097.0625,319637.03125,314019.9375,383068.40625,297503.0625,296667.46875,297645.78125,-0.072265625,0.809326171875,-0.505126953125,28.259275436401367,7.232665538787842,-1.9836424589157104,100.0,141628.0,1.0
559300.1992789,307704.5,297213.40625,319577.3125,314265.1875,381063.03125,297711.65625,296446.5625,297832.4375,-0.0712890625,0.8095703125,-0.50537109375,26.947019577026367,7.263183116912842,-1.5258787870407104,100.0,141629.0,1.0
559300.2017845,307799.71875,299386.53125,321424.0,315318.125,386638.96875,300364.625,298446.3125,298878.875,-0.07421875,0.808837890625,-0.510009765625,25.665281295776367,7.415771007537842,-1.1901854276657104,100.0,141630.0,1.0
559300.2041685,308010.53125,300115.71875,322209.0,315600.9375,389928.34375,301241.28125,299461.625,299225.59375,-0.078857421875,0.808349609375,-0.514892578125,24.841306686401367,7.690429210662842,-0.8239745497703552,100.0,141631.0,1.0
559300.2065845,307935.25,297812.78125,320372.65625,314614.5,383784.5625,298474.65625,297588.5625,298249.71875,-0.082275390625,0.80859375,-0.52099609375,24.017332077026367,8.026122093200684,-0.6713866591453552,100.0,141632.0,1.0
559300.2092186,307488.3125,295041.78125,317934.28125,313616.90625,374101.0625,295274.875,294929.3125,297169.9375,-0.087890625,0.820556640625,-0.5283203125,23.742673873901367,8.575438499450684,-0.5798339247703552,100.0,141633.0,1.0
559300.2116169,307296.625,295213.71875,317946.25,313935.09375,371575.0625,295482.3125,294682.5625,297376.90625,-0.094482421875,0.82763671875,-0.531982421875,23.437498092651367,8.819579124450684,-0.3967284858226776,100.0,141634.0,1.0
559300.2142858,307519.78125,297697.34375,320077.34375,315091.65625,377276.28125,298339.375,296837.71875,298510.15625,-0.099853515625,0.829345703125,-0.53662109375,22.979734420776367,9.094237327575684,-0.4272460639476776,100.0,141635.0,1.0
559300.2165961,307764.59375,298585.875,320980.71875,315401.90625,380581.65625,299323.5,297948.40625,298887.0,-0.112060546875,0.837890625,-0.534423828125,23.529050827026367,9.490965843200684,-0.9155272841453552,100.0,141636.0,1.0
559300.2217495,307758.9375,296516.5625,319335.71875,314500.875,374654.25,296745.4375,296216.34375,297983.625,-0.126953125,0.85302734375,-0.52587890625,24.230955123901367,9.582518577575684,-2.441406011581421,100.0,141637.0,1.0
559300.2242611,307512.28125,294347.09375,317434.3125,313693.25,366044.625,294038.375,293941.8125,297089.5625,-0.124755859375,0.874267578125,-0.5068359375,23.864744186401367,8.911131858825684,-3.875732183456421,100.0,141638.0,1.0
559300.2265755,307427.53125,294992.0,317842.34375,314088.15625,364589.5,294632.75,294035.6875,297415.53125,-0.124267578125,0.878662109375,-0.493896484375,22.338865280151367,8.117674827575684,-4.516601085662842,100.0,141639.0,1.0
559300.2292797,307674.71875,297692.78125,320143.96875,315254.90625,370937.84375,297682.78125,296352.6875,298562.1875,-0.117431640625,0.8759765625,-0.4765625,19.927976608276367,7.415771007537842,-4.638671398162842,100.0,141640.0,1.0
559300.2316542,307965.3125,298811.09375,321238.75,315625.6875,374956.15625,298896.75,297634.875,298983.5625,-0.1181640625,0.8662109375,-0.475341796875,16.235349655151367,6.378173351287842,-4.791259288787842,100.0,141641.0,1.0
559300.2316955,307993.03125,296963.875,319765.40625,314771.125,369815.25,296561.71875,296121.125,298137.78125,-0.102783203125,0.871826171875,-0.468505859375,12.542723655700684,4.943847179412842,-4.669188976287842,100.0,141642.0,1.0
559300.234336,307778.4375,294991.71875,318018.84375,313996.53125,362029.53125,294087.5625,294062.4375,297315.59375,-0.106201171875,0.875732421875,-0.476806640625,7.690429210662842,3.387450933456421,-3.692626714706421,100.0,141643.0,1.0
559300.234372,307728.90625,295826.96875,318589.25,314421.8125,361448.65625,294913.9375,294327.78125,297702.53125,-0.0966796875,0.88525390625,-0.478271484375,2.868652105331421,1.9836424589157104,-3.173827886581421,100.0,141644.0,1.0
559300.2365911,308015.625,298750.21875,321068.59375,315624.0,368724.59375,298199.65625,296823.5,298933.6875,-0.09033203125,0.90478515625,-0.47265625,-2.166747808456421,0.3051757514476776,-1.8310545682907104,100.0,141645.0,1.0
559300.2366259,308338.03125,300083.28125,322314.3125,316023.375,373673.1875,299649.375,298303.4375,299412.71875,-0.10791015625,0.904541015625,-0.484619140625,-7.751464366912842,-1.0070799589157104,-0.2746581733226776,100.0,141646.0,1.0
559300.2392587,308389.1875,298355.40625,320936.46875,315189.375,369369.65625,297498.96875,296939.0,298580.34375,-0.1220703125,0.900146484375,-0.498046875,-10.986327171325684,-1.8005369901657104,-0.7324218153953552,100.0,141647.0,1.0
559300.2392948,308225.46875,296521.90625,319319.625,314450.0625,362460.375,295222.75,295023.71875,297765.5625,-0.122802734375,0.913330078125,-0.496826171875,-13.305663108825684,-2.807616949081421,-1.7089842557907104,100.0,141648.0,1.0
559300.2417157,308282.25,297629.6875,320146.71875,314943.78125,363036.5,296330.78125,295509.75,298208.59375,-0.1123046875,0.93408203125,-0.4931640625,-16.204832077026367,-3.417968511581421,-1.6479490995407104,100.0,141649.0,1.0
559300.2467135,308681.71875,300888.75,322931.125,316205.9375,371737.96875,299941.46875,298256.6875,299501.84375,-0.10498046875,0.95263671875,-0.491455078125,-19.378660202026367,-3.265380620956421,-0.5493163466453552,100.0,141650.0,1.0
559300.2493423,309033.0,302385.78125,324322.84375,316609.25,377946.03125,301585.3125,299885.6875,299991.375,-0.108642578125,0.95556640625,-0.48974609375,-21.026609420776367,-3.051757574081421,0.2441406100988388,100.0,141651.0,1.0
559300.2493829,309003.40625,300549.71875,322838.40625,315705.625,374338.8125,299420.21875,298494.34375,299125.8125,-0.097412109375,0.96337890625,-0.48486328125,-24.444578170776367,-2.685546636581421,1.3122557401657104,100.0,141652.0,1.0
559300.2543194,308747.15625,298530.90625,321034.0,314891.21875,367736.5625,297036.0,296492.78125,298268.3125,-0.109130859375,0.960693359375,-0.486083984375,-28.015134811401367,-1.9226073026657104,2.319335699081421,100.0,141653.0,1.0
559300.2568963,308758.4375,299623.0,321776.09375,315347.28125,368671.65625,298118.46875,296950.90625,298676.4375,-0.120361328125,0.947998046875,-0.49072265625,-30.975339889526367,-0.5798339247703552,2.044677495956421,100.0,141654.0,1.0
559300.2569335,309167.65625,303049.78125,324612.53125,316623.65625,377964.875,301841.625,299793.15625,299995.84375,-0.11474609375,0.948974609375,-0.482421875,-33.508296966552734,0.5798339247703552,1.7089842557907104,100.0,141655.0,1.0
559300.2592041,309490.6875,304600.90625,325992.4375,317016.0625,384638.03125,303560.125,301489.03125,300532.1875,-0.103271484375,0.951904296875,-0.4775390625,-37.261959075927734,1.8310545682907104,2.349853277206421,100.0,141656.0,1.0
559300.2629636,309351.8125,302519.78125,324294.875,316031.25,381013.75,301269.4375,299965.25,299571.15625,-0.10791015625,0.94384765625,-0.473388671875,-41.351314544677734,3.479003667831421,3.784179449081421,100.0,141657.0,1.0
559300.2879724,309017.34375,300260.90625,322293.125,315154.0625,374257.0,298770.34375,297847.5625,298593.65625,-0.11376953125,0.934326171875,-0.47265625,-44.769283294677734,5.218505382537842,4.638671398162842,100.0,141658.0,1.0
559300.2905251,309020.46875,301271.65625,322950.71875,315596.0,375195.5,299838.21875,298305.5,299012.34375,-0.1240234375,0.922607421875,-0.47705078125,-47.454830169677734,6.561278820037842,4.608153820037842,100.0,141659.0,1.0
559300.290566,309391.875,304626.125,325706.3125,316835.09375,384573.5,303555.5625,301111.8125,300336.84375,-0.1279296875,0.9169921875,-0.491455078125,-49.468990325927734,8.209227561950684,3.936767339706421,100.0,141660.0,1.0
559300.2929268,309640.96875,305962.125,326919.3125,317155.25,391138.03125,305177.15625,302706.75,300793.53125,-0.12841796875,0.91845703125,-0.49560546875,-50.750728607177734,9.643553733825684,3.479003667831421,100.0,141661.0,1.0
559300.2952804,309437.375,303556.46875,324992.78125,316095.15625,387058.75,302709.15625,301041.90625,299790.375,-0.131103515625,0.923583984375,-0.4990234375,-52.093502044677734,10.406493186950684,3.204345464706421,100.0,141662.0,1.0
559300.2978429,309031.9375,300942.1875,322712.96875,315142.0,379607.125,299924.9375,298658.125,298789.46875,-0.1435546875,0.90771484375,-0.512939453125,-53.222652435302734,10.894774436950684,2.502441167831421,100.0,141663.0,1.0
559300.3029914,308969.96875,301684.90625,323161.53125,315538.34375,379966.96875,300764.90625,298892.8125,299137.78125,-0.128662109375,0.902587890625,-0.512939453125,-53.314205169677734,11.016844749450684,1.0986326932907104,100.0,141664.0,1.0
559300.3078498,309307.5625,304872.53125,325783.65625,316758.75,388899.90625,304345.21875,301594.4375,300411.84375,-0.12109375,0.907470703125,-0.5107421875,-53.222652435302734,10.803221702575684,0.7629393935203552,100.0,141665.0,1.0
559300.3103392,309515.15625,306041.53125,326837.40625,317034.5625,394888.8125,305771.6875,303024.5,300799.15625,-0.119873046875,0.9033203125,-0.51416015625,-53.710933685302734,10.803221702575684,0.4577636420726776,100.0,141666.0,1.0
559300.313039,309267.4375,303428.625,324705.40625,315929.9375,390049.5,303004.375,301181.28125,299703.28125,-0.127197265625,0.8935546875,-0.511474609375,-53.283687591552734,10.223387718200684,-0.2441406100988388,100.0,141667.0,1.0
559300.3130837,308822.90625,300576.78125,322225.8125,314955.125,381772.71875,299955.0625,298669.21875,298605.28125,-0.1259765625,0.89404296875,-0.50634765625,-52.185054779052734,9.307860374450684,-1.4648436307907104,100.0,141668.0,1.0
559300.3179776,308713.09375,301057.09375,322473.375,315312.6875,381255.4375,300574.46875,298745.75,298898.09375,-0.13037109375,0.89990234375,-0.495361328125,-51.086421966552734,8.636473655700684,-2.746581792831421,100.0,141669.0,1.0
559300.3204864,308969.6875,303876.375,324830.84375,316445.46875,389145.84375,303862.875,301245.5625,300071.375,-0.12109375,0.9130859375,-0.487548828125,-50.231929779052734,7.781981945037842,-4.547118663787842,100.0,141670.0,1.0
559300.322987,309091.75,304623.34375,325581.15625,316642.6875,393941.5625,304946.375,302472.3125,300386.28125,-0.10986328125,0.93505859375,-0.47900390625,-49.194332122802734,6.652831554412842,-5.340575695037842,100.0,141671.0,1.0
559300.3230284,308769.0625,301592.1875,323135.6875,315502.5,387755.9375,301820.8125,300337.8125,299235.4375,-0.09716796875,0.95166015625,-0.478515625,-49.468990325927734,5.920409679412842,-5.065917491912842,100.0,141672.0,1.0
559300.3254952,308250.34375,298370.21875,320361.125,314485.46875,378070.03125,298431.9375,297500.03125,298106.125,-0.09326171875,0.95263671875,-0.476318359375,-49.407955169677734,5.554198741912842,-4.669188976287842,100.0,141673.0,1.0
559300.3381291,308026.625,298432.375,320231.75,314745.75,375854.53125,298651.78125,297231.375,298314.8125,-0.078857421875,0.955322265625,-0.470703125,-48.431392669677734,4.943847179412842,-4.302978038787842,100.0,141674.0,1.0
559300.3381669,308248.375,301037.25,322356.34375,315878.25,382171.3125,301681.59375,299422.5625,299514.65625,-0.08447265625,0.95458984375,-0.471435546875,-46.966548919677734,4.516601085662842,-3.662109136581421,100.0,141675.0,1.0
559300.3430296,308558.4375,302165.46875,323414.125,316237.9375,386527.9375,302961.5625,300649.75,299976.875,-0.08251953125,0.94677734375,-0.471923828125,-44.525142669677734,4.699706554412842,-3.875732183456421,100.0,141676.0,1.0
559300.3430763,308594.28125,300160.25,321840.8125,315359.875,381530.53125,300544.15625,299054.1875,299072.96875,-0.080322265625,0.948486328125,-0.468017578125,-40.710445404052734,4.760741710662842,-3.997802495956421,100.0,141677.0,1.0
559300.3453766,308335.96875,297902.53125,319889.0625,314524.71875,373568.3125,297860.96875,296857.46875,298122.5,-0.09326171875,0.94482421875,-0.461669921875,-37.017818450927734,5.065917491912842,-4.180907726287842,100.0,141678.0,1.0
559300.3517449,308212.15625,298527.9375,320231.3125,314870.46875,372777.75,298511.0625,296987.46875,298426.125,-0.08447265625,0.936767578125,-0.46044921875,-32.501216888427734,5.523681163787842,-4.119872570037842,100.0,141679.0,1.0
559300.3555022,308403.65625,301310.125,322491.78125,315971.0625,379989.15625,301702.34375,299346.65625,299598.59375,-0.090087890625,0.928955078125,-0.455322265625,-27.557371139526367,5.920409679412842,-3.143310308456421,100.0,141680.0,1.0
559300.3555444,308657.03125,302415.375,323532.40625,316298.125,384847.34375,303026.5625,300702.6875,300010.9375,-0.103271484375,0.919189453125,-0.458251953125,-23.040769577026367,6.530761241912842,-2.807616949081421,100.0,141681.0,1.0
559300.3915412,308598.5625,300191.375,321810.0625,315364.875,379876.78125,300500.8125,299060.46875,299044.53125,-0.109130859375,0.903076171875,-0.451416015625,-17.578123092651367,6.713866710662842,-3.234863042831421,100.0,141682.0,1.0
559300.3965007,308167.8125,297458.5625,319483.96875,314392.0625,371257.9375,297470.34375,296581.75,297976.75,-0.10546875,0.902099609375,-0.443115234375,-12.237547874450684,6.561278820037842,-3.967284917831421,100.0,141683.0,1.0
559300.3965078,307757.53125,297220.375,319104.53125,314492.1875,368784.40625,297464.90625,296227.5,298071.0625,-0.099365234375,0.8994140625,-0.445556640625,-7.476806163787842,7.110595226287842,-4.180907726287842,100.0,141684.0,1.0
559300.3990676,307575.9375,298742.15625,320322.78125,315274.40625,373171.25,299656.625,297870.09375,298935.8125,-0.10693359375,0.89013671875,-0.4462890625,-2.807616949081421,7.232665538787842,-4.241942882537842,100.0,141685.0,1.0
559300.3990734,307504.3125,298598.5625,320349.96875,315343.78125,374660.6875,299939.0625,298444.34375,299043.90625,-0.119873046875,0.883056640625,-0.433837890625,1.4648436307907104,6.744384288787842,-4.547118663787842,100.0,141686.0,1.0
559300.4014391,307400.875,295822.75,318203.46875,314381.40625,367099.34375,296863.90625,296373.15625,297966.5625,-0.115478515625,0.873291015625,-0.43505859375,5.554198741912842,6.042479991912842,-4.974364757537842,100.0,141687.0,1.0
559300.4064546,307257.90625,293614.125,316307.40625,313647.125,357714.21875,294068.0625,294052.3125,297079.03125,-0.109375,0.85400390625,-0.441162109375,10.681151390075684,5.645751476287842,-5.340575695037842,100.0,141688.0,1.0
559300.4114508,307259.6875,294539.84375,316873.8125,314091.28125,356162.625,294796.625,294176.25,297475.34375,-0.109130859375,0.845458984375,-0.441162109375,15.472411155700684,5.340575695037842,-5.950927257537842,100.0,141689.0,1.0
559300.4140243,307551.0,297549.5625,319353.15625,315289.25,362934.9375,298083.875,296582.28125,298739.65625,-0.120849609375,0.836669921875,-0.4365234375,19.622800827026367,4.638671398162842,-6.011962413787842,100.0,141690.0,1.0
559300.4164484,307998.1875,299201.625,320882.90625,315802.90625,368095.4375,299747.0,298164.96875,299319.28125,-0.1279296875,0.825927734375,-0.43603515625,24.353025436401367,3.448486089706421,-5.798339366912842,100.0,141691.0,1.0
559300.4191001,308278.9375,298008.9375,320025.21875,315170.96875,364526.21875,297908.0,297018.3125,298626.75,-0.13330078125,0.81884765625,-0.431640625,29.052732467651367,2.563476324081421,-6.195067882537842,100.0,141692.0,1.0
559300.4216653,308168.78125,296438.9375,318631.09375,314460.8125,357951.75,295707.96875,295147.65625,297821.28125,-0.13671875,0.820068359375,-0.4189453125,32.806392669677734,1.5869139432907104,-6.988524913787842,100.0,141693.0,1.0
559300.4216777,308028.25,297274.5625,319128.21875,314770.4375,357828.8125,296536.84375,295411.75,298121.15625,-0.134033203125,0.830810546875,-0.403076171875,35.980220794677734,0.1831054538488388,-7.537841320037842,100.0,141694.0,1.0
559300.4290523,308173.71875,300030.96875,321377.96875,315809.34375,365240.40625,299756.40625,297879.46875,299228.28125,-0.12939453125,0.845703125,-0.39453125,37.200923919677734,-0.9460448622703552,-7.965087413787842,100.0,141695.0,1.0
559300.436648,308489.21875,301388.0625,322646.90625,316193.0625,370687.78125,301290.1875,299414.9375,299709.5625,-0.121337890625,0.852783203125,-0.3974609375,36.712642669677734,-2.075195074081421,-7.843017101287842,100.0,141696.0,1.0
559300.4392041,308643.09375,299873.6875,321516.4375,315463.25,367175.78125,299287.5625,298161.8125,298960.3125,-0.11962890625,0.852783203125,-0.408935546875,35.156246185302734,-3.387450933456421,-7.965087413787842,100.0,141697.0,1.0
559300.4416562,308463.84375,298044.6875,319903.1875,314710.15625,360563.96875,296932.9375,296311.1875,298105.78125,-0.121826171875,0.85693359375,-0.4169921875,33.050533294677734,-4.699706554412842,-8.331297874450684,100.0,141698.0,1.0
559300.4442546,308299.0625,298759.78125,320290.78125,314991.0,360534.28125,297689.75,296577.53125,298364.34375,-0.1171875,0.862548828125,-0.427734375,29.937742233276367,-5.859374523162842,-8.758543968200684,100.0,141699.0,1.0
559300.4442704,308448.375,301503.59375,322530.9375,316026.875,368222.65625,300936.21875,299008.875,299526.34375,-0.115966796875,0.861328125,-0.434326171875,26.428220748901367,-6.866454601287842,-9.094237327575684,100.0,141700.0,1.0
559300.4466184,308719.53125,302737.0625,323692.4375,316371.34375,373775.71875,302413.65625,300412.09375,300026.125,-0.11279296875,0.853759765625,-0.43310546875,22.888181686401367,-7.537841320037842,-9.124754905700684,100.0,141701.0,1.0
559300.4491896,308779.0,300917.4375,322297.6875,315551.03125,369959.9375,300211.9375,298893.8125,299218.625,-0.1123046875,0.843505859375,-0.43310546875,19.317625045776367,-7.568358898162842,-9.124754905700684,100.0,141702.0,1.0
559300.4514916,308524.09375,298770.59375,320430.875,314706.40625,362884.0,297657.84375,296657.71875,298323.65625,-0.114501953125,0.82861328125,-0.43115234375,16.082761764526367,-7.232665538787842,-9.033202171325684,100.0,141703.0,1.0
559300.4542419,308369.6875,299358.96875,320736.28125,314998.59375,362605.21875,298343.59375,296719.5,298603.59375,-0.1162109375,0.80517578125,-0.43017578125,13.458250999450684,-6.347655773162842,-8.850096702575684,100.0,141704.0,1.0
559300.4542583,308601.875,302196.75,323067.75,316144.78125,370422.59375,301674.28125,299208.34375,299784.125,-0.117919921875,0.786376953125,-0.439697265625,11.413573265075684,-4.699706554412842,-9.155272483825684,100.0,141705.0,1.0
559300.4566513,308901.65625,303488.25,324293.78125,316527.375,376224.5,303214.75,300754.1875,300231.0625,-0.121337890625,0.771728515625,-0.451416015625,10.131834983825684,-2.563476324081421,-9.307860374450684,100.0,141706.0,1.0
559300.4880271,308929.8125,301583.875,322856.3125,315664.3125,372519.09375,300979.40625,299334.3125,299340.46875,-0.12890625,0.760009765625,-0.463623046875,9.033202171325684,-0.5493163466453552,-9.490965843200684,100.0,141707.0,1.0
559300.4880663,308646.65625,299305.15625,320909.28125,314799.65625,365379.875,298329.90625,297143.03125,298382.84375,-0.134033203125,0.74560546875,-0.475341796875,8.575438499450684,1.6479490995407104,-9.643553733825684,100.0,141708.0,1.0
559300.4894288,308459.375,299798.6875,321150.25,315061.8125,365025.90625,298920.96875,297210.09375,298614.75,-0.141845703125,0.736328125,-0.4912109375,8.911131858825684,3.601073980331421,-9.887694358825684,100.0,141709.0,1.0
559300.4967154,308638.09375,302513.625,323385.84375,316142.46875,372689.25,302115.84375,299592.59375,299756.9375,-0.146484375,0.72998046875,-0.4990234375,9.735106468200684,5.371093273162842,-10.131834983825684,100.0,141710.0,1.0
559300.4982879,308871.875,303611.0,324453.125,316475.40625,378141.8125,303483.0625,300962.15625,300197.625,-0.150146484375,0.729736328125,-0.50390625,10.955809593200684,6.805419445037842,-10.375975608825684,100.0,141711.0,1.0
559300.5095704,308817.15625,301396.84375,322760.46875,315565.15625,373789.21875,301004.875,299313.375,299289.96875,-0.15380859375,0.729248046875,-0.504150390625,12.359618186950684,7.751464366912842,-10.314940452575684,100.0,141712.0,1.0
559300.530325,308449.96875,298793.21875,320544.875,314631.5,365866.15625,298091.625,296873.5625,298280.8125,-0.15087890625,0.73388671875,-0.5029296875,14.099120140075684,8.239745140075684,-10.162352561950684,100.0,141713.0,1.0
559300.5328362,308242.90625,299079.125,320621.3125,314866.71875,364784.59375,298487.53125,296783.4375,298477.78125,-0.1474609375,0.741943359375,-0.505615234375,15.655516624450684,8.239745140075684,-9.490965843200684,100.0,141714.0,1.0
559300.5344345,308405.90625,301652.625,322742.65625,315931.71875,371797.5,301540.5,299058.75,299595.90625,-0.145751953125,0.754638671875,-0.509033203125,17.333982467651367,7.965087413787842,-8.636473655700684,100.0,141715.0,1.0
559300.5503287,308602.15625,302529.8125,323638.78125,316230.875,376464.0,302711.03125,300304.46875,299983.84375,-0.142822265625,0.76708984375,-0.51220703125,18.646238327026367,7.141112804412842,-7.690429210662842,100.0,141716.0,1.0
559300.5529706,308457.9375,300024.71875,321710.0,315246.4375,371183.625,299962.9375,298496.46875,298969.625,-0.139404296875,0.77734375,-0.517333984375,20.080564498901367,5.920409679412842,-6.713866710662842,100.0,141717.0,1.0
559300.5555258,308094.59375,297327.75,319428.4375,314321.875,362602.34375,296922.90625,296012.9375,297928.84375,-0.134521484375,0.788330078125,-0.52734375,21.392820358276367,4.455565929412842,-5.462646007537842,100.0,141718.0,1.0
559300.5555665,307977.90625,297732.75,319618.4375,314630.84375,361254.0,297356.8125,295953.90625,298179.78125,-0.1337890625,0.798828125,-0.539306640625,22.399900436401367,2.777099370956421,-4.180907726287842,100.0,141719.0,1.0
559300.558051,308217.59375,300448.21875,321872.375,315743.625,368143.1875,300459.40625,298262.21875,299337.625,-0.12890625,0.80078125,-0.55126953125,23.040769577026367,0.8544921278953552,-2.777099370956421,100.0,141720.0,1.0
559300.560381,308429.9375,301444.21875,322848.78125,316057.15625,372720.71875,301653.875,299528.84375,299720.0,-0.121826171875,0.803955078125,-0.564697265625,23.651121139526367,-0.9460448622703552,-1.3122557401657104,100.0,141721.0,1.0
559300.5629865,308308.09375,299083.78125,321006.5625,315106.875,367427.65625,298976.6875,297767.53125,298733.9375,-0.1162109375,0.808349609375,-0.569580078125,24.200437545776367,-2.258300542831421,-0.03051757626235485,100.0,141722.0,1.0
559300.5652936,307974.96875,296539.4375,318815.46875,314212.6875,358887.6875,296033.21875,295331.65625,297734.1875,-0.113037109375,0.81591796875,-0.572265625,24.719236373901367,-3.417968511581421,1.4953612089157104,100.0,141723.0,1.0
559300.5704769,307888.15625,297105.21875,319113.1875,314537.59375,357659.9375,296569.21875,295338.8125,298012.5,-0.10791015625,0.819091796875,-0.579833984375,25.421140670776367,-4.394530773162842,3.021239995956421,100.0,141724.0,1.0
559300.5728821,308177.03125,299997.53125,321508.21875,315682.8125,364782.09375,299792.53125,297738.84375,299199.65625,-0.10693359375,0.820068359375,-0.593994140625,26.336668014526367,-4.608153820037842,4.455565929412842,100.0,141725.0,1.0
559300.5779916,308430.03125,301146.125,322613.28125,316029.4375,369642.96875,301114.5,299099.78125,299627.125,-0.11083984375,0.824462890625,-0.607666015625,27.648923873901367,-4.364013195037842,5.676269054412842,100.0,141726.0,1.0
559300.580396,308317.125,298895.9375,320855.0,315093.53125,364622.0625,298547.625,297415.90625,298680.90625,-0.115234375,0.8330078125,-0.617919921875,28.869626998901367,-3.936767339706421,6.774901866912842,100.0,141727.0,1.0
559300.5804355,307993.5625,296442.15625,318736.59375,314212.15625,356335.375,295695.34375,295056.90625,297706.84375,-0.11865234375,0.840576171875,-0.625244140625,29.846189498901367,-3.143310308456421,7.873534679412842,100.0,141728.0,1.0
559300.5829237,307932.9375,297101.28125,319117.03125,314559.59375,355372.90625,296313.34375,295149.4375,298009.375,-0.1240234375,0.83837890625,-0.626220703125,30.487058639526367,-1.8310545682907104,9.124754905700684,100.0,141729.0,1.0
559300.5855423,308238.0,300080.0625,321578.5,315721.34375,362711.0625,299603.4375,297622.96875,299230.59375,-0.1337890625,0.835693359375,-0.6318359375,30.761716842651367,-0.4577636420726776,9.674071311950684,100.0,141730.0,1.0
559300.5878993,308450.25,301187.0,322636.28125,316042.875,367575.15625,300904.03125,298954.40625,299683.53125,-0.13720703125,0.83837890625,-0.63134765625,30.670164108276367,0.8544921278953552,10.009764671325684,100.0,141731.0,1.0
559300.58794,308258.8125,298745.03125,320710.4375,315041.9375,362289.78125,298220.46875,297170.5625,298704.71875,-0.139404296875,0.8466796875,-0.638671875,29.785154342651367,2.593993902206421,10.040282249450684,100.0,141732.0,1.0
559300.5901458,307882.59375,296124.6875,318454.0,314109.96875,353708.15625,295266.46875,294771.34375,297678.75,-0.14453125,0.854248046875,-0.64453125,28.045652389526367,4.180907726287842,10.070799827575684,100.0,141733.0,1.0
559300.5901861,307816.0,296707.25,318784.78125,314452.5,352512.15625,295821.875,294855.09375,297948.84375,-0.14892578125,0.861328125,-0.64892578125,25.665281295776367,5.310058116912842,9.796141624450684,100.0,141734.0,1.0
559300.5968896,308106.03125,299610.125,321196.90625,315608.625,359618.40625,299033.0,297335.53125,299117.9375,-0.144775390625,0.8642578125,-0.65380859375,22.766111373901367,6.256103038787842,9.399413108825684,100.0,141735.0,1.0
559300.5969265,308306.84375,300650.65625,322206.59375,315932.53125,364261.65625,300284.0625,298728.03125,299510.53125,-0.14453125,0.86572265625,-0.65576171875,19.866941452026367,7.293700695037842,8.972167015075684,100.0,141736.0,1.0
559300.5991935,308118.53125,298186.84375,320263.84375,314948.0,358813.03125,297592.65625,297000.15625,298501.65625,-0.145751953125,0.86669921875,-0.655517578125,16.571043014526367,8.453368186950684,8.422850608825684,100.0,141737.0,1.0
559300.6041582,307773.53125,295619.53125,318056.9375,314048.71875,350216.09375,294682.46875,294606.5625,297502.71875,-0.147705078125,0.86279296875,-0.65625,13.549803733825684,9.063719749450684,7.415771007537842,100.0,141738.0,1.0
559300.6066333,307770.9375,296355.28125,318520.0625,314442.46875,349229.65625,295351.84375,294726.1875,297833.96875,-0.14794921875,0.858642578125,-0.65771484375,10.955809593200684,9.582518577575684,6.591796398162842,100.0,141739.0,1.0
559300.6066691,308141.0,299454.5625,321104.09375,315654.9375,356688.53125,298710.15625,297253.28125,299078.59375,-0.138671875,0.85888671875,-0.661865234375,8.361815452575684,10.070799827575684,5.676269054412842,100.0,141740.0,1.0
559300.609282,308411.25,300713.59375,322302.5,316032.125,361813.34375,300138.25,298750.03125,299536.28125,-0.1337890625,0.864013671875,-0.662841796875,6.256103038787842,10.406493186950684,5.035399913787842,100.0,141741.0,1.0
559300.611662,308285.5625,298520.625,320580.90625,315099.1875,357046.59375,297681.53125,297203.1875,298587.125,-0.1328125,0.86328125,-0.661376953125,4.150390148162842,10.620116233825684,4.486083507537842,100.0,141742.0,1.0
559300.6141765,308009.375,296252.625,318613.84375,314254.625,349264.1875,295028.65625,295068.875,297612.875,-0.12060546875,0.860595703125,-0.666015625,2.532958745956421,10.742186546325684,4.364013195037842,100.0,141743.0,1.0
559300.6142101,308064.28125,297242.53125,319282.53125,314690.59375,349088.3125,295928.0,295421.78125,297966.125,-0.130859375,0.857666015625,-0.65966796875,1.0375975370407104,10.833739280700684,4.211425304412842,100.0,141744.0,1.0
559300.6167282,308468.75,300537.0,322024.46875,315934.78125,357317.875,299486.5625,298119.4375,299251.96875,-0.107421875,0.8564453125,-0.669921875,0.03051757626235485,10.559081077575684,3.997802495956421,100.0,141745.0,1.0
559300.6191577,308705.84375,301848.15625,323242.1875,316288.5625,362974.28125,300997.625,299710.09375,299700.34375,-0.1240234375,0.858154296875,-0.66748046875,-0.1525878757238388,10.559081077575684,4.180907726287842,100.0,141746.0,1.0
559300.6230255,308516.21875,299559.25,321416.21875,315298.90625,358409.78125,298514.1875,298113.71875,298753.78125,-0.132080078125,0.852783203125,-0.6708984375,-0.7934569716453552,10.589598655700684,3.295898199081421,100.0,141747.0,1.0
559300.6230677,308185.875,297129.875,319302.09375,314404.03125,350586.5,295777.78125,295855.84375,297834.875,-0.1396484375,0.854736328125,-0.662353515625,0.0610351525247097,9.918211936950684,2.410888433456421,100.0,141748.0,1.0
559300.6378794,308167.1875,297878.9375,319770.875,314768.1875,350144.125,296519.5,296010.25,298156.28125,-0.13427734375,0.863037109375,-0.659423828125,0.1220703050494194,9.399413108825684,1.5869139432907104,100.0,141749.0,1.0
559300.6430543,308483.875,300869.0625,322263.34375,315933.78125,357894.71875,299859.75,298472.6875,299357.46875,-0.1240234375,0.860595703125,-0.662353515625,-0.4882812201976776,8.972167015075684,1.2512205839157104,100.0,141750.0,1.0
559300.6430955,308660.875,301910.46875,323266.0625,316243.3125,363039.65625,301184.6875,299830.4375,299779.375,-0.13525390625,0.850830078125,-0.656494140625,-0.8239745497703552,8.270262718200684,1.4953612089157104,100.0,141751.0,1.0
559300.6431055,308472.3125,299541.8125,321385.8125,315270.125,358251.0,298646.21875,298145.375,298809.84375,-0.135498046875,0.837158203125,-0.654296875,-1.5258787870407104,7.293700695037842,0.8850097060203552,100.0,141752.0,1.0
559300.6481478,308204.03125,297237.4375,319393.75,314435.6875,350617.0,296006.9375,295953.65625,297883.6875,-0.1337890625,0.823974609375,-0.65185546875,-1.4648436307907104,6.561278820037842,0.7934569716453552,100.0,141753.0,1.0
559300.6481831,308306.9375,298308.8125,320139.40625,314907.75,350797.59375,297001.15625,296288.3125,298292.34375,-0.132080078125,0.8125,-0.646728515625,-1.8310545682907104,5.828856945037842,0.8850097060203552,100.0,141754.0,1.0
559300.6504245,308787.84375,301825.90625,323070.25,316221.59375,359704.21875,300758.46875,299037.65625,299639.8125,-0.12890625,0.801513671875,-0.6396484375,-1.9226073026657104,5.035399913787842,0.7629393935203552,100.0,141755.0,1.0
559300.6654531,309168.375,303588.84375,324669.75,316705.09375,366584.375,302665.78125,300843.84375,300233.90625,-0.128173828125,0.79150390625,-0.63525390625,-1.5869139432907104,4.394530773162842,0.7324218153953552,100.0,141756.0,1.0
559300.6743596,309118.65625,301831.625,323291.71875,315846.0,363613.71875,300650.1875,299593.21875,299424.78125,-0.1240234375,0.783935546875,-0.630126953125,-1.5869139432907104,3.875732183456421,1.0681151151657104,100.0,141757.0,1.0
559300.6744006,308853.5625,299788.59375,321492.5625,315000.28125,357313.5625,298272.0625,297568.25,298541.8125,-0.119384765625,0.77587890625,-0.633544921875,-1.7089842557907104,3.387450933456421,1.4343260526657104,100.0,141758.0,1.0
559300.6744112,308891.8125,300852.0,322207.90625,315419.53125,358303.84375,299315.25,297967.71875,298917.59375,-0.119873046875,0.774169921875,-0.632080078125,-1.6784666776657104,2.929687261581421,1.6479490995407104,100.0,141759.0,1.0
559300.6768278,309301.75,304212.4375,325003.84375,316677.5625,367631.6875,303011.78125,300735.59375,300207.53125,-0.113037109375,0.7802734375,-0.63330078125,-1.7395018339157104,2.807616949081421,2.258300542831421,100.0,141760.0,1.0
559300.6792948,309506.21875,305516.96875,326220.40625,317009.34375,374281.3125,304618.15625,302335.4375,300650.46875,-0.11669921875,0.78271484375,-0.634765625,-2.258300542831421,2.716064214706421,2.624511480331421,100.0,141761.0,1.0
559300.6842618,309228.0,303049.25,324242.28125,315949.0,370335.34375,302083.3125,300714.03125,299636.40625,-0.108154296875,0.785888671875,-0.631591796875,-2.441406011581421,2.838134527206421,2.746581792831421,100.0,141762.0,1.0
559300.6866145,308792.9375,300311.0,321871.9375,314960.78125,362737.1875,299172.3125,298323.125,298589.28125,-0.099853515625,0.790283203125,-0.63525390625,-2.716064214706421,3.143310308456421,3.540038824081421,100.0,141763.0,1.0
559300.6904791,308762.0,300926.1875,322240.46875,315310.625,362641.96875,299855.625,298451.5,298881.375,-0.1103515625,0.79052734375,-0.63427734375,-3.540038824081421,3.814697027206421,4.028319835662842,100.0,141764.0,1.0
559300.7004194,309143.875,304063.5,324865.09375,316529.59375,371232.8125,303349.21875,301056.46875,300144.59375,-0.109375,0.7841796875,-0.635986328125,-3.875732183456421,4.425048351287842,3.936767339706421,100.0,141765.0,1.0
559300.7004577,309351.1875,305247.78125,325991.625,316865.3125,377337.34375,304828.8125,302547.78125,300597.625,-0.113037109375,0.783935546875,-0.634765625,-4.028319835662842,5.096435070037842,4.150390148162842,100.0,141766.0,1.0
559300.7055062,309071.71875,302671.96875,323928.46875,315812.09375,372877.09375,302175.75,300812.21875,299583.3125,-0.102783203125,0.787353515625,-0.637939453125,-4.516601085662842,5.950927257537842,4.180907726287842,100.0,141767.0,1.0
559300.7092935,308659.53125,299915.0,321552.9375,314849.71875,364943.46875,299211.5625,298376.40625,298551.90625,-0.107177734375,0.794921875,-0.635009765625,-4.943847179412842,6.896972179412842,4.821776866912842,100.0,141768.0,1.0
559300.7129885,308712.21875,300693.90625,322072.65625,315286.75,364901.53125,299987.6875,298554.40625,298895.78125,-0.115234375,0.796630859375,-0.6357421875,-5.859374523162842,7.629394054412842,5.462646007537842,100.0,141769.0,1.0
559300.7130299,309218.875,304169.0,324983.90625,316632.5,373988.875,303720.0625,301343.8125,300242.875,-0.119140625,0.795166015625,-0.633544921875,-6.164550304412842,8.422850608825684,5.828856945037842,100.0,141770.0,1.0
559300.7379932,309512.5625,305707.15625,326400.21875,317049.59375,380829.84375,305465.21875,303041.5625,300754.34375,-0.11767578125,0.796875,-0.62890625,-6.896972179412842,9.277342796325684,6.103515148162842,100.0,141771.0,1.0
559300.746678,309308.46875,303453.03125,324605.09375,316055.03125,377183.125,303067.125,301527.1875,299802.875,-0.123046875,0.79150390625,-0.621826171875,-7.232665538787842,10.070799827575684,6.195067882537842,100.0,141772.0,1.0
559300.7467192,308956.71875,300957.75,322447.53125,315135.125,370016.15625,300320.75,299265.1875,298814.59375,-0.127685546875,0.7841796875,-0.617919921875,-7.659911632537842,10.589598655700684,6.378173351287842,100.0,141773.0,1.0
559300.7467287,309048.8125,301951.875,323143.9375,315596.1875,370722.375,301285.71875,299601.28125,299213.25,-0.126220703125,0.777099609375,-0.615478515625,-8.056639671325684,10.986327171325684,6.469726085662842,100.0,141774.0,1.0
559300.7467372,309566.59375,305570.625,326174.8125,316949.90625,380496.09375,305167.84375,302481.53125,300599.6875,-0.139404296875,0.771728515625,-0.613037109375,-8.453368186950684,11.322020530700684,6.652831554412842,100.0,141775.0,1.0
559300.7467473,309795.1875,307003.625,327495.375,317313.59375,387555.65625,306884.90625,304150.9375,301088.90625,-0.141845703125,0.76513671875,-0.6103515625,-8.758543968200684,11.352538108825684,5.950927257537842,100.0,141776.0,1.0
559300.7492481,309400.8125,304224.4375,325252.0625,316154.625,383216.28125,304104.53125,302374.59375,299981.0625,-0.133056640625,0.768798828125,-0.6044921875,-8.819579124450684,10.955809593200684,5.767821788787842,100.0,141777.0,1.0
559300.7492799,308888.78125,301158.5625,322621.25,315088.4375,374972.71875,300901.6875,299800.3125,298828.96875,-0.136962890625,0.770751953125,-0.605224609375,-9.399413108825684,10.681151390075684,6.072997570037842,100.0,141778.0,1.0
559300.7518892,308922.21875,301810.0625,323046.28125,315494.25,374813.5625,301574.75,299922.0625,299139.03125,-0.131591796875,0.769287109375,-0.60205078125,-10.131834983825684,10.223387718200684,6.164550304412842,100.0,141779.0,1.0
559300.7542246,309430.78125,305228.375,325932.09375,316838.21875,383934.5,305279.875,302690.375,300487.75,-0.124755859375,0.77197265625,-0.5986328125,-10.559081077575684,9.490965843200684,6.835937023162842,100.0,141780.0,1.0
559300.7580061,309621.375,306433.84375,327071.21875,317160.53125,390288.5625,306783.78125,304201.71875,300937.71875,-0.1259765625,0.768310546875,-0.59619140625,-11.230467796325684,8.819579124450684,7.385253429412842,100.0,141781.0,1.0
559300.7879753,309152.4375,303359.9375,324583.5625,315924.84375,385046.71875,303720.625,302184.25,299767.125,-0.11767578125,0.765380859375,-0.592529296875,-11.383055686950684,8.270262718200684,7.598876476287842,100.0,141782.0,1.0
559300.7880166,308596.34375,300045.4375,321749.34375,314821.125,375850.21875,300266.46875,299395.46875,298586.78125,-0.117919921875,0.775390625,-0.591552734375,-11.413573265075684,7.598876476287842,8.148192405700684,100.0,141783.0,1.0
559300.7906079,308610.90625,300563.375,322064.96875,315210.9375,374914.21875,300771.53125,299349.25,298862.34375,-0.104248046875,0.78466796875,-0.59814453125,-12.023924827575684,6.927489757537842,8.392333030700684,100.0,141784.0,1.0
559300.7906456,309138.40625,303969.25,324946.1875,316575.28125,383521.1875,304409.75,302040.5625,300210.3125,-0.10400390625,0.79150390625,-0.598388671875,-12.359618186950684,6.439208507537842,9.460448265075684,100.0,141785.0,1.0
559300.792979,309346.375,305191.0,326106.59375,316921.03125,389473.625,305871.3125,303514.71875,300659.6875,-0.110107421875,0.797607421875,-0.603515625,-13.244627952575684,6.195067882537842,9.735106468200684,100.0,141786.0,1.0
559300.7944879,308905.6875,302148.9375,323644.5,315715.46875,383858.25,302783.1875,301499.375,299502.3125,-0.106689453125,0.802734375,-0.60791015625,-13.458250999450684,5.767821788787842,9.399413108825684,100.0,141787.0,1.0
559300.8015843,308377.5625,298880.3125,320848.9375,314621.46875,374353.5625,299321.15625,298730.90625,298321.0625,-0.09423828125,0.82080078125,-0.609375,-13.610838890075684,5.462646007537842,9.460448265075684,100.0,141788.0,1.0
559300.8042442,308438.25,299489.0625,321250.8125,315028.71875,373231.0625,299864.84375,298772.84375,298614.125,-0.083740234375,0.836669921875,-0.616455078125,-14.923094749450684,5.828856945037842,9.826659202575684,100.0,141789.0,1.0
559300.8167249,308990.96875,303004.09375,324217.78125,316400.65625,381747.53125,303552.15625,301514.59375,299989.75,-0.09033203125,0.852294921875,-0.609619140625,-16.143796920776367,6.256103038787842,10.803221702575684,100.0,141790.0,1.0
559300.8192974,309234.625,304366.03125,325479.9375,316764.75,387710.53125,305099.71875,303043.90625,300506.0625,-0.108642578125,0.85302734375,-0.610107421875,-18.066404342651367,6.652831554412842,11.138915061950684,100.0,141791.0,1.0
559300.8216111,308819.5,301435.5625,323101.0,315570.53125,382119.53125,302084.28125,301087.125,299387.6875,-0.095703125,0.85009765625,-0.61083984375,-19.042966842651367,6.958007335662842,10.131834983825684,100.0,141792.0,1.0
559300.8241587,308303.25,298243.28125,320365.96875,314493.71875,372630.6875,298668.40625,298364.78125,298243.28125,-0.08349609375,0.861572265625,-0.616455078125,-19.531248092651367,7.690429210662842,9.979247093200684,100.0,141793.0,1.0
559300.8267592,308386.75,298943.40625,320828.46875,314957.65625,371557.90625,299277.71875,298388.46875,298598.5625,-0.090576171875,0.874267578125,-0.620849609375,-21.057126998901367,8.972167015075684,10.467528343200684,100.0,141794.0,1.0
559300.8291809,308954.59375,302539.1875,323835.65625,316388.34375,380122.1875,303031.5625,301100.625,299992.875,-0.119384765625,0.870361328125,-0.61376953125,-22.857664108276367,9.857176780700684,10.162352561950684,100.0,141795.0,1.0
559300.8292198,309170.3125,303906.40625,325076.0,316759.5625,386045.75,304573.375,302624.3125,300440.90625,-0.10498046875,0.865234375,-0.611083984375,-23.529050827026367,9.826659202575684,9.246825218200684,100.0,141796.0,1.0
559300.8316704,308734.65625,300939.4375,322658.4375,315541.8125,380316.90625,301522.625,300665.65625,299265.90625,-0.100341796875,0.867919921875,-0.60986328125,-24.322507858276367,10.498045921325684,8.697508811950684,100.0,141797.0,1.0
559300.8342499,308217.59375,297710.84375,319895.5,314452.59375,370642.46875,298082.25,297897.0,298098.78125,-0.07373046875,0.8740234375,-0.609375,-25.573728561401367,11.993407249450684,8.331297874450684,100.0,141798.0,1.0
559300.8367379,308276.96875,298342.875,320309.1875,314891.75,369360.71875,298639.78125,297912.75,298423.875,-0.092529296875,0.8818359375,-0.595703125,-26.855466842651367,12.786864280700684,9.643553733825684,100.0,141799.0,1.0
559300.8392652,308824.59375,301889.1875,323292.15625,316299.90625,377747.8125,302359.9375,300638.84375,299814.5,-0.106689453125,0.861083984375,-0.593505859375,-28.930662155151367,13.336180686950684,9.918211936950684,100.0,141800.0,1.0
559300.8467549,309060.53125,303263.03125,324560.125,316696.0625,383548.71875,303917.21875,302191.40625,300317.53125,-0.09521484375,0.844482421875,-0.590576171875,-29.266355514526367,13.977049827575684,9.613036155700684,100.0,141801.0,1.0
559300.8467963,308658.75,300336.03125,322190.65625,315540.03125,377728.0625,300888.8125,300262.71875,299163.1875,-0.092529296875,0.841552734375,-0.577392578125,-29.327390670776367,14.953612327575684,9.155272483825684,100.0,141802.0,1.0
559300.851864,308172.8125,297166.625,319482.71875,314480.03125,368001.28125,297479.65625,297544.90625,298015.65625,-0.09228515625,0.834716796875,-0.570556640625,-30.487058639526367,15.960692405700684,8.392333030700684,100.0,141803.0,1.0
559300.8542582,308234.6875,297811.875,319910.78125,314886.21875,366617.625,298040.21875,297548.5,298353.875,-0.09228515625,0.831787109375,-0.56591796875,-31.188962936401367,16.387937545776367,8.300780296325684,100.0,141804.0,1.0
559300.8565719,308781.75,301324.59375,322877.3125,316284.34375,374854.5,301736.40625,300277.28125,299739.0625,-0.085693359375,0.8369140625,-0.5595703125,-32.989498138427734,16.845701217651367,8.605956077575684,100.0,141805.0,1.0
559300.8614577,309030.0625,302687.25,324148.40625,316694.625,380532.65625,303284.9375,301815.25,300272.53125,-0.0703125,0.83349609375,-0.555419921875,-35.156246185302734,17.395017623901367,9.124754905700684,100.0,141806.0,1.0
559300.8661753,308647.375,299810.59375,321820.625,315518.5,374661.5625,300277.65625,299831.0625,299183.5625,-0.057861328125,0.833740234375,-0.549072265625,-37.078853607177734,17.700193405151367,9.582518577575684,100.0,141807.0,1.0
559300.8661889,308200.8125,296706.09375,319170.84375,314478.25,364916.65625,296895.1875,297036.625,298128.75,-0.0625,0.8291015625,-0.5458984375,-39.093013763427734,18.402097702026367,9.979247093200684,100.0,141808.0,1.0
559300.9116437,308293.4375,297393.625,319649.0,314940.9375,363498.3125,297480.71875,296953.125,298528.3125,-0.0517578125,0.833251953125,-0.541748046875,-40.924068450927734,18.951414108276367,9.338377952575684,100.0,141809.0,1.0
559300.9142139,308872.34375,300958.5625,322669.875,316359.09375,371736.96875,301217.65625,299626.21875,299975.53125,-0.0498046875,0.83935546875,-0.537841796875,-42.449947357177734,19.409177780151367,9.765624046325684,100.0,141810.0,1.0
559300.9166738,309174.625,302438.875,324039.96875,316798.34375,377539.21875,302857.5625,301181.46875,300517.34375,-0.046875,0.846435546875,-0.537841796875,-44.158931732177734,20.660398483276367,9.277342796325684,100.0,141811.0,1.0
559300.9190695,308847.84375,299714.03125,321839.65625,315695.96875,371918.75,299983.03125,299399.21875,299385.0,-0.033935546875,0.857666015625,-0.531494140625,-45.715328216552734,21.148679733276367,9.643553733825684,100.0,141812.0,1.0
559300.9215378,308424.75,296731.125,319280.90625,314701.65625,362397.78125,296715.75,296850.3125,298258.90625,-0.041259765625,0.8623046875,-0.523681640625,-46.997066497802734,22.186277389526367,10.162352561950684,100.0,141813.0,1.0
559300.9266376,308516.3125,297481.71875,319778.5625,315163.90625,361123.125,297356.09375,296918.25,298611.4375,-0.043701171875,0.849365234375,-0.52490234375,-47.973628997802734,23.742673873901367,9.094237327575684,100.0,141814.0,1.0
559300.9291989,309072.6875,301061.75,322760.625,316559.1875,369421.4375,301089.90625,299545.03125,300050.71875,-0.00830078125,0.8671875,-0.510986328125,-47.607418060302734,24.719236373901367,8.544920921325684,100.0,141815.0,1.0
559300.9316889,309347.8125,302529.34375,324086.28125,316925.125,375288.40625,302736.59375,300981.09375,300644.46875,-0.031494140625,0.87744140625,-0.518798828125,-48.950191497802734,26.397703170776367,9.735106468200684,100.0,141816.0,1.0
559300.9341247,309041.125,299830.59375,321895.625,315816.65625,369759.28125,299905.53125,299115.0,299585.0,-0.028076171875,0.863525390625,-0.5263671875,-49.713130950927734,28.656003952026367,8.819579124450684,100.0,141817.0,1.0
559300.93655,308636.5625,296811.6875,319322.03125,314792.59375,360224.5,296621.6875,296558.75,298524.5625,-0.04736328125,0.855712890625,-0.508544921875,-48.278804779052734,29.327390670776367,7.873534679412842,100.0,141818.0,1.0
559300.9416967,308685.28125,297422.6875,319714.8125,315201.375,358704.75,297160.46875,296508.5,298838.8125,-0.036865234375,0.865966796875,-0.516357421875,-47.790523529052734,29.754636764526367,6.927489757537842,100.0,141819.0,1.0
559300.9441035,309152.0,300744.4375,322509.03125,316548.1875,366535.53125,300740.3125,299147.8125,300227.125,-0.033447265625,0.87158203125,-0.5166015625,-46.325679779052734,31.524656295776367,5.096435070037842,100.0,141820.0,1.0
559300.9554502,309397.59375,302014.90625,323699.3125,317011.3125,371930.71875,302249.59375,300637.5,300771.96875,-0.02685546875,0.891845703125,-0.497802734375,-44.250484466552734,31.585691452026367,4.364013195037842,100.0,141821.0,1.0
559300.9554898,309042.46875,299161.84375,321392.0,315936.8125,365969.34375,299262.4375,298646.40625,299683.71875,-0.037353515625,0.902099609375,-0.49169921875,-44.036861419677734,31.249998092651367,4.241942882537842,100.0,141822.0,1.0
559300.9554997,308564.78125,295991.375,318701.28125,314901.9375,355989.1875,295837.6875,295881.0625,298508.1875,-0.012451171875,0.90185546875,-0.490966796875,-43.395992279052734,31.311033248901367,4.821776866912842,100.0,141823.0,1.0
559300.957974,308528.90625,296407.9375,318909.59375,315224.0625,353900.09375,296197.71875,295695.34375,298772.90625,-0.029296875,0.89111328125,-0.484619140625,-42.053218841552734,30.883787155151367,5.950927257537842,100.0,141824.0,1.0
559300.9580153,308896.5625,299535.125,321481.21875,316458.53125,361012.875,299564.875,298014.40625,300073.34375,-0.03759765625,0.871826171875,-0.48779296875,-40.222164154052734,30.517576217651367,5.004882335662842,100.0,141825.0,1.0
559300.9655151,309084.5,300704.28125,322573.875,316797.28125,365836.65625,300962.84375,299261.96875,300568.65625,-0.0244140625,0.875732421875,-0.472412109375,-36.651607513427734,29.418943405151367,4.150390148162842,100.0,141826.0,1.0
559300.970466,308797.9375,297965.03125,320384.03125,315673.34375,359680.1875,298032.0,297250.78125,299522.25,-0.02001953125,0.893798828125,-0.46435546875,-34.606929779052734,28.564451217651367,4.791259288787842,100.0,141827.0,1.0
559300.9730027,308355.90625,294901.6875,317764.5625,314611.28125,349565.84375,294631.59375,294456.4375,298395.625,-0.0263671875,0.8916015625,-0.463623046875,-33.081050872802734,28.045652389526367,5.767821788787842,100.0,141828.0,1.0
559300.9730435,308252.84375,295164.0,317833.59375,314911.875,346940.40625,294865.03125,294135.1875,298608.15625,-0.0185546875,0.900146484375,-0.44873046875,-30.853269577026367,26.702878952026367,6.378173351287842,100.0,141829.0,1.0
559300.9804981,308502.0,297888.875,320083.15625,316079.15625,353059.40625,297937.40625,296300.09375,299798.6875,-0.029541015625,0.905517578125,-0.454345703125,-29.510496139526367,25.482175827026367,7.202147960662842,100.0,141830.0,1.0
559300.9879367,308598.75,298675.125,320854.125,316343.625,356682.09375,298994.65625,297424.9375,300179.65625,-0.012939453125,0.912841796875,-0.444580078125,-27.801511764526367,24.841306686401367,6.622313976287842,100.0,141831.0,1.0
559300.9928413,308285.75,295730.75,318500.84375,315223.34375,349467.9375,295859.78125,295411.65625,299061.0,-0.03662109375,0.91015625,-0.4443359375,-26.458738327026367,23.498533248901367,6.683349132537842,100.0,141832.0,1.0
559300.9954591,307765.125,292424.59375,315670.3125,314110.34375,338188.0,292225.03125,292580.59375,297810.90625,-0.0390625,0.90234375,-0.4453125,-24.932859420776367,22.369382858276367,5.371093273162842,100.0,141833.0,1.0
559300.9979497,307455.6875,292104.0625,315220.21875,314227.90625,333728.8125,291920.9375,291982.0,297833.0625,-0.031494140625,0.901123046875,-0.444091796875,-23.284910202026367,20.843503952026367,4.852294445037842,100.0,141834.0,1.0
559301.0004665,307406.3125,293867.6875,316635.4375,315134.9375,337080.78125,294164.09375,293568.8125,298764.875,-0.029296875,0.90673828125,-0.447021484375,-21.972654342651367,19.561765670776367,5.096435070037842,100.0,141835.0,1.0
559301.0316999,307378.96875,293965.875,316838.75,315317.15625,338029.28125,294580.28125,294267.25,298993.125,-0.023193359375,0.9013671875,-0.435302734375,-20.538328170776367,18.280027389526367,5.126952648162842,100.0,141836.0,1.0
559301.0366882,307411.0625,291600.0625,315038.28125,314511.3125,330402.53125,291747.40625,292498.96875,298065.09375,-0.023681640625,0.900634765625,-0.423828125,-19.622800827026367,17.028806686401367,5.645751476287842,100.0,141837.0,1.0
559301.0391618,307426.4375,289689.625,313446.5625,313876.53125,320779.5625,289110.09375,290390.9375,297242.09375,-0.041259765625,0.880126953125,-0.42529296875,-18.005369186401367,16.204832077026367,5.310058116912842,100.0,141838.0,1.0
559301.0441597,307489.03125,290643.40625,314079.21875,314309.875,318470.4375,289784.84375,290494.8125,297578.71875,-0.03662109375,0.87451171875,-0.41650390625,-15.594481468200684,15.472411155700684,4.028319835662842,100.0,141839.0,1.0
559301.0516735,307751.15625,293620.3125,316490.53125,315501.6875,324292.8125,292968.0,292805.0,298802.875,-0.03466796875,0.876953125,-0.422607421875,-14.343260765075684,14.831542015075684,3.601073980331421,100.0,141840.0,1.0
559301.054232,308078.59375,295103.5625,317831.53125,315995.5625,328476.25,294511.875,294302.5625,299364.53125,-0.035400390625,0.8896484375,-0.412353515625,-13.732909202575684,14.465331077575684,3.784179449081421,100.0,141841.0,1.0
559301.0566419,308253.0,293598.40625,316698.65625,315287.5625,323583.09375,292443.34375,293067.59375,298612.09375,-0.034912109375,0.885009765625,-0.408203125,-13.946532249450684,14.038084983825684,4.241942882537842,100.0,141842.0,1.0
559301.0592527,308204.1875,291825.5625,315157.28125,314559.0625,315447.21875,289985.46875,291072.75,297777.5625,-0.042724609375,0.875,-0.41015625,-13.763426780700684,13.732909202575684,4.302978038787842,100.0,141843.0,1.0
559301.0616452,308151.09375,292617.53125,315593.9375,314875.3125,313827.1875,290587.53125,291065.25,298057.75,-0.037353515625,0.885009765625,-0.404052734375,-13.732909202575684,13.488768577575684,3.570556402206421,100.0,141844.0,1.0
559301.0616595,308299.78125,295409.53125,317824.375,315963.46875,320106.21875,293730.625,293285.3125,299207.15625,-0.050048828125,0.88525390625,-0.4072265625,-14.221190452575684,13.580321311950684,3.204345464706421,100.0,141845.0,1.0
559301.0641957,308554.9375,296776.71875,319075.09375,316403.09375,324769.4375,295285.5,294783.40625,299720.8125,-0.044921875,0.888427734375,-0.406005859375,-14.801024436950684,13.519286155700684,2.624511480331421,100.0,141846.0,1.0
559301.0666172,308753.15625,295294.46875,318005.34375,315737.90625,320522.875,293336.34375,293664.03125,299020.21875,-0.05078125,0.888671875,-0.408447265625,-15.777586936950684,13.427733421325684,2.380370855331421,100.0,141847.0,1.0
559301.0691881,308715.4375,293550.5625,316532.71875,315039.8125,312986.9375,290962.96875,291774.21875,298213.21875,-0.052001953125,0.8837890625,-0.41015625,-16.174314498901367,13.824461936950684,0.9155272841453552,100.0,141848.0,1.0
559301.071491,308622.53125,294264.21875,316956.5,315346.5625,311798.4375,291584.96875,291851.3125,298495.65625,-0.04736328125,0.888427734375,-0.402587890625,-16.357419967651367,13.885497093200684,0.1220703050494194,100.0,141849.0,1.0
559301.0742001,308748.9375,296941.40625,319125.34375,316416.84375,318398.8125,294741.84375,294074.21875,299647.40625,-0.050048828125,0.884521484375,-0.40625,-16.815183639526367,14.038084983825684,-0.3662109076976776,100.0,141850.0,1.0
559301.0766249,309027.71875,298230.125,320324.84375,316859.5,323378.71875,296324.0625,295517.96875,300193.59375,-0.03515625,0.893310546875,-0.397705078125,-16.784666061401367,14.129637718200684,-1.1596678495407104,100.0,141851.0,1.0
559301.0792463,309203.0625,296657.09375,319168.53125,316139.5,319363.875,294335.75,294238.75,299443.90625,-0.03076171875,0.901123046875,-0.3974609375,-16.845701217651367,14.282225608825684,-1.3122557401657104,100.0,141852.0,1.0
559301.086652,309102.125,294788.15625,317585.21875,315347.1875,311989.15625,291897.25,292153.84375,298571.3125,-0.0341796875,0.89794921875,-0.39208984375,-16.662595748901367,14.801024436950684,-1.4953612089157104,100.0,141853.0,1.0
559301.089261,308943.0625,295364.71875,317891.25,315558.1875,310927.875,292451.9375,292029.3125,298780.0,-0.03125,0.895751953125,-0.396728515625,-16.082761764526367,14.373778343200684,-1.9836424589157104,100.0,141854.0,1.0
559301.0916796,308981.84375,297874.84375,319932.34375,316541.9375,317651.125,295517.96875,294082.28125,299864.59375,-0.034423828125,0.88720703125,-0.40673828125,-14.648436546325684,13.977049827575684,-2.471923589706421,100.0,141855.0,1.0
559301.0917053,309158.875,298974.28125,321017.5625,316894.03125,322733.375,297008.03125,295338.4375,300304.65625,-0.027587890625,0.8935546875,-0.4072265625,-13.031004905700684,13.336180686950684,-3.387450933456421,100.0,141856.0,1.0
559301.0966605,309297.90625,297268.90625,319821.75,316149.4375,318860.96875,294974.375,293914.90625,299498.09375,-0.03173828125,0.887451171875,-0.404541015625,-11.474608421325684,12.084959983825684,-3.173827886581421,100.0,141857.0,1.0
559301.1080918,309176.84375,295367.21875,318212.5,315374.46875,311594.59375,292505.3125,291959.21875,298592.3125,-0.03271484375,0.87548828125,-0.397705078125,-9.307860374450684,11.016844749450684,-2.838134527206421,100.0,141858.0,1.0
559301.108132,308986.3125,295950.34375,318459.28125,315593.875,310544.96875,293042.65625,292063.5625,298783.28125,-0.02978515625,0.87744140625,-0.385986328125,-7.171630382537842,9.796141624450684,-2.319335699081421,100.0,141859.0,1.0
559301.108141,309001.625,298475.65625,320435.78125,316582.34375,317256.65625,296102.15625,294333.34375,299887.28125,-0.04638671875,0.869384765625,-0.38525390625,-5.004882335662842,8.483885765075684,-1.4343260526657104,100.0,141860.0,1.0
559301.1081505,309185.34375,299628.1875,321493.46875,316956.78125,322388.0625,297595.25,295836.34375,300363.46875,-0.05224609375,0.85888671875,-0.381591796875,-2.014159917831421,6.988524913787842,-1.4343260526657104,100.0,141861.0,1.0
559301.110489,309321.25,297970.03125,320288.34375,316218.28125,318576.84375,295537.8125,294716.34375,299557.75,-0.060791015625,0.8447265625,-0.388427734375,1.5563963651657104,5.249022960662842,-1.4343260526657104,100.0,141862.0,1.0
559301.1130204,309179.625,295999.34375,318642.71875,315413.25,311315.375,293031.21875,292759.40625,298628.34375,-0.076171875,0.83837890625,-0.391357421875,5.065917491912842,3.662109136581421,-1.8615721464157104,100.0,141863.0,1.0
559301.1130582,308952.0,296450.5625,318820.46875,315598.5,310207.28125,293506.84375,292744.65625,298760.84375,-0.078125,0.842529296875,-0.388916015625,7.995604991912842,1.6479490995407104,-2.105712652206421,100.0,141864.0,1.0
559301.1153794,308951.09375,298891.75,320741.375,316588.96875,316858.15625,296528.90625,294941.375,299835.0,-0.076904296875,0.856201171875,-0.384521484375,9.307860374450684,-0.3051757514476776,-1.1596678495407104,100.0,141865.0,1.0
559301.1180842,309147.09375,300004.9375,321781.0,316979.59375,321959.8125,298014.46875,296440.28125,300331.28125,-0.09130859375,0.8408203125,-0.38818359375,9.979247093200684,-1.8310545682907104,-0.3356933295726776,100.0,141866.0,1.0
559301.1194029,309321.96875,298360.5625,320580.4375,316260.3125,318165.84375,295960.0,295254.84375,299560.6875,-0.1005859375,0.837890625,-0.39453125,10.894774436950684,-3.723144292831421,-0.7934569716453552,100.0,141867.0,1.0
559301.1266845,309237.90625,296460.21875,318932.59375,315499.71875,310924.40625,293451.40625,293306.125,298671.53125,-0.095947265625,0.845458984375,-0.402099609375,11.413573265075684,-5.462646007537842,-2.075195074081421,100.0,141868.0,1.0
559301.1291515,309054.375,297022.15625,319087.96875,315742.375,309766.03125,293907.5625,293521.96875,298871.28125,-0.1103515625,0.803466796875,-0.428466796875,13.305663108825684,-6.469726085662842,-3.326415777206421,100.0,141869.0,1.0
559301.131661,309069.75,299556.5625,321002.53125,316774.75,316298.5625,296924.78125,296036.71875,299990.09375,-0.11083984375,0.7802734375,-0.431884765625,16.632078170776367,-7.812499523162842,-5.065917491912842,100.0,141870.0,1.0
559301.1342513,309257.3125,300692.75,322058.15625,317178.25,321336.5625,298442.28125,297673.46875,300498.125,-0.1064453125,0.7958984375,-0.432373046875,20.568845748901367,-9.094237327575684,-6.317138195037842,100.0,141871.0,1.0
559301.1366828,309446.59375,299048.46875,320925.125,316502.3125,317600.25,296465.15625,296590.75,299719.21875,-0.114013671875,0.79150390625,-0.4462890625,27.160642623901367,-10.040282249450684,-7.446288585662842,100.0,141872.0,1.0
559301.1392994,309361.9375,297051.65625,319318.28125,315737.90625,310400.65625,293961.3125,294515.28125,298798.84375,-0.11181640625,0.798583984375,-0.4384765625,34.240718841552734,-11.322020530700684,-8.972167015075684,100.0,141873.0,1.0
559301.1393399,309161.3125,297393.46875,319456.4375,315915.625,309234.53125,294385.625,294308.46875,298955.84375,-0.102294921875,0.826171875,-0.4345703125,41.931148529052734,-12.878417015075684,-9.918211936950684,100.0,141874.0,1.0
559301.1418584,309132.34375,299647.0625,321254.75,316864.6875,315705.25,297304.0625,296153.65625,300026.3125,-0.091064453125,0.870849609375,-0.41845703125,49.438472747802734,-14.251708030700684,-9.307860374450684,100.0,141875.0,1.0
559301.1418966,309331.4375,300600.03125,322238.84375,317225.90625,320786.96875,298723.5625,297152.59375,300489.96875,-0.0859375,0.89013671875,-0.412353515625,54.840084075927734,-15.472411155700684,-8.392333030700684,100.0,141876.0,1.0
559301.1443092,309545.5625,298770.40625,321090.25,316456.90625,317205.5,296652.46875,295196.90625,299722.25,-0.08154296875,0.927001953125,-0.395263671875,59.173580169677734,-17.913816452026367,-7.354735851287842,100.0,141877.0,1.0
559301.1467138,309491.9375,296687.6875,319510.78125,315692.84375,310166.3125,294129.84375,292489.65625,298902.28125,-0.079345703125,0.962646484375,-0.384765625,61.065670013427734,-19.805906295776367,-6.286620616912842,100.0,141878.0,1.0
559301.1628938,309341.375,297193.375,319721.0625,315989.21875,309151.71875,294626.125,292398.90625,299211.71875,-0.068603515625,0.999755859375,-0.36669921875,59.967037200927734,-21.087644577026367,-4.974364757537842,100.0,141879.0,1.0
559301.1629314,309346.09375,299630.875,321596.375,317031.4375,315786.90625,297645.21875,294702.5,300387.6875,-0.066650390625,1.0263671875,-0.366455078125,55.419918060302734,-23.498533248901367,-3.601073980331421,100.0,141880.0,1.0
559301.1669237,309574.4375,300838.03125,322681.5,317457.375,321112.25,299199.46875,296347.84375,301066.125,-0.06103515625,1.032470703125,-0.375,47.821041107177734,-25.329587936401367,-2.746581792831421,100.0,141881.0,1.0
559301.1669603,309842.125,299364.4375,321640.09375,316768.9375,317772.53125,297263.46875,295327.625,300513.5,-0.05615234375,1.028564453125,-0.38671875,37.933345794677734,-26.184080123901367,-1.8615721464157104,100.0,141882.0,1.0
559301.1669705,309811.09375,297514.78125,320102.75,316025.875,310912.4375,294823.375,293400.28125,299668.875,-0.0625,1.02001953125,-0.38671875,26.489255905151367,-27.221677780151367,-1.1291502714157104,100.0,141883.0,1.0
559301.1729359,309619.15625,297955.90625,320235.96875,316264.5,309907.21875,295289.90625,293507.3125,299802.09375,-0.058349609375,1.004638671875,-0.3916015625,13.885497093200684,-27.740476608276367,-1.2817381620407104,100.0,141884.0,1.0
559301.1729728,309594.75,300329.75,322034.375,317256.03125,316466.125,298264.1875,295831.25,300765.96875,-0.0478515625,0.990234375,-0.394287109375,1.2512205839157104,-26.672361373901367,-1.4648436307907104,100.0,141885.0,1.0
559301.1817131,309787.40625,301470.78125,323050.59375,317670.53125,321666.28125,299780.1875,297503.15625,301160.4375,-0.044921875,0.9765625,-0.393798828125,-10.620116233825684,-24.719236373901367,-1.7395018339157104,100.0,141886.0,1.0
559301.1867887,310013.34375,299882.8125,321951.5,317007.125,318239.59375,297827.71875,296359.46875,300367.5,-0.037353515625,0.964599609375,-0.396484375,-21.453855514526367,-21.545408248901367,-1.9531248807907104,100.0,141887.0,1.0
559301.1868252,309932.0625,297880.0,320351.375,316131.5625,311309.125,295351.0625,294305.78125,299460.0,-0.030029296875,0.947265625,-0.408935546875,-30.609128952026367,-17.150876998901367,-2.288818120956421,100.0,141888.0,1.0
559301.1943498,309691.5625,298127.40625,320433.0,316215.34375,310324.3125,295757.21875,294280.125,299608.4375,-0.0234375,0.929931640625,-0.422119140625,-37.261959075927734,-11.657713890075684,-2.624511480331421,100.0,141889.0,1.0
559301.1966136,309623.4375,300327.25,322188.4375,317144.71875,317054.40625,298667.6875,296582.375,300637.25,-0.022216796875,0.910888671875,-0.434326171875,-41.595455169677734,-5.432128429412842,-2.441406011581421,100.0,141890.0,1.0
559301.1992708,309806.71875,301375.125,323212.5,317544.90625,322542.03125,300150.78125,298207.25,301122.34375,-0.0166015625,0.88427734375,-0.44873046875,-43.518062591552734,1.4343260526657104,-2.166747808456421,100.0,141891.0,1.0
559301.2016948,310033.8125,299714.375,322148.375,316872.75,319415.5625,298182.84375,297088.9375,300382.0625,-0.017822265625,0.865234375,-0.459228515625,-42.694087982177734,8.544920921325684,-2.014159917831421,100.0,141892.0,1.0
559301.2054189,309936.28125,297654.625,320547.09375,316077.1875,312680.90625,295651.53125,295017.28125,299470.5625,-0.02490234375,0.85302734375,-0.46826171875,-40.344234466552734,14.923094749450684,-1.7700194120407104,100.0,141893.0,1.0
559301.2867506,309679.78125,297966.5625,320605.46875,316231.5,311762.6875,296007.65625,294954.71875,299597.4375,-0.02685546875,0.84375,-0.471923828125,-36.682125091552734,20.446775436401367,-1.5563963651657104,100.0,141894.0,1.0
559301.2867917,309594.28125,300335.84375,322343.28125,317167.96875,318445.0625,298888.25,297226.0,300613.375,-0.029541015625,0.842529296875,-0.4697265625,-31.982419967651367,25.451658248901367,-1.2207030057907104,100.0,141895.0,1.0
559301.290608,309774.625,301537.5625,323380.59375,317585.3125,323866.15625,300387.4375,298870.71875,301097.15625,-0.036865234375,0.84326171875,-0.455810546875,-27.038572311401367,29.449460983276367,-0.8850097060203552,100.0,141896.0,1.0
559301.2906435,310001.0,299978.125,322331.65625,316930.6875,320627.125,298434.0625,297761.46875,300352.65625,-0.048828125,0.8486328125,-0.439208984375,-22.277830123901367,32.196041107177734,-0.7934569716453552,100.0,141897.0,1.0
559301.2906534,309926.71875,298028.6875,320752.375,316162.21875,313728.28125,295931.03125,295740.0625,299429.53125,-0.05419921875,0.8525390625,-0.427978515625,-20.019529342651367,32.897945404052734,-0.6713866591453552,100.0,141898.0,1.0
559301.2981347,309639.4375,298426.125,320778.21875,316265.5,312585.84375,296254.59375,295672.71875,299522.96875,-0.062744140625,0.856201171875,-0.408935546875,-15.716551780700684,33.630367279052734,-0.4577636420726776,100.0,141899.0,1.0
559301.2981783,309537.53125,300866.125,322502.59375,317175.5625,319089.40625,299133.6875,297913.09375,300549.4375,-0.06689453125,0.8642578125,-0.39794921875,-12.084959983825684,33.538814544677734,-0.4272460639476776,100.0,141900.0,1.0
559301.2981875,309729.75,302145.625,323538.84375,317609.71875,324318.71875,300661.71875,299517.0625,301067.65625,-0.075927734375,0.877685546875,-0.391845703125,-9.002684593200684,32.714839935302734,-0.0610351525247097,100.0,141901.0,1.0
559301.2981971,309946.65625,300769.5625,322465.25,316958.75,320781.15625,298710.875,298306.125,300348.71875,-0.088134765625,0.890380859375,-0.389404296875,-7.019042491912842,30.548093795776367,0.1525878757238388,100.0,141902.0,1.0
559301.3005281,309845.34375,298781.40625,320837.21875,316153.28125,313800.53125,296116.28125,296129.78125,299450.8125,-0.089111328125,0.898193359375,-0.392578125,-6.286620616912842,27.435300827026367,0.4272460639476776,100.0,141903.0,1.0
559301.3005599,309586.59375,298979.09375,320871.65625,316280.25,312814.28125,296429.65625,295955.25,299547.8125,-0.09130859375,0.900634765625,-0.3955078125,-6.042479991912842,23.956296920776367,0.7324218153953552,100.0,141904.0,1.0
559301.3029704,309519.625,301236.0,322624.03125,317207.125,319543.9375,299379.46875,298166.375,300575.1875,-0.098876953125,0.907470703125,-0.3974609375,-6.408690929412842,19.866941452026367,0.6408690810203552,100.0,141905.0,1.0
559301.3053509,309718.46875,302344.09375,323665.0,317618.40625,325019.40625,300960.25,299755.40625,301102.5,-0.101318359375,0.909423828125,-0.3955078125,-7.446288585662842,15.289305686950684,0.3662109076976776,100.0,141906.0,1.0
559301.3103538,309954.6875,300749.53125,322593.09375,316936.5,321783.96875,299016.71875,298521.15625,300371.34375,-0.099365234375,0.917236328125,-0.3916015625,-8.758543968200684,10.711668968200684,0.6103515028953552,100.0,141907.0,1.0
559301.3128313,309865.46875,298721.96875,320957.65625,316117.6875,314851.6875,296453.78125,296327.46875,299449.1875,-0.09912109375,0.92236328125,-0.389892578125,-10.742186546325684,6.469726085662842,1.0070799589157104,100.0,141908.0,1.0
559301.3154555,309612.90625,299019.0625,320984.84375,316254.75,313763.78125,296795.34375,296172.78125,299589.65625,-0.097900390625,0.916015625,-0.38916015625,-12.268065452575684,2.502441167831421,1.2512205839157104,100.0,141909.0,1.0
559301.3178735,309557.625,301339.15625,322737.3125,317203.53125,320432.75,299744.875,298416.375,300641.34375,-0.095458984375,0.9072265625,-0.391845703125,-12.817381858825684,-0.7324218153953552,1.1291502714157104,100.0,141910.0,1.0
559301.326681,309730.375,302453.0,323745.53125,317582.09375,325924.125,301251.28125,299996.28125,301101.625,-0.093017578125,0.900634765625,-0.396728515625,-12.969969749450684,-3.326415777206421,0.9155272841453552,100.0,141911.0,1.0
559301.3291574,309970.15625,300855.125,322662.5625,316901.09375,322743.8125,299263.125,298795.8125,300352.125,-0.0888671875,0.896484375,-0.409912109375,-12.542723655700684,-5.157470226287842,0.7019042372703552,100.0,141912.0,1.0
559301.3317147,309892.1875,298812.53125,321027.03125,316100.09375,315813.96875,296681.6875,296622.875,299436.6875,-0.08251953125,0.89501953125,-0.424072265625,-11.688231468200684,-6.103515148162842,0.6713866591453552,100.0,141913.0,1.0
559301.3341749,309615.3125,299028.28125,321028.71875,316217.5625,314726.4375,296996.6875,296426.625,299556.46875,-0.07958984375,0.892333984375,-0.4345703125,-10.559081077575684,-6.469726085662842,0.8850097060203552,100.0,141914.0,1.0
559301.3392742,309536.0,301259.0625,322762.78125,317149.625,321495.96875,299933.4375,298608.5,300603.625,-0.07470703125,0.88623046875,-0.444091796875,-9.277342796325684,-6.347655773162842,0.9155272841453552,100.0,141915.0,1.0
559301.3417196,309728.5,302351.875,323793.03125,317544.90625,327116.1875,301480.25,300166.25,301117.0,-0.070068359375,0.885009765625,-0.44677734375,-7.598876476287842,-5.554198741912842,0.8850097060203552,100.0,141916.0,1.0
559301.3466816,309968.09375,300690.96875,322710.75,316833.75,323983.46875,299496.75,298922.15625,300390.75,-0.066162109375,0.886962890625,-0.447265625,-5.950927257537842,-4.364013195037842,0.8544921278953552,100.0,141917.0,1.0
559301.3492693,309882.71875,298599.5625,321057.6875,315986.8125,317048.4375,296887.78125,296699.75,299480.40625,-0.067626953125,0.890625,-0.451904296875,-4.486083507537842,-2.807616949081421,0.7019042372703552,100.0,141918.0,1.0
559301.3542686,309627.1875,298876.53125,321064.40625,316105.09375,315929.5,297185.0625,296510.03125,299621.21875,-0.0673828125,0.89990234375,-0.447509765625,-3.387450933456421,-1.0986326932907104,0.7934569716453552,100.0,141919.0,1.0
559301.3592092,309547.34375,301232.96875,322792.03125,317064.34375,322578.25,300106.53125,298724.03125,300678.0,-0.068359375,0.909912109375,-0.443603515625,-2.655029058456421,0.7324218153953552,1.0375975370407104,100.0,141920.0,1.0
559301.3592509,309717.125,302410.96875,323819.84375,317511.28125,328088.84375,301631.53125,300326.1875,301177.625,-0.0703125,0.917724609375,-0.44189453125,-2.441406011581421,2.655029058456421,1.0375975370407104,100.0,141921.0,1.0
559301.361805,309925.0,300761.4375,322720.40625,316836.53125,324873.15625,299602.34375,299098.90625,300407.8125,-0.072998046875,0.91943359375,-0.440673828125,-2.502441167831421,4.425048351287842,0.7629393935203552,100.0,141922.0,1.0
559301.3618492,309835.0625,298658.84375,321065.46875,316036.6875,317863.28125,296964.40625,296893.6875,299465.8125,-0.072021484375,0.921142578125,-0.43994140625,-3.051757574081421,6.164550304412842,0.4272460639476776,100.0,141923.0,1.0
559301.3641335,309576.875,298949.9375,321058.59375,316172.9375,316633.40625,297242.28125,296697.4375,299585.28125,-0.07666015625,0.92578125,-0.440673828125,-3.906249761581421,7.659911632537842,0.0915527269244194,100.0,141924.0,1.0
559301.3641671,309499.25,301337.1875,322779.21875,317110.375,323238.53125,300166.34375,298885.125,300640.0,-0.081298828125,0.929443359375,-0.4453125,-5.096435070037842,8.789061546325684,-0.03051757626235485,100.0,141925.0,1.0
559301.3665886,309682.625,302547.59375,323815.09375,317525.15625,328727.125,301723.8125,300461.90625,301157.5,-0.08203125,0.930419921875,-0.4462890625,-6.713866710662842,9.429930686950684,-0.2441406100988388,100.0,141926.0,1.0
559301.3691923,309921.78125,300965.09375,322744.0,316854.21875,325418.875,299743.4375,299232.125,300423.1875,-0.08251953125,0.923095703125,-0.443603515625,-7.812499523162842,9.948729515075684,-0.5493163466453552,100.0,141927.0,1.0
559301.3692236,309832.375,298934.84375,321089.0,316033.9375,318236.46875,297111.375,297002.75,299489.0625,-0.084716796875,0.913330078125,-0.44189453125,-8.666991233825684,10.070799827575684,-0.7019042372703552,100.0,141928.0,1.0
559301.3715851,309576.6875,299284.15625,321079.0625,316168.03125,316832.78125,297385.6875,296780.75,299617.90625,-0.087158203125,0.90380859375,-0.4404296875,-9.460448265075684,10.040282249450684,-0.5493163466453552,100.0,141929.0,1.0
559301.3741242,309499.4375,301624.125,322799.875,317116.90625,323403.46875,300290.5,298976.40625,300662.8125,-0.08984375,0.900634765625,-0.4462890625,-9.704588890075684,9.674071311950684,-0.3967284858226776,100.0,141930.0,1.0
559301.3792723,309675.46875,302735.15625,323830.75,317531.5,328957.0,301820.90625,300569.09375,301154.71875,-0.0947265625,0.89111328125,-0.44873046875,-9.490965843200684,9.277342796325684,-0.4882812201976776,100.0,141931.0,1.0
559301.3792847,309903.28125,301049.21875,322748.5625,316849.9375,325744.3125,299807.0,299336.0,300394.0625,-0.10302734375,0.883544921875,-0.449462890625,-8.605956077575684,8.392333030700684,-0.5493163466453552,100.0,141932.0,1.0
559301.3814867,309818.625,298898.1875,321083.1875,316025.78125,318673.3125,297155.8125,297091.53125,299450.8125,-0.106201171875,0.8779296875,-0.44677734375,-7.537841320037842,7.476806163787842,-0.6408690810203552,100.0,141933.0,1.0
559301.3842305,309555.84375,299094.96875,321057.0,316136.375,317438.96875,297417.59375,296859.875,299560.6875,-0.108154296875,0.874267578125,-0.447998046875,-6.011962413787842,6.317138195037842,-0.7934569716453552,100.0,141934.0,1.0
559301.3865051,309466.96875,301389.6875,322766.1875,317059.25,324066.25,300325.65625,299030.59375,300590.125,-0.11181640625,0.8720703125,-0.4453125,-4.272460460662842,4.974364757537842,-0.7629393935203552,100.0,141935.0,1.0
559301.3865165,309640.4375,302547.9375,323799.625,317470.875,329587.75,301871.84375,300606.21875,301097.59375,-0.10986328125,0.868896484375,-0.446044921875,-2.532958745956421,3.662109136581421,-0.9460448622703552,100.0,141936.0,1.0
559301.3914598,309849.71875,300890.78125,322697.78125,316776.1875,326306.0625,299841.59375,299344.78125,300343.0,-0.10693359375,0.867919921875,-0.446044921875,-0.3967284858226776,2.105712652206421,-1.1291502714157104,100.0,141937.0,1.0
559301.3992393,309746.65625,298756.375,321008.71875,315942.0,319141.53125,297151.15625,297067.125,299389.46875,-0.102294921875,0.87353515625,-0.4453125,1.5869139432907104,0.6713866591453552,-1.1901854276657104,100.0,141938.0,1.0
559301.4016569,309472.15625,298987.125,320962.3125,316043.03125,317767.78125,297376.46875,296803.71875,299480.125,-0.10009765625,0.879638671875,-0.450439453125,3.265380620956421,-0.7934569716453552,-1.1596678495407104,100.0,141939.0,1.0
559301.40666,309387.3125,301306.96875,322667.46875,316961.53125,324319.0,300271.5625,298972.375,300506.78125,-0.0947265625,0.88330078125,-0.452880859375,4.760741710662842,-2.136230230331421,-1.0375975370407104,100.0,141940.0,1.0
559301.4066735,309546.0,302434.0625,323682.875,317353.3125,329819.125,301793.34375,300525.5625,300992.53125,-0.091552734375,0.886962890625,-0.453125,5.889892101287842,-3.448486089706421,-1.0070799589157104,100.0,141941.0,1.0
559301.4092352,309737.78125,300738.34375,322555.53125,316644.03125,326500.53125,299737.71875,299237.375,300212.46875,-0.0908203125,0.88671875,-0.4541015625,6.744384288787842,-4.577636241912842,-0.7324218153953552,100.0,141942.0,1.0
559301.4116452,309621.375,298570.6875,320836.96875,315792.0,319273.5,297028.3125,296943.65625,299245.25,-0.0888671875,0.880615234375,-0.4541015625,7.354735851287842,-5.462646007537842,-0.5187987685203552,100.0,141943.0,1.0
559301.4142812,309332.15625,298751.28125,320764.28125,315875.125,317839.84375,297228.40625,296652.8125,299320.8125,-0.091552734375,0.873291015625,-0.456787109375,8.148192405700684,-6.256103038787842,-0.5493163466453552,100.0,141944.0,1.0
559301.4142954,309235.59375,301030.4375,322459.15625,316786.71875,324351.1875,300098.5625,298793.5,300330.9375,-0.09375,0.8671875,-0.46142578125,9.002684593200684,-6.835937023162842,-0.7019042372703552,100.0,141945.0,1.0
559301.4166404,309381.59375,302136.0625,323471.15625,317174.21875,329850.4375,301607.125,300339.40625,300808.28125,-0.096923828125,0.860595703125,-0.468505859375,9.857176780700684,-7.171630382537842,-1.1291502714157104,100.0,141946.0,1.0
559301.4219664,309558.1875,300408.71875,322334.34375,316455.03125,326559.09375,299550.125,299042.03125,300034.0,-0.0986328125,0.852783203125,-0.476806640625,10.589598655700684,-7.293700695037842,-1.3122557401657104,100.0,141947.0,1.0
559301.4292814,309426.46875,298190.15625,320593.21875,315595.28125,319328.46875,296814.09375,296714.15625,299058.40625,-0.0986328125,0.847412109375,-0.482421875,11.230467796325684,-7.354735851287842,-1.4648436307907104,100.0,141948.0,1.0
559301.429302,309137.4375,298345.65625,320511.59375,315681.9375,317869.28125,296978.53125,296404.09375,299121.15625,-0.099853515625,0.84228515625,-0.486572265625,12.054442405700684,-7.415771007537842,-1.8005369901657104,100.0,141949.0,1.0
559301.4316357,309056.5,300662.53125,322227.9375,316605.84375,324375.0625,299842.5,298559.25,300145.40625,-0.098388671875,0.836669921875,-0.490478515625,12.817381858825684,-7.354735851287842,-2.258300542831421,100.0,141950.0,1.0
559301.4352699,309224.96875,301818.9375,323266.9375,317015.78125,329852.84375,301363.65625,300123.875,300645.5625,-0.09765625,0.83251953125,-0.49609375,13.458250999450684,-7.110595226287842,-2.716064214706421,100.0,141951.0,1.0
559301.4643785,309395.1875,300102.84375,322114.03125,316291.0625,326460.03125,299287.5625,298805.65625,299863.5,-0.0966796875,0.829833984375,-0.494384765625,14.099120140075684,-6.866454601287842,-3.051757574081421,100.0,141952.0,1.0
