Time,FZ,C3,CZ,C4,PZ,PO7,OZ,PO8,AccX,AccY,AccZ,Gyro1,Gyro2,Gyro3,Battery,Counter,Validation
85193.2656926,316997.46875,347491.0625,341872.53125,318795.0,326832.3125,313455.34375,319691.5625,283964.96875,-0.052001953125,0.700927734375,-0.748046875,-22.399900436401367,7.690429210662842,-15.075682640075684,100.0,286305.0,1.0
85193.2657052,316700.1875,345310.78125,340082.625,317141.75,323849.4375,312258.0,318291.90625,282978.5625,-0.05419921875,0.7041015625,-0.74755859375,-23.101804733276367,7.812499523162842,-15.411375999450684,100.0,286306.0,1.0
85193.2708247,316580.28125,344278.75,339404.375,316407.65625,321832.6875,311911.375,317486.53125,282590.53125,-0.0625,0.713623046875,-0.742919921875,-24.353025436401367,7.781981945037842,-16.204832077026367,100.0,286307.0,1.0
85193.2708375,316810.4375,345802.875,340753.96875,317589.0625,323478.75,312879.8125,318369.3125,283333.21875,-0.064453125,0.720458984375,-0.7470703125,-25.695798873901367,7.843017101287842,-16.906736373901367,100.0,286308.0,1.0
85193.273189,317066.75,347811.125,342305.28125,319097.09375,326623.8125,313855.4375,319766.125,284220.3125,-0.067138671875,0.724609375,-0.75,-27.008054733276367,8.087157249450684,-17.517087936401367,100.0,286309.0,1.0
85193.2757952,317015.4375,347484.78125,341866.09375,318802.0625,326866.375,313451.3125,319715.0,284005.5625,-0.0712890625,0.730224609375,-0.751220703125,-28.228757858276367,7.965087413787842,-18.066404342651367,100.0,286310.0,1.0
85193.2781686,316714.65625,345291.28125,340064.1875,317143.46875,323919.34375,312235.65625,318307.4375,283008.6875,-0.07470703125,0.733154296875,-0.74951171875,-29.479978561401367,7.873534679412842,-18.463132858276367,100.0,286311.0,1.0
85193.2858058,316586.46875,344226.09375,339357.4375,316382.96875,321855.03125,311861.21875,317486.78125,282603.9375,-0.07763671875,0.729248046875,-0.754150390625,-30.395505905151367,7.690429210662842,-19.012449264526367,100.0,286312.0,1.0
85193.2906028,316809.25,345727.0625,340693.0,317557.15625,323442.09375,312829.21875,318357.6875,283343.4375,-0.07275390625,0.7236328125,-0.759765625,-30.853269577026367,7.202147960662842,-19.470212936401367,100.0,286313.0,1.0
85193.2958061,317084.625,347758.75,342272.1875,319093.25,326578.59375,313832.53125,319775.59375,284250.375,-0.070556640625,0.71923828125,-0.76171875,-31.127927780151367,6.744384288787842,-19.317625045776367,100.0,286314.0,1.0
85193.295823,317020.96875,347448.125,341852.34375,318808.125,326824.8125,313441.5625,319742.53125,284044.375,-0.064697265625,0.71484375,-0.763427734375,-30.944822311401367,6.347655773162842,-18.981931686401367,100.0,286315.0,1.0
85193.2982592,316718.0625,345230.21875,340045.875,317142.75,323882.4375,312215.71875,318330.96875,283034.625,-0.0693359375,0.704345703125,-0.7646484375,-30.059812545776367,5.462646007537842,-18.127439498901367,100.0,286316.0,1.0
85193.3007999,316591.03125,344117.46875,339317.65625,316366.875,321811.9375,311834.75,317478.03125,282604.5625,-0.072265625,0.69482421875,-0.763427734375,-28.747556686401367,4.364013195037842,-17.425535202026367,100.0,286317.0,1.0
85193.3031239,316800.0625,345597.25,340637.28125,317514.0625,323365.03125,312802.5625,318316.9375,283319.625,-0.068359375,0.689208984375,-0.7626953125,-27.465818405151367,3.173827886581421,-16.662595748901367,100.0,286318.0,1.0
85193.3057886,317055.65625,347641.09375,342219.96875,319048.71875,326479.0625,313817.4375,319735.71875,284215.84375,-0.0625,0.6884765625,-0.762451171875,-26.458738327026367,2.319335699081421,-15.472411155700684,100.0,286319.0,1.0
85193.3119754,316997.8125,347357.375,341826.9375,318786.5,326693.5625,313433.4375,319700.0625,284007.34375,-0.05615234375,0.6865234375,-0.764404296875,-26.123044967651367,1.7089842557907104,-14.343260765075684,100.0,286320.0,1.0
85193.311997,316717.96875,345150.46875,340040.5,317135.15625,323706.84375,312199.71875,318255.875,282990.875,-0.05322265625,0.68505859375,-0.762939453125,-25.848386764526367,1.5869139432907104,-13.641356468200684,100.0,286321.0,1.0
85193.323349,316593.625,344039.84375,339309.0625,316348.1875,321591.375,311815.4375,317378.5,282558.25,-0.04736328125,0.680908203125,-0.7626953125,-25.756834030151367,1.9226073026657104,-13.366698265075684,100.0,286322.0,1.0
85193.3233841,316807.90625,345528.84375,340618.0625,317494.28125,323114.96875,312794.8125,318227.6875,283278.0625,-0.045166015625,0.675048828125,-0.761474609375,-25.695798873901367,2.716064214706421,-12.939452171325684,100.0,286323.0,1.0
85193.3258317,317072.03125,347592.71875,342211.125,319045.78125,326238.84375,313826.71875,319671.90625,284186.0,-0.040283203125,0.67041015625,-0.76220703125,-25.573728561401367,3.967284917831421,-12.512206077575684,100.0,286324.0,1.0
85193.3308446,317012.03125,347299.0,341828.65625,318788.28125,326510.625,313441.9375,319657.9375,283972.03125,-0.038330078125,0.66650390625,-0.76171875,-24.932859420776367,5.798339366912842,-12.207030296325684,100.0,286325.0,1.0
85193.3357032,316725.65625,345093.53125,340067.5,317148.375,323582.375,312208.5625,318236.375,282952.0,-0.035888671875,0.664794921875,-0.75732421875,-24.169919967651367,7.781981945037842,-11.749266624450684,100.0,286326.0,1.0
85193.3382301,316596.21875,343927.65625,339319.875,316340.3125,321430.96875,311802.75,317346.3125,282492.28125,-0.034423828125,0.66162109375,-0.7568359375,-23.590085983276367,9.857176780700684,-11.199950218200684,100.0,286327.0,1.0
85193.3408519,316809.0,345374.25,340618.78125,317471.59375,322939.4375,312777.1875,318196.21875,283194.90625,-0.03369140625,0.660400390625,-0.749755859375,-23.284910202026367,11.901854515075684,-10.833739280700684,100.0,286328.0,1.0
85193.3436845,317060.75,347449.46875,342224.09375,319026.1875,326118.9375,313828.25,319666.71875,284103.5625,-0.03271484375,0.659423828125,-0.7470703125,-23.071287155151367,13.671874046325684,-10.620116233825684,100.0,286329.0,1.0
85193.3921498,316998.34375,347194.5,341870.21875,318795.4375,326455.75,313458.28125,319677.875,283882.09375,-0.033203125,0.658935546875,-0.74462890625,-22.888181686401367,15.472411155700684,-10.406493186950684,100.0,286330.0,1.0
85193.3921932,316716.46875,344970.40625,340100.9375,317155.96875,323514.25,312208.375,318250.0625,282828.53125,-0.031982421875,0.660888671875,-0.7412109375,-23.071287155151367,17.150876998901367,-10.101317405700684,100.0,286331.0,1.0
85193.3946668,316585.03125,343800.78125,339336.4375,316337.375,321344.4375,311794.25,317357.59375,282330.875,-0.038818359375,0.66259765625,-0.736572265625,-23.559568405151367,18.524168014526367,-9.765624046325684,100.0,286332.0,1.0
85193.3947032,316793.625,345277.96875,340621.03125,317455.9375,322862.65625,312782.1875,318213.40625,283017.4375,-0.04150390625,0.662109375,-0.73388671875,-23.773191452026367,19.714353561401367,-9.796141624450684,100.0,286333.0,1.0
85193.3984274,317047.34375,347390.84375,342235.0,319022.8125,326078.09375,313846.75,319703.1875,283932.78125,-0.0380859375,0.66015625,-0.7294921875,-23.986814498901367,20.721433639526367,-9.765624046325684,100.0,286334.0,1.0
85193.398463,317004.78125,347196.46875,341927.4375,318824.03125,326492.84375,313487.0,319748.6875,283745.65625,-0.036865234375,0.658203125,-0.725341796875,-23.895261764526367,21.697996139526367,-9.185790061950684,100.0,286335.0,1.0
85193.3984719,316730.40625,345007.40625,340171.3125,317191.9375,323599.28125,312233.5,318321.40625,282713.28125,-0.045166015625,0.656982421875,-0.72216796875,-23.986814498901367,22.277830123901367,-8.789061546325684,100.0,286336.0,1.0
85193.3984811,316590.40625,343862.90625,339394.1875,316355.96875,321450.375,311829.375,317419.90625,282226.8125,-0.048095703125,0.65087890625,-0.721923828125,-23.773191452026367,22.308347702026367,-8.758543968200684,100.0,286337.0,1.0
85193.4110018,316796.84375,345349.125,340663.65625,317461.65625,322982.09375,312832.875,318275.4375,282909.875,-0.046875,0.650634765625,-0.71875,-22.857664108276367,22.460935592651367,-8.789061546325684,100.0,286338.0,1.0
85193.4110379,317046.375,347475.5,342276.40625,319029.875,326230.875,313923.28125,319778.71875,283815.65625,-0.047607421875,0.658203125,-0.71044921875,-22.460935592651367,22.399900436401367,-8.331297874450684,100.0,286339.0,1.0
85193.4110465,317004.875,347282.90625,341970.34375,318846.3125,326669.0625,313563.59375,319824.6875,283647.0625,-0.052490234375,0.663818359375,-0.70751953125,-22.033689498901367,21.697996139526367,-7.873534679412842,100.0,286340.0,1.0
85193.4110552,316733.1875,345101.28125,340217.25,317216.59375,323779.96875,312305.75,318394.4375,282626.5625,-0.04736328125,0.667724609375,-0.70654296875,-21.026609420776367,20.874021530151367,-7.690429210662842,100.0,286341.0,1.0
85193.4134569,316594.5,343920.125,339407.9375,316360.875,321573.9375,311903.21875,317464.625,282104.34375,-0.049560546875,0.674560546875,-0.702880859375,-20.416257858276367,20.324705123901367,-7.507323741912842,100.0,286342.0,1.0
85193.4157626,316787.71875,345386.25,340650.96875,317446.375,323046.65625,312916.9375,318299.59375,282766.46875,-0.044921875,0.676513671875,-0.698486328125,-19.622800827026367,19.439695358276367,-7.568358898162842,100.0,286343.0,1.0
85193.4233826,317040.1875,347561.5,342279.96875,319030.21875,326317.875,314028.53125,319818.53125,283708.125,-0.041015625,0.6796875,-0.69677734375,-18.646238327026367,18.188474655151367,-7.202147960662842,100.0,286344.0,1.0
85193.4258704,317006.59375,347435.625,342001.1875,318877.875,326814.875,313703.09375,319898.4375,283570.15625,-0.042236328125,0.681884765625,-0.696533203125,-17.913816452026367,17.242429733276367,-7.110595226287842,100.0,286345.0,1.0
85193.4321184,316753.65625,345265.09375,340258.03125,317267.75,323945.46875,312434.03125,318484.375,282596.53125,-0.035888671875,0.68017578125,-0.691162109375,-16.937253952026367,15.960692405700684,-7.354735851287842,100.0,286346.0,1.0
85193.4345068,316609.625,344053.53125,339433.0625,316391.28125,321709.125,311948.75,317534.53125,282156.71875,-0.0341796875,0.681396484375,-0.69091796875,-15.838622093200684,14.465331077575684,-7.385253429412842,100.0,286347.0,1.0
85193.4370107,316792.90625,345498.0,340656.34375,317453.15625,323128.8125,312892.4375,318339.8125,282900.3125,-0.032958984375,0.688232421875,-0.6884765625,-15.197752952575684,13.275145530700684,-7.232665538787842,100.0,286348.0,1.0
85193.4395717,317058.4375,347704.03125,342310.28125,319062.5,326402.1875,313991.0625,319864.9375,283922.15625,-0.035400390625,0.693603515625,-0.682373046875,-14.556883811950684,11.901854515075684,-6.988524913787842,100.0,286349.0,1.0
85193.4421072,317024.8125,347604.6875,342057.6875,318931.0625,326942.90625,313651.9375,319961.03125,283849.1875,-0.041015625,0.697265625,-0.68310546875,-14.251708030700684,10.437010765075684,-6.683349132537842,100.0,286350.0,1.0
85193.4446572,316757.59375,345430.03125,340311.0625,317316.1875,324085.03125,312351.59375,318534.46875,282900.3125,-0.040283203125,0.70166015625,-0.682861328125,-14.282225608825684,9.277342796325684,-6.225585460662842,100.0,286351.0,1.0
85193.4446981,316615.15625,344189.53125,339469.71875,316426.78125,321822.75,311846.71875,317571.71875,282467.9375,-0.043212890625,0.708740234375,-0.68359375,-14.190672874450684,8.453368186950684,-5.737304210662842,100.0,286352.0,1.0
85193.4470459,316803.53125,345615.46875,340682.09375,317477.75,323218.21875,312789.6875,318366.0,283219.78125,-0.0458984375,0.7138671875,-0.683837890625,-14.526366233825684,7.629394054412842,-5.310058116912842,100.0,286353.0,1.0
85193.449567,317060.75,347833.5625,342337.1875,319085.125,326515.1875,313896.75,319896.46875,284263.0625,-0.046630859375,0.719482421875,-0.687255859375,-15.045165061950684,6.896972179412842,-4.974364757537842,100.0,286354.0,1.0
85193.4521066,317037.96875,347760.4375,342109.65625,318980.6875,327115.375,313578.71875,320018.96875,284208.4375,-0.04296875,0.72705078125,-0.691162109375,-15.747069358825684,6.683349132537842,-4.577636241912842,100.0,286355.0,1.0
85193.4571727,316769.90625,345557.625,340352.96875,317365.375,324259.53125,312287.9375,318583.375,283203.9375,-0.042236328125,0.732177734375,-0.69189453125,-16.326902389526367,6.805419445037842,-4.119872570037842,100.0,286356.0,1.0
85193.4572125,316613.71875,344277.5,339481.25,316447.78125,321951.0625,311798.1875,317582.625,282677.15625,-0.04345703125,0.73681640625,-0.6953125,-17.059324264526367,7.110595226287842,-3.723144292831421,100.0,286357.0,1.0
85193.4596022,316797.71875,345697.71875,340689.40625,317481.78125,323341.5,312774.59375,318373.71875,283355.125,-0.044921875,0.73974609375,-0.699462890625,-17.517087936401367,7.476806163787842,-3.570556402206421,100.0,286358.0,1.0
85193.4871635,317051.90625,347945.59375,342372.0625,319098.0,326682.28125,313934.1875,319935.8125,284331.90625,-0.0390625,0.744384765625,-0.704345703125,-18.035886764526367,8.361815452575684,-3.540038824081421,100.0,286359.0,1.0
85193.4872055,317038.5,347900.90625,342176.78125,319019.9375,327349.90625,313660.25,320090.21875,284221.5625,-0.033935546875,0.747802734375,-0.71044921875,-18.432615280151367,9.613036155700684,-3.417968511581421,100.0,286360.0,1.0
85193.489743,316767.25,345682.53125,340422.71875,317402.21875,324516.59375,312367.96875,318655.4375,283187.3125,-0.042724609375,0.750732421875,-0.706298828125,-18.798826217651367,10.864256858825684,-3.356933355331421,100.0,286361.0,1.0
85193.4919911,316612.03125,344380.84375,339542.5,316473.8125,322187.1875,311862.46875,317650.59375,282654.625,-0.04296875,0.750244140625,-0.705810546875,-19.195554733276367,12.115477561950684,-3.509521245956421,100.0,286362.0,1.0
85193.4945987,316793.0625,345791.59375,340743.6875,317496.96875,323550.53125,312833.78125,318450.59375,283332.96875,-0.046875,0.75146484375,-0.702880859375,-19.592283248901367,13.519286155700684,-3.601073980331421,100.0,286363.0,1.0
85193.4971048,317068.53125,348062.1875,342441.71875,319129.90625,326915.375,314011.4375,320046.6875,284329.03125,-0.050048828125,0.752197265625,-0.701171875,-20.111082077026367,14.831542015075684,-3.967284917831421,100.0,286364.0,1.0
85193.499597,317054.875,348031.25,342257.53125,319070.625,327608.28125,313747.53125,320233.8125,284226.6875,-0.05908203125,0.755859375,-0.6943359375,-20.416257858276367,15.930174827575684,-4.394530773162842,100.0,286365.0,1.0
85193.5020089,316796.90625,345805.03125,340507.46875,317469.4375,324769.34375,312457.28125,318821.90625,283200.09375,-0.067138671875,0.75537109375,-0.691162109375,-20.904539108276367,16.754148483276367,-4.852294445037842,100.0,286366.0,1.0
85193.5045739,316630.28125,344455.875,339593.8125,316504.65625,322382.90625,311923.15625,317802.84375,282648.375,-0.07080078125,0.7509765625,-0.685791015625,-21.392820358276367,17.425535202026367,-5.126952648162842,100.0,286367.0,1.0
85193.5071714,316801.40625,345835.6875,340764.96875,317495.46875,323695.28125,312880.375,318585.5,283309.4375,-0.0791015625,0.752197265625,-0.68310546875,-21.972654342651367,17.700193405151367,-5.310058116912842,100.0,286368.0,1.0
85193.5072188,317059.875,348098.65625,342456.375,319124.0,327046.375,314064.1875,320177.40625,284307.3125,-0.081298828125,0.7509765625,-0.68310546875,-22.705076217651367,17.547605514526367,-5.889892101287842,100.0,286369.0,1.0
85193.5097074,317046.71875,348048.78125,342272.5625,319065.28125,327735.96875,313793.375,320361.40625,284213.875,-0.08544921875,0.751708984375,-0.680419921875,-23.132322311401367,16.998289108276367,-5.889892101287842,100.0,286370.0,1.0
85193.5158719,316802.09375,345867.15625,340563.53125,317491.0625,324941.28125,312510.75,318965.03125,283195.90625,-0.088134765625,0.753662109375,-0.678955078125,-23.712156295776367,16.571043014526367,-5.950927257537842,100.0,286371.0,1.0
85193.5159145,316636.4375,344520.34375,339651.59375,316525.65625,322553.375,311963.21875,317938.1875,282634.875,-0.084228515625,0.7509765625,-0.677734375,-24.078367233276367,15.502928733825684,-5.859374523162842,100.0,286372.0,1.0
85193.5396321,316790.3125,345824.96875,340764.78125,317470.15625,323790.875,312882.9375,318683.40625,283273.25,-0.081787109375,0.750732421875,-0.67626953125,-24.078367233276367,14.160155296325684,-5.126952648162842,100.0,286373.0,1.0
85193.5396686,317040.90625,348045.03125,342424.8125,319072.15625,327091.40625,314049.0,320244.28125,284259.5,-0.077880859375,0.747802734375,-0.68017578125,-24.291990280151367,13.061522483825684,-4.486083507537842,100.0,286374.0,1.0
85193.5421987,317035.1875,348077.84375,342295.25,319062.3125,327857.28125,313812.0625,320441.78125,284192.25,-0.084228515625,0.738525390625,-0.675537109375,-23.498533248901367,11.657713890075684,-3.936767339706421,100.0,286375.0,1.0
85193.5422359,316794.0625,345918.46875,340599.90625,317507.78125,325102.5625,312534.96875,319051.78125,283190.4375,-0.081298828125,0.732421875,-0.676513671875,-22.308347702026367,10.253905296325684,-3.662109136581421,100.0,286376.0,1.0
85193.5447151,316624.46875,344529.71875,339659.1875,316524.21875,322678.125,311969.40625,318004.1875,282620.9375,-0.08203125,0.729736328125,-0.678955078125,-20.751951217651367,8.850096702575684,-3.204345464706421,100.0,286377.0,1.0
85193.5496477,316785.375,345853.75,340780.0625,317477.125,323908.0,312896.625,318738.5625,283266.625,-0.080322265625,0.73095703125,-0.680419921875,-18.798826217651367,7.415771007537842,-2.777099370956421,100.0,286378.0,1.0
85193.5520012,317050.03125,348147.03125,342481.3125,319122.03125,327262.28125,314093.96875,320333.78125,284282.03125,-0.0693359375,0.737548828125,-0.68310546875,-17.059324264526367,5.828856945037842,-2.014159917831421,100.0,286379.0,1.0
85193.55445,317039.3125,348162.78125,342334.78125,319108.53125,328037.25,313848.5625,320543.625,284215.3125,-0.05859375,0.7412109375,-0.683349609375,-15.930174827575684,4.516601085662842,-0.7019042372703552,100.0,286380.0,1.0
85193.5570428,316771.34375,345893.53125,340566.21875,317493.5,325194.46875,312516.65625,319091.65625,283173.90625,-0.051025390625,0.743408203125,-0.67919921875,-15.167235374450684,3.814697027206421,0.4577636420726776,100.0,286381.0,1.0
85193.5594627,316611.3125,344459.96875,339605.34375,316495.71875,322700.65625,311937.5625,317996.21875,282593.3125,-0.053466796875,0.7421875,-0.677001953125,-14.495848655700684,2.990722417831421,1.0375975370407104,100.0,286382.0,1.0
85193.5646151,316768.125,345780.59375,340721.34375,317438.25,323897.90625,312864.71875,318713.4375,283242.46875,-0.0556640625,0.7373046875,-0.67236328125,-13.824461936950684,2.288818120956421,1.0070799589157104,100.0,286383.0,1.0
85193.5646545,317014.71875,348031.0625,342389.3125,319051.84375,327203.90625,314038.71875,320277.8125,284255.0,-0.0498046875,0.747802734375,-0.667724609375,-13.305663108825684,1.8615721464157104,0.8544921278953552,100.0,286384.0,1.0
85193.5670232,317026.96875,348090.78125,342284.34375,319077.4375,327995.25,313812.25,320502.84375,284222.75,-0.042724609375,0.75244140625,-0.668701171875,-13.305663108825684,1.6479490995407104,1.0681151151657104,100.0,286385.0,1.0
85193.5695898,316772.15625,345862.5,340543.9375,317490.8125,325160.125,312481.4375,319063.03125,283205.46875,-0.0400390625,0.759765625,-0.666748046875,-13.824461936950684,1.6479490995407104,1.8310545682907104,100.0,286386.0,1.0
85193.5821147,316606.84375,344425.90625,339573.625,316479.25,322649.0625,311886.34375,317956.96875,282627.09375,-0.04638671875,0.76123046875,-0.66748046875,-14.465331077575684,1.8005369901657104,2.319335699081421,100.0,286387.0,1.0
85193.5846637,316767.25,345752.96875,340693.1875,317418.375,323837.71875,312819.75,318672.21875,283279.6875,-0.046875,0.75927734375,-0.668212890625,-14.923094749450684,2.166747808456421,2.349853277206421,100.0,286388.0,1.0
85193.5847028,317030.8125,348092.125,342417.65625,319072.59375,327224.71875,314041.40625,320287.46875,284314.90625,-0.041748046875,0.7607421875,-0.66845703125,-14.923094749450684,2.838134527206421,2.258300542831421,100.0,286389.0,1.0
85193.5870317,317036.4375,348176.53125,342324.84375,319107.65625,328080.53125,313832.1875,320545.40625,284276.90625,-0.0390625,0.762451171875,-0.66552734375,-14.953612327575684,3.936767339706421,2.136230230331421,100.0,286390.0,1.0
85193.6121894,316780.84375,345932.25,340577.46875,317515.75,325261.78125,312499.21875,319114.4375,283240.25,-0.03564453125,0.768310546875,-0.666015625,-14.801024436950684,4.882812023162842,2.410888433456421,100.0,286391.0,1.0
85193.6146412,316611.5,344456.125,339589.8125,316493.5625,322715.21875,311892.6875,318001.59375,282636.75,-0.04443359375,0.7685546875,-0.66552734375,-14.678954124450684,5.615233898162842,2.807616949081421,100.0,286392.0,1.0
85193.6146815,316776.625,345751.8125,340695.84375,317420.8125,323868.21875,312827.625,318711.40625,283265.90625,-0.04541015625,0.76416015625,-0.669189453125,-14.434813499450684,6.072997570037842,2.685546636581421,100.0,286393.0,1.0
85193.617022,317038.59375,348074.96875,342416.5,319068.03125,327240.8125,314054.375,320323.59375,284287.125,-0.045166015625,0.76611328125,-0.663818359375,-13.641356468200684,6.286620616912842,2.838134527206421,100.0,286394.0,1.0
85193.6195845,317036.1875,348166.625,342334.3125,319109.96875,328119.5,313852.75,320587.78125,284249.65625,-0.04736328125,0.76806640625,-0.65966796875,-13.702391624450684,6.256103038787842,2.929687261581421,100.0,286395.0,1.0
85193.6221082,316792.375,345935.8125,340603.125,317531.5,325324.1875,312525.25,319162.625,283215.75,-0.05224609375,0.765625,-0.65869140625,-13.732909202575684,5.859374523162842,3.173827886581421,100.0,286396.0,1.0
85193.6244816,316608.625,344439.59375,339591.21875,316487.75,322751.96875,311901.71875,318022.5,282590.25,-0.052001953125,0.763916015625,-0.654296875,-13.580321311950684,5.249022960662842,3.204345464706421,100.0,286397.0,1.0
85193.627133,316764.28125,345703.625,340668.0625,317392.1875,323853.8125,312813.40625,318703.53125,283206.53125,-0.043701171875,0.7646484375,-0.654052734375,-13.458250999450684,4.699706554412842,2.807616949081421,100.0,286398.0,1.0
85193.6294476,317028.40625,348032.6875,342392.1875,319047.375,327217.40625,314048.5625,320316.59375,284237.21875,-0.038330078125,0.769775390625,-0.6455078125,-13.092040061950684,4.394530773162842,2.807616949081421,100.0,286399.0,1.0
85193.6320028,317032.96875,348156.96875,342331.09375,319106.125,328121.46875,313862.3125,320593.84375,284213.875,-0.033935546875,0.775146484375,-0.651123046875,-13.427733421325684,4.241942882537842,2.685546636581421,100.0,286400.0,1.0
85193.6346411,316788.25,345944.75,340609.125,317537.46875,325343.34375,312537.40625,319172.46875,283189.28125,-0.034423828125,0.777099609375,-0.650146484375,-13.397215843200684,4.119872570037842,2.593993902206421,100.0,286401.0,1.0
85193.6346824,316615.25,344431.625,339586.75,316484.96875,322742.5625,311900.09375,318002.75,282575.59375,-0.034912109375,0.777099609375,-0.651123046875,-13.458250999450684,4.272460460662842,2.044677495956421,100.0,286402.0,1.0
85193.662174,316764.8125,345667.78125,340640.96875,317371.0,323798.75,312800.34375,318643.1875,283193.84375,-0.033447265625,0.781982421875,-0.6513671875,-13.397215843200684,4.486083507537842,1.5258787870407104,100.0,286403.0,1.0
85193.6696322,317021.25,347989.6875,342359.375,319022.96875,327148.0,314036.125,320260.1875,284223.28125,-0.03173828125,0.78564453125,-0.6484375,-13.397215843200684,4.699706554412842,1.1901854276657104,100.0,286404.0,1.0
85193.669674,317034.46875,348147.84375,342327.53125,319108.09375,328094.65625,313858.125,320569.375,284220.0625,-0.03076171875,0.78759765625,-0.6513671875,-13.671874046325684,4.943847179412842,0.7934569716453552,100.0,286405.0,1.0
85193.6722621,316808.53125,345957.90625,340628.34375,317563.5,325341.375,312539.1875,319162.4375,283203.6875,-0.029052734375,0.790771484375,-0.64794921875,-13.732909202575684,5.157470226287842,0.6713866591453552,100.0,286406.0,1.0
85193.6771474,316625.71875,344426.4375,339587.84375,316495.0,322716.375,311890.0,317997.3125,282569.5,-0.025634765625,0.79052734375,-0.65234375,-14.160155296325684,5.340575695037842,0.4272460639476776,100.0,286407.0,1.0
85193.7081812,316748.65625,345623.78125,340605.46875,317337.9375,323734.71875,312763.0625,318645.0625,283162.5625,-0.023681640625,0.787841796875,-0.65185546875,-14.068602561950684,5.554198741912842,0.4272460639476776,100.0,286408.0,1.0
85193.7099169,317013.28125,347944.71875,342326.90625,318985.5,327085.875,314007.0625,320254.75,284199.125,-0.024169921875,0.782470703125,-0.655517578125,-14.190672874450684,5.889892101287842,0.3967284858226776,100.0,286409.0,1.0
85193.7394561,317026.875,348127.4375,342313.9375,319091.09375,328068.1875,313857.5,320574.0,284211.46875,-0.025146484375,0.77880859375,-0.653564453125,-14.129637718200684,6.072997570037842,0.2746581733226776,100.0,286410.0,1.0
85193.7410173,316788.875,345950.3125,340621.1875,317551.96875,325339.59375,312538.75,319175.59375,283201.09375,-0.031005859375,0.774169921875,-0.65478515625,-13.854979515075684,6.256103038787842,0.1525878757238388,100.0,286411.0,1.0
85193.7571174,316598.25,344398.65625,339567.625,316470.84375,322693.3125,311869.4375,317996.40625,282561.75,-0.031982421875,0.770751953125,-0.652587890625,-13.580321311950684,6.500243663787842,0.0,100.0,286412.0,1.0
85193.7596202,316725.65625,345558.6875,340563.625,317299.9375,323662.125,312731.125,318615.28125,283144.40625,-0.03564453125,0.769287109375,-0.650390625,-13.397215843200684,6.622313976287842,0.0,100.0,286413.0,1.0
85193.762033,316982.875,347867.46875,342273.53125,318942.6875,326993.6875,313975.9375,320221.375,284177.0625,-0.034423828125,0.76806640625,-0.650146484375,-13.244627952575684,6.774901866912842,0.03051757626235485,100.0,286414.0,1.0
85193.764528,317017.59375,348081.59375,342287.9375,319076.875,328003.0,313844.96875,320558.09375,284198.15625,-0.039306640625,0.76708984375,-0.647216796875,-13.031004905700684,6.805419445037842,-0.0915527269244194,100.0,286415.0,1.0
85193.7645629,316787.90625,345924.28125,340612.09375,317551.34375,325290.40625,312532.21875,319167.46875,283192.40625,-0.036865234375,0.76953125,-0.646728515625,-12.817381858825684,6.744384288787842,-0.1831054538488388,100.0,286416.0,1.0
85193.7671334,316617.3125,344365.46875,339557.625,316471.9375,322626.78125,311860.6875,317983.25,282549.5625,-0.0390625,0.76953125,-0.642822265625,-12.786864280700684,6.530761241912842,0.0,100.0,286417.0,1.0
85193.7694222,316727.90625,345493.875,340522.9375,317270.59375,323546.25,312712.28125,318580.40625,283114.1875,-0.03564453125,0.77490234375,-0.645263671875,-12.878417015075684,6.347655773162842,0.1525878757238388,100.0,286418.0,1.0
85193.7721981,316977.34375,347796.1875,342226.0625,318902.625,326861.28125,313961.375,320178.375,284143.34375,-0.036376953125,0.777099609375,-0.642333984375,-12.878417015075684,6.103515148162842,0.5187987685203552,100.0,286419.0,1.0
85193.7722392,317007.46875,348035.90625,342261.0,319057.03125,327897.78125,313841.9375,320524.5625,284173.3125,-0.0400390625,0.77880859375,-0.639892578125,-13.061522483825684,5.889892101287842,0.7324218153953552,100.0,286420.0,1.0
85193.7745031,316787.4375,345896.75,340601.53125,317548.375,325211.5625,312530.875,319134.375,283167.1875,-0.040771484375,0.7822265625,-0.63916015625,-12.969969749450684,5.767821788787842,0.6408690810203552,100.0,286421.0,1.0
85193.7794634,316599.15625,344308.625,339522.84375,316442.5,322520.03125,311830.46875,317921.3125,282509.6875,-0.038818359375,0.78662109375,-0.635498046875,-13.031004905700684,5.645751476287842,0.6408690810203552,100.0,286422.0,1.0
85193.7821175,316716.71875,345412.53125,340475.375,317228.84375,323405.0,312674.0,318502.09375,283080.03125,-0.043212890625,0.791259765625,-0.6376953125,-13.336180686950684,5.523681163787842,0.9460448622703552,100.0,286423.0,1.0
85193.7835632,316968.03125,347706.71875,342178.75,318865.96875,326699.1875,313924.375,320096.65625,284114.90625,-0.048095703125,0.794921875,-0.64111328125,-13.641356468200684,5.401610851287842,1.2512205839157104,100.0,286424.0,1.0
85193.7983613,317015.625,347978.0625,342243.03125,319047.03125,327773.40625,313824.84375,320464.65625,284163.46875,-0.0556640625,0.797119140625,-0.638671875,-13.885497093200684,5.126952648162842,1.2817381620407104,100.0,286425.0,1.0
85193.8007057,316794.5,345866.34375,340601.96875,317555.1875,325120.625,312520.84375,319090.65625,283171.03125,-0.058837890625,0.797607421875,-0.634521484375,-14.282225608825684,4.669188976287842,1.3732908964157104,100.0,286426.0,1.0
85193.8058528,316610.0625,344267.03125,339513.28125,316441.8125,322413.28125,311814.0,317868.90625,282503.34375,-0.063232421875,0.801513671875,-0.6337890625,-14.770506858825684,4.211425304412842,1.8310545682907104,100.0,286427.0,1.0
85193.8108769,316733.53125,345336.875,340442.5625,317209.09375,323255.25,312649.59375,318427.09375,283045.6875,-0.068115234375,0.8046875,-0.63330078125,-15.197752952575684,3.662109136581421,2.044677495956421,100.0,286428.0,1.0
85193.8132497,316969.9375,347619.625,342132.09375,318836.125,326533.6875,313903.34375,320013.78125,284065.03125,-0.069091796875,0.80810546875,-0.632568359375,-15.502928733825684,2.685546636581421,1.9836424589157104,100.0,286429.0,1.0
85193.8182774,317008.625,347916.0,342209.96875,319026.71875,327628.125,313812.78125,320395.28125,284121.25,-0.0673828125,0.8134765625,-0.629150390625,-15.930174827575684,1.4648436307907104,1.8920897245407104,100.0,286430.0,1.0
85193.818317,316805.3125,345834.4375,340595.1875,317555.53125,325008.40625,312521.03125,319036.125,283141.71875,-0.065185546875,0.81640625,-0.63330078125,-16.357419967651367,0.3662109076976776,2.044677495956421,100.0,286431.0,1.0
85193.825866,316629.0,344226.09375,339503.25,316441.625,322288.125,311809.34375,317808.46875,282470.90625,-0.061767578125,0.820556640625,-0.63134765625,-16.845701217651367,-0.7019042372703552,2.166747808456421,100.0,286432.0,1.0
85193.8282051,316727.625,345251.40625,340392.3125,317173.78125,323066.21875,312615.28125,318332.3125,282994.1875,-0.06103515625,0.822021484375,-0.6328125,-17.456052780151367,-1.8615721464157104,2.319335699081421,100.0,286433.0,1.0
85193.830872,316968.6875,347527.96875,342075.5,318795.4375,326329.125,313865.96875,319915.25,284031.125,-0.054443359375,0.82275390625,-0.633544921875,-17.913816452026367,-2.807616949081421,2.288818120956421,100.0,286434.0,1.0
85193.8332718,317023.03125,347863.625,342186.71875,319020.5625,327469.96875,313794.1875,320319.65625,284120.28125,-0.051513671875,0.82421875,-0.63671875,-18.737791061401367,-3.784179449081421,2.624511480331421,100.0,286435.0,1.0
85193.8333108,316838.125,345827.0,340609.21875,317585.3125,324888.96875,312517.53125,318983.375,283162.90625,-0.047119140625,0.824462890625,-0.634521484375,-19.287107467651367,-4.669188976287842,2.777099370956421,100.0,286436.0,1.0
85193.8372253,316647.625,344206.0625,339499.21875,316444.375,322150.6875,311793.625,317734.0,282483.5,-0.043701171875,0.824462890625,-0.6328125,-20.111082077026367,-5.310058116912842,2.960204839706421,100.0,286437.0,1.0
85193.8372669,316738.90625,345201.53125,340361.75,317152.75,322909.6875,312590.9375,318247.09375,283008.3125,-0.04052734375,0.82080078125,-0.635986328125,-20.721433639526367,-6.011962413787842,3.234863042831421,100.0,286438.0,1.0
85193.8372769,316983.4375,347465.75,342038.75,318771.9375,326162.75,313831.75,319830.59375,284041.6875,-0.038330078125,0.81787109375,-0.63623046875,-21.301267623901367,-6.317138195037842,3.509521245956421,100.0,286439.0,1.0
85193.8397649,317042.96875,347829.28125,342173.65625,319017.0,327332.0,313770.0625,320252.5,284137.90625,-0.031005859375,0.81640625,-0.63330078125,-21.728513717651367,-6.744384288787842,3.448486089706421,100.0,286440.0,1.0
85193.8398022,316846.28125,345820.3125,340606.71875,317580.21875,324782.75,312502.78125,318922.5625,283183.03125,-0.030517578125,0.816162109375,-0.63134765625,-22.064207077026367,-7.385253429412842,3.570556402206421,100.0,286441.0,1.0
85193.8420846,316656.5625,344198.71875,339492.71875,316442.0625,322044.40625,311758.46875,317680.71875,282501.46875,-0.026611328125,0.816162109375,-0.62548828125,-22.491453170776367,-7.507323741912842,3.692626714706421,100.0,286442.0,1.0
85193.8445379,316737.46875,345137.40625,340317.3125,317119.21875,322739.90625,312518.1875,318162.25,283001.09375,-0.023193359375,0.8134765625,-0.62060546875,-22.888181686401367,-7.812499523162842,3.906249761581421,100.0,286443.0,1.0
85193.8470865,316965.1875,347370.96875,341977.15625,318727.40625,325977.78125,313766.21875,319737.59375,284036.40625,-0.02197265625,0.811279296875,-0.616943359375,-23.315427780151367,-8.026122093200684,4.333495616912842,100.0,286444.0,1.0
85193.8495662,317038.6875,347767.59375,342141.75,318994.09375,327187.96875,313742.34375,320180.25,284149.0625,-0.018798828125,0.813232421875,-0.610107421875,-23.681638717651367,-8.117674827575684,4.486083507537842,100.0,286445.0,1.0
85193.8544612,316833.40625,345792.78125,340591.25,317562.59375,324657.40625,312473.28125,318854.0,283187.5,-0.017822265625,0.814697265625,-0.609375,-24.078367233276367,-8.270262718200684,4.577636241912842,100.0,286446.0,1.0
85193.8571054,316641.1875,344164.65625,339468.3125,316409.25,321904.65625,311723.15625,317594.625,282491.46875,-0.01708984375,0.818359375,-0.606689453125,-24.475095748901367,-8.453368186950684,4.852294445037842,100.0,286447.0,1.0
85193.8596094,316716.46875,345069.28125,340265.375,317074.71875,322569.46875,312477.21875,318062.75,282988.21875,-0.01611328125,0.8193359375,-0.606201171875,-25.054929733276367,-8.636473655700684,4.943847179412842,100.0,286448.0,1.0
85193.8620983,316950.625,347288.5625,341916.53125,318685.65625,325770.96875,313730.09375,319641.5,284031.9375,-0.012939453125,0.820068359375,-0.60302734375,-25.604246139526367,-8.636473655700684,5.065917491912842,100.0,286449.0,1.0
85193.8646266,317020.15625,347722.625,342103.5625,318969.34375,327016.9375,313718.1875,320112.84375,284160.78125,-0.01123046875,0.818115234375,-0.59912109375,-26.000974655151367,-8.697508811950684,5.157470226287842,100.0,286450.0,1.0
85193.8670078,316844.65625,345802.4375,340600.0,317573.59375,324559.0625,312474.375,318820.1875,283223.0,-0.01171875,0.813232421875,-0.59716796875,-26.397703170776367,-8.544920921325684,5.157470226287842,100.0,286451.0,1.0
85193.8695136,316645.46875,344177.09375,339477.15625,316422.3125,321807.5625,311724.96875,317567.53125,282538.59375,-0.010986328125,0.805419921875,-0.594482421875,-26.611326217651367,-8.392333030700684,4.974364757537842,100.0,286452.0,1.0
85193.8695486,316709.3125,345040.125,340241.40625,317065.40625,322423.65625,312451.28125,318028.40625,283019.59375,-0.01220703125,0.80029296875,-0.60107421875,-26.672361373901367,-8.300780296325684,5.004882335662842,100.0,286453.0,1.0
85193.8721219,316936.5625,347234.1875,341873.78125,318665.15625,325616.46875,313693.96875,319598.5,284050.1875,-0.0166015625,0.792236328125,-0.603271484375,-26.367185592651367,-8.087157249450684,4.852294445037842,100.0,286454.0,1.0
85193.875856,317011.84375,347697.40625,342085.875,318972.09375,326889.90625,313702.625,320086.125,284185.28125,-0.018310546875,0.78662109375,-0.602783203125,-25.848386764526367,-7.965087413787842,4.547118663787842,100.0,286455.0,1.0
85193.8758944,316837.6875,345813.78125,340605.46875,317578.0625,324442.125,312460.25,318805.1875,283241.21875,-0.020263671875,0.782470703125,-0.601806640625,-25.054929733276367,-7.904052257537842,4.241942882537842,100.0,286456.0,1.0
85193.8759047,316648.96875,344188.375,339485.1875,316421.0625,321690.625,311701.71875,317547.03125,282539.03125,-0.018798828125,0.776123046875,-0.60205078125,-24.139402389526367,-7.781981945037842,4.028319835662842,100.0,286457.0,1.0
85193.8782162,316698.84375,345014.21875,340221.8125,317038.78125,322303.9375,312432.875,317989.625,283009.40625,-0.01806640625,0.774658203125,-0.601318359375,-23.437498092651367,-7.690429210662842,3.692626714706421,100.0,286458.0,1.0
85193.8808937,316914.59375,347186.71875,341836.6875,318629.40625,325505.15625,313687.625,319560.125,284041.59375,-0.012939453125,0.7744140625,-0.598388671875,-22.674558639526367,-7.629394054412842,3.387450933456421,100.0,286459.0,1.0
85193.880933,317000.59375,347685.25,342076.84375,318960.65625,326823.46875,313717.3125,320072.0,284192.96875,-0.008056640625,0.779541015625,-0.592529296875,-21.881101608276367,-7.629394054412842,3.112792730331421,100.0,286460.0,1.0
85193.8833261,316842.53125,345848.90625,340633.53125,317599.875,324445.78125,312488.84375,318809.75,283260.1875,-0.002197265625,0.785400390625,-0.58935546875,-21.331785202026367,-7.507323741912842,2.807616949081421,100.0,286461.0,1.0
85193.8848187,316649.65625,344221.96875,339508.34375,316437.3125,321715.65625,311721.09375,317545.53125,282548.9375,0.000244140625,0.79296875,-0.590576171875,-20.751951217651367,-7.324218273162842,2.624511480331421,100.0,286462.0,1.0
85193.892444,316698.5,345016.09375,340217.96875,317041.71875,322278.5625,312436.8125,317965.5625,283008.6875,0.00341796875,0.80078125,-0.58740234375,-20.294187545776367,-7.080077648162842,2.471923589706421,100.0,286463.0,1.0
85193.8946184,316914.125,347178.3125,341826.5,318636.5625,325465.1875,313691.8125,319534.84375,284044.0,0.003173828125,0.80615234375,-0.586669921875,-19.836423873901367,-6.744384288787842,2.380370855331421,100.0,286464.0,1.0
85193.8946595,316989.0625,347696.96875,342075.0625,318967.09375,326831.96875,313727.21875,320056.53125,284197.625,0.00341796875,0.8125,-0.58251953125,-19.195554733276367,-6.256103038787842,2.075195074081421,100.0,286465.0,1.0
85193.8996986,316834.125,345890.03125,340648.65625,317608.90625,324476.34375,312504.75,318807.5,283268.21875,0.00634765625,0.817626953125,-0.576904296875,-18.981931686401367,-5.889892101287842,1.9531248807907104,100.0,286466.0,1.0
85193.9021086,316638.59375,344252.28125,339515.9375,316438.65625,321708.125,311722.625,317532.75,282549.3125,0.01123046875,0.8212890625,-0.575927734375,-18.493650436401367,-5.493163585662842,1.7700194120407104,100.0,286467.0,1.0
85193.9120007,316682.75,345009.21875,340200.0,317019.625,322246.375,312422.78125,317936.9375,282998.40625,0.016845703125,0.82421875,-0.5712890625,-18.249509811401367,-4.760741710662842,1.9531248807907104,100.0,286468.0,1.0
85193.9143705,316898.84375,347160.6875,341802.09375,318612.59375,325433.71875,313682.96875,319477.15625,284032.125,0.020263671875,0.82421875,-0.5673828125,-18.066404342651367,-4.333495616912842,1.7700194120407104,100.0,286469.0,1.0
85193.9143769,316965.09375,347690.875,342062.4375,318949.46875,326812.125,313724.09375,319887.71875,284185.0,0.022705078125,0.828369140625,-0.56298828125,-18.005369186401367,-3.753661870956421,1.8005369901657104,100.0,286470.0,1.0
85193.9169658,316822.5,345906.9375,340666.34375,317618.9375,324489.5,312513.0,318541.34375,283257.875,0.0244140625,0.824462890625,-0.561767578125,-17.761228561401367,-3.173827886581421,1.7700194120407104,100.0,286471.0,1.0
85193.9169722,316621.59375,344247.1875,339519.09375,316434.65625,321716.09375,311714.40625,317220.71875,282512.90625,0.023681640625,0.82373046875,-0.5595703125,-17.547605514526367,-2.624511480331421,1.7089842557907104,100.0,286472.0,1.0
85193.9195635,316667.90625,344978.28125,340187.40625,317000.59375,322224.0,312408.28125,317632.53125,282963.71875,0.021484375,0.82177734375,-0.5595703125,-17.456052780151367,-2.227782964706421,1.7089842557907104,100.0,286473.0,1.0
85193.937081,316883.65625,347121.09375,341782.40625,318585.34375,325398.40625,313672.875,319225.65625,284010.75,0.02001953125,0.820556640625,-0.555419921875,-17.150876998901367,-1.7089842557907104,1.6479490995407104,100.0,286474.0,1.0
85193.9370968,316976.90625,347674.96875,342067.09375,318956.625,326803.875,313730.53125,319791.6875,284189.75,0.01806640625,0.818603515625,-0.552978515625,-16.723630905151367,-1.2207030057907104,1.4953612089157104,100.0,286475.0,1.0
85193.9395243,316826.6875,345892.90625,340667.0625,317621.0625,324482.875,312511.75,318562.53125,283272.0,0.0166015625,0.8154296875,-0.550048828125,-16.510007858276367,-0.7019042372703552,1.2207030057907104,100.0,286476.0,1.0
85193.9419529,316647.625,344235.65625,339522.125,316437.15625,321690.53125,311715.03125,317285.34375,282542.15625,0.01318359375,0.814453125,-0.54638671875,-16.174314498901367,-0.2746581733226776,1.0375975370407104,100.0,286477.0,1.0
85193.9444366,316672.28125,344932.6875,340157.28125,316976.09375,322148.8125,312388.53125,317673.5625,282969.78125,0.009521484375,0.81103515625,-0.544189453125,-15.899657249450684,0.1831054538488388,0.9155272841453552,100.0,286478.0,1.0
85193.9495368,316876.75,347062.34375,341741.125,318557.15625,325295.78125,313652.5625,319244.625,284008.6875,0.001953125,0.809814453125,-0.542724609375,-15.502928733825684,0.6103515028953552,0.8544921278953552,100.0,286479.0,1.0
85193.95214,316971.25,347639.5625,342044.46875,318944.3125,326722.875,313729.375,319821.90625,284196.625,-0.00390625,0.806884765625,-0.539794921875,-15.197752952575684,0.8239745497703552,0.5798339247703552,100.0,286480.0,1.0
85193.9521599,316847.875,345874.125,340668.125,317628.0625,324418.6875,312514.15625,318607.9375,283281.375,-0.011474609375,0.805908203125,-0.536865234375,-15.106200218200684,0.9155272841453552,0.2746581733226776,100.0,286481.0,1.0
85193.9545446,316639.375,344183.875,339496.0,316412.5625,321590.3125,311695.8125,317304.65625,282535.28125,-0.017333984375,0.803955078125,-0.532958984375,-15.075682640075684,0.8239745497703552,0.2746581733226776,100.0,286482.0,1.0
85193.9620817,316660.65625,344849.875,340107.8125,316934.875,322000.21875,312355.71875,317662.65625,282946.90625,-0.0234375,0.80029296875,-0.530517578125,-14.953612327575684,0.6103515028953552,0.1525878757238388,100.0,286483.0,1.0
85193.9871766,316860.65625,346964.90625,341682.46875,318509.5,325130.28125,313614.9375,319225.84375,283975.09375,-0.02685546875,0.796630859375,-0.529296875,-14.770506858825684,0.1831054538488388,-0.2136230319738388,100.0,286484.0,1.0
85193.9872164,316953.03125,347549.25,341995.03125,318902.09375,326576.34375,313696.28125,319807.6875,284167.84375,-0.030029296875,0.79443359375,-0.529296875,-14.587401390075684,-0.3967284858226776,-0.3662109076976776,100.0,286485.0,1.0
85193.9958096,316824.0,345804.40625,340629.78125,317596.5,324296.65625,312486.53125,318592.46875,283256.4375,-0.032958984375,0.7939453125,-0.52783203125,-14.312743186950684,-0.8544921278953552,-0.5493163466453552,100.0,286486.0,1.0
85193.9958442,316648.96875,344180.9375,339507.09375,316427.3125,321523.59375,311691.875,317306.09375,282526.875,-0.03515625,0.791748046875,-0.527099609375,-14.190672874450684,-1.5258787870407104,-0.7324218153953552,100.0,286487.0,1.0
85193.998063,316650.5625,344801.6875,340079.46875,316910.28125,321900.375,312327.46875,317635.75,282921.15625,-0.03662109375,0.78857421875,-0.524169921875,-13.793944358825684,-1.9836424589157104,-0.9765624403953552,100.0,286488.0,1.0
85194.0007782,316830.71875,346847.875,341606.8125,318444.34375,324968.625,313573.875,319171.40625,283943.6875,-0.03955078125,0.789306640625,-0.529296875,-13.397215843200684,-2.655029058456421,-0.9460448622703552,100.0,286489.0,1.0
85194.003092,316952.5,347475.40625,341962.3125,318881.8125,326448.9375,313687.4375,319775.5,284162.03125,-0.039306640625,0.791748046875,-0.529052734375,-13.000487327575684,-3.387450933456421,-1.1596678495407104,100.0,286490.0,1.0
85194.0058004,316842.59375,345814.75,340659.75,317631.96875,324248.375,312509.3125,318598.375,283275.21875,-0.04296875,0.796142578125,-0.53173828125,-12.664793968200684,-4.028319835662842,-1.2817381620407104,100.0,286491.0,1.0
85194.008314,316648.96875,344146.875,339499.15625,316432.21875,321441.71875,311680.59375,317281.34375,282521.6875,-0.044189453125,0.799072265625,-0.531494140625,-12.390135765075684,-4.638671398162842,-1.3122557401657104,100.0,286492.0,1.0
85194.0083286,316666.3125,344802.125,340094.25,316930.21875,321832.875,312338.375,317620.0,282928.75,-0.0439453125,0.802734375,-0.5302734375,-12.268065452575684,-5.340575695037842,-1.3732908964157104,100.0,286493.0,1.0
85194.0107956,316859.0625,346940.75,341676.46875,318509.875,324990.4375,313626.375,319204.84375,283976.5,-0.04638671875,0.804931640625,-0.529541015625,-12.023924827575684,-6.072997570037842,-1.2817381620407104,100.0,286494.0,1.0
85194.0130969,316961.4375,347581.8125,342024.71875,318934.65625,326511.25,313738.5625,319826.03125,284193.15625,-0.046142578125,0.810302734375,-0.53125,-11.779784202575684,-6.713866710662842,-1.3122557401657104,100.0,286495.0,1.0
85194.0157686,316861.125,345968.46875,340751.46875,317699.9375,324377.21875,312578.53125,318678.125,283319.0,-0.047119140625,0.8154296875,-0.531494140625,-11.779784202575684,-7.263183116912842,-1.2512205839157104,100.0,286496.0,1.0
85194.0183155,316663.875,344321.03125,339598.03125,316502.15625,321607.03125,311749.4375,317375.75,282563.4375,-0.044921875,0.818359375,-0.53125,-11.749266624450684,-7.781981945037842,-1.1291502714157104,100.0,286497.0,1.0
85194.0183305,316667.375,344930.15625,340152.96875,316963.5625,321968.03125,312382.28125,317699.125,282948.15625,-0.04541015625,0.8203125,-0.527099609375,-11.901854515075684,-8.422850608825684,-1.0070799589157104,100.0,286498.0,1.0
85194.0219752,316845.375,347038.03125,341710.28125,318514.0625,325108.5625,313657.3125,319272.15625,283983.75,-0.044189453125,0.822998046875,-0.526123046875,-12.176512718200684,-9.033202171325684,-0.8850097060203552,100.0,286499.0,1.0
85194.0371178,316954.1875,347701.78125,342084.53125,318970.5,326679.4375,313787.46875,319917.75,284216.46875,-0.042236328125,0.82470703125,-0.53125,-12.451170921325684,-9.521483421325684,-0.5798339247703552,100.0,286500.0,1.0
85194.0371395,316859.0625,346027.28125,340779.28125,317720.75,324516.78125,312603.09375,318752.53125,283333.5,-0.036865234375,0.82666015625,-0.537353515625,-12.634276390075684,-9.948729515075684,-0.3662109076976776,100.0,286501.0,1.0
85194.0395598,316678.09375,344329.0,339603.125,316509.5625,321693.03125,311752.03125,317422.40625,282567.09375,-0.03466796875,0.832763671875,-0.5400390625,-12.756346702575684,-10.345458030700684,-0.1831054538488388,100.0,286502.0,1.0
85194.0420172,316652.53125,344906.46875,340129.71875,316937.28125,322006.21875,312361.09375,317716.5625,282934.21875,-0.035400390625,0.834716796875,-0.5439453125,-12.817381858825684,-10.711668968200684,-0.0915527269244194,100.0,286503.0,1.0
85194.0445509,316836.8125,347019.34375,341696.59375,318502.4375,325146.1875,313644.0625,319292.8125,283978.75,-0.035400390625,0.836669921875,-0.547119140625,-12.969969749450684,-10.925292015075684,0.1525878757238388,100.0,286504.0,1.0
85194.0557657,316959.1875,347720.46875,342099.71875,318980.78125,326755.96875,313798.03125,319954.875,284226.21875,-0.03662109375,0.83740234375,-0.5498046875,-13.000487327575684,-11.047362327575684,0.3662109076976776,100.0,286505.0,1.0
85194.0557993,316862.53125,346060.0,340803.5,317731.9375,324612.625,312612.75,318789.0,283338.59375,-0.0390625,0.83935546875,-0.548828125,-13.122557640075684,-11.169432640075684,0.6408690810203552,100.0,286506.0,1.0
85194.0581793,316685.875,344348.9375,339619.5,316509.21875,321770.53125,311756.5,317448.6875,282565.3125,-0.039794921875,0.842529296875,-0.5546875,-13.214110374450684,-11.413573265075684,0.8239745497703552,100.0,286507.0,1.0
85194.0606823,316670.84375,344904.6875,340137.5,316947.40625,322058.6875,312365.90625,317732.03125,282932.96875,-0.042724609375,0.844970703125,-0.554931640625,-13.366698265075684,-11.566161155700684,0.9765624403953552,100.0,286508.0,1.0
85194.0694602,316855.21875,346999.125,341692.125,318511.75,325181.34375,313649.4375,319302.65625,283973.75,-0.04443359375,0.846923828125,-0.552978515625,-13.702391624450684,-11.840819358825684,1.2512205839157104,100.0,286509.0,1.0
85194.0746106,316961.34375,347714.5625,342101.59375,318996.4375,326811.03125,313813.84375,319977.03125,284223.8125,-0.04638671875,0.852294921875,-0.553466796875,-14.007567405700684,-12.054442405700684,1.4343260526657104,100.0,286510.0,1.0
85194.0746492,316854.84375,346083.53125,340818.4375,317741.78125,324696.125,312639.40625,318827.25,283335.71875,-0.045654296875,0.85546875,-0.5556640625,-14.160155296325684,-12.298583030700684,1.6174315214157104,100.0,286511.0,1.0
85194.0771126,316658.53125,344351.875,339611.78125,316492.84375,321830.28125,311757.6875,317467.28125,282541.1875,-0.04638671875,0.857421875,-0.553955078125,-14.465331077575684,-12.420653343200684,1.7395018339157104,100.0,286512.0,1.0
85194.07851,316648.25,344876.78125,340111.65625,316922.1875,322077.3125,312364.5625,317732.375,282899.6875,-0.047607421875,0.86328125,-0.56103515625,-14.831542015075684,-12.725829124450684,1.8920897245407104,100.0,286513.0,1.0
85194.1232133,316812.65625,346955.78125,341650.28125,318470.875,325179.71875,313638.625,319302.71875,283939.5,-0.048095703125,0.8642578125,-0.56103515625,-15.319823265075684,-13.000487327575684,2.075195074081421,100.0,286514.0,1.0
85194.1256681,316941.75,347688.46875,342079.15625,318971.5625,326830.0,313798.84375,319998.40625,284196.0,-0.047607421875,0.867431640625,-0.5625,-15.808104515075684,-13.153075218200684,2.258300542831421,100.0,286515.0,1.0
85194.1321219,316855.125,346090.5,340824.0625,317752.6875,324746.375,312636.46875,318862.125,283320.34375,-0.0478515625,0.869873046875,-0.567626953125,-16.448972702026367,-13.427733421325684,2.410888433456421,100.0,286516.0,1.0
85194.1371519,316655.125,344362.0,339614.46875,316492.21875,321879.09375,311758.65625,317503.5,282527.40625,-0.048095703125,0.87109375,-0.569580078125,-16.906736373901367,-13.580321311950684,2.655029058456421,100.0,286517.0,1.0
85194.144463,316650.375,344853.09375,340092.96875,316903.40625,322086.15625,312339.09375,317750.28125,282878.6875,-0.044189453125,0.87255859375,-0.568115234375,-17.242429733276367,-13.580321311950684,2.929687261581421,100.0,286518.0,1.0
85194.1470261,316797.90625,346897.5625,341612.90625,318442.71875,325159.4375,313609.375,319299.875,283910.25,-0.041748046875,0.87646484375,-0.56982421875,-17.669675827026367,-13.458250999450684,3.173827886581421,100.0,286519.0,1.0
85194.1495425,316934.15625,347663.625,342069.15625,318970.9375,326847.53125,313809.5625,320008.78125,284190.8125,-0.042236328125,0.878173828125,-0.567138671875,-18.127439498901367,-13.214110374450684,3.387450933456421,100.0,286520.0,1.0
85194.1594497,316856.03125,346106.0625,340840.6875,317763.40625,324797.59375,312659.0,318886.09375,283323.40625,-0.039794921875,0.88037109375,-0.567138671875,-18.707273483276367,-13.092040061950684,3.784179449081421,100.0,286521.0,1.0
85194.1645657,316686.6875,344392.03125,339646.40625,316530.21875,321933.625,311780.84375,317525.5,282530.625,-0.042236328125,0.88525390625,-0.5654296875,-18.981931686401367,-12.939452171325684,3.906249761581421,100.0,286522.0,1.0
85194.1694539,316630.34375,344840.3125,340081.71875,316901.0,322110.03125,312342.21875,317759.3125,282859.09375,-0.04248046875,0.891357421875,-0.565673828125,-19.500730514526367,-12.756346702575684,4.180907726287842,100.0,286523.0,1.0
85194.1745992,316794.40625,346874.0625,341599.125,318438.78125,325174.625,313620.125,319315.53125,283898.0,-0.041748046875,0.895751953125,-0.56201171875,-20.019529342651367,-12.664793968200684,4.425048351287842,100.0,286524.0,1.0
85194.1870134,316937.375,347658.59375,342071.03125,318973.1875,326875.40625,313830.21875,320033.71875,284183.21875,-0.043212890625,0.900146484375,-0.559814453125,-20.690916061401367,-12.695311546325684,4.730224132537842,100.0,286525.0,1.0
85194.1945245,316875.40625,346149.40625,340877.25,317793.8125,324862.6875,312695.65625,318930.25,283327.34375,-0.04345703125,0.90185546875,-0.558349609375,-21.514890670776367,-12.603758811950684,4.882812023162842,100.0,286526.0,1.0
85194.194562,316667.625,344426.53125,339660.4375,316520.28125,321983.96875,311795.75,317551.53125,282516.3125,-0.047607421875,0.904541015625,-0.5546875,-22.369382858276367,-12.573241233825684,5.035399913787842,100.0,286527.0,1.0
85194.2046134,316652.34375,344857.3125,340095.9375,316900.09375,322132.09375,312350.34375,317769.3125,282848.28125,-0.04833984375,0.905029296875,-0.552978515625,-23.193357467651367,-12.603758811950684,5.218505382537842,100.0,286528.0,1.0
85194.2096232,316827.84375,346882.0,341612.71875,318456.5,325188.40625,313633.0625,319327.3125,283898.375,-0.047119140625,0.906494140625,-0.552490234375,-24.200437545776367,-12.634276390075684,5.523681163787842,100.0,286529.0,1.0
85194.2145486,316967.96875,347696.34375,342104.0,319010.28125,326927.71875,313859.8125,320071.09375,284201.0,-0.05078125,0.903076171875,-0.550537109375,-25.146482467651367,-12.725829124450684,5.767821788787842,100.0,286530.0,1.0
85194.2171411,316905.1875,346219.25,340929.375,317840.3125,324942.0625,312730.6875,318975.9375,283351.28125,-0.052490234375,0.90185546875,-0.548095703125,-26.031492233276367,-12.878417015075684,5.981444835662842,100.0,286531.0,1.0
85194.2196056,316710.1875,344508.71875,339720.875,316558.375,322068.53125,311834.375,317602.03125,282545.09375,-0.055908203125,0.8984375,-0.544921875,-26.733396530151367,-13.000487327575684,6.042479991912842,100.0,286532.0,1.0
85194.2196486,316681.40625,344912.03125,340128.9375,316916.1875,322189.5,312372.53125,317809.0,282871.34375,-0.055908203125,0.8955078125,-0.5400390625,-27.587888717651367,-13.214110374450684,6.011962413787842,100.0,286533.0,1.0
85194.2246457,316845.65625,346905.4375,341622.65625,318462.21875,325219.0625,313640.40625,319355.3125,283915.0,-0.055908203125,0.886962890625,-0.540771484375,-28.472898483276367,-13.519286155700684,6.042479991912842,100.0,286534.0,1.0
85194.2320931,317010.34375,347746.40625,342143.1875,319054.71875,326985.5625,313887.0,320121.15625,284242.5,-0.056884765625,0.884033203125,-0.5380859375,-29.235837936401367,-13.793944358825684,6.164550304412842,100.0,286535.0,1.0
85194.2344874,316945.34375,346306.15625,340988.5625,317881.78125,325033.09375,312766.53125,319047.28125,283403.25,-0.053955078125,0.877197265625,-0.537353515625,-29.876707077026367,-14.099120140075684,6.347655773162842,100.0,286536.0,1.0
85194.2370217,316746.5,344590.875,339771.84375,316596.90625,322146.21875,311853.15625,317663.8125,282586.40625,-0.057861328125,0.869384765625,-0.531982421875,-30.212400436401367,-14.434813499450684,6.408690929412842,100.0,286537.0,1.0
85194.2395582,316717.78125,344967.09375,340164.96875,316951.15625,322235.625,312382.4375,317859.53125,282909.96875,-0.058837890625,0.860107421875,-0.534912109375,-30.609128952026367,-14.739989280700684,6.439208507537842,100.0,286538.0,1.0
85194.2445937,316854.84375,346933.59375,341632.03125,318474.375,325247.03125,313646.65625,319402.96875,283952.28125,-0.057861328125,0.858642578125,-0.52734375,-30.609128952026367,-14.984129905700684,6.347655773162842,100.0,286539.0,1.0
85194.2446324,317008.0,347793.15625,342160.0625,319063.21875,327035.71875,313902.625,320188.84375,284287.125,-0.055908203125,0.859619140625,-0.525390625,-30.761716842651367,-15.411375999450684,6.225585460662842,100.0,286540.0,1.0
85194.2470368,316939.09375,346379.1875,341018.25,317887.0625,325094.78125,312783.53125,319120.875,283445.78125,-0.053955078125,0.85791015625,-0.521728515625,-30.853269577026367,-15.747069358825684,6.256103038787842,100.0,286541.0,1.0
85194.249455,316748.46875,344664.0,339803.21875,316596.65625,322187.1875,311868.8125,317725.0625,282622.8125,-0.0546875,0.857421875,-0.521484375,-31.005857467651367,-15.930174827575684,6.347655773162842,100.0,286542.0,1.0
85194.2520121,316716.09375,345003.125,340170.59375,316942.75,322236.875,312389.4375,317905.9375,282939.46875,-0.0537109375,0.857177734375,-0.520751953125,-31.249998092651367,-16.174314498901367,6.164550304412842,100.0,286543.0,1.0
85194.2545173,316870.5,346950.40625,341635.25,318482.34375,325242.5625,313655.59375,319458.84375,283993.78125,-0.05029296875,0.851318359375,-0.5205078125,-31.433103561401367,-16.510007858276367,6.134032726287842,100.0,286544.0,1.0
85194.2545572,317031.09375,347808.90625,342168.375,319083.6875,327039.84375,313913.71875,320244.09375,284332.96875,-0.046875,0.8466796875,-0.52197265625,-31.616209030151367,-16.479490280151367,6.195067882537842,100.0,286545.0,1.0
85194.2571155,316952.65625,346413.6875,341034.25,317897.78125,325100.15625,312789.53125,319157.96875,283475.9375,-0.04345703125,0.841552734375,-0.521728515625,-31.555173873901367,-16.387937545776367,6.317138195037842,100.0,286546.0,1.0
85194.2595832,316791.46875,344724.71875,339840.78125,316624.0,322200.5,311866.125,317766.09375,282658.21875,-0.04150390625,0.837646484375,-0.52001953125,-31.555173873901367,-16.387937545776367,6.408690929412842,100.0,286547.0,1.0
85194.2621259,316719.40625,345016.09375,340162.1875,316925.03125,322209.71875,312354.28125,317920.15625,282956.1875,-0.038330078125,0.833740234375,-0.51513671875,-31.372068405151367,-16.235349655151367,6.500243663787842,100.0,286548.0,1.0
85194.2644152,316836.96875,346915.0,341583.03125,318436.65625,325184.09375,313612.875,319453.03125,283999.84375,-0.034423828125,0.82958984375,-0.511474609375,-31.158445358276367,-16.021726608276367,6.652831554412842,100.0,286549.0,1.0
85194.267123,316988.0,347797.71875,342134.0625,319049.96875,327015.6875,313894.40625,320256.4375,284348.90625,-0.030517578125,0.82861328125,-0.508544921875,-30.944822311401367,-15.624999046325684,6.866454601287842,100.0,286550.0,1.0
85194.2745869,316966.875,346469.59375,341065.90625,317918.625,325142.15625,312802.65625,319206.53125,283517.125,-0.0283203125,0.830322265625,-0.50341796875,-30.609128952026367,-15.228270530700684,7.080077648162842,100.0,286551.0,1.0
85194.2821103,316786.625,344762.4375,339858.5625,316622.3125,322232.25,311870.875,317793.09375,282677.15625,-0.027587890625,0.83251953125,-0.501708984375,-30.334470748901367,-14.862059593200684,7.385253429412842,100.0,286552.0,1.0
85194.284607,316726.28125,345011.875,340157.625,316919.6875,322212.40625,312353.65625,317928.90625,282959.34375,-0.02587890625,0.832275390625,-0.498779296875,-29.968259811401367,-14.526366233825684,7.598876476287842,100.0,286553.0,1.0
85194.2870958,316855.9375,346881.3125,341571.875,318441.5625,325181.40625,313620.375,319463.40625,284000.46875,-0.022705078125,0.833740234375,-0.498046875,-29.602048873901367,-14.038084983825684,7.812499523162842,100.0,286554.0,1.0
85194.2871328,316987.0,347759.625,342117.96875,319043.8125,327024.0,313901.125,320265.71875,284338.34375,-0.01904296875,0.8388671875,-0.4931640625,-29.327390670776367,-13.610838890075684,8.087157249450684,100.0,286555.0,1.0
85194.2896117,316974.40625,346473.0625,341080.125,317927.375,325184.625,312821.4375,319227.8125,283506.78125,-0.020751953125,0.845947265625,-0.49658203125,-29.235837936401367,-13.305663108825684,8.300780296325684,100.0,286556.0,1.0
85194.2921679,316790.03125,344778.90625,339876.53125,316621.3125,322275.96875,311882.9375,317809.53125,282658.28125,-0.020263671875,0.850341796875,-0.496826171875,-28.930662155151367,-12.817381858825684,8.514403343200684,100.0,286557.0,1.0
85194.2922105,316721.375,344991.5,340151.625,316901.96875,322224.46875,312351.875,317926.40625,282929.5625,-0.017578125,0.856689453125,-0.492431640625,-28.686521530151367,-12.268065452575684,8.575438499450684,100.0,286558.0,1.0
85194.2947473,316845.1875,346827.375,341544.78125,318422.15625,325169.34375,313613.125,319448.46875,283968.90625,-0.01611328125,0.86181640625,-0.492431640625,-28.533933639526367,-11.779784202575684,8.636473655700684,100.0,286559.0,1.0
85194.2947848,316988.53125,347722.875,342109.375,319042.65625,327038.40625,313909.78125,320268.875,284324.5625,-0.0126953125,0.8642578125,-0.490478515625,-28.381345748901367,-11.230467796325684,8.728026390075684,100.0,286560.0,1.0
85194.2971078,316971.09375,346468.25,341089.5,317926.65625,325222.8125,312834.3125,319243.375,283499.15625,-0.0078125,0.86767578125,-0.490234375,-28.137205123901367,-10.620116233825684,8.819579124450684,100.0,286561.0,1.0
85194.2971461,316791.125,344785.15625,339891.0,316625.09375,322308.3125,311888.9375,317821.96875,282649.4375,-0.010986328125,0.86962890625,-0.491943359375,-27.954099655151367,-9.918211936950684,8.941649436950684,100.0,286562.0,1.0
85194.2996469,316716.375,344964.875,340140.1875,316890.0,322216.59375,312342.125,317923.375,282913.375,-0.010009765625,0.873779296875,-0.488525390625,-27.557371139526367,-9.307860374450684,8.789061546325684,100.0,286563.0,1.0
85194.3020161,316810.4375,346750.84375,341491.125,318371.5625,325113.1875,313586.6875,319425.9375,283943.96875,-0.006103515625,0.8798828125,-0.487060546875,-27.282712936401367,-8.666991233825684,8.605956077575684,100.0,286564.0,1.0
85194.304584,316973.84375,347684.8125,342092.46875,319032.71875,327016.40625,313920.34375,320284.34375,284334.59375,-0.009033203125,0.881591796875,-0.483642578125,-26.885984420776367,-7.965087413787842,8.636473655700684,100.0,286565.0,1.0
85194.3060463,316976.4375,346480.84375,341107.125,317943.125,325234.71875,312837.34375,319279.84375,283520.625,-0.010498046875,0.88427734375,-0.476806640625,-26.794431686401367,-7.293700695037842,8.575438499450684,100.0,286566.0,1.0
85194.3132556,316783.59375,344788.09375,339892.34375,316610.0625,322291.53125,311863.90625,317833.96875,282651.0625,-0.007568359375,0.88525390625,-0.479736328125,-26.824949264526367,-6.835937023162842,8.544920921325684,100.0,286567.0,1.0
85194.313296,316683.46875,344920.25,340097.1875,316839.84375,322153.125,312300.90625,317917.90625,282896.125,-0.00927734375,0.888916015625,-0.479248046875,-26.611326217651367,-6.011962413787842,8.422850608825684,100.0,286568.0,1.0
85194.3158638,316830.09375,346703.5625,341467.34375,318372.28125,325060.0,313565.5625,319456.34375,283948.625,-0.005126953125,0.888671875,-0.483642578125,-26.519773483276367,-5.310058116912842,8.087157249450684,100.0,286569.0,1.0
85194.3433675,316976.625,347629.1875,342064.84375,319039.78125,326961.25,313882.53125,320301.5,284327.625,-0.0048828125,0.888671875,-0.48681640625,-26.092527389526367,-4.791259288787842,8.117674827575684,100.0,286570.0,1.0
85194.3434081,316952.9375,346461.53125,341099.53125,317946.34375,325207.71875,312831.375,319296.28125,283515.875,-0.00537109375,0.887451171875,-0.48828125,-25.939939498901367,-4.119872570037842,8.178709983825684,100.0,286571.0,1.0
85194.3483915,316764.46875,344795.6875,339897.28125,316609.875,322280.25,311863.28125,317856.65625,282646.59375,-0.0048828125,0.884765625,-0.483154296875,-25.512693405151367,-3.387450933456421,8.270262718200684,100.0,286572.0,1.0
85194.3484309,316673.375,344892.25,340082.34375,316824.1875,322106.34375,312273.65625,317908.6875,282884.40625,-0.001220703125,0.87841796875,-0.47998046875,-25.238035202026367,-2.685546636581421,8.422850608825684,100.0,286573.0,1.0
85194.3508717,316765.53125,346613.0625,341395.90625,318306.75,324961.9375,313515.0625,319403.9375,283919.46875,0.001953125,0.875732421875,-0.477783203125,-24.902341842651367,-1.9836424589157104,8.422850608825684,100.0,286574.0,1.0
85194.358507,316915.28125,347554.71875,342002.625,318973.8125,326892.03125,313861.5,320272.625,284312.9375,0.001708984375,0.874755859375,-0.474609375,-24.383543014526367,-1.1291502714157104,8.392333030700684,100.0,286575.0,1.0
85194.3585446,316943.625,346441.9375,341089.0625,317922.75,325186.5,312827.34375,319287.0,283516.96875,0.0029296875,0.874267578125,-0.47265625,-23.681638717651367,-0.4577636420726776,8.514403343200684,100.0,286576.0,1.0
85194.358554,316771.09375,344789.1875,339903.96875,316600.6875,322264.59375,311859.6875,317835.46875,282646.0625,-0.000244140625,0.871826171875,-0.47265625,-23.132322311401367,0.2136230319738388,8.544920921325684,100.0,286577.0,1.0
85194.3585628,316663.96875,344851.03125,340060.25,316792.71875,322055.9375,312259.59375,317870.78125,282873.15625,-0.00146484375,0.8740234375,-0.470947265625,-22.308347702026367,0.8544921278953552,8.728026390075684,100.0,286578.0,1.0
85194.3624053,316756.15625,346543.78125,341358.4375,318278.40625,324889.6875,313499.40625,319361.84375,283910.09375,-0.00390625,0.87646484375,-0.471923828125,-21.636960983276367,1.5258787870407104,8.697508811950684,100.0,286579.0,1.0
85194.3624415,316913.875,347501.59375,341983.6875,318973.625,326839.5625,313853.46875,320238.90625,284312.5,-0.000732421875,0.876708984375,-0.4697265625,-20.843503952026367,2.014159917831421,8.850096702575684,100.0,286580.0,1.0
85194.3624519,316931.65625,346429.625,341087.09375,317912.1875,325168.8125,312822.15625,319265.09375,283512.5,-0.001220703125,0.87744140625,-0.467529296875,-20.446775436401367,2.349853277206421,8.880614280700684,100.0,286581.0,1.0
85194.3645229,316795.03125,344810.1875,339929.09375,316619.1875,322269.34375,311863.96875,317826.1875,282651.0625,-0.002197265625,0.8798828125,-0.466552734375,-19.805906295776367,2.960204839706421,8.850096702575684,100.0,286582.0,1.0
85194.3671302,316660.65625,344822.625,340041.5,316775.90625,322013.28125,312231.34375,317827.53125,282852.40625,-0.00390625,0.881591796875,-0.464111328125,-19.226072311401367,3.509521245956421,8.850096702575684,100.0,286583.0,1.0
85194.3696024,316728.53125,346468.40625,341300.96875,318231.71875,324808.6875,313461.6875,319298.53125,283879.15625,-0.0029296875,0.8857421875,-0.46044921875,-18.737791061401367,4.058837413787842,8.941649436950684,100.0,286584.0,1.0
85194.3719974,316886.0625,347437.15625,341936.09375,318931.875,326775.46875,313831.65625,320188.75,284290.78125,-0.002685546875,0.890625,-0.462646484375,-18.218992233276367,4.669188976287842,9.033202171325684,100.0,286585.0,1.0
85194.3744688,316923.25,346417.71875,341087.90625,317921.40625,325166.75,312831.625,319250.875,283516.34375,-0.007080078125,0.896240234375,-0.46044921875,-17.639158248901367,5.157470226287842,8.972167015075684,100.0,286586.0,1.0
85194.3771282,316769.21875,344795.6875,339921.78125,316606.5625,322268.28125,311863.71875,317803.71875,282638.4375,-0.006103515625,0.898193359375,-0.45947265625,-17.150876998901367,5.584716320037842,8.819579124450684,100.0,286587.0,1.0
85194.3871729,316645.8125,344778.71875,340015.65625,316750.4375,321969.65625,312220.625,317784.96875,282828.4375,-0.008056640625,0.901611328125,-0.455810546875,-16.784666061401367,6.072997570037842,8.819579124450684,100.0,286588.0,1.0
85194.3872141,316720.9375,346389.75,341256.4375,318195.15625,324726.78125,313440.125,319240.78125,283849.8125,-0.009521484375,0.9033203125,-0.45263671875,-16.265867233276367,6.469726085662842,8.666991233825684,100.0,286589.0,1.0
85194.3897551,316878.71875,347362.3125,341897.75,318912.125,326705.8125,313816.1875,320138.6875,284269.15625,-0.014404296875,0.90576171875,-0.447998046875,-15.991209983825684,6.774901866912842,8.514403343200684,100.0,286590.0,1.0
85194.3897917,316925.03125,346388.75,341078.875,317919.53125,325138.25,312830.125,319220.125,283505.59375,-0.01416015625,0.910888671875,-0.44775390625,-15.655516624450684,7.110595226287842,8.392333030700684,100.0,286591.0,1.0
85194.3958921,316767.96875,344781.75,339920.15625,316603.4375,322242.875,311855.5625,317771.5625,282629.15625,-0.01513671875,0.914306640625,-0.4462890625,-15.472411155700684,7.324218273162842,8.178709983825684,100.0,286592.0,1.0
85194.413386,316631.96875,344723.71875,339983.625,316715.5625,321896.96875,312194.875,317729.09375,282806.1875,-0.01806640625,0.915283203125,-0.444580078125,-15.258788108825684,7.476806163787842,7.843017101287842,100.0,286593.0,1.0
85194.4134282,316693.9375,346284.40625,341188.75,318137.5,324596.875,313400.25,319157.28125,283813.78125,-0.017578125,0.918701171875,-0.44287109375,-15.014647483825684,7.568358898162842,7.598876476287842,100.0,286594.0,1.0
85194.4159136,316844.5625,347269.875,341835.15625,318859.0,326580.71875,313787.46875,320056.96875,284241.6875,-0.018310546875,0.922607421875,-0.441162109375,-14.892577171325684,7.537841320037842,7.293700695037842,100.0,286595.0,1.0
85194.4159503,316907.875,346348.34375,341054.28125,317901.1875,325055.4375,312815.71875,319161.46875,283493.96875,-0.016845703125,0.92578125,-0.440673828125,-14.801024436950684,7.507323741912842,7.141112804412842,100.0,286596.0,1.0
85194.4184823,316755.875,344755.375,339904.15625,316592.625,322167.34375,311836.96875,317712.90625,282615.03125,-0.01708984375,0.927490234375,-0.4365234375,-14.678954124450684,7.385253429412842,6.927489757537842,100.0,286597.0,1.0
85194.4207193,316614.25,344648.28125,339931.34375,316671.03125,321767.15625,312144.28125,317636.09375,282765.125,-0.015380859375,0.928955078125,-0.435302734375,-14.617918968200684,7.415771007537842,6.744384288787842,100.0,286598.0,1.0
85194.4232112,316680.96875,346165.15625,341115.1875,318081.34375,324418.6875,313336.4375,319045.59375,283768.28125,-0.0107421875,0.930419921875,-0.43310546875,-14.770506858825684,7.385253429412842,6.652831554412842,100.0,286599.0,1.0
85194.4370057,316834.46875,347154.09375,341774.09375,318820.46875,326413.53125,313738.03125,319958.4375,284211.90625,-0.01123046875,0.9296875,-0.429931640625,-14.770506858825684,7.415771007537842,6.591796398162842,100.0,286600.0,1.0
85194.4455307,316919.6875,346289.4375,341043.65625,317908.0625,324949.0625,312799.625,319094.78125,283489.5,-0.005615234375,0.929931640625,-0.429931640625,-14.862059593200684,7.415771007537842,6.378173351287842,100.0,286601.0,1.0
85194.4455729,316768.21875,344726.15625,339905.59375,316597.28125,322083.46875,311823.03125,317656.75,282612.0625,-0.0029296875,0.92919921875,-0.430419921875,-15.045165061950684,7.629394054412842,6.347655773162842,100.0,286602.0,1.0
85194.5272109,316630.09375,344578.4375,339904.15625,316653.4375,321634.71875,312109.03125,317556.53125,282745.75,-0.001708984375,0.926025390625,-0.428955078125,-15.106200218200684,7.843017101287842,6.317138195037842,100.0,286603.0,1.0
85194.5272481,316665.125,346020.3125,341030.6875,318018.59375,324203.3125,313265.34375,318915.78125,283717.6875,-0.001220703125,0.92529296875,-0.4296875,-15.197752952575684,8.026122093200684,6.347655773162842,100.0,286604.0,1.0
85194.5309997,316816.5,347019.25,341698.1875,318766.125,326200.21875,313687.96875,319837.65625,284174.0,-0.002197265625,0.921875,-0.4287109375,-15.136717796325684,8.239745140075684,6.256103038787842,100.0,286605.0,1.0
85194.5381221,316910.65625,346218.0,341010.375,317885.625,324789.09375,312785.40625,319006.875,283474.9375,-0.0029296875,0.9189453125,-0.42529296875,-15.075682640075684,8.514403343200684,6.195067882537842,100.0,286606.0,1.0
85194.5407389,316774.40625,344680.46875,339890.46875,316593.625,321943.90625,311806.75,317583.25,282601.53125,-0.0048828125,0.9150390625,-0.426513671875,-15.045165061950684,8.575438499450684,6.225585460662842,100.0,286607.0,1.0
85194.5432569,316631.15625,344481.96875,339857.40625,316629.65625,321439.125,312070.5,317458.96875,282723.90625,-0.0087890625,0.9091796875,-0.424560546875,-14.923094749450684,8.544920921325684,6.164550304412842,100.0,286608.0,1.0
85194.5482722,316624.46875,345841.21875,340916.25,317931.5,323916.3125,313195.96875,318774.875,283672.34375,-0.01171875,0.90576171875,-0.422119140625,-14.862059593200684,8.636473655700684,6.072997570037842,100.0,286609.0,1.0
85194.5506305,316804.78125,346843.3125,341599.75,318703.34375,325904.53125,313626.0,319698.96875,284142.625,-0.015625,0.89892578125,-0.420166015625,-14.495848655700684,8.605956077575684,5.950927257537842,100.0,286610.0,1.0
85194.5531041,316911.28125,346103.46875,340961.125,317870.15625,324546.375,312742.125,318894.84375,283465.8125,-0.01904296875,0.895751953125,-0.4208984375,-14.129637718200684,8.605956077575684,5.767821788787842,100.0,286611.0,1.0
85194.612396,316765.4375,344604.5625,339861.5,316572.59375,321728.4375,311781.0,317474.53125,282592.03125,-0.021484375,0.892578125,-0.419189453125,-13.977049827575684,8.331297874450684,5.676269054412842,100.0,286612.0,1.0
85194.6195884,316600.9375,344400.25,339808.9375,316582.25,321212.8125,312034.125,317336.3125,282699.4375,-0.025146484375,0.891845703125,-0.4189453125,-13.732909202575684,7.995604991912842,5.584716320037842,100.0,286613.0,1.0
85194.6246384,316604.4375,345767.75,340873.59375,317891.1875,323705.40625,313173.625,318667.40625,283658.125,-0.029052734375,0.889892578125,-0.415771484375,-13.366698265075684,7.568358898162842,5.401610851287842,100.0,286614.0,1.0
85194.6296296,316784.21875,346848.03125,341604.9375,318707.28125,325788.21875,313648.375,319645.875,284158.28125,-0.03076171875,0.889892578125,-0.417724609375,-13.000487327575684,7.049560070037842,5.279540538787842,100.0,286615.0,1.0
85194.6296716,316922.0,346243.46875,341052.21875,317937.84375,324586.40625,312821.875,318920.6875,283517.75,-0.03515625,0.889404296875,-0.41796875,-12.664793968200684,6.561278820037842,5.218505382537842,100.0,286616.0,1.0
85194.634623,316802.65625,344816.25,339996.34375,316677.5625,321869.96875,311871.75,317543.65625,282654.71875,-0.0390625,0.890869140625,-0.418212890625,-12.359618186950684,6.103515148162842,4.943847179412842,100.0,286617.0,1.0
85194.6346595,316615.6875,344576.21875,339902.8125,316637.34375,321348.4375,312096.875,317394.59375,282736.625,-0.039794921875,0.892333984375,-0.421142578125,-11.993407249450684,5.401610851287842,4.730224132537842,100.0,286618.0,1.0
85194.6384691,316638.21875,345915.53125,340954.0625,317951.0,323836.75,313233.25,318729.09375,283694.0,-0.039306640625,0.89404296875,-0.422119140625,-11.657713890075684,4.760741710662842,4.486083507537842,100.0,286619.0,1.0
85194.6385054,316815.875,346989.5625,341686.5625,318779.96875,325943.71875,313709.25,319718.75,284196.71875,-0.04150390625,0.89453125,-0.41748046875,-11.352538108825684,4.089354991912842,4.241942882537842,100.0,286620.0,1.0
85194.6385153,316931.75,346396.96875,341135.75,318003.5625,324777.84375,312884.03125,319007.40625,283559.4375,-0.040771484375,0.89404296875,-0.419189453125,-10.925292015075684,3.570556402206421,3.997802495956421,100.0,286621.0,1.0
85194.6996769,316809.96875,344970.21875,340081.0,316747.5625,322070.40625,311931.5625,317634.40625,282699.25,-0.041015625,0.892578125,-0.417236328125,-10.833739280700684,3.021239995956421,3.662109136581421,100.0,286622.0,1.0
85194.699713,316626.5,344701.8125,339970.40625,316683.03125,321522.09375,312147.65625,317476.59375,282777.125,-0.03857421875,0.89404296875,-0.415771484375,-10.528563499450684,2.410888433456421,3.417968511581421,100.0,286623.0,1.0
85194.70213,316631.4375,345994.84375,340991.78125,317963.875,323971.375,313265.625,318789.8125,283716.96875,-0.037109375,0.893310546875,-0.4111328125,-10.375975608825684,1.9531248807907104,3.082275152206421,100.0,286624.0,1.0
85194.7044806,316813.09375,347069.0625,341728.9375,318795.71875,326095.78125,313755.28125,319792.78125,284229.625,-0.036376953125,0.894287109375,-0.409423828125,-10.223387718200684,1.4038084745407104,2.960204839706421,100.0,286625.0,1.0
85194.7070199,316954.71875,346505.78125,341206.71875,318057.375,324966.5,312944.46875,319100.9375,283603.96875,-0.03662109375,0.894775390625,-0.4130859375,-10.162352561950684,0.7629393935203552,2.746581792831421,100.0,286626.0,1.0
85194.7120165,316821.5,345069.28125,340136.78125,316777.4375,322246.90625,311973.78125,317717.0,282725.71875,-0.036865234375,0.896240234375,-0.4130859375,-10.009764671325684,0.2136230319738388,2.502441167831421,100.0,286627.0,1.0
85194.7146804,316642.0625,344758.96875,340003.21875,316701.625,321650.65625,312163.3125,317527.8125,282783.90625,-0.03759765625,0.899169921875,-0.41357421875,-9.918211936950684,-0.3967284858226776,2.258300542831421,100.0,286628.0,1.0
85194.7160294,316634.8125,346017.4375,340999.9375,317966.375,324064.1875,313274.8125,318825.375,283718.65625,-0.037353515625,0.90283203125,-0.413818359375,-9.918211936950684,-1.0375975370407104,2.105712652206421,100.0,286629.0,1.0
85194.7231235,316807.75,347086.3125,341735.03125,318804.375,326187.4375,313761.1875,319827.46875,284235.34375,-0.037109375,0.905517578125,-0.41357421875,-9.857176780700684,-1.5258787870407104,1.9836424589157104,100.0,286630.0,1.0
85194.78719,316954.09375,346543.53125,341229.4375,318073.03125,325082.34375,312957.15625,319145.65625,283617.375,-0.039306640625,0.90771484375,-0.4130859375,-9.887694358825684,-2.166747808456421,1.8005369901657104,100.0,286631.0,1.0
85194.7872302,316844.65625,345116.125,340173.8125,316804.875,322365.28125,311993.1875,317761.4375,282742.96875,-0.0380859375,0.90869140625,-0.41064453125,-9.918211936950684,-2.716064214706421,1.6784666776657104,100.0,286632.0,1.0
85194.7896375,316636.09375,344767.53125,340000.71875,316689.375,321715.75,312157.25,317544.1875,282778.0,-0.035400390625,0.906982421875,-0.409912109375,-10.131834983825684,-3.295898199081421,1.5869139432907104,100.0,286633.0,1.0
85194.789674,316631.6875,345992.3125,340980.25,317944.625,324088.0625,313257.125,318823.6875,283704.4375,-0.035400390625,0.91064453125,-0.408447265625,-10.314940452575684,-3.753661870956421,1.4648436307907104,100.0,286634.0,1.0
85194.7946187,316811.9375,347064.59375,341726.09375,318795.96875,326219.0625,313761.28125,319832.46875,284229.34375,-0.031982421875,0.913330078125,-0.41162109375,-10.406493186950684,-4.364013195037842,1.2817381620407104,100.0,286635.0,1.0
85194.7970543,316976.09375,346565.78125,341252.40625,318096.71875,325152.53125,312980.84375,319177.375,283628.375,-0.031982421875,0.915283203125,-0.416748046875,-10.406493186950684,-4.852294445037842,1.3427733182907104,100.0,286636.0,1.0
85194.799446,316839.9375,345144.3125,340187.75,316812.9375,322429.84375,311999.0625,317785.75,282743.59375,-0.028076171875,0.91943359375,-0.416015625,-10.742186546325684,-5.218505382537842,1.2512205839157104,100.0,286637.0,1.0
85194.8021263,316630.34375,344767.4375,339995.8125,316677.375,321743.90625,312148.90625,317550.1875,282767.8125,-0.025390625,0.9248046875,-0.41162109375,-11.016844749450684,-5.584716320037842,1.4038084745407104,100.0,286638.0,1.0
85194.8071067,316627.0625,345961.46875,340959.6875,317919.875,324083.78125,313243.4375,318817.15625,283692.46875,-0.027099609375,0.92822265625,-0.41455078125,-11.230467796325684,-5.859374523162842,1.4953612089157104,100.0,286639.0,1.0
85194.8095661,316808.71875,347042.9375,341719.75,318793.03125,326233.1875,313757.1875,319839.4375,284234.90625,-0.0244140625,0.92919921875,-0.4150390625,-11.779784202575684,-6.103515148162842,1.4953612089157104,100.0,286640.0,1.0
85194.9558606,316959.375,346577.125,341261.625,318102.34375,325202.78125,312985.875,319199.5625,283642.125,-0.023193359375,0.928955078125,-0.41455078125,-12.268065452575684,-6.347655773162842,1.4648436307907104,100.0,286641.0,1.0
85194.9583028,316863.1875,345192.9375,340225.125,316838.6875,322503.21875,312019.71875,317821.96875,282766.125,-0.019775390625,0.928955078125,-0.411865234375,-12.664793968200684,-6.561278820037842,1.5258787870407104,100.0,286642.0,1.0
85195.0396012,316639.46875,344796.0625,340016.4375,316693.75,321789.0625,312151.0625,317571.1875,282781.15625,-0.01904296875,0.92822265625,-0.41064453125,-13.092040061950684,-6.652831554412842,1.5563963651657104,100.0,286643.0,1.0
85195.0446217,316614.09375,345947.53125,340947.96875,317912.375,324094.5,313224.3125,318817.34375,283690.5,-0.01708984375,0.929443359375,-0.41064453125,-13.488768577575684,-6.866454601287842,1.7089842557907104,100.0,286644.0,1.0
85195.0460317,316802.09375,347036.6875,341713.9375,318793.5625,326255.71875,313751.53125,319848.5625,284235.34375,-0.012939453125,0.934326171875,-0.41015625,-13.916014671325684,-7.049560070037842,1.7700194120407104,100.0,286645.0,1.0
85195.053263,316973.3125,346617.5625,341292.1875,318136.96875,325274.3125,313007.21875,319236.125,283659.9375,-0.010498046875,0.935546875,-0.407958984375,-14.282225608825684,-7.049560070037842,1.9226073026657104,100.0,286646.0,1.0
85195.0608458,316858.34375,345244.78125,340252.03125,316861.28125,322588.34375,312035.375,317858.71875,282774.875,-0.007568359375,0.9384765625,-0.40966796875,-14.923094749450684,-7.232665538787842,2.075195074081421,100.0,286647.0,1.0
85195.0633677,316654.3125,344824.59375,340031.65625,316700.4375,321854.75,312160.375,317597.90625,282780.5,-0.001220703125,0.941650390625,-0.407958984375,-15.472411155700684,-7.354735851287842,2.258300542831421,100.0,286648.0,1.0
85195.0657247,316613.90625,345944.125,340943.34375,317907.4375,324129.1875,313227.625,318832.375,283687.8125,0.00048828125,0.94189453125,-0.408447265625,-16.113279342651367,-7.324218273162842,2.410888433456421,100.0,286649.0,1.0
85195.1242568,316786.625,347029.4375,341706.59375,318789.34375,326297.65625,313757.8125,319865.1875,284238.46875,0.003173828125,0.9404296875,-0.40625,-16.601560592651367,-7.354735851287842,2.685546636581421,100.0,286650.0,1.0
85195.1243054,316984.40625,346668.25,341323.125,318159.46875,325369.34375,313040.125,319284.5,283683.15625,0.00732421875,0.93896484375,-0.405517578125,-17.211912155151367,-7.202147960662842,2.838134527206421,100.0,286651.0,1.0
85195.136274,316885.4375,345326.25,340304.6875,316896.25,322703.15625,312079.0,317923.28125,282807.96875,0.01123046875,0.936767578125,-0.403564453125,-17.791746139526367,-6.835937023162842,3.051757574081421,100.0,286652.0,1.0
85195.1363117,316656.71875,344867.6875,340054.90625,316709.46875,321930.03125,312180.03125,317639.84375,282795.53125,0.01220703125,0.934326171875,-0.400634765625,-18.157957077026367,-6.439208507537842,3.204345464706421,100.0,286653.0,1.0
85195.1363211,316618.1875,345941.09375,340941.71875,317898.9375,324162.0,313231.8125,318852.125,283690.84375,0.010986328125,0.932373046875,-0.400146484375,-18.615720748901367,-6.011962413787842,3.234863042831421,100.0,286654.0,1.0
85195.1363299,316808.375,347038.03125,341725.65625,318812.875,326347.375,313787.3125,319904.09375,284262.71875,0.01220703125,0.92822265625,-0.39404296875,-18.920896530151367,-5.554198741912842,3.326415777206421,100.0,286655.0,1.0
85195.1383836,316991.03125,346695.34375,341352.375,318184.34375,325439.34375,313068.21875,319332.6875,283704.96875,0.010498046875,0.92333984375,-0.388671875,-19.165037155151367,-5.249022960662842,3.326415777206421,100.0,286656.0,1.0
85195.1407334,316886.40625,345366.125,340332.78125,316910.90625,322766.90625,312089.09375,317966.09375,282817.25,0.01123046875,0.9208984375,-0.384521484375,-19.622800827026367,-4.882812023162842,3.265380620956421,100.0,286657.0,1.0
85195.143185,316662.90625,344885.75,340062.5,316708.21875,321952.5,312170.46875,317665.25,282796.25,0.01171875,0.9208984375,-0.381591796875,-19.989011764526367,-4.608153820037842,3.143310308456421,100.0,286658.0,1.0
85195.2305149,316612.84375,345918.03125,340920.96875,317888.40625,324144.9375,313209.75,318859.8125,283686.03125,0.011962890625,0.9189453125,-0.38037109375,-20.294187545776367,-4.516601085662842,3.082275152206421,100.0,286659.0,1.0
85195.2305261,316792.625,347008.875,341693.71875,318787.21875,326329.21875,313761.375,319909.71875,284255.0,0.011474609375,0.917724609375,-0.375244140625,-20.568845748901367,-4.272460460662842,2.990722417831421,100.0,286660.0,1.0
85195.2305278,316999.53125,346717.5,341361.3125,318192.28125,325462.59375,313071.78125,319364.25,283720.90625,0.013916015625,0.917724609375,-0.375,-20.874021530151367,-4.119872570037842,2.838134527206421,100.0,286661.0,1.0
85195.2305293,316906.71875,345417.25,340362.1875,316932.8125,322809.53125,312113.4375,318012.0625,282841.21875,0.0126953125,0.916015625,-0.372802734375,-21.057126998901367,-3.814697027206421,2.777099370956421,100.0,286662.0,1.0
85195.2305307,316677.125,344910.5,340074.46875,316717.0,321968.21875,312194.59375,317701.0,282814.3125,0.010498046875,0.914794921875,-0.366943359375,-21.270750045776367,-3.631591558456421,2.593993902206421,100.0,286663.0,1.0
85195.2305321,316613.90625,345895.6875,340900.96875,317867.46875,324117.75,313212.3125,318877.59375,283692.5625,0.01171875,0.915283203125,-0.36474609375,-21.728513717651367,-3.356933355331421,2.380370855331421,100.0,286664.0,1.0
85195.2305335,316806.84375,346998.78125,341694.96875,318797.03125,326321.1875,313780.34375,319949.84375,284278.0,0.010498046875,0.915771484375,-0.369873046875,-21.850584030151367,-3.051757574081421,2.166747808456421,100.0,286665.0,1.0
85195.230535,317012.03125,346754.0625,341390.28125,318221.875,325495.78125,313100.84375,319425.03125,283753.1875,0.005615234375,0.912841796875,-0.36865234375,-21.942136764526367,-2.746581792831421,1.8920897245407104,100.0,286666.0,1.0
85195.2305365,316923.53125,345468.03125,340394.8125,316951.78125,322837.25,312125.21875,318051.125,282859.5625,0.00537109375,0.909912109375,-0.366943359375,-21.789548873901367,-2.502441167831421,1.4343260526657104,100.0,286667.0,1.0
85195.2305379,316673.1875,344917.90625,340070.375,316703.84375,321944.53125,312167.4375,317700.65625,282805.0,0.00830078125,0.90966796875,-0.366943359375,-21.606443405151367,-2.380370855331421,1.0681151151657104,100.0,286668.0,1.0
85195.2305394,316611.3125,345864.65625,340873.78125,317846.1875,324062.125,313185.15625,318863.125,283683.4375,0.0107421875,0.910400390625,-0.364013671875,-21.270750045776367,-2.197265386581421,0.7629393935203552,100.0,286669.0,1.0
85195.2305409,316808.8125,346967.5625,341674.78125,318794.625,326273.15625,313759.15625,319941.1875,284286.5625,0.010009765625,0.91357421875,-0.360595703125,-21.026609420776367,-1.9531248807907104,0.5798339247703552,100.0,286670.0,1.0
85195.2305423,317012.03125,346759.25,341394.3125,318229.75,325484.875,313090.71875,319433.09375,283771.3125,0.010986328125,0.916748046875,-0.35498046875,-20.874021530151367,-1.6174315214157104,0.4272460639476776,100.0,286671.0,1.0
85195.2305438,316926.5625,345511.3125,340422.1875,316968.125,322859.875,312129.875,318082.6875,282887.96875,0.008056640625,0.919189453125,-0.35400390625,-20.843503952026367,-1.2817381620407104,0.3356933295726776,100.0,286672.0,1.0
85195.2305452,316683.90625,344947.6875,340087.09375,316709.3125,321951.40625,312168.40625,317728.625,282829.78125,0.00732421875,0.920166015625,-0.3515625,-20.874021530151367,-0.9155272841453552,0.2136230319738388,100.0,286673.0,1.0
85195.2305466,316610.96875,345859.09375,340865.28125,317839.40625,324043.34375,313184.875,318881.71875,283702.46875,0.00634765625,0.919677734375,-0.35009765625,-20.843503952026367,-0.5493163466453552,0.1525878757238388,100.0,286674.0,1.0
85195.2305484,316803.09375,346972.75,341675.03125,318793.90625,326286.84375,313786.21875,319982.75,284316.15625,0.004150390625,0.92041015625,-0.349609375,-20.751951217651367,-0.2136230319738388,0.1220703050494194,100.0,286675.0,1.0
85195.2382688,317034.84375,346811.375,341435.78125,318262.40625,325549.25,313137.5,319499.96875,283810.75,0.0,0.921630859375,-0.35009765625,-20.721433639526367,0.0,0.0610351525247097,100.0,286676.0,1.0
85195.2382815,316973.15625,345591.0625,340487.96875,317025.0,322943.65625,312169.65625,318157.53125,282927.3125,-0.004638671875,0.91845703125,-0.35205078125,-20.355222702026367,0.2746581733226776,0.0,100.0,286677.0,1.0
85195.2980919,316697.5,344980.25,340109.4375,316724.875,321990.125,312172.15625,317768.96875,282838.625,-0.01025390625,0.91455078125,-0.3505859375,-19.805906295776367,0.3967284858226776,-0.3662109076976776,100.0,286678.0,1.0
85195.3007839,316603.1875,345846.3125,340850.71875,317820.71875,324043.1875,313165.3125,318902.625,283698.90625,-0.01171875,0.911865234375,-0.348876953125,-19.287107467651367,0.7019042372703552,-0.8239745497703552,100.0,286679.0,1.0
85195.3032029,316793.0,346960.875,341661.71875,318783.375,326296.40625,313772.375,320008.59375,284320.375,-0.012451171875,0.910888671875,-0.343017578125,-18.585203170776367,1.0070799589157104,-1.0986326932907104,100.0,286680.0,1.0
85195.3056381,317029.90625,346855.28125,341459.84375,318283.59375,325619.0625,313157.4375,319555.65625,283837.75,-0.015869140625,0.912841796875,-0.33935546875,-18.127439498901367,1.1901854276657104,-1.1596678495407104,100.0,286681.0,1.0
85195.3082668,316950.0625,345650.6875,340513.46875,317027.15625,323031.09375,312188.71875,318212.78125,282946.375,-0.014892578125,0.916015625,-0.330322265625,-17.608640670776367,1.3122557401657104,-1.3122557401657104,100.0,286682.0,1.0
85195.3107738,316700.53125,345037.28125,340139.375,316733.53125,322070.25,312191.9375,317826.8125,282862.5,-0.017578125,0.91943359375,-0.328125,-17.272947311401367,1.3732908964157104,-1.3122557401657104,100.0,286683.0,1.0
85195.3156113,316599.34375,345868.75,340858.21875,317819.5625,324096.09375,313173.71875,318946.28125,283708.375,-0.02197265625,0.92333984375,-0.332763671875,-16.784666061401367,1.2817381620407104,-1.2207030057907104,100.0,286684.0,1.0
85195.3156455,316781.375,346981.0,341667.4375,318780.15625,326366.15625,313785.78125,320056.96875,284330.125,-0.025390625,0.927001953125,-0.3271484375,-16.235349655151367,1.1291502714157104,-1.2817381620407104,100.0,286685.0,1.0
85195.3156521,317029.75,346913.65625,341496.3125,318312.09375,325737.71875,313188.09375,319623.0625,283861.4375,-0.026611328125,0.93017578125,-0.328125,-15.869139671325684,0.9155272841453552,-1.1901854276657104,100.0,286686.0,1.0
85195.3156579,316962.9375,345743.15625,340571.125,317078.28125,323180.3125,312226.71875,318289.125,282975.4375,-0.02734375,0.933349609375,-0.326904296875,-15.228270530700684,0.8239745497703552,-1.2817381620407104,100.0,286687.0,1.0
85195.3156637,316716.1875,345113.625,340180.875,316765.90625,322203.625,312212.75,317888.59375,282875.28125,-0.0283203125,0.933837890625,-0.32373046875,-14.739989280700684,0.6103515028953552,-1.3122557401657104,100.0,286688.0,1.0
85195.3195707,316604.25,345922.125,340882.34375,317839.59375,324218.40625,313193.375,319005.375,283720.90625,-0.02587890625,0.935791015625,-0.32421875,-14.312743186950684,0.5493163466453552,-1.1596678495407104,100.0,286689.0,1.0
85195.3196046,316781.28125,347045.0,341700.15625,318816.09375,326524.59375,313823.78125,320140.03125,284356.75,-0.024658203125,0.939453125,-0.32177734375,-13.977049827575684,0.5187987685203552,-1.0070799589157104,100.0,286690.0,1.0
85195.3196111,317046.0,347026.75,341561.9375,318369.21875,325956.65625,313247.03125,319739.5625,283906.5,-0.025634765625,0.939697265625,-0.318603515625,-13.580321311950684,0.6103515028953552,-0.7934569716453552,100.0,286691.0,1.0
85195.3196168,316990.125,345881.28125,340652.40625,317139.625,323426.28125,312288.40625,318418.6875,283022.09375,-0.025634765625,0.93994140625,-0.31689453125,-13.122557640075684,0.6713866591453552,-0.6408690810203552,100.0,286692.0,1.0
85195.3219601,316726.1875,345223.25,340239.78125,316799.59375,322420.1875,312257.375,317997.9375,282905.40625,-0.0244140625,0.940185546875,-0.316162109375,-12.817381858825684,0.7019042372703552,-0.5493163466453552,100.0,286693.0,1.0
85195.3871359,316611.03125,346007.78125,340924.75,317859.78125,324413.0625,313227.625,319098.34375,283742.1875,-0.02490234375,0.94287109375,-0.316650390625,-12.329100608825684,0.7629393935203552,-0.4272460639476776,100.0,286694.0,1.0
85195.3871771,316788.78125,347139.6875,341749.96875,318850.25,326739.96875,313868.21875,320242.21875,284385.5625,-0.023681640625,0.943115234375,-0.3154296875,-11.779784202575684,0.7324218153953552,-0.3051757514476776,100.0,286695.0,1.0
85195.3919666,317054.59375,347138.96875,341621.3125,318407.40625,326200.375,313296.8125,319856.875,283937.71875,-0.02392578125,0.9453125,-0.318115234375,-11.199950218200684,0.8239745497703552,-0.2136230319738388,100.0,286696.0,1.0
85195.3920021,317011.15625,345992.3125,340716.875,317183.25,323662.3125,312328.4375,318529.4375,283046.5,-0.0244140625,0.948486328125,-0.31689453125,-10.528563499450684,0.8850097060203552,-0.0915527269244194,100.0,286697.0,1.0
85195.3920113,316726.03125,345317.75,340284.59375,316819.28125,322624.46875,312285.90625,318087.6875,282916.40625,-0.025146484375,0.9501953125,-0.31591796875,-10.070799827575684,1.0070799589157104,-0.03051757626235485,100.0,286698.0,1.0
85195.3920196,316608.28125,346098.1875,340963.28125,317872.125,324611.1875,313262.125,319188.5625,283758.375,-0.025390625,0.949951171875,-0.3154296875,-9.460448265075684,1.1291502714157104,0.1220703050494194,100.0,286699.0,1.0
85195.3920273,316798.09375,347240.1875,341798.78125,318873.21875,326964.375,313917.84375,320348.0,284416.40625,-0.0234375,0.950439453125,-0.31396484375,-9.002684593200684,1.3122557401657104,0.2136230319738388,100.0,286700.0,1.0
85195.3944633,317062.09375,347244.125,341678.96875,318447.8125,326449.3125,313346.875,319973.09375,283975.25,-0.02392578125,0.9501953125,-0.3134765625,-8.514403343200684,1.6784666776657104,0.3051757514476776,100.0,286701.0,1.0
85195.3971185,317008.46875,346083.78125,340760.0625,317203.0,323895.46875,312367.25,318635.21875,283074.21875,-0.025390625,0.95068359375,-0.3076171875,-7.995604991912842,2.014159917831421,0.3967284858226776,100.0,286702.0,1.0
85195.4033098,316748.65625,345387.5625,340320.0625,316837.6875,322822.40625,312311.46875,318180.125,282935.90625,-0.028076171875,0.9482421875,-0.306396484375,-7.507323741912842,2.410888433456421,0.3662109076976776,100.0,286703.0,1.0
85195.403339,316638.3125,346141.8125,340989.375,317892.59375,324777.375,313278.9375,319270.1875,283767.75,-0.029296875,0.94873046875,-0.3076171875,-7.019042491912842,2.624511480331421,0.3356933295726776,100.0,286704.0,1.0
85195.4033479,316810.59375,347274.875,341824.96875,318902.09375,327129.5,313942.5,320432.75,284427.9375,-0.03173828125,0.94775390625,-0.307861328125,-6.439208507537842,2.838134527206421,0.1525878757238388,100.0,286705.0,1.0
85195.4033853,316810.59375,347274.875,341824.96875,318902.09375,327129.5,313942.5,320432.75,284427.9375,-0.03173828125,0.94775390625,-0.307861328125,-6.439208507537842,2.838134527206421,0.1525878757238388,100.0,286706.0,0.0
85195.4033869,316810.59375,347274.875,341824.96875,318902.09375,327129.5,313942.5,320432.75,284427.9375,-0.03173828125,0.94775390625,-0.307861328125,-6.439208507537842,2.838134527206421,0.1525878757238388,100.0,286707.0,0.0
85195.4033883,316810.59375,347274.875,341824.96875,318902.09375,327129.5,313942.5,320432.75,284427.9375,-0.03173828125,0.94775390625,-0.307861328125,-6.439208507537842,2.838134527206421,0.1525878757238388,100.0,286708.0,0.0
85195.4033898,316810.59375,347274.875,341824.96875,318902.09375,327129.5,313942.5,320432.75,284427.9375,-0.03173828125,0.94775390625,-0.307861328125,-6.439208507537842,2.838134527206421,0.1525878757238388,100.0,286709.0,0.0
85195.4033913,316810.59375,347274.875,341824.96875,318902.09375,327129.5,313942.5,320432.75,284427.9375,-0.03173828125,0.94775390625,-0.307861328125,-6.439208507537842,2.838134527206421,0.1525878757238388,100.0,286710.0,0.0
85195.4033926,316810.59375,347274.875,341824.96875,318902.09375,327129.5,313942.5,320432.75,284427.9375,-0.03173828125,0.94775390625,-0.307861328125,-6.439208507537842,2.838134527206421,0.1525878757238388,100.0,286711.0,0.0
85195.4033939,316810.59375,347274.875,341824.96875,318902.09375,327129.5,313942.5,320432.75,284427.9375,-0.03173828125,0.94775390625,-0.307861328125,-6.439208507537842,2.838134527206421,0.1525878757238388,100.0,286712.0,0.0
85195.4033952,316810.59375,347274.875,341824.96875,318902.09375,327129.5,313942.5,320432.75,284427.9375,-0.03173828125,0.94775390625,-0.307861328125,-6.439208507537842,2.838134527206421,0.1525878757238388,100.0,286713.0,0.0
85195.4033965,316810.59375,347274.875,341824.96875,318902.09375,327129.5,313942.5,320432.75,284427.9375,-0.03173828125,0.94775390625,-0.307861328125,-6.439208507537842,2.838134527206421,0.1525878757238388,100.0,286714.0,0.0
85195.4033978,316810.59375,347274.875,341824.96875,318902.09375,327129.5,313942.5,320432.75,284427.9375,-0.03173828125,0.94775390625,-0.307861328125,-6.439208507537842,2.838134527206421,0.1525878757238388,100.0,286715.0,0.0
85195.4033991,316810.59375,347274.875,341824.96875,318902.09375,327129.5,313942.5,320432.75,284427.9375,-0.03173828125,0.94775390625,-0.307861328125,-6.439208507537842,2.838134527206421,0.1525878757238388,100.0,286716.0,0.0
85195.4034004,316810.59375,347274.875,341824.96875,318902.09375,327129.5,313942.5,320432.75,284427.9375,-0.03173828125,0.94775390625,-0.307861328125,-6.439208507537842,2.838134527206421,0.1525878757238388,100.0,286717.0,0.0
85195.4034017,316810.59375,347274.875,341824.96875,318902.09375,327129.5,313942.5,320432.75,284427.9375,-0.03173828125,0.94775390625,-0.307861328125,-6.439208507537842,2.838134527206421,0.1525878757238388,100.0,286718.0,0.0
85195.403403,316810.59375,347274.875,341824.96875,318902.09375,327129.5,313942.5,320432.75,284427.9375,-0.03173828125,0.94775390625,-0.307861328125,-6.439208507537842,2.838134527206421,0.1525878757238388,100.0,286719.0,0.0
85195.4034043,316810.59375,347274.875,341824.96875,318902.09375,327129.5,313942.5,320432.75,284427.9375,-0.03173828125,0.94775390625,-0.307861328125,-6.439208507537842,2.838134527206421,0.1525878757238388,100.0,286720.0,0.0
85195.4034056,316810.59375,347274.875,341824.96875,318902.09375,327129.5,313942.5,320432.75,284427.9375,-0.03173828125,0.94775390625,-0.307861328125,-6.439208507537842,2.838134527206421,0.1525878757238388,100.0,286721.0,0.0
85195.4034069,316810.59375,347274.875,341824.96875,318902.09375,327129.5,313942.5,320432.75,284427.9375,-0.03173828125,0.94775390625,-0.307861328125,-6.439208507537842,2.838134527206421,0.1525878757238388,100.0,286722.0,0.0
85195.4034082,316810.59375,347274.875,341824.96875,318902.09375,327129.5,313942.5,320432.75,284427.9375,-0.03173828125,0.94775390625,-0.307861328125,-6.439208507537842,2.838134527206421,0.1525878757238388,100.0,286723.0,0.0
85195.4034095,316810.59375,347274.875,341824.96875,318902.09375,327129.5,313942.5,320432.75,284427.9375,-0.03173828125,0.94775390625,-0.307861328125,-6.439208507537842,2.838134527206421,0.1525878757238388,100.0,286724.0,0.0
85195.4034107,316810.59375,347274.875,341824.96875,318902.09375,327129.5,313942.5,320432.75,284427.9375,-0.03173828125,0.94775390625,-0.307861328125,-6.439208507537842,2.838134527206421,0.1525878757238388,100.0,286725.0,0.0
85195.403412,316810.59375,347274.875,341824.96875,318902.09375,327129.5,313942.5,320432.75,284427.9375,-0.03173828125,0.94775390625,-0.307861328125,-6.439208507537842,2.838134527206421,0.1525878757238388,100.0,286726.0,0.0
85195.4034133,316810.59375,347274.875,341824.96875,318902.09375,327129.5,313942.5,320432.75,284427.9375,-0.03173828125,0.94775390625,-0.307861328125,-6.439208507537842,2.838134527206421,0.1525878757238388,100.0,286727.0,0.0
85195.4034146,316810.59375,347274.875,341824.96875,318902.09375,327129.5,313942.5,320432.75,284427.9375,-0.03173828125,0.94775390625,-0.307861328125,-6.439208507537842,2.838134527206421,0.1525878757238388,100.0,286728.0,0.0
85195.4034159,316810.59375,347274.875,341824.96875,318902.09375,327129.5,313942.5,320432.75,284427.9375,-0.03173828125,0.94775390625,-0.307861328125,-6.439208507537842,2.838134527206421,0.1525878757238388,100.0,286729.0,0.0
85195.4034172,316810.59375,347274.875,341824.96875,318902.09375,327129.5,313942.5,320432.75,284427.9375,-0.03173828125,0.94775390625,-0.307861328125,-6.439208507537842,2.838134527206421,0.1525878757238388,100.0,286730.0,0.0
85195.4034185,316810.59375,347274.875,341824.96875,318902.09375,327129.5,313942.5,320432.75,284427.9375,-0.03173828125,0.94775390625,-0.307861328125,-6.439208507537842,2.838134527206421,0.1525878757238388,100.0,286731.0,0.0
85195.4034198,316810.59375,347274.875,341824.96875,318902.09375,327129.5,313942.5,320432.75,284427.9375,-0.03173828125,0.94775390625,-0.307861328125,-6.439208507537842,2.838134527206421,0.1525878757238388,100.0,286732.0,0.0
85195.4034211,316810.59375,347274.875,341824.96875,318902.09375,327129.5,313942.5,320432.75,284427.9375,-0.03173828125,0.94775390625,-0.307861328125,-6.439208507537842,2.838134527206421,0.1525878757238388,100.0,286733.0,0.0
85195.4034224,316810.59375,347274.875,341824.96875,318902.09375,327129.5,313942.5,320432.75,284427.9375,-0.03173828125,0.94775390625,-0.307861328125,-6.439208507537842,2.838134527206421,0.1525878757238388,100.0,286734.0,0.0
85195.4034237,316810.59375,347274.875,341824.96875,318902.09375,327129.5,313942.5,320432.75,284427.9375,-0.03173828125,0.94775390625,-0.307861328125,-6.439208507537842,2.838134527206421,0.1525878757238388,100.0,286735.0,0.0
85195.403425,316810.59375,347274.875,341824.96875,318902.09375,327129.5,313942.5,320432.75,284427.9375,-0.03173828125,0.94775390625,-0.307861328125,-6.439208507537842,2.838134527206421,0.1525878757238388,100.0,286736.0,0.0
85195.4034263,316810.59375,347274.875,341824.96875,318902.09375,327129.5,313942.5,320432.75,284427.9375,-0.03173828125,0.94775390625,-0.307861328125,-6.439208507537842,2.838134527206421,0.1525878757238388,100.0,286737.0,0.0
85195.4034277,316810.59375,347274.875,341824.96875,318902.09375,327129.5,313942.5,320432.75,284427.9375,-0.03173828125,0.94775390625,-0.307861328125,-6.439208507537842,2.838134527206421,0.1525878757238388,100.0,286738.0,0.0
85195.403429,316810.59375,347274.875,341824.96875,318902.09375,327129.5,313942.5,320432.75,284427.9375,-0.03173828125,0.94775390625,-0.307861328125,-6.439208507537842,2.838134527206421,0.1525878757238388,100.0,286739.0,0.0
85195.4034303,316810.59375,347274.875,341824.96875,318902.09375,327129.5,313942.5,320432.75,284427.9375,-0.03173828125,0.94775390625,-0.307861328125,-6.439208507537842,2.838134527206421,0.1525878757238388,100.0,286740.0,0.0
85195.4034316,316810.59375,347274.875,341824.96875,318902.09375,327129.5,313942.5,320432.75,284427.9375,-0.03173828125,0.94775390625,-0.307861328125,-6.439208507537842,2.838134527206421,0.1525878757238388,100.0,286741.0,0.0
85195.4034329,316810.59375,347274.875,341824.96875,318902.09375,327129.5,313942.5,320432.75,284427.9375,-0.03173828125,0.94775390625,-0.307861328125,-6.439208507537842,2.838134527206421,0.1525878757238388,100.0,286742.0,0.0
85195.4034342,316810.59375,347274.875,341824.96875,318902.09375,327129.5,313942.5,320432.75,284427.9375,-0.03173828125,0.94775390625,-0.307861328125,-6.439208507537842,2.838134527206421,0.1525878757238388,100.0,286743.0,0.0
85195.4034355,316810.59375,347274.875,341824.96875,318902.09375,327129.5,313942.5,320432.75,284427.9375,-0.03173828125,0.94775390625,-0.307861328125,-6.439208507537842,2.838134527206421,0.1525878757238388,100.0,286744.0,0.0
85195.4034369,316810.59375,347274.875,341824.96875,318902.09375,327129.5,313942.5,320432.75,284427.9375,-0.03173828125,0.94775390625,-0.307861328125,-6.439208507537842,2.838134527206421,0.1525878757238388,100.0,286745.0,0.0
85195.4034382,316810.59375,347274.875,341824.96875,318902.09375,327129.5,313942.5,320432.75,284427.9375,-0.03173828125,0.94775390625,-0.307861328125,-6.439208507537842,2.838134527206421,0.1525878757238388,100.0,286746.0,0.0
85195.4034395,316810.59375,347274.875,341824.96875,318902.09375,327129.5,313942.5,320432.75,284427.9375,-0.03173828125,0.94775390625,-0.307861328125,-6.439208507537842,2.838134527206421,0.1525878757238388,100.0,286747.0,0.0
85195.4034408,316810.59375,347274.875,341824.96875,318902.09375,327129.5,313942.5,320432.75,284427.9375,-0.03173828125,0.94775390625,-0.307861328125,-6.439208507537842,2.838134527206421,0.1525878757238388,100.0,286748.0,0.0
85195.4034422,316810.59375,347274.875,341824.96875,318902.09375,327129.5,313942.5,320432.75,284427.9375,-0.03173828125,0.94775390625,-0.307861328125,-6.439208507537842,2.838134527206421,0.1525878757238388,100.0,286749.0,0.0
85195.4034435,316810.59375,347274.875,341824.96875,318902.09375,327129.5,313942.5,320432.75,284427.9375,-0.03173828125,0.94775390625,-0.307861328125,-6.439208507537842,2.838134527206421,0.1525878757238388,100.0,286750.0,0.0
85195.4034448,316810.59375,347274.875,341824.96875,318902.09375,327129.5,313942.5,320432.75,284427.9375,-0.03173828125,0.94775390625,-0.307861328125,-6.439208507537842,2.838134527206421,0.1525878757238388,100.0,286751.0,0.0
85195.4034461,316810.59375,347274.875,341824.96875,318902.09375,327129.5,313942.5,320432.75,284427.9375,-0.03173828125,0.94775390625,-0.307861328125,-6.439208507537842,2.838134527206421,0.1525878757238388,100.0,286752.0,0.0
85195.4034475,316810.59375,347274.875,341824.96875,318902.09375,327129.5,313942.5,320432.75,284427.9375,-0.03173828125,0.94775390625,-0.307861328125,-6.439208507537842,2.838134527206421,0.1525878757238388,100.0,286753.0,0.0
85195.4034488,316810.59375,347274.875,341824.96875,318902.09375,327129.5,313942.5,320432.75,284427.9375,-0.03173828125,0.94775390625,-0.307861328125,-6.439208507537842,2.838134527206421,0.1525878757238388,100.0,286754.0,0.0
85195.4034501,316810.59375,347274.875,341824.96875,318902.09375,327129.5,313942.5,320432.75,284427.9375,-0.03173828125,0.94775390625,-0.307861328125,-6.439208507537842,2.838134527206421,0.1525878757238388,100.0,286755.0,0.0
85195.4034515,316810.59375,347274.875,341824.96875,318902.09375,327129.5,313942.5,320432.75,284427.9375,-0.03173828125,0.94775390625,-0.307861328125,-6.439208507537842,2.838134527206421,0.1525878757238388,100.0,286756.0,0.0
85195.4034528,316810.59375,347274.875,341824.96875,318902.09375,327129.5,313942.5,320432.75,284427.9375,-0.03173828125,0.94775390625,-0.307861328125,-6.439208507537842,2.838134527206421,0.1525878757238388,100.0,286757.0,0.0
85195.4034542,316744.8125,345045.0625,340158.96875,316717.15625,322635.28125,312148.84375,317928.90625,282815.90625,-0.03662109375,0.921142578125,-0.389892578125,22.125242233276367,16.113279342651367,-2.136230230331421,100.0,286758.0,1.0
85195.403463,316634.125,345844.34375,340854.65625,317704.65625,324424.3125,313107.0,318927.59375,283610.21875,-0.035888671875,0.919921875,-0.3896484375,22.155759811401367,16.082761764526367,-2.349853277206421,100.0,286759.0,1.0
85195.4034708,316790.3125,347095.15625,341769.71875,318802.15625,326953.8125,313860.34375,320175.0,284342.46875,-0.03466796875,0.92041015625,-0.3896484375,22.216794967651367,15.991209983825684,-2.532958745956421,100.0,286760.0,1.0
85195.4034796,317021.78125,347096.40625,341650.28125,318479.375,326679.15625,313348.3125,319915.53125,283980.09375,-0.0322265625,0.923095703125,-0.393310546875,22.216794967651367,15.930174827575684,-2.685546636581421,100.0,286761.0,1.0
85195.4058135,316984.59375,345833.71875,340658.5625,317217.59375,324069.375,312306.0,318544.90625,283053.46875,-0.030029296875,0.9248046875,-0.394287109375,22.186277389526367,15.930174827575684,-2.990722417831421,100.0,286762.0,1.0
85195.405845,316743.375,345042.1875,340149.65625,316717.15625,322688.65625,312139.0,317925.25,282810.46875,-0.029296875,0.92822265625,-0.398681640625,22.186277389526367,15.960692405700684,-3.234863042831421,100.0,286763.0,1.0
85195.4081805,316637.34375,345851.15625,340853.21875,317692.78125,324457.125,313094.21875,318909.59375,283596.625,-0.025634765625,0.930908203125,-0.39697265625,22.094724655151367,16.174314498901367,-3.479003667831421,100.0,286764.0,1.0
85195.4106538,316793.0,347111.96875,341776.78125,318795.96875,326987.875,313869.5625,320152.375,284337.09375,-0.023681640625,0.932373046875,-0.39892578125,21.850584030151367,16.448972702026367,-3.601073980331421,100.0,286765.0,1.0
85195.4757655,317017.5,347105.71875,341651.71875,318487.25,326729.9375,313376.9375,319906.5,283985.625,-0.020751953125,0.93310546875,-0.40283203125,21.545408248901367,16.754148483276367,-3.479003667831421,100.0,286766.0,1.0
85195.4781289,316973.78125,345809.75,340642.03125,317218.84375,324105.9375,312309.84375,318530.625,283050.78125,-0.018310546875,0.930419921875,-0.405029296875,21.118162155151367,17.028806686401367,-3.417968511581421,100.0,286767.0,1.0
85195.4807502,316739.875,345003.3125,340126.5,316703.75,322690.90625,312115.125,317892.6875,282792.5,-0.01904296875,0.927490234375,-0.40576171875,20.904539108276367,17.333982467651367,-3.448486089706421,100.0,286768.0,1.0
85195.48307,316636.15625,345819.84375,340835.25,317667.75,324436.5625,313056.9375,318865.0,283560.15625,-0.018798828125,0.926513671875,-0.404052734375,20.843503952026367,17.578123092651367,-3.479003667831421,100.0,286769.0,1.0
85195.4882553,316795.84375,347091.0625,341769.71875,318777.46875,326977.6875,313836.375,320111.0625,284298.28125,-0.019775390625,0.92431640625,-0.402587890625,20.721433639526367,17.822263717651367,-3.540038824081421,100.0,286770.0,1.0
85195.4932471,317023.5625,347082.46875,341646.78125,318484.5625,326746.3125,313356.8125,319877.25,283962.5625,-0.0205078125,0.92138671875,-0.39990234375,20.629880905151367,18.035886764526367,-3.417968511581421,100.0,286771.0,1.0
85195.4932664,316980.90625,345781.15625,340630.6875,317226.6875,324130.625,312304.75,318512.71875,283041.21875,-0.019775390625,0.91943359375,-0.40185546875,20.263669967651367,18.218992233276367,-3.326415777206421,100.0,286772.0,1.0
85195.4932692,316743.28125,344967.28125,340109.15625,316698.84375,322691.875,312115.75,317865.15625,282778.71875,-0.019287109375,0.9189453125,-0.401123046875,20.050046920776367,18.310544967651367,-3.509521245956421,100.0,286773.0,1.0
85195.4932715,316650.125,345804.21875,340836.75,317659.6875,324431.375,313070.0,318834.0625,283548.6875,-0.020751953125,0.91650390625,-0.402587890625,19.714353561401367,18.524168014526367,-3.448486089706421,100.0,286774.0,1.0
85195.4932741,316800.125,347088.8125,341776.875,318772.28125,326987.4375,313840.40625,320082.71875,284287.65625,-0.01806640625,0.919677734375,-0.40478515625,19.622800827026367,18.554685592651367,-3.417968511581421,100.0,286775.0,1.0
85195.4957937,317015.78125,347072.71875,341646.0625,318489.40625,326775.71875,313350.8125,319852.40625,283954.53125,-0.017333984375,0.92041015625,-0.407958984375,19.378660202026367,18.707273483276367,-3.662109136581421,100.0,286776.0,1.0
85195.4958115,316974.46875,345760.3125,340622.8125,317232.15625,324166.1875,312299.03125,318490.125,283034.96875,-0.017578125,0.92041015625,-0.408447265625,19.165037155151367,18.859861373901367,-3.784179449081421,100.0,286777.0,1.0
85195.4982754,316747.5625,344947.25,340104.25,316699.65625,322716.125,312103.15625,317838.78125,282767.09375,-0.015869140625,0.91943359375,-0.40673828125,18.951414108276367,19.073484420776367,-3.997802495956421,100.0,286778.0,1.0
85195.498294,316654.125,345790.34375,340831.3125,317646.90625,324427.8125,313046.9375,318790.875,283527.0625,-0.012451171875,0.91943359375,-0.408935546875,18.554685592651367,19.348142623901367,-3.875732183456421,100.0,286779.0,1.0
85195.5032413,316802.71875,347093.375,341785.5625,318765.21875,326998.4375,313835.3125,320044.28125,284275.75,-0.012451171875,0.917724609375,-0.41162109375,18.310544967651367,19.531248092651367,-3.570556402206421,100.0,286780.0,1.0
85195.5032597,317013.03125,347084.53125,341659.65625,318500.65625,326827.75,313368.53125,319836.3125,283964.25,-0.010986328125,0.91796875,-0.412841796875,18.005369186401367,19.622800827026367,-3.448486089706421,100.0,286781.0,1.0
85195.5032628,316976.0,345769.6875,340636.5,317261.84375,324236.125,312321.75,318486.28125,283060.53125,-0.009521484375,0.917724609375,-0.412841796875,17.852781295776367,19.744871139526367,-3.356933355331421,100.0,286782.0,1.0
85195.5032658,316753.46875,344953.9375,340114.09375,316717.875,322770.28125,312127.46875,317832.25,282785.6875,-0.01123046875,0.91845703125,-0.410400390625,17.761228561401367,19.836423873901367,-3.204345464706421,100.0,286783.0,1.0
85195.5032691,316651.46875,345792.84375,340837.125,317637.625,324454.71875,313053.09375,318765.9375,283520.8125,-0.0078125,0.919921875,-0.410400390625,17.517087936401367,19.927976608276367,-2.899169683456421,100.0,286784.0,1.0
85195.5121618,316795.21875,347110.0,341796.90625,318755.1875,327035.09375,313833.34375,320021.375,284263.0625,-0.007080078125,0.922119140625,-0.41064453125,17.211912155151367,20.080564498901367,-2.624511480331421,100.0,286785.0,1.0
85195.5121828,317000.3125,347102.40625,341664.9375,318498.875,326894.09375,313359.9375,319825.6875,283950.21875,-0.007080078125,0.921630859375,-0.412109375,16.845701217651367,20.233152389526367,-2.502441167831421,100.0,286786.0,1.0
85195.5121863,316954.71875,345772.03125,340624.40625,317260.125,324309.0,312301.0,318478.03125,283036.84375,-0.01171875,0.9189453125,-0.411376953125,16.387937545776367,20.446775436401367,-2.319335699081421,100.0,286787.0,1.0
85195.5121896,316731.9375,344943.65625,340094.0625,316709.21875,322816.4375,312095.53125,317811.34375,282757.28125,-0.0126953125,0.913818359375,-0.40869140625,15.930174827575684,20.599363327026367,-2.258300542831421,100.0,286788.0,1.0
85195.51435,316641.25,345806.34375,340830.40625,317627.96875,324497.625,313049.34375,318745.28125,283500.40625,-0.015380859375,0.910400390625,-0.406982421875,15.716551780700684,20.629880905151367,-2.227782964706421,100.0,286789.0,1.0
85195.5206884,316794.78125,347149.25,341807.90625,318758.34375,327117.25,313844.0,320023.4375,284252.15625,-0.015380859375,0.90771484375,-0.41064453125,15.289305686950684,20.599363327026367,-2.166747808456421,100.0,286790.0,1.0
85195.5207116,317003.28125,347140.59375,341681.125,318523.71875,327018.46875,313377.65625,319852.21875,283952.0,-0.019287109375,0.906982421875,-0.4072265625,14.953612327575684,20.599363327026367,-2.136230230331421,100.0,286791.0,1.0
85195.5207159,316965.53125,345796.875,340636.65625,317290.4375,324444.34375,312319.96875,318510.5,283042.3125,-0.0224609375,0.9052734375,-0.412353515625,14.465331077575684,20.507810592651367,-1.9531248807907104,100.0,286792.0,1.0
85195.5207197,316743.90625,344957.78125,340095.125,316722.28125,322914.15625,312092.40625,317832.96875,282748.15625,-0.024169921875,0.9033203125,-0.408203125,14.556883811950684,20.385740280151367,-2.288818120956421,100.0,286793.0,1.0
85195.5207235,316654.3125,345823.53125,340830.40625,317626.875,324527.75,313031.28125,318758.6875,283484.0625,-0.025146484375,0.902099609375,-0.4091796875,14.465331077575684,19.989011764526367,-2.990722417831421,100.0,286794.0,1.0
85195.5207271,316805.3125,347180.625,341816.75,318761.28125,327106.625,313853.03125,320042.65625,284246.0625,-0.0224609375,0.90625,-0.411376953125,14.434813499450684,19.866941452026367,-3.082275152206421,100.0,286795.0,1.0
85195.5207317,317012.65625,347176.0625,341695.96875,318543.3125,326990.46875,313413.40625,319890.84375,283962.46875,-0.0224609375,0.9072265625,-0.416259765625,14.404295921325684,19.622800827026367,-3.265380620956421,100.0,286796.0,1.0
85195.5269689,316967.15625,345806.34375,340637.84375,317308.34375,324375.6875,312342.9375,318544.5625,283047.125,-0.021484375,0.91015625,-0.42236328125,14.465331077575684,19.470212936401367,-3.479003667831421,100.0,286797.0,1.0
85195.5270015,316967.15625,345806.34375,340637.84375,317308.34375,324375.6875,312342.9375,318544.5625,283047.125,-0.021484375,0.91015625,-0.42236328125,14.465331077575684,19.470212936401367,-3.479003667831421,100.0,286798.0,0.0
85195.5270025,316967.15625,345806.34375,340637.84375,317308.34375,324375.6875,312342.9375,318544.5625,283047.125,-0.021484375,0.91015625,-0.42236328125,14.465331077575684,19.470212936401367,-3.479003667831421,100.0,286799.0,0.0
85195.5270033,316967.15625,345806.34375,340637.84375,317308.34375,324375.6875,312342.9375,318544.5625,283047.125,-0.021484375,0.91015625,-0.42236328125,14.465331077575684,19.470212936401367,-3.479003667831421,100.0,286800.0,0.0
85195.5270041,316967.15625,345806.34375,340637.84375,317308.34375,324375.6875,312342.9375,318544.5625,283047.125,-0.021484375,0.91015625,-0.42236328125,14.465331077575684,19.470212936401367,-3.479003667831421,100.0,286801.0,0.0
85195.5270054,316967.15625,345806.34375,340637.84375,317308.34375,324375.6875,312342.9375,318544.5625,283047.125,-0.021484375,0.91015625,-0.42236328125,14.465331077575684,19.470212936401367,-3.479003667831421,100.0,286802.0,0.0
85195.5270062,316967.15625,345806.34375,340637.84375,317308.34375,324375.6875,312342.9375,318544.5625,283047.125,-0.021484375,0.91015625,-0.42236328125,14.465331077575684,19.470212936401367,-3.479003667831421,100.0,286803.0,0.0
85195.527007,316967.15625,345806.34375,340637.84375,317308.34375,324375.6875,312342.9375,318544.5625,283047.125,-0.021484375,0.91015625,-0.42236328125,14.465331077575684,19.470212936401367,-3.479003667831421,100.0,286804.0,0.0
85195.5270077,316967.15625,345806.34375,340637.84375,317308.34375,324375.6875,312342.9375,318544.5625,283047.125,-0.021484375,0.91015625,-0.42236328125,14.465331077575684,19.470212936401367,-3.479003667831421,100.0,286805.0,0.0
85195.5270085,316967.15625,345806.34375,340637.84375,317308.34375,324375.6875,312342.9375,318544.5625,283047.125,-0.021484375,0.91015625,-0.42236328125,14.465331077575684,19.470212936401367,-3.479003667831421,100.0,286806.0,0.0
85195.5270093,316967.15625,345806.34375,340637.84375,317308.34375,324375.6875,312342.9375,318544.5625,283047.125,-0.021484375,0.91015625,-0.42236328125,14.465331077575684,19.470212936401367,-3.479003667831421,100.0,286807.0,0.0
85195.5270101,316967.15625,345806.34375,340637.84375,317308.34375,324375.6875,312342.9375,318544.5625,283047.125,-0.021484375,0.91015625,-0.42236328125,14.465331077575684,19.470212936401367,-3.479003667831421,100.0,286808.0,0.0
85195.5270108,316967.15625,345806.34375,340637.84375,317308.34375,324375.6875,312342.9375,318544.5625,283047.125,-0.021484375,0.91015625,-0.42236328125,14.465331077575684,19.470212936401367,-3.479003667831421,100.0,286809.0,0.0
85195.5270116,316967.15625,345806.34375,340637.84375,317308.34375,324375.6875,312342.9375,318544.5625,283047.125,-0.021484375,0.91015625,-0.42236328125,14.465331077575684,19.470212936401367,-3.479003667831421,100.0,286810.0,0.0
85195.5270124,316967.15625,345806.34375,340637.84375,317308.34375,324375.6875,312342.9375,318544.5625,283047.125,-0.021484375,0.91015625,-0.42236328125,14.465331077575684,19.470212936401367,-3.479003667831421,100.0,286811.0,0.0
85195.5270132,316967.15625,345806.34375,340637.84375,317308.34375,324375.6875,312342.9375,318544.5625,283047.125,-0.021484375,0.91015625,-0.42236328125,14.465331077575684,19.470212936401367,-3.479003667831421,100.0,286812.0,0.0
85195.5270139,316967.15625,345806.34375,340637.84375,317308.34375,324375.6875,312342.9375,318544.5625,283047.125,-0.021484375,0.91015625,-0.42236328125,14.465331077575684,19.470212936401367,-3.479003667831421,100.0,286813.0,0.0
85195.5270147,316967.15625,345806.34375,340637.84375,317308.34375,324375.6875,312342.9375,318544.5625,283047.125,-0.021484375,0.91015625,-0.42236328125,14.465331077575684,19.470212936401367,-3.479003667831421,100.0,286814.0,0.0
85195.5270155,316967.15625,345806.34375,340637.84375,317308.34375,324375.6875,312342.9375,318544.5625,283047.125,-0.021484375,0.91015625,-0.42236328125,14.465331077575684,19.470212936401367,-3.479003667831421,100.0,286815.0,0.0
85195.5270162,316967.15625,345806.34375,340637.84375,317308.34375,324375.6875,312342.9375,318544.5625,283047.125,-0.021484375,0.91015625,-0.42236328125,14.465331077575684,19.470212936401367,-3.479003667831421,100.0,286816.0,0.0
85195.5270169,316967.15625,345806.34375,340637.84375,317308.34375,324375.6875,312342.9375,318544.5625,283047.125,-0.021484375,0.91015625,-0.42236328125,14.465331077575684,19.470212936401367,-3.479003667831421,100.0,286817.0,0.0
85195.5270177,316967.15625,345806.34375,340637.84375,317308.34375,324375.6875,312342.9375,318544.5625,283047.125,-0.021484375,0.91015625,-0.42236328125,14.465331077575684,19.470212936401367,-3.479003667831421,100.0,286818.0,0.0
85195.5270184,316967.15625,345806.34375,340637.84375,317308.34375,324375.6875,312342.9375,318544.5625,283047.125,-0.021484375,0.91015625,-0.42236328125,14.465331077575684,19.470212936401367,-3.479003667831421,100.0,286819.0,0.0
85195.5270192,316967.15625,345806.34375,340637.84375,317308.34375,324375.6875,312342.9375,318544.5625,283047.125,-0.021484375,0.91015625,-0.42236328125,14.465331077575684,19.470212936401367,-3.479003667831421,100.0,286820.0,0.0
85195.5270199,316967.15625,345806.34375,340637.84375,317308.34375,324375.6875,312342.9375,318544.5625,283047.125,-0.021484375,0.91015625,-0.42236328125,14.465331077575684,19.470212936401367,-3.479003667831421,100.0,286821.0,0.0
85195.5270206,316967.15625,345806.34375,340637.84375,317308.34375,324375.6875,312342.9375,318544.5625,283047.125,-0.021484375,0.91015625,-0.42236328125,14.465331077575684,19.470212936401367,-3.479003667831421,100.0,286822.0,0.0
85195.5270214,316751.25,344946.34375,340075.625,316771.875,322737.5625,312089.8125,317977.09375,282755.84375,-0.03173828125,0.929443359375,-0.4013671875,6.469726085662842,14.953612327575684,-2.441406011581421,100.0,286823.0,1.0
85195.5270265,316675.6875,345860.8125,340839.8125,317604.09375,324265.34375,313013.5,318839.25,283447.84375,-0.033203125,0.93310546875,-0.4033203125,5.767821788787842,14.495848655700684,-2.502441167831421,100.0,286824.0,1.0
85195.527031,316815.875,347314.9375,341889.71875,318760.3125,326946.59375,313884.3125,320149.9375,284227.3125,-0.035400390625,0.93505859375,-0.400146484375,5.126952648162842,13.946532249450684,-2.593993902206421,100.0,286825.0,1.0
85195.5270355,316996.125,347307.40625,341769.625,318617.59375,327004.875,313472.15625,320068.40625,283990.375,-0.0390625,0.9345703125,-0.3994140625,4.364013195037842,13.305663108825684,-2.593993902206421,100.0,286826.0,1.0
