Time,FZ,C3,CZ,C4,PZ,PO7,OZ,PO8,AccX,AccY,AccZ,Gyro1,Gyro2,Gyro3,Battery,Counter,Validation
1163141.7848206,302649.0625,315677.8125,344945.90625,327460.3125,308099.5,298417.53125,318265.875,311603.28125,-0.15185546875,0.981689453125,0.309814453125,-5.676269054412842,5.126952648162842,-1.2207030057907104,100.0,138880.0,1.0
1163141.7961419,303435.5,315688.53125,345487.25,328073.375,308159.75,298380.5,318215.53125,311546.21875,-0.15380859375,0.98095703125,0.30810546875,-6.164550304412842,4.821776866912842,-1.0986326932907104,100.0,138881.0,1.0
1163141.8004962,304676.5625,315637.59375,346358.34375,328957.4375,308107.1875,298104.59375,317873.375,311022.125,-0.15380859375,0.981201171875,0.31005859375,-6.530761241912842,4.547118663787842,-1.0070799589157104,100.0,138882.0,1.0
1163141.8005489,304633.5625,315589.3125,346293.09375,328848.34375,307988.09375,297952.4375,317684.1875,310718.59375,-0.15576171875,0.979248046875,0.310791015625,-7.110595226287842,4.302978038787842,-0.8239745497703552,100.0,138883.0,1.0
1163141.8029735,303403.3125,315619.15625,345464.28125,327961.25,308000.875,298158.0625,317952.34375,311104.90625,-0.157470703125,0.97802734375,0.313720703125,-7.446288585662842,3.906249761581421,-0.5798339247703552,100.0,138884.0,1.0
1163141.8030246,302632.53125,315673.78125,344912.375,327432.0625,308089.65625,298409.9375,318260.15625,311580.46875,-0.158447265625,0.9775390625,0.31396484375,-7.751464366912842,3.570556402206421,-0.4272460639476776,100.0,138885.0,1.0
1163141.8167305,303416.53125,315695.25,345461.59375,328054.15625,308166.03125,298389.8125,318229.75,311545.6875,-0.154541015625,0.97900390625,0.317626953125,-8.178709983825684,3.173827886581421,-0.3051757514476776,100.0,138886.0,1.0
1163141.8167851,304683.15625,315647.875,346375.25,328973.96875,308124.34375,298127.3125,317902.15625,311047.53125,-0.1533203125,0.97900390625,0.3193359375,-8.666991233825684,2.960204839706421,-0.1220703050494194,100.0,138887.0,1.0
1163141.8186547,304668.25,315602.625,346353.4375,328893.25,308016.34375,297983.46875,317719.78125,310751.65625,-0.15185546875,0.978515625,0.32275390625,-9.124754905700684,2.899169683456421,0.1525878757238388,100.0,138888.0,1.0
1163141.8223565,303419.65625,315623.625,345488.0625,327974.40625,308009.46875,298171.03125,317957.59375,311103.03125,-0.152099609375,0.9755859375,0.32177734375,-9.521483421325684,2.532958745956421,0.4882812201976776,100.0,138889.0,1.0
1163141.8336776,302611.34375,315672.1875,344874.8125,327401.5625,308078.9375,298403.9375,318243.25,311555.15625,-0.155029296875,0.976318359375,0.3251953125,-9.857176780700684,2.288818120956421,0.7019042372703552,100.0,138890.0,1.0
1163141.8367261,303390.4375,315696.15625,345425.5,328026.09375,308160.84375,298389.625,318229.65625,311543.8125,-0.154541015625,0.97607421875,0.327392578125,-10.284422874450684,2.044677495956421,1.0681151151657104,100.0,138891.0,1.0
1163141.836789,304689.59375,315657.875,346384.90625,328984.25,308132.3125,298138.21875,317921.03125,311071.125,-0.158203125,0.9775390625,0.328857421875,-10.681151390075684,1.8310545682907104,1.3427733182907104,100.0,138892.0,1.0
1163141.8386529,304694.34375,315605.21875,346378.84375,328918.90625,308021.90625,297984.1875,317726.21875,310761.5,-0.160888671875,0.97607421875,0.331787109375,-11.077879905700684,1.6784666776657104,1.4343260526657104,100.0,138893.0,1.0
1163141.8411583,303423.5,315607.4375,345473.75,327969.75,307993.65625,298148.5,317934.1875,311080.5,-0.161376953125,0.971435546875,0.3349609375,-11.505125999450684,1.3122557401657104,1.5563963651657104,100.0,138894.0,1.0
1163141.849907,302593.71875,315662.78125,344835.5,327378.0625,308066.25,298390.78125,318229.9375,311540.25,-0.16015625,0.968017578125,0.336181640625,-11.718749046325684,1.1291502714157104,1.8310545682907104,100.0,138895.0,1.0
1163141.854253,303357.1875,315687.46875,345374.78125,327993.90625,308144.84375,298380.34375,318224.125,311540.6875,-0.156982421875,0.969482421875,0.339599609375,-11.932372093200684,0.8544921278953552,2.075195074081421,100.0,138896.0,1.0
1163141.8543105,304680.03125,315653.84375,346374.09375,328984.25,308129.1875,298142.6875,317929.4375,311088.5625,-0.1552734375,0.96923828125,0.341552734375,-12.207030296325684,0.6408690810203552,2.288818120956421,100.0,138897.0,1.0
1163141.8649233,304711.875,315602.71875,346399.75,328939.46875,308023.15625,297991.5,317733.0,310775.90625,-0.1572265625,0.9677734375,0.343017578125,-12.573241233825684,0.4882812201976776,2.502441167831421,100.0,138898.0,1.0
1163141.8680089,303434.25,315606.125,345478.5,327974.21875,307989.0,298147.15625,317931.75,311071.375,-0.156005859375,0.968017578125,0.343505859375,-12.786864280700684,0.2746581733226776,2.563476324081421,100.0,138899.0,1.0
1163141.868062,302571.8125,315657.96875,344803.75,327349.8125,308056.75,298385.0,318220.375,311515.46875,-0.1552734375,0.96630859375,0.343505859375,-13.061522483825684,0.0610351525247097,2.899169683456421,100.0,138900.0,1.0
1163141.8699036,303342.78125,315699.09375,345361.5625,327982.71875,308161.0,298398.5625,318238.4375,311545.15625,-0.15576171875,0.964599609375,0.347900390625,-13.244627952575684,-0.0610351525247097,3.143310308456421,100.0,138901.0,1.0
1163141.8792493,304700.59375,315675.40625,346408.15625,329011.78125,308159.125,298171.46875,317958.3125,311119.125,-0.154052734375,0.963623046875,0.3505859375,-13.519286155700684,-0.1831054538488388,3.204345464706421,100.0,138902.0,1.0
1163141.8793046,304752.46875,315622.65625,346453.03125,328983.53125,308050.25,298014.46875,317754.90625,310801.28125,-0.152587890625,0.961669921875,0.348876953125,-13.824461936950684,-0.3967284858226776,3.356933355331421,100.0,138903.0,1.0
1163141.8812032,303465.53125,315627.21875,345508.53125,328001.40625,308011.0,298163.78125,317943.375,311080.40625,-0.152099609375,0.9580078125,0.35302734375,-14.007567405700684,-0.4577636420726776,3.417968511581421,100.0,138904.0,1.0
1163141.8949064,302564.84375,315663.78125,344779.59375,327333.96875,308053.46875,298376.59375,318208.5625,311501.71875,-0.151123046875,0.9560546875,0.355712890625,-14.190672874450684,-0.5187987685203552,3.540038824081421,100.0,138905.0,1.0
1163141.8979992,303315.34375,315696.15625,345314.09375,327950.09375,308145.90625,298381.3125,318222.0625,311531.125,-0.14794921875,0.951171875,0.357666015625,-14.282225608825684,-0.7324218153953552,3.479003667831421,100.0,138906.0,1.0
1163141.8980726,304705.6875,315683.4375,346397.4375,329016.25,308160.9375,298169.875,317962.78125,311132.625,-0.145751953125,0.948486328125,0.358154296875,-14.404295921325684,-0.8239745497703552,3.509521245956421,100.0,138907.0,1.0
1163141.8999041,304780.625,315623.28125,346468.96875,329007.6875,308050.875,298004.46875,317752.78125,310809.34375,-0.146240234375,0.94921875,0.361328125,-14.434813499450684,-0.8544921278953552,3.570556402206421,100.0,138908.0,1.0
1163141.9023269,303466.4375,315604.9375,345492.1875,327994.96875,307987.375,298128.46875,317910.3125,311051.0,-0.14111328125,0.948974609375,0.357421875,-14.373778343200684,-0.8239745497703552,3.601073980331421,100.0,138909.0,1.0
1163141.9167509,302537.59375,315649.03125,344739.28125,327307.4375,308039.96875,298360.40625,318191.03125,311477.03125,-0.140869140625,0.94775390625,0.35888671875,-14.434813499450684,-0.7629393935203552,3.723144292831421,100.0,138910.0,1.0
1163141.9168041,303290.03125,315699.625,345288.6875,327935.59375,308152.6875,298391.875,318234.9375,311539.25,-0.14111328125,0.948974609375,0.36181640625,-14.404295921325684,-0.8544921278953552,3.814697027206421,100.0,138911.0,1.0
1163141.9192459,304693.1875,315678.53125,346403.875,329019.3125,308164.6875,298177.75,317975.5,311151.84375,-0.140380859375,0.948974609375,0.363525390625,-14.465331077575684,-0.6713866591453552,3.753661870956421,100.0,138912.0,1.0
1163141.9192969,304788.3125,315614.4375,346496.40625,329025.84375,308051.5,298010.09375,317761.1875,310825.4375,-0.140380859375,0.950439453125,0.366943359375,-14.465331077575684,-0.6713866591453552,3.723144292831421,100.0,138913.0,1.0
1163141.9211656,303471.0,315595.84375,345501.03125,327994.34375,307983.28125,298130.1875,317911.75,311050.8125,-0.14111328125,0.949462890625,0.36865234375,-14.465331077575684,-0.6408690810203552,3.692626714706421,100.0,138914.0,1.0
1163141.9273503,302511.5625,315636.59375,344703.78125,327271.21875,308023.875,298350.90625,318179.25,311461.125,-0.14306640625,0.94970703125,0.371826171875,-14.465331077575684,-0.6103515028953552,3.601073980331421,100.0,138915.0,1.0
1163141.9386812,303248.09375,315686.65625,345239.0625,327888.75,308134.28125,298383.65625,318225.65625,311528.96875,-0.14453125,0.947998046875,0.370849609375,-14.404295921325684,-0.6408690810203552,3.570556402206421,100.0,138916.0,1.0
1163141.9423407,304688.53125,315677.46875,346404.21875,329015.28125,308164.78125,298186.9375,317988.28125,311167.40625,-0.143310546875,0.95068359375,0.374267578125,-14.404295921325684,-0.5798339247703552,3.540038824081421,100.0,138917.0,1.0
1163141.9423896,304821.3125,315621.21875,346537.25,329053.71875,308061.875,298025.5625,317772.875,310840.90625,-0.14111328125,0.9501953125,0.376953125,-14.373778343200684,-0.6103515028953552,3.540038824081421,100.0,138918.0,1.0
1163141.9424032,303491.8125,315598.25,345518.75,328008.8125,307984.96875,298136.34375,317908.15625,311043.21875,-0.14501953125,0.951171875,0.3818359375,-14.404295921325684,-0.4882812201976776,3.417968511581421,100.0,138919.0,1.0
1163141.9448878,302496.28125,315634.28125,344675.4375,327246.625,308014.5625,298346.09375,318164.9375,311437.59375,-0.146484375,0.94921875,0.38134765625,-14.434813499450684,-0.6408690810203552,3.387450933456421,100.0,138920.0,1.0
1163141.9474032,303227.4375,315690.78125,345213.78125,327866.21875,308135.4375,298385.25,318223.59375,311522.0,-0.145263671875,0.949951171875,0.381103515625,-14.404295921325684,-0.6713866591453552,3.356933355331421,100.0,138921.0,1.0
1163141.9511973,304697.5625,315690.78125,346427.5625,329031.46875,308185.0625,298203.65625,318006.40625,311188.0625,-0.142578125,0.947998046875,0.3818359375,-14.251708030700684,-0.5798339247703552,3.265380620956421,100.0,138922.0,1.0
1163141.9598524,304852.25,315630.15625,346584.03125,329085.71875,308077.875,298036.21875,317786.84375,310858.0625,-0.1435546875,0.9462890625,0.3837890625,-14.190672874450684,-0.5798339247703552,3.234863042831421,100.0,138923.0,1.0
1163141.9642495,303509.34375,315592.4375,345534.375,328012.65625,307977.90625,298124.0,317892.875,311027.5,-0.14111328125,0.9453125,0.386962890625,-14.038084983825684,-0.6713866591453552,3.143310308456421,100.0,138924.0,1.0
1163141.9643057,302479.375,315617.46875,344643.34375,327217.5,307991.84375,298318.71875,318137.75,311407.75,-0.138427734375,0.945556640625,0.389404296875,-14.038084983825684,-0.6103515028953552,2.960204839706421,100.0,138925.0,1.0
1163141.9749212,303200.4375,315682.65625,345171.84375,327835.03125,308119.15625,298371.9375,318214.65625,311510.09375,-0.13818359375,0.945556640625,0.39111328125,-13.885497093200684,-0.6103515028953552,2.960204839706421,100.0,138926.0,1.0
1163141.9779358,304697.21875,315691.6875,346424.4375,329034.78125,308183.625,298207.4375,318016.15625,311202.28125,-0.1396484375,0.9453125,0.393310546875,-13.671874046325684,-0.6103515028953552,2.838134527206421,100.0,138927.0,1.0
1163141.9779873,304869.3125,315623.09375,346594.9375,329103.625,308067.59375,298027.53125,317781.46875,310861.375,-0.138671875,0.94384765625,0.396728515625,-13.610838890075684,-0.5187987685203552,2.655029058456421,100.0,138928.0,1.0
1163141.9799085,303520.875,315586.8125,345535.46875,328024.28125,307968.15625,298110.0625,317881.6875,311019.09375,-0.1357421875,0.9443359375,0.399169921875,-13.610838890075684,-0.4272460639476776,2.685546636581421,100.0,138929.0,1.0
1163141.9998405,302465.59375,315619.53125,344623.9375,327207.46875,307989.0,298315.78125,318133.5625,311400.59375,-0.130615234375,0.9453125,0.402099609375,-13.427733421325684,-0.2746581733226776,2.685546636581421,100.0,138930.0,1.0
1163141.9998959,303178.0,315688.09375,345143.40625,327815.09375,308119.625,298375.78125,318213.65625,311515.21875,-0.129638671875,0.945556640625,0.403564453125,-13.305663108825684,-0.1525878757238388,2.746581792831421,100.0,138931.0,1.0
1163141.999914,304703.46875,315702.9375,346432.375,329041.3125,308190.4375,298214.5625,318024.03125,311224.09375,-0.126953125,0.94677734375,0.40625,-13.122557640075684,0.03051757626235485,2.960204839706421,100.0,138932.0,1.0
1163142.0024057,304917.15625,315642.15625,346654.03125,329150.90625,308094.125,298044.34375,317802.125,310894.53125,-0.124267578125,0.947021484375,0.4111328125,-12.969969749450684,0.1525878757238388,3.051757574081421,100.0,138933.0,1.0
1163142.0049478,303558.59375,315593.0625,345576.21875,328053.4375,307982.8125,298116.21875,317885.71875,311025.96875,-0.1220703125,0.94677734375,0.413818359375,-12.908934593200684,0.3967284858226776,3.143310308456421,100.0,138934.0,1.0
1163142.0072833,302460.6875,315611.375,344611.96875,327194.875,307983.4375,298309.78125,318120.78125,311383.34375,-0.125,0.94677734375,0.416259765625,-12.786864280700684,0.5493163466453552,3.173827886581421,100.0,138935.0,1.0
1163142.0111557,303150.375,315679.5,345117.5625,327791.5625,308113.53125,298371.84375,318210.53125,311506.71875,-0.121826171875,0.944091796875,0.4189453125,-12.634276390075684,0.7934569716453552,3.417968511581421,100.0,138936.0,1.0
1163142.0148609,304697.9375,315699.8125,346441.40625,329047.5625,308196.0625,298224.15625,318039.3125,311242.0625,-0.121337890625,0.9453125,0.41845703125,-12.420653343200684,1.0681151151657104,3.631591558456421,100.0,138937.0,1.0
1163142.0192505,304932.0,315637.03125,346685.0625,329175.40625,308092.34375,298050.15625,317811.4375,310911.25,-0.119873046875,0.94384765625,0.419921875,-12.207030296325684,1.2512205839157104,3.784179449081421,100.0,138938.0,1.0
1163142.0193118,303566.75,315591.71875,345594.46875,328068.28125,307977.625,298115.4375,317887.0625,311029.1875,-0.11767578125,0.9462890625,0.421630859375,-12.023924827575684,1.5563963651657104,3.936767339706421,100.0,138939.0,1.0
1163142.0324156,302449.78125,315619.25,344606.15625,327189.78125,307985.59375,298313.375,318126.84375,311384.03125,-0.118896484375,0.944091796875,0.42236328125,-11.779784202575684,1.7700194120407104,4.119872570037842,100.0,138940.0,1.0
1163142.0403032,303125.875,315691.3125,345098.625,327775.65625,308117.90625,298380.5,318220.28125,311516.53125,-0.121826171875,0.944580078125,0.421142578125,-11.444090843200684,2.014159917831421,4.272460460662842,100.0,138941.0,1.0
1163142.0403608,304696.40625,315715.46875,346453.9375,329060.78125,308214.84375,298242.125,318061.59375,311271.9375,-0.124267578125,0.947509765625,0.420166015625,-11.260985374450684,2.105712652206421,4.272460460662842,100.0,138942.0,1.0
1163142.0474011,304966.6875,315655.71875,346741.375,329220.28125,308123.8125,298075.46875,317841.28125,310944.4375,-0.125732421875,0.9462890625,0.4208984375,-11.016844749450684,2.288818120956421,4.302978038787842,100.0,138943.0,1.0
1163142.0499162,303592.9375,315594.65625,345629.15625,328092.15625,307988.625,298124.0,317892.4375,311030.71875,-0.126953125,0.9462890625,0.428955078125,-10.742186546325684,2.166747808456421,4.364013195037842,100.0,138944.0,1.0
1163142.0524034,302436.625,315609.40625,344590.5,327171.25,307976.5625,298303.4375,318114.15625,311369.1875,-0.130126953125,0.945068359375,0.426513671875,-10.589598655700684,2.136230230331421,4.241942882537842,100.0,138945.0,1.0
1163142.055499,303097.34375,315684.15625,345068.75,327747.03125,308113.625,298376.125,318218.65625,311513.9375,-0.12890625,0.9443359375,0.42724609375,-10.314940452575684,2.227782964706421,4.211425304412842,100.0,138946.0,1.0
1163142.0555551,304693.4375,315718.9375,346457.96875,329060.15625,308221.28125,298250.4375,318076.15625,311288.65625,-0.130859375,0.945068359375,0.430419921875,-10.009764671325684,2.197265386581421,4.089354991912842,100.0,138947.0,1.0
1163142.0579649,304982.6875,315652.5,346763.28125,329234.59375,308122.84375,298074.75,317845.125,310955.4375,-0.135009765625,0.945556640625,0.4345703125,-9.887694358825684,2.136230230331421,3.814697027206421,100.0,138948.0,1.0
1163142.0580151,303601.53125,315581.53125,345636.125,328094.5625,307974.34375,298104.59375,317876.78125,311026.0625,-0.138916015625,0.945068359375,0.4365234375,-9.643553733825684,2.075195074081421,3.753661870956421,100.0,138949.0,1.0
1163142.071205,302417.6875,315593.59375,344558.78125,327144.71875,307955.03125,298280.375,318091.625,311351.40625,-0.14013671875,0.946044921875,0.439208984375,-9.490965843200684,1.9226073026657104,3.570556402206421,100.0,138950.0,1.0
1163142.0760118,303065.0,315672.90625,345033.15625,327717.53125,308099.84375,298366.125,318210.71875,311511.09375,-0.141845703125,0.946044921875,0.440185546875,-9.277342796325684,1.8615721464157104,3.295898199081421,100.0,138951.0,1.0
1163142.076063,304677.34375,315707.40625,346451.6875,329053.09375,308213.6875,298245.40625,318074.0,311301.53125,-0.141357421875,0.947021484375,0.44091796875,-9.185790061950684,1.6784666776657104,3.112792730331421,100.0,138952.0,1.0
1163142.0760748,304996.09375,315644.28125,346784.90625,329251.75,308117.5625,298071.34375,317842.8125,310969.03125,-0.139892578125,0.946533203125,0.438232421875,-9.063719749450684,1.4038084745407104,2.807616949081421,100.0,138953.0,1.0
1163142.0786546,303636.125,315594.03125,345679.9375,328129.25,307991.5,298125.71875,317894.21875,311046.1875,-0.139404296875,0.945556640625,0.43603515625,-8.911131858825684,1.3732908964157104,2.471923589706421,100.0,138954.0,1.0
1163142.0899099,302432.34375,315609.78125,344581.3125,327158.375,307977.1875,298306.03125,318113.25,311366.4375,-0.1396484375,0.945068359375,0.43603515625,-8.666991233825684,1.3122557401657104,2.166747808456421,100.0,138955.0,1.0
1163142.0942556,303044.4375,315673.0,345016.09375,327700.09375,308103.4375,298374.15625,318220.28125,311513.25,-0.135986328125,0.9443359375,0.441162109375,-8.453368186950684,1.1596678495407104,1.9531248807907104,100.0,138956.0,1.0
1163142.0943057,304671.5625,315708.9375,346453.21875,329058.03125,308220.125,298255.6875,318091.96875,311318.59375,-0.133544921875,0.9462890625,0.441162109375,-8.331297874450684,1.1596678495407104,1.8615721464157104,100.0,138957.0,1.0
1163142.1030009,305027.125,315651.625,346831.78125,329293.59375,308137.84375,298089.5,317869.34375,310997.53125,-0.13330078125,0.946533203125,0.441650390625,-8.178709983825684,1.2207030057907104,1.9226073026657104,100.0,138958.0,1.0
1163142.1030526,303651.25,315579.8125,345702.75,328149.5625,307989.4375,298117.03125,317891.71875,311043.75,-0.13134765625,0.94921875,0.439697265625,-8.026122093200684,1.3122557401657104,2.044677495956421,100.0,138959.0,1.0
1163142.1117508,302411.59375,315585.625,344559.125,327142.75,307960.5625,298286.625,318097.09375,311347.65625,-0.127197265625,0.951171875,0.4384765625,-7.812499523162842,1.4343260526657104,2.136230230331421,100.0,138960.0,1.0
1163142.1118062,303016.90625,315665.75,344985.78125,327679.71875,308101.75,298373.625,318221.4375,311515.75,-0.12646484375,0.9521484375,0.43896484375,-7.812499523162842,1.5258787870407104,2.166747808456421,100.0,138961.0,1.0
1163142.1154575,304654.5625,315704.5625,346444.53125,329054.1875,308227.4375,298261.0625,318102.875,311334.15625,-0.1279296875,0.95361328125,0.44189453125,-7.629394054412842,1.6784666776657104,2.410888433456421,100.0,138962.0,1.0
1163142.1155066,305034.8125,315644.71875,346853.125,329312.8125,308150.65625,298096.375,317881.4375,311011.5625,-0.125,0.954345703125,0.44140625,-7.629394054412842,1.9226073026657104,2.502441167831421,100.0,138963.0,1.0
1163142.1236511,303667.875,315573.3125,345727.40625,328167.96875,307999.0,298121.21875,317897.0625,311045.90625,-0.123779296875,0.955810546875,0.440673828125,-7.568358898162842,2.136230230331421,2.685546636581421,100.0,138964.0,1.0
1163142.1305005,302402.75,315577.3125,344553.59375,327133.71875,307957.96875,298285.90625,318093.40625,311337.03125,-0.126220703125,0.9580078125,0.440185546875,-7.507323741912842,2.288818120956421,2.929687261581421,100.0,138965.0,1.0
1163142.1305509,302987.03125,315663.78125,344961.71875,327653.875,308099.59375,298377.46875,318222.96875,311511.53125,-0.129150390625,0.95947265625,0.44140625,-7.537841320037842,2.441406011581421,3.051757574081421,100.0,138966.0,1.0
1163142.1392481,304642.125,315708.65625,346441.6875,329047.46875,308234.0625,298273.21875,318113.25,311350.6875,-0.12841796875,0.95751953125,0.44189453125,-7.690429210662842,2.532958745956421,3.204345464706421,100.0,138967.0,1.0
1163142.1393031,305026.5,315640.0,346831.3125,329298.25,308144.21875,298091.0,317872.84375,311008.28125,-0.13330078125,0.958251953125,0.4423828125,-7.781981945037842,2.624511480331421,3.387450933456421,100.0,138968.0,1.0
1163142.1453524,303666.96875,315575.90625,345692.625,328152.9375,307993.1875,298114.875,317888.40625,311033.65625,-0.13330078125,0.9580078125,0.443115234375,-8.026122093200684,2.685546636581421,3.570556402206421,100.0,138969.0,1.0
1163142.1454028,302382.375,315576.78125,344508.15625,327106.0,307950.09375,298274.3125,318079.71875,311321.46875,-0.133544921875,0.955322265625,0.44482421875,-8.117674827575684,2.655029058456421,3.509521245956421,100.0,138970.0,1.0
1163142.1536801,302948.3125,315660.1875,344905.59375,327611.5,308090.75,298364.875,318204.8125,311492.75,-0.13623046875,0.95654296875,0.447509765625,-8.361815452575684,2.655029058456421,3.631591558456421,100.0,138971.0,1.0
1163142.1685173,304625.59375,315714.375,346419.5,329032.96875,308238.71875,298275.8125,318112.71875,311345.78125,-0.135009765625,0.95751953125,0.44873046875,-8.514403343200684,2.624511480331421,3.753661870956421,100.0,138972.0,1.0
1163142.1685669,305069.5,315658.78125,346895.78125,329350.65625,308170.5,298113.1875,317895.28125,311033.84375,-0.137939453125,0.95556640625,0.449951171875,-8.697508811950684,2.380370855331421,3.784179449081421,100.0,138973.0,1.0
1163142.1685811,303713.625,315580.8125,345770.6875,328207.5,308010.53125,298128.125,317898.3125,311046.8125,-0.138916015625,0.953857421875,0.448486328125,-8.819579124450684,2.288818120956421,3.784179449081421,100.0,138974.0,1.0
1163142.171747,302399.53125,315579.28125,344540.09375,327122.1875,307955.71875,298284.9375,318082.15625,311319.75,-0.138916015625,0.95263671875,0.44970703125,-8.972167015075684,2.044677495956421,3.692626714706421,100.0,138975.0,1.0
1163142.1718049,302938.03125,315664.75,344907.09375,327604.625,308095.375,298378.8125,318215.8125,311501.875,-0.139892578125,0.950439453125,0.448486328125,-9.063719749450684,1.8310545682907104,3.692626714706421,100.0,138976.0,1.0
1163142.1736021,304625.3125,315722.4375,346430.875,329036.1875,308249.875,298293.34375,318133.5625,311373.9375,-0.140380859375,0.94873046875,0.44873046875,-9.124754905700684,1.5563963651657104,3.784179449081421,100.0,138977.0,1.0
1163142.1761631,305091.65625,315663.78125,346930.03125,329373.4375,308180.15625,298126.0625,317909.875,311058.5,-0.14111328125,0.94580078125,0.44677734375,-9.094237327575684,1.3122557401657104,3.662109136581421,100.0,138978.0,1.0
1163142.1849032,303737.96875,315580.1875,345804.84375,328227.78125,308012.59375,298129.0,317894.21875,311049.9375,-0.142333984375,0.943115234375,0.447021484375,-9.094237327575684,1.0986326932907104,3.601073980331421,100.0,138979.0,1.0
1163142.1917463,302400.6875,315582.40625,344548.9375,327121.28125,307954.84375,298282.78125,318073.03125,311316.09375,-0.140625,0.941650390625,0.450439453125,-8.972167015075684,0.7629393935203552,3.570556402206421,100.0,138980.0,1.0
1163142.1918065,302915.15625,315665.75,344891.28125,327584.0625,308092.0,298380.25,318212.0625,311500.4375,-0.138427734375,0.939453125,0.4501953125,-8.850096702575684,0.4272460639476776,3.570556402206421,100.0,138981.0,1.0
1163142.1936839,304613.25,315724.75,346428.0,329032.8125,308250.40625,298300.59375,318137.75,311381.4375,-0.137939453125,0.936279296875,0.44970703125,-8.697508811950684,0.1220703050494194,3.509521245956421,100.0,138982.0,1.0
1163142.1961716,305116.625,315674.25,346961.125,329401.78125,308189.34375,298138.59375,317921.65625,311071.75,-0.136962890625,0.93408203125,0.44970703125,-8.514403343200684,-0.2136230319738388,3.448486089706421,100.0,138983.0,1.0
1163142.2049068,303771.3125,315594.03125,345839.4375,328258.375,308019.75,298142.0625,317903.875,311058.5,-0.136474609375,0.931640625,0.450927734375,-8.331297874450684,-0.5187987685203552,3.417968511581421,100.0,138984.0,1.0
1163142.2080009,302407.6875,315588.75,344553.84375,327126.90625,307954.65625,298289.0625,318080.8125,311317.25,-0.13330078125,0.927734375,0.45068359375,-7.995604991912842,-0.8544921278953552,3.356933355331421,100.0,138985.0,1.0
1163142.2080576,302888.3125,315660.5625,344859.4375,327558.125,308080.375,298371.75,318207.59375,311495.1875,-0.130859375,0.926513671875,0.451416015625,-7.659911632537842,-1.1291502714157104,3.326415777206421,100.0,138986.0,1.0
1163142.2136699,304586.0625,315717.15625,346394.9375,329004.375,308235.125,298284.65625,318125.96875,311378.6875,-0.129638671875,0.927001953125,0.450439453125,-7.324218273162842,-1.4343260526657104,3.265380620956421,100.0,138987.0,1.0
1163142.2230015,305128.59375,315681.5625,346969.28125,329409.75,308190.78125,298136.15625,317926.9375,311083.1875,-0.12548828125,0.92724609375,0.451171875,-6.927489757537842,-1.7395018339157104,3.417968511581421,100.0,138988.0,1.0
1163142.2230524,303786.5,315588.3125,345849.0,328267.03125,308012.34375,298124.09375,317898.0625,311050.90625,-0.123046875,0.926025390625,0.451904296875,-6.500243663787842,-1.8920897245407104,3.479003667831421,100.0,138989.0,1.0
1163142.2255041,302393.28125,315567.40625,344536.875,327105.71875,307933.84375,298256.59375,318055.59375,311291.34375,-0.122314453125,0.924560546875,0.452392578125,-6.134032726287842,-2.014159917831421,3.631591558456421,100.0,138990.0,1.0
1163142.2255585,302858.1875,315649.125,344830.40625,327527.8125,308066.875,298353.6875,318193.0,311482.84375,-0.119384765625,0.92529296875,0.453125,-5.706786632537842,-2.166747808456421,3.692626714706421,100.0,138991.0,1.0
1163142.2336576,304574.1875,315721.28125,346391.34375,328998.46875,308244.25,298290.125,318136.0625,311388.25,-0.12109375,0.929443359375,0.4521484375,-5.249022960662842,-2.288818120956421,3.723144292831421,100.0,138992.0,1.0
1163142.2373638,305124.125,315664.84375,346979.46875,329414.125,308187.46875,298125.25,317917.28125,311078.90625,-0.11865234375,0.9287109375,0.45166015625,-4.943847179412842,-2.380370855331421,3.814697027206421,100.0,138993.0,1.0
1163142.2412254,303797.78125,315572.6875,345871.71875,328279.375,308008.9375,298113.8125,317882.59375,311042.59375,-0.117919921875,0.930419921875,0.449951171875,-4.699706554412842,-2.471923589706421,3.753661870956421,100.0,138994.0,1.0
1163142.2529576,302400.4375,315568.75,344550.46875,327112.34375,307942.0625,298263.40625,318055.78125,311294.1875,-0.119140625,0.9306640625,0.447998046875,-4.394530773162842,-2.593993902206421,3.692626714706421,100.0,138995.0,1.0
1163142.253008,302846.3125,315659.3125,344822.6875,327517.0,308083.125,298373.8125,318209.71875,311494.46875,-0.11865234375,0.931640625,0.450927734375,-4.028319835662842,-2.624511480331421,3.601073980331421,100.0,138996.0,1.0
1163142.254906,304563.46875,315729.65625,346382.84375,328986.75,308256.6875,298307.65625,318155.28125,311402.1875,-0.115966796875,0.933349609375,0.447265625,-3.936767339706421,-2.685546636581421,3.417968511581421,100.0,138997.0,1.0
1163142.2574279,305141.90625,315675.3125,346998.875,329423.6875,308199.53125,298139.5625,317937.125,311091.6875,-0.11181640625,0.9326171875,0.446533203125,-3.631591558456421,-2.746581792831421,3.326415777206421,100.0,138998.0,1.0
1163142.2612767,303827.09375,315573.375,345896.21875,328294.65625,308012.5,298114.09375,317889.5625,311039.125,-0.104248046875,0.935302734375,0.444091796875,-3.417968511581421,-2.746581792831421,3.234863042831421,100.0,138999.0,1.0
1163142.2704984,302410.34375,315562.21875,344556.09375,327111.8125,307935.09375,298254.4375,318051.84375,311283.46875,-0.10009765625,0.935791015625,0.438720703125,-3.112792730331421,-2.655029058456421,3.326415777206421,100.0,139000.0,1.0
1163142.2705515,302832.8125,315655.90625,344809.5625,327501.34375,308076.875,298368.1875,318208.5625,311491.59375,-0.10009765625,0.94140625,0.440185546875,-2.899169683456421,-2.532958745956421,3.356933355331421,100.0,139001.0,1.0
1163142.2723472,304543.59375,315720.28125,346363.90625,328968.6875,308246.125,298299.25,318151.4375,311399.6875,-0.098388671875,0.9453125,0.4404296875,-2.593993902206421,-2.288818120956421,3.448486089706421,100.0,139002.0,1.0
1163142.2836556,305149.25,315670.9375,347004.40625,329429.21875,308193.75,298133.3125,317934.0,311093.65625,-0.099609375,0.948974609375,0.43896484375,-2.655029058456421,-2.105712652206421,3.326415777206421,100.0,139003.0,1.0
1163142.2867491,303853.03125,315579.03125,345927.0625,328320.84375,308017.4375,298117.21875,317894.21875,311046.0,-0.098388671875,0.95068359375,0.437744140625,-2.532958745956421,-1.7700194120407104,3.234863042831421,100.0,139004.0,1.0
1163142.2867987,302422.15625,315565.875,344578.34375,327127.90625,307940.8125,298258.03125,318058.28125,311288.5625,-0.09716796875,0.95068359375,0.439453125,-2.624511480331421,-1.5563963651657104,3.112792730331421,100.0,139005.0,1.0
1163142.2886072,302817.5,315655.65625,344798.5625,327488.3125,308074.03125,298369.96875,318207.84375,311493.21875,-0.093994140625,0.94970703125,0.43994140625,-2.563476324081421,-1.3427733182907104,3.051757574081421,100.0,139006.0,1.0
1163142.2974067,304529.21875,315722.96875,346353.15625,328956.53125,308246.5,298308.4375,318151.15625,311406.84375,-0.0908203125,0.946044921875,0.439208984375,-2.593993902206421,-1.0375975370407104,2.929687261581421,100.0,139007.0,1.0
1163142.3017528,305156.65625,315667.8125,347013.1875,329437.28125,308193.09375,298134.28125,317924.875,311093.28125,-0.092529296875,0.9453125,0.435791015625,-2.655029058456421,-0.7629393935203552,2.838134527206421,100.0,139008.0,1.0
1163142.3018085,303875.1875,315573.21875,345941.625,328336.6875,308007.9375,298105.21875,317870.4375,311033.5625,-0.09423828125,0.945556640625,0.43701171875,-2.624511480331421,-0.4577636420726776,2.655029058456421,100.0,139009.0,1.0
1163142.3098561,302426.09375,315561.59375,344574.78125,327125.40625,307926.40625,298244.625,318033.875,311273.28125,-0.095703125,0.94677734375,0.437744140625,-2.563476324081421,-0.2136230319738388,2.502441167831421,100.0,139010.0,1.0
1163142.3142517,302788.71875,315644.90625,344766.03125,327456.75,308054.09375,298354.0625,318188.09375,311477.65625,-0.09765625,0.948974609375,0.43505859375,-2.563476324081421,0.0,2.380370855331421,100.0,139011.0,1.0
1163142.3143025,304504.34375,315717.5,346324.5625,328932.59375,308234.40625,298300.59375,318148.5,311403.0,-0.100341796875,0.949951171875,0.4345703125,-2.593993902206421,0.1831054538488388,2.197265386581421,100.0,139012.0,1.0
1163142.3230042,305159.53125,315666.625,347012.0,329438.53125,308189.625,298132.84375,317931.21875,311095.53125,-0.100341796875,0.9521484375,0.4365234375,-2.593993902206421,0.3967284858226776,1.9226073026657104,100.0,139013.0,1.0
1163142.3230601,303891.90625,315569.90625,345954.25,328348.65625,308005.4375,298100.3125,317873.84375,311028.5625,-0.1025390625,0.949462890625,0.437255859375,-2.593993902206421,0.5493163466453552,1.7089842557907104,100.0,139014.0,1.0
1163142.3249281,302422.96875,315551.40625,344574.5,327123.0625,307919.875,298236.03125,318031.375,311261.03125,-0.105224609375,0.94921875,0.436767578125,-2.563476324081421,0.7019042372703552,1.4648436307907104,100.0,139015.0,1.0
1163142.3286197,302761.625,315636.96875,344743.75,327435.5625,308046.46875,298344.5625,318185.0625,311469.15625,-0.106689453125,0.947265625,0.433837890625,-2.563476324081421,0.8850097060203552,1.2512205839157104,100.0,139016.0,1.0
1163142.3429655,304483.15625,315716.875,346302.21875,328911.3125,308230.46875,298292.09375,318145.0,311402.375,-0.106689453125,0.94384765625,0.4326171875,-2.380370855331421,1.0375975370407104,1.0681151151657104,100.0,139017.0,1.0
1163142.3430138,305167.5625,315669.21875,347013.34375,329440.40625,308189.96875,298128.3125,317927.46875,311096.25,-0.107177734375,0.943603515625,0.43701171875,-2.197265386581421,1.2207030057907104,0.9155272841453552,100.0,139018.0,1.0
1163142.3449041,303924.09375,315581.25,345982.5,328372.09375,308018.84375,298107.28125,317878.46875,311034.71875,-0.109619140625,0.943603515625,0.434814453125,-2.258300542831421,1.1901854276657104,0.8544921278953552,100.0,139019.0,1.0
1163142.3473362,302447.625,315567.40625,344591.40625,327135.0625,307933.84375,298247.21875,318040.65625,311269.6875,-0.1142578125,0.9453125,0.434814453125,-2.105712652206421,1.3732908964157104,0.7629393935203552,100.0,139020.0,1.0
1163142.3497807,302745.53125,315640.96875,344722.84375,327410.0625,308045.84375,298350.5625,318186.3125,311467.71875,-0.115234375,0.947509765625,0.43505859375,-1.9226073026657104,1.4343260526657104,0.6713866591453552,100.0,139021.0,1.0
1163142.3562037,304464.46875,315722.25,346287.46875,328893.25,308235.5625,298305.9375,318155.46875,311411.125,-0.115234375,0.94921875,0.436767578125,-2.044677495956421,1.5258787870407104,0.7324218153953552,100.0,139022.0,1.0
1163142.3592744,305181.15625,315681.40625,347032.65625,329455.25,308202.5,298144.375,317947.21875,311111.96875,-0.115966796875,0.947265625,0.4365234375,-2.014159917831421,1.4953612089157104,0.7629393935203552,100.0,139023.0,1.0
1163142.3593336,303948.5,315584.21875,346005.375,328393.71875,308017.875,298104.34375,317880.1875,311031.4375,-0.11767578125,0.94775390625,0.434326171875,-1.9836424589157104,1.4038084745407104,0.7629393935203552,100.0,139024.0,1.0
1163142.3699059,302454.34375,315562.46875,344598.125,327142.28125,307923.90625,298236.5625,318031.71875,311258.78125,-0.120361328125,0.945556640625,0.436279296875,-1.8920897245407104,1.3122557401657104,0.7934569716453552,100.0,139025.0,1.0
1163142.3730013,302735.71875,315644.71875,344711.21875,327402.65625,308044.25,298353.34375,318187.1875,311468.8125,-0.122802734375,0.94482421875,0.43603515625,-1.9531248807907104,1.1901854276657104,0.7629393935203552,100.0,139026.0,1.0
1163142.3730513,304444.28125,315723.15625,346266.0,328879.65625,308233.0625,298309.15625,318157.59375,311414.875,-0.125244140625,0.9453125,0.434326171875,-1.8310545682907104,1.1291502714157104,0.9765624403953552,100.0,139027.0,1.0
1163142.3786581,305184.28125,315681.40625,347035.34375,329461.96875,308202.9375,298147.53125,317946.34375,311116.0,-0.12646484375,0.946533203125,0.4375,-1.7700194120407104,0.9155272841453552,1.1291502714157104,100.0,139028.0,1.0
1163142.3855531,303972.125,315583.5,346027.71875,328413.21875,308020.03125,298110.5,317882.0625,311035.1875,-0.125,0.945556640625,0.438232421875,-1.6784666776657104,0.7629393935203552,1.1901854276657104,100.0,139029.0,1.0
1163142.3856046,302459.96875,315561.125,344603.75,327143.1875,307924.0,298242.125,318033.0625,311257.96875,-0.123291015625,0.9462890625,0.4404296875,-1.6784666776657104,0.6408690810203552,1.3122557401657104,100.0,139030.0,1.0
1163142.4104514,302720.15625,315650.46875,344696.625,327388.625,308048.4375,298364.34375,318195.4375,311471.46875,-0.12353515625,0.947998046875,0.439208984375,-1.8005369901657104,0.4882812201976776,1.4343260526657104,100.0,139031.0,1.0
1163142.4105021,304444.1875,315742.375,346262.59375,328880.71875,308250.59375,298334.46875,318182.8125,311434.28125,-0.122314453125,0.947021484375,0.435302734375,-1.8920897245407104,0.2441406100988388,1.7089842557907104,100.0,139032.0,1.0
1163142.4130154,305199.5,315689.25,347039.8125,329471.25,308208.3125,298158.25,317955.5625,311120.84375,-0.123779296875,0.945556640625,0.43505859375,-1.9531248807907104,0.1220703050494194,1.9531248807907104,100.0,139033.0,1.0
1163142.413066,303997.96875,315580.625,346041.15625,328429.75,308016.25,298105.21875,317871.78125,311025.25,-0.123046875,0.94482421875,0.43701171875,-1.8920897245407104,-0.03051757626235485,2.136230230331421,100.0,139034.0,1.0
1163142.4173377,302461.5,315544.34375,344591.6875,327138.625,307901.8125,298217.53125,318003.8125,311233.40625,-0.1201171875,0.93994140625,0.43701171875,-1.8920897245407104,-0.2136230319738388,2.380370855331421,100.0,139035.0,1.0
1163142.4173876,302684.03125,315624.34375,344648.34375,327353.90625,308014.21875,298330.625,318160.65625,311446.90625,-0.118408203125,0.93701171875,0.432861328125,-1.7700194120407104,-0.3051757514476776,2.593993902206421,100.0,139036.0,1.0
1163142.4174006,304393.75,315709.28125,346201.8125,328834.21875,308210.8125,298296.46875,318145.71875,311408.90625,-0.115234375,0.936279296875,0.43212890625,-1.5258787870407104,-0.4272460639476776,2.655029058456421,100.0,139037.0,1.0
1163142.424256,305191.09375,315677.28125,347025.96875,329465.34375,308195.0,298140.71875,317942.75,311117.625,-0.115234375,0.933349609375,0.429931640625,-1.0986326932907104,-0.3967284858226776,2.807616949081421,100.0,139038.0,1.0
1163142.4243135,304020.9375,315585.28125,346064.65625,328453.53125,308022.0625,298106.46875,317877.84375,311031.15625,-0.115234375,0.934326171875,0.4267578125,-1.0375975370407104,-0.4882812201976776,3.112792730331421,100.0,139039.0,1.0
1163142.4266967,302486.71875,315559.875,344625.03125,327165.4375,307921.40625,298234.5,318024.46875,311251.53125,-0.113525390625,0.93505859375,0.429931640625,-0.7629393935203552,-0.5493163466453552,3.234863042831421,100.0,139040.0,1.0
1163142.4267374,302681.4375,315638.46875,344659.28125,327356.96875,308032.90625,298351.8125,318185.84375,311466.9375,-0.111083984375,0.936279296875,0.42724609375,-0.6408690810203552,-0.6713866591453552,3.356933355331421,100.0,139041.0,1.0
1163142.4349075,304380.96875,315716.09375,346201.8125,328829.75,308224.75,298314.53125,318169.3125,311428.46875,-0.11181640625,0.9365234375,0.425048828125,-0.3967284858226776,-0.7019042372703552,3.417968511581421,100.0,139042.0,1.0
1163142.4417508,305198.15625,315678.875,347043.46875,329481.34375,308207.25,298152.53125,317961.4375,311135.3125,-0.10986328125,0.938232421875,0.423583984375,-0.1525878757238388,-0.6408690810203552,3.448486089706421,100.0,139043.0,1.0
1163142.4418021,304040.6875,315582.15625,346091.125,328479.1875,308027.4375,298107.5625,317880.625,311036.59375,-0.10693359375,0.93896484375,0.4228515625,0.03051757626235485,-0.6103515028953552,3.387450933456421,100.0,139044.0,1.0
1163142.4502732,302494.03125,315554.875,344644.5,327180.1875,307922.46875,298232.28125,318019.28125,311250.90625,-0.1064453125,0.941650390625,0.424072265625,0.1525878757238388,-0.6103515028953552,3.356933355331421,100.0,139045.0,1.0
1163142.4503198,302666.15625,315638.46875,344659.96875,327350.875,308035.65625,298353.59375,318182.375,311472.8125,-0.103515625,0.94287109375,0.4248046875,0.1831054538488388,-0.4882812201976776,3.326415777206421,100.0,139046.0,1.0
1163142.4580258,304365.875,315726.8125,346199.21875,328821.96875,308233.34375,298318.46875,318169.84375,311441.0,-0.103759765625,0.946044921875,0.423583984375,0.2441406100988388,-0.3356933295726776,3.326415777206421,100.0,139047.0,1.0
1163142.4580754,305210.5,315696.0625,347062.34375,329494.5,308221.71875,298160.9375,317966.8125,311149.1875,-0.10498046875,0.952392578125,0.421875,0.3662109076976776,-0.2441406100988388,3.204345464706421,100.0,139048.0,1.0
1163142.4598113,304085.03125,315609.25,346142.625,328518.4375,308053.625,298127.84375,317898.78125,311059.40625,-0.10498046875,0.954345703125,0.41943359375,0.3051757514476776,-0.0915527269244194,3.173827886581421,100.0,139049.0,1.0
1163142.4736549,302524.0,315574.28125,344686.53125,327209.34375,307944.28125,298254.09375,318040.21875,311273.53125,-0.102783203125,0.952880859375,0.419921875,0.3662109076976776,0.0610351525247097,3.143310308456421,100.0,139050.0,1.0
1163142.4841708,302654.09375,315638.21875,344653.46875,327336.03125,308036.375,298358.4375,318187.28125,311476.59375,-0.10400390625,0.9541015625,0.420654296875,0.0610351525247097,0.1525878757238388,2.990722417831421,100.0,139051.0,1.0
1163142.4842282,304337.15625,315715.1875,346169.53125,328791.5,308223.25,298318.09375,318167.53125,311435.625,-0.103515625,0.95458984375,0.4228515625,-0.03051757626235485,0.2441406100988388,2.990722417831421,100.0,139052.0,1.0
1163142.4842412,305205.65625,315686.84375,347050.90625,329482.0,308208.75,298157.53125,317960.1875,311141.125,-0.103271484375,0.95458984375,0.419677734375,-0.2441406100988388,0.3662109076976776,2.868652105331421,100.0,139053.0,1.0
1163142.4842525,304093.53125,315592.6875,346141.71875,328514.6875,308032.0,298111.5625,317882.15625,311038.40625,-0.1064453125,0.953369140625,0.41650390625,-0.3662109076976776,0.3967284858226776,2.777099370956421,100.0,139054.0,1.0
1163142.4861223,302521.5625,315558.71875,344680.09375,327197.90625,307922.84375,298234.4375,318022.78125,311250.03125,-0.10595703125,0.954833984375,0.420166015625,-0.3967284858226776,0.4577636420726776,2.563476324081421,100.0,139055.0,1.0
1163142.4886388,302636.90625,315637.75,344637.8125,327317.71875,308029.3125,298353.78125,318185.15625,311470.84375,-0.10595703125,0.95458984375,0.418212890625,-0.4882812201976776,0.5493163466453552,2.319335699081421,100.0,139056.0,1.0
1163142.492483,304326.875,315728.0625,346159.6875,328780.6875,308227.53125,298324.0,318177.28125,311446.0,-0.10693359375,0.953369140625,0.42041015625,-0.5798339247703552,0.5187987685203552,2.136230230331421,100.0,139057.0,1.0
1163142.5011711,305212.90625,315696.40625,347058.40625,329489.84375,308217.6875,298168.53125,317970.46875,311151.0625,-0.10986328125,0.954833984375,0.41943359375,-0.7324218153953552,0.4882812201976776,1.8920897245407104,100.0,139058.0,1.0
1163142.5042711,304114.53125,315596.90625,346162.28125,328535.34375,308036.1875,298116.9375,317884.46875,311036.53125,-0.109619140625,0.955322265625,0.420166015625,-0.9460448622703552,0.5187987685203552,1.7395018339157104,100.0,139059.0,1.0
1163142.5043224,302536.34375,315561.59375,344695.9375,327211.9375,307925.59375,298237.03125,318024.75,311247.6875,-0.109130859375,0.951904296875,0.422119140625,-1.0681151151657104,0.5187987685203552,1.5258787870407104,100.0,139060.0,1.0
1163142.5062047,302628.6875,315641.5,344632.4375,327311.0,308029.5,298361.03125,318192.03125,311473.90625,-0.109619140625,0.950927734375,0.417236328125,-1.0375975370407104,0.4577636420726776,1.2512205839157104,100.0,139061.0,1.0
1163142.5199385,304311.6875,315732.96875,346143.96875,328769.40625,308229.3125,298336.15625,318189.15625,311455.84375,-0.110595703125,0.9501953125,0.4169921875,-1.2817381620407104,0.3967284858226776,0.8850097060203552,100.0,139062.0,1.0
1163142.5230028,305224.09375,315706.4375,347065.03125,329504.34375,308226.8125,298180.15625,317986.9375,311166.15625,-0.11181640625,0.95068359375,0.416748046875,-1.2512205839157104,0.4272460639476776,0.7324218153953552,100.0,139063.0,1.0
1163142.5230579,304152.1875,315611.46875,346192.6875,328568.875,308050.5,298127.5,317898.5,311048.5,-0.113037109375,0.947509765625,0.416748046875,-1.3122557401657104,0.2746581733226776,0.4272460639476776,100.0,139064.0,1.0
1163142.5249286,302573.25,315586.0,344729.4375,327240.8125,307947.78125,298256.6875,318043.78125,311260.65625,-0.115478515625,0.94482421875,0.41552734375,-1.2817381620407104,0.0610351525247097,0.2136230319738388,100.0,139065.0,1.0
1163142.5274646,302621.28125,315650.8125,344626.46875,327301.0,308038.625,298371.5625,318198.1875,311476.3125,-0.113525390625,0.94384765625,0.414306640625,-1.2207030057907104,-0.1220703050494194,0.0610351525247097,100.0,139066.0,1.0
1163142.5362067,304288.53125,315735.9375,346125.8125,328748.03125,308231.375,298342.53125,318192.375,311454.84375,-0.113037109375,0.943359375,0.413818359375,-1.2512205839157104,-0.2136230319738388,-0.2136230319738388,100.0,139067.0,1.0
1163142.5392035,305222.90625,315704.625,347063.34375,329501.125,308224.9375,298179.71875,317984.25,311161.875,-0.11376953125,0.943359375,0.41552734375,-1.2207030057907104,-0.3356933295726776,-0.5187987685203552,100.0,139068.0,1.0
1163142.5392595,304162.5625,315600.65625,346200.03125,328574.40625,308039.78125,298111.75,317884.125,311035.34375,-0.1142578125,0.94384765625,0.412353515625,-1.1901854276657104,-0.4577636420726776,-0.8544921278953552,100.0,139069.0,1.0
1163142.5498174,302554.84375,315552.65625,344701.90625,327218.65625,307910.125,298213.9375,318003.28125,311226.40625,-0.11279296875,0.945068359375,0.415771484375,-1.2207030057907104,-0.5798339247703552,-1.1291502714157104,100.0,139070.0,1.0
1163142.5529089,302587.125,315626.84375,344581.84375,327267.1875,308006.59375,298335.53125,318166.90625,311453.34375,-0.11181640625,0.94677734375,0.4189453125,-1.2207030057907104,-0.6103515028953552,-1.3122557401657104,100.0,139071.0,1.0
1163142.5529442,304260.46875,315726.28125,346091.375,328723.53125,308217.59375,298324.1875,318180.0625,311450.125,-0.11669921875,0.947509765625,0.418701171875,-1.1901854276657104,-0.7019042372703552,-1.5258787870407104,100.0,139072.0,1.0
1163142.5624347,305222.75,315703.46875,347057.59375,329499.875,308220.46875,298170.5,317980.125,311160.53125,-0.115234375,0.949462890625,0.417236328125,-1.3122557401657104,-0.9155272841453552,-1.7089842557907104,100.0,139073.0,1.0
1163142.565504,304191.625,315608.34375,346221.03125,328598.03125,308047.28125,298114.0,317885.1875,311036.59375,-0.113525390625,0.9501953125,0.4208984375,-1.4038084745407104,-1.0375975370407104,-1.7089842557907104,100.0,139074.0,1.0
1163142.5655603,302565.21875,315560.0625,344713.625,327229.8125,307915.0625,298218.25,318001.15625,311220.78125,-0.112548828125,0.95166015625,0.4208984375,-1.4953612089157104,-1.1901854276657104,-2.014159917831421,100.0,139075.0,1.0
1163142.567383,302554.375,315628.0,344539.09375,327231.6875,308000.15625,298338.03125,318160.5625,311430.28125,-0.109619140625,0.952880859375,0.422119140625,-1.6479490995407104,-1.2207030057907104,-2.197265386581421,100.0,139076.0,1.0
1163142.5711879,304197.0625,315711.53125,345988.125,328646.46875,308187.46875,298304.0625,318150.28125,311402.90625,-0.10888671875,0.953857421875,0.423828125,-1.8005369901657104,-1.2817381620407104,-2.105712652206421,100.0,139077.0,1.0
1163142.5799291,305175.34375,315683.8125,346954.6875,329431.8125,308182.8125,298135.53125,317934.4375,311100.4375,-0.1123046875,0.953125,0.424072265625,-1.9531248807907104,-1.2512205839157104,-2.258300542831421,100.0,139078.0,1.0
1163142.5842514,304166.65625,315590.46875,346137.6875,328548.75,308009.03125,298075.09375,317837.625,310970.625,-0.11474609375,0.9521484375,0.424560546875,-2.075195074081421,-1.3122557401657104,-2.349853277206421,100.0,139079.0,1.0
1163142.5843078,302555.71875,315555.25,344649.96875,327197.625,307895.28125,298199.1875,317975.21875,311177.78125,-0.1171875,0.950439453125,0.42626953125,-2.197265386581421,-1.2817381620407104,-2.380370855331421,100.0,139080.0,1.0
1163142.5948893,302536.0625,315626.40625,344486.4375,327203.1875,307989.15625,298326.5,318146.96875,311409.875,-0.1181640625,0.948974609375,0.42431640625,-2.319335699081421,-1.3427733182907104,-2.471923589706421,100.0,139081.0,1.0
1163142.5980017,304192.9375,315722.34375,345977.5625,328645.40625,308196.5,298314.8125,318163.59375,311415.15625,-0.117919921875,0.947021484375,0.426025390625,-2.349853277206421,-1.3732908964157104,-2.716064214706421,100.0,139082.0,1.0
1163142.5980561,305205.84375,315702.65625,346988.75,329466.78125,308207.78125,298162.09375,317965.1875,311129.25,-0.118408203125,0.9453125,0.426025390625,-2.441406011581421,-1.4953612089157104,-2.899169683456421,100.0,139083.0,1.0
1163142.5999392,304215.40625,315605.125,346191.53125,328599.09375,308033.34375,298097.28125,317864.0,310996.65625,-0.1181640625,0.943359375,0.42822265625,-2.471923589706421,-1.6479490995407104,-3.021239995956421,100.0,139084.0,1.0
1163142.6061583,302587.5625,315564.96875,344692.875,327232.6875,307910.59375,298211.28125,317992.125,311195.3125,-0.120361328125,0.943359375,0.429931640625,-2.471923589706421,-1.6784666776657104,-3.143310308456421,100.0,139085.0,1.0
1163142.6105229,302540.53125,315638.28125,344505.125,327217.125,308002.40625,298344.03125,318165.75,311432.3125,-0.120849609375,0.943115234375,0.430908203125,-2.410888433456421,-1.7395018339157104,-3.387450933456421,100.0,139086.0,1.0
1163142.6105724,304196.09375,315738.875,345990.625,328660.15625,308216.25,298337.78125,318185.6875,311446.375,-0.122314453125,0.941650390625,0.43212890625,-2.502441167831421,-1.8310545682907104,-3.601073980331421,100.0,139087.0,1.0
1163142.6136639,305225.15625,315715.53125,347008.4375,329486.53125,308216.96875,298173.1875,317973.875,311146.9375,-0.124267578125,0.941162109375,0.42919921875,-2.563476324081421,-1.8920897245407104,-3.845214605331421,100.0,139088.0,1.0
1163142.6273693,304240.53125,315606.03125,346218.0,328621.8125,308032.1875,298094.78125,317859.4375,310997.09375,-0.12646484375,0.93994140625,0.4306640625,-2.716064214706421,-1.9226073026657104,-3.967284917831421,100.0,139089.0,1.0
1163142.6304508,302600.34375,315562.65625,344710.84375,327246.4375,307909.96875,298210.28125,317991.03125,311196.03125,-0.12646484375,0.938232421875,0.429443359375,-2.593993902206421,-1.9836424589157104,-4.119872570037842,100.0,139090.0,1.0
1163142.6305041,302523.375,315632.5625,344494.9375,327203.53125,307996.40625,298341.96875,318163.59375,311431.34375,-0.127197265625,0.939453125,0.429443359375,-2.471923589706421,-2.197265386581421,-4.425048351287842,100.0,139091.0,1.0
1163142.6324074,304164.78125,315730.84375,345965.6875,328633.34375,308208.03125,298337.96875,318184.59375,311442.96875,-0.128173828125,0.938720703125,0.4296875,-2.441406011581421,-2.258300542831421,-4.486083507537842,100.0,139092.0,1.0
1163142.6362192,305211.46875,315707.9375,346997.15625,329478.21875,308215.46875,298176.5625,317976.75,311147.375,-0.126953125,0.938232421875,0.43359375,-2.410888433456421,-2.380370855331421,-4.669188976287842,100.0,139093.0,1.0
1163142.645503,304247.125,315604.59375,346223.53125,328631.28125,308035.75,298100.84375,317867.125,310995.5625,-0.12890625,0.938232421875,0.4365234375,-2.563476324081421,-2.471923589706421,-4.699706554412842,100.0,139094.0,1.0
1163142.6455524,302594.4375,315556.9375,344709.15625,327248.34375,307908.25,298210.09375,317995.59375,311192.1875,-0.129150390625,0.9404296875,0.436767578125,-2.532958745956421,-2.532958745956421,-4.821776866912842,100.0,139095.0,1.0
1163142.6512207,302493.9375,315625.6875,344471.4375,327182.78125,307995.6875,298341.53125,318168.875,311432.9375,-0.12744140625,0.9404296875,0.437744140625,-2.502441167831421,-2.532958745956421,-4.791259288787842,100.0,139096.0,1.0
1163142.6554988,304133.125,315726.28125,345929.65625,328604.53125,308202.21875,298335.375,318188.8125,311447.96875,-0.129150390625,0.94140625,0.43701171875,-2.471923589706421,-2.655029058456421,-4.943847179412842,100.0,139097.0,1.0
1163142.6555532,305212.46875,315705.53125,346992.0625,329473.59375,308213.21875,298175.875,317983.53125,311154.0,-0.130859375,0.94189453125,0.435791015625,-2.624511480331421,-2.716064214706421,-4.913329601287842,100.0,139098.0,1.0
1163142.6585943,304280.21875,315605.84375,346241.78125,328648.53125,308035.84375,298100.65625,317866.21875,310996.71875,-0.13134765625,0.944091796875,0.4384765625,-2.685546636581421,-2.838134527206421,-4.821776866912842,100.0,139099.0,1.0
1163142.6712045,302621.34375,315557.75,344718.53125,327259.6875,307906.65625,298207.96875,317991.84375,311188.875,-0.13134765625,0.94189453125,0.440673828125,-2.838134527206421,-2.899169683456421,-4.852294445037842,100.0,139100.0,1.0
1163142.6742475,302491.90625,315625.5,344454.78125,327170.375,307987.84375,298338.5,318165.21875,311431.78125,-0.1298828125,0.941650390625,0.442626953125,-2.838134527206421,-2.899169683456421,-4.638671398162842,100.0,139101.0,1.0
1163142.6743047,304125.4375,315728.5,345917.84375,328592.46875,308203.84375,298340.90625,318192.375,311452.96875,-0.1298828125,0.941650390625,0.44287109375,-2.838134527206421,-2.868652105331421,-4.455565929412842,100.0,139102.0,1.0
1163142.6761521,305236.25,315722.6875,347020.3125,329496.46875,308234.6875,298193.5625,318000.4375,311171.78125,-0.132080078125,0.938720703125,0.442626953125,-2.868652105331421,-2.777099370956421,-4.364013195037842,100.0,139103.0,1.0
1163142.6786383,304323.5625,315621.21875,346295.0625,328691.1875,308060.96875,298111.65625,317880.34375,311011.5625,-0.128662109375,0.93701171875,0.44091796875,-2.960204839706421,-2.807616949081421,-4.119872570037842,100.0,139104.0,1.0
1163142.6874317,302645.125,315560.875,344756.71875,327283.8125,307921.3125,298210.28125,317993.8125,311194.9375,-0.126953125,0.933349609375,0.44384765625,-2.868652105331421,-2.838134527206421,-3.906249761581421,100.0,139105.0,1.0
1163142.6917525,302480.375,315620.78125,344464.90625,327168.40625,307995.34375,298339.84375,318168.25,311437.5,-0.1259765625,0.93212890625,0.445068359375,-2.777099370956421,-2.777099370956421,-3.692626714706421,100.0,139106.0,1.0
1163142.6918092,304106.59375,315726.53125,345911.9375,328580.84375,308204.375,298340.90625,318198.28125,311463.15625,-0.1279296875,0.93212890625,0.444580078125,-2.746581792831421,-2.746581792831421,-3.417968511581421,100.0,139107.0,1.0
1163142.6973601,305245.4375,315726.1875,347030.25,329506.40625,308238.53125,298196.875,318009.8125,311188.6875,-0.12939453125,0.932373046875,0.44677734375,-2.655029058456421,-2.685546636581421,-3.082275152206421,100.0,139108.0,1.0
1163142.703682,304347.53125,315617.90625,346317.59375,328711.5625,308058.375,298110.6875,317882.3125,311014.78125,-0.130859375,0.932373046875,0.44775390625,-2.502441167831421,-2.624511480331421,-2.868652105331421,100.0,139109.0,1.0
1163142.7104976,302664.71875,315562.21875,344778.4375,327300.53125,307921.5,298210.375,317999.0,311195.40625,-0.131591796875,0.93115234375,0.447021484375,-2.471923589706421,-2.532958745956421,-2.655029058456421,100.0,139110.0,1.0
1163142.7105563,302477.78125,315629.8125,344468.65625,327167.6875,307999.8125,298348.25,318179.25,311442.875,-0.133544921875,0.930908203125,0.44775390625,-2.349853277206421,-2.471923589706421,-2.410888433456421,100.0,139111.0,1.0
1163142.7129591,304094.6875,315736.09375,345913.46875,328576.5625,308215.0,298358.78125,318215.90625,311477.84375,-0.1337890625,0.92919921875,0.447021484375,-2.197265386581421,-2.441406011581421,-2.319335699081421,100.0,139112.0,1.0
1163142.7130186,305242.5,315722.59375,347044.8125,329512.46875,308238.96875,298198.9375,318011.25,311194.78125,-0.13427734375,0.92919921875,0.447265625,-2.105712652206421,-2.380370855331421,-2.044677495956421,100.0,139113.0,1.0
1163142.7236561,304368.28125,315614.25,346353.53125,328735.53125,308059.90625,298108.53125,317878.75,311018.625,-0.134033203125,0.928955078125,0.4482421875,-1.9836424589157104,-2.380370855331421,-2.044677495956421,100.0,139114.0,1.0
1163142.727984,302677.6875,315558.46875,344805.09375,327319.9375,307921.84375,298209.46875,317997.3125,311199.59375,-0.13525390625,0.929443359375,0.447509765625,-1.8310545682907104,-2.288818120956421,-1.7395018339157104,100.0,139115.0,1.0
1163142.7280351,302467.40625,315628.1875,344469.71875,327166.6875,308000.53125,298350.125,318185.40625,311453.5,-0.13427734375,0.929931640625,0.447998046875,-1.7700194120407104,-2.288818120956421,-1.6174315214157104,100.0,139116.0,1.0
1163142.7361237,304076.375,315739.9375,345909.34375,328570.3125,308219.40625,298363.96875,318226.1875,311497.6875,-0.134033203125,0.92724609375,0.45068359375,-1.6174315214157104,-2.349853277206421,-1.4648436307907104,100.0,139117.0,1.0
1163142.7391628,305243.46875,315727.96875,347063.25,329524.375,308250.15625,298212.15625,318028.59375,311216.6875,-0.134033203125,0.921630859375,0.446044921875,-1.5869139432907104,-2.288818120956421,-1.3122557401657104,100.0,139118.0,1.0
1163142.7391983,304390.1875,315620.5,346386.875,328763.6875,308071.25,298120.6875,317892.25,311035.34375,-0.13037109375,0.919921875,0.444580078125,-1.4038084745407104,-2.197265386581421,-1.1901854276657104,100.0,139119.0,1.0
1163142.741115,302689.03125,315559.15625,344826.09375,327333.625,307923.71875,298214.75,318001.6875,311205.6875,-0.1279296875,0.919189453125,0.443359375,-1.1291502714157104,-2.136230230331421,-0.9460448622703552,100.0,139120.0,1.0
1163142.7498273,302454.0625,315634.1875,344466.40625,327157.65625,308002.9375,298359.78125,318190.25,311462.09375,-0.127197265625,0.922119140625,0.441650390625,-0.8544921278953552,-2.105712652206421,-0.7019042372703552,100.0,139121.0,1.0
1163142.7541597,304049.1875,315744.875,345888.25,328550.4375,308222.6875,298372.90625,318233.5,311506.25,-0.12841796875,0.927734375,0.44482421875,-0.7629393935203552,-2.044677495956421,-0.4272460639476776,100.0,139122.0,1.0
1163142.7541943,305245.375,315745.5,347067.09375,329527.9375,308260.78125,298224.84375,318042.90625,311231.875,-0.131591796875,0.933837890625,0.4443359375,-0.6408690810203552,-1.9531248807907104,-0.1831054538488388,100.0,139123.0,1.0
1163142.7622712,304428.8125,315653.9375,346426.03125,328797.9375,308090.5625,298139.84375,317912.09375,311054.75,-0.133056640625,0.933837890625,0.445556640625,-0.7324218153953552,-2.044677495956421,-0.03051757626235485,100.0,139124.0,1.0
1163142.7741436,302732.5,315596.1875,344877.96875,327375.8125,307948.84375,298240.15625,318026.71875,311229.375,-0.13623046875,0.936279296875,0.439453125,-0.9155272841453552,-2.105712652206421,0.0610351525247097,100.0,139125.0,1.0
1163142.774169,302449.25,315641.875,344475.09375,327155.09375,308002.84375,298359.25,318192.46875,311466.65625,-0.134521484375,0.9375,0.442626953125,-0.9155272841453552,-2.105712652206421,0.2136230319738388,100.0,139126.0,1.0
1163142.7766091,304025.40625,315740.9375,345873.25,328528.46875,308212.15625,298364.96875,318228.40625,311507.15625,-0.13232421875,0.939697265625,0.446044921875,-1.0986326932907104,-2.197265386581421,0.1525878757238388,100.0,139127.0,1.0
1163142.7766446,305242.84375,315739.3125,347070.40625,329526.6875,308256.59375,298223.96875,318040.21875,311237.59375,-0.1337890625,0.939697265625,0.446533203125,-1.1901854276657104,-2.288818120956421,0.0915527269244194,100.0,139128.0,1.0
1163142.7928711,304444.71875,315637.40625,346443.28125,328808.5625,308084.9375,298131.96875,317902.0,311052.53125,-0.13330078125,0.93798828125,0.44775390625,-1.1901854276657104,-2.380370855331421,0.2441406100988388,100.0,139129.0,1.0
1163142.7928972,302737.0625,315574.5625,344882.96875,327375.375,307934.09375,298220.84375,318007.40625,311217.9375,-0.1357421875,0.939208984375,0.447021484375,-1.3732908964157104,-2.349853277206421,0.3662109076976776,100.0,139130.0,1.0
1163142.8077669,302438.15625,315631.40625,344462.5625,327141.21875,307994.8125,298354.6875,318186.5625,311463.25,-0.13623046875,0.940185546875,0.4462890625,-1.6479490995407104,-2.441406011581421,0.4577636420726776,100.0,139131.0,1.0
1163142.8077915,304009.9375,315738.625,345854.28125,328512.53125,308211.875,298368.71875,318231.09375,311513.9375,-0.1357421875,0.942138671875,0.444091796875,-1.8920897245407104,-2.593993902206421,0.3662109076976776,100.0,139132.0,1.0
1163142.8077987,305249.5625,315741.5625,347071.46875,329535.0,308261.78125,298226.03125,318045.75,311246.96875,-0.13427734375,0.942626953125,0.4482421875,-2.014159917831421,-2.655029058456421,0.3662109076976776,100.0,139133.0,1.0
1163142.8078061,304475.84375,315643.21875,346474.6875,328841.84375,308096.46875,298136.34375,317908.53125,311060.84375,-0.13427734375,0.943115234375,0.447265625,-2.166747808456421,-2.685546636581421,0.4882812201976776,100.0,139134.0,1.0
1163142.8103582,302767.71875,315582.0625,344922.40625,327411.125,307952.5,298234.25,318020.90625,311233.65625,-0.1337890625,0.942626953125,0.44775390625,-2.288818120956421,-2.777099370956421,0.3662109076976776,100.0,139135.0,1.0
1163142.810381,302444.15625,315640.4375,344483.40625,327160.09375,308013.9375,298374.25,318204.09375,311487.5,-0.1337890625,0.94482421875,0.44677734375,-2.410888433456421,-2.777099370956421,0.3662109076976776,100.0,139136.0,1.0
1163142.8122901,304003.21875,315749.59375,345865.46875,328521.9375,308232.71875,298393.125,318256.9375,311544.96875,-0.131591796875,0.944091796875,0.4482421875,-2.655029058456421,-2.868652105331421,0.4272460639476776,100.0,139137.0,1.0
1163142.8160389,305255.46875,315743.34375,347091.5,329549.3125,308275.4375,298241.03125,318062.46875,311270.5,-0.130126953125,0.945556640625,0.450439453125,-2.807616949081421,-2.868652105331421,0.4882812201976776,100.0,139138.0,1.0
1163142.8304149,304497.84375,315636.6875,346504.1875,328868.46875,308102.28125,298141.34375,317917.09375,311069.78125,-0.127685546875,0.947265625,0.44970703125,-2.838134527206421,-2.807616949081421,0.7629393935203552,100.0,139139.0,1.0
1163142.8304502,302776.375,315568.28125,344943.21875,327428.84375,307951.34375,298230.21875,318023.3125,311230.25,-0.12646484375,0.9462890625,0.449951171875,-3.051757574081421,-2.716064214706421,0.9155272841453552,100.0,139140.0,1.0
1163142.8329355,302433.6875,315637.21875,344488.78125,327160.8125,308021.1875,298382.9375,318218.65625,311494.90625,-0.125244140625,0.945068359375,0.449951171875,-3.112792730331421,-2.716064214706421,1.0681151151657104,100.0,139141.0,1.0
1163142.8329698,303973.0,315747.46875,345849.09375,328504.59375,308239.96875,298411.28125,318275.09375,311553.84375,-0.123046875,0.944580078125,0.453125,-3.448486089706421,-2.593993902206421,1.1901854276657104,100.0,139142.0,1.0
1163142.8429163,305244.375,315743.15625,347092.65625,329551.46875,308287.53125,298260.25,318082.0625,311280.96875,-0.11962890625,0.941650390625,0.450439453125,-3.509521245956421,-2.441406011581421,1.4038084745407104,100.0,139143.0,1.0
1163142.8429518,304510.15625,315630.96875,346525.1875,328882.59375,308106.125,298143.125,317916.03125,311066.90625,-0.118408203125,0.936767578125,0.448974609375,-3.509521245956421,-2.288818120956421,1.5563963651657104,100.0,139144.0,1.0
1163142.8515929,302793.71875,315565.25,344959.9375,327441.09375,307952.875,298229.875,318014.8125,311224.4375,-0.117919921875,0.932373046875,0.447998046875,-3.540038824081421,-2.105712652206421,1.8310545682907104,100.0,139145.0,1.0
1163142.8516154,302409.71875,315614.4375,344460.25,327134.4375,307997.125,298361.65625,318189.96875,311472.375,-0.116943359375,0.92919921875,0.449462890625,-3.540038824081421,-1.8615721464157104,2.105712652206421,100.0,139146.0,1.0
1163142.857902,303927.59375,315717.875,345787.125,328453.0,308200.71875,298371.03125,318234.0625,311521.09375,-0.116455078125,0.92529296875,0.448486328125,-3.326415777206421,-1.7395018339157104,2.197265386581421,100.0,139147.0,1.0
1163142.8579366,305228.5625,315725.46875,347062.34375,329528.21875,308263.375,298235.5,318060.34375,311264.875,-0.115234375,0.9228515625,0.450439453125,-3.082275152206421,-1.6784666776657104,2.380370855331421,100.0,139148.0,1.0
1163142.8691864,304524.28125,315623.53125,346523.84375,328886.8125,308094.40625,298131.59375,317909.78125,311057.71875,-0.11376953125,0.92431640625,0.451904296875,-2.838134527206421,-1.5258787870407104,2.655029058456421,100.0,139149.0,1.0
1163142.8692193,302806.59375,315559.96875,344958.0625,327443.40625,307942.40625,298219.40625,318009.09375,311212.5625,-0.115478515625,0.92626953125,0.45166015625,-2.624511480331421,-1.3427733182907104,2.868652105331421,100.0,139150.0,1.0
1163142.8717142,302407.9375,315621.9375,344455.5,327129.5,308002.6875,298366.21875,318198.375,311475.40625,-0.1123046875,0.927001953125,0.451171875,-2.471923589706421,-1.1901854276657104,2.899169683456421,100.0,139151.0,1.0
1163142.8717482,303912.40625,315729.21875,345772.90625,328438.0625,308211.71875,298383.5625,318243.0,311527.28125,-0.112060546875,0.930908203125,0.452392578125,-2.258300542831421,-1.0681151151657104,3.051757574081421,100.0,139152.0,1.0
1163142.8735081,305222.375,315730.03125,347051.0,329518.90625,308265.09375,298235.21875,318053.96875,311257.1875,-0.112548828125,0.93212890625,0.4541015625,-2.075195074081421,-1.0070799589157104,3.234863042831421,100.0,139153.0,1.0
1163142.8823455,304550.65625,315637.5,346546.75,328907.09375,308109.0625,298137.3125,317907.0,311053.6875,-0.11328125,0.93359375,0.45458984375,-1.9531248807907104,-0.8544921278953552,3.143310308456421,100.0,139154.0,1.0
1163142.8848676,302831.09375,315573.9375,344991.6875,327467.65625,307962.25,298228.6875,318012.40625,311214.34375,-0.115234375,0.935546875,0.45361328125,-1.8310545682907104,-0.7629393935203552,3.143310308456421,100.0,139155.0,1.0
1163142.8886316,302396.59375,315624.15625,344459.09375,327122.09375,308010.71875,298369.96875,318200.0,311475.6875,-0.114990234375,0.935791015625,0.45361328125,-1.7700194120407104,-0.7324218153953552,2.960204839706421,100.0,139156.0,1.0
1163142.8979366,303895.84375,315739.5,345771.5,328423.125,308225.75,298398.40625,318262.21875,311542.21875,-0.1162109375,0.9345703125,0.452392578125,-1.6784666776657104,-0.8239745497703552,3.021239995956421,100.0,139157.0,1.0
1163142.8979692,305235.0,315747.375,347072.8125,329527.125,308290.375,298257.75,318084.21875,311287.21875,-0.112548828125,0.93359375,0.450439453125,-1.6174315214157104,-0.7934569716453552,2.838134527206421,100.0,139158.0,1.0
1163142.8998674,304571.5,315634.71875,346570.875,328919.875,308113.8125,298140.375,317918.96875,311066.125,-0.1123046875,0.934326171875,0.44677734375,-1.5869139432907104,-0.6713866591453552,2.746581792831421,100.0,139159.0,1.0
1163142.9061496,302845.6875,315562.9375,345007.3125,327474.71875,307955.46875,298220.46875,318016.6875,311217.46875,-0.10791015625,0.9365234375,0.449462890625,-1.4648436307907104,-0.6408690810203552,2.563476324081421,100.0,139160.0,1.0
1163142.9155018,302391.9375,315617.71875,344459.4375,327116.28125,308008.3125,298367.71875,318209.71875,311483.1875,-0.108154296875,0.936767578125,0.450927734375,-1.3122557401657104,-0.6408690810203552,2.563476324081421,100.0,139161.0,1.0
1163142.9155528,303871.96875,315730.375,345751.1875,328405.0625,308224.21875,298397.84375,318270.25,311552.75,-0.10791015625,0.938232421875,0.452880859375,-1.2817381620407104,-0.5187987685203552,2.502441167831421,100.0,139162.0,1.0
1163142.9180522,305225.15625,315743.25,347063.5,329522.9375,308290.84375,298255.0625,318090.90625,311295.71875,-0.10791015625,0.938232421875,0.45263671875,-1.1596678495407104,-0.4882812201976776,2.593993902206421,100.0,139163.0,1.0
1163142.9181123,304585.8125,315635.96875,346590.71875,328939.375,308119.15625,298136.625,317925.3125,311074.53125,-0.107666015625,0.936767578125,0.451416015625,-1.1901854276657104,-0.3967284858226776,2.532958745956421,100.0,139164.0,1.0
1163142.9261686,302859.53125,315564.71875,345037.28125,327494.03125,307958.6875,298218.0625,318018.125,311220.25,-0.10302734375,0.933837890625,0.450439453125,-1.1596678495407104,-0.3967284858226776,2.502441167831421,100.0,139165.0,1.0
1163142.9305336,302371.1875,315606.90625,344451.9375,327100.625,307993.03125,298354.9375,318192.84375,311474.96875,-0.09912109375,0.93310546875,0.44970703125,-1.0986326932907104,-0.2136230319738388,2.624511480331421,100.0,139166.0,1.0
1163142.9305837,303828.875,315713.3125,345716.875,328367.625,308200.875,298379.625,318243.96875,311539.15625,-0.098876953125,0.932861328125,0.451904296875,-1.0070799589157104,-0.0610351525247097,2.655029058456421,100.0,139167.0,1.0
1163142.9337292,305202.28125,315726.90625,347038.65625,329497.0,308269.09375,298237.1875,318062.75,311277.375,-0.1005859375,0.93408203125,0.4521484375,-0.7629393935203552,0.1525878757238388,2.685546636581421,100.0,139168.0,1.0
1163142.9474319,304602.4375,315629.4375,346595.09375,328939.90625,308107.46875,298127.5,317902.15625,311057.0,-0.099365234375,0.934814453125,0.4501953125,-0.5187987685203552,0.3051757514476776,2.685546636581421,100.0,139169.0,1.0
1163142.9505229,302877.0625,315559.53125,345042.03125,327493.5625,307950.1875,298209.9375,317998.5625,311205.21875,-0.100830078125,0.937744140625,0.449462890625,-0.4272460639476776,0.4272460639476776,2.777099370956421,100.0,139170.0,1.0
1163142.9505798,302371.5625,315611.03125,344450.59375,327092.6875,307993.90625,298358.0625,318188.53125,311471.75,-0.10107421875,0.9375,0.44873046875,-0.3662109076976776,0.7324218153953552,2.716064214706421,100.0,139171.0,1.0
1163142.952427,303809.65625,315722.6875,345699.53125,328343.9375,308201.25,298385.0625,318246.3125,311538.4375,-0.101318359375,0.93994140625,0.448974609375,-0.2136230319738388,0.8544921278953552,2.716064214706421,100.0,139172.0,1.0
1163142.9617763,305191.8125,315734.59375,347034.1875,329486.90625,308271.15625,298243.46875,318068.8125,311277.375,-0.103271484375,0.94091796875,0.451171875,-0.1525878757238388,1.0070799589157104,2.655029058456421,100.0,139173.0,1.0
1163142.9618259,304616.375,315634.8125,346615.125,328953.3125,308110.6875,298131.78125,317908.875,311055.5625,-0.105224609375,0.942626953125,0.450927734375,-0.1525878757238388,1.0375975370407104,2.563476324081421,100.0,139174.0,1.0
1163142.9636335,302903.53125,315572.40625,345077.96875,327520.5,307961.53125,298220.21875,318009.8125,311211.9375,-0.108642578125,0.943603515625,0.4521484375,-0.2136230319738388,1.0986326932907104,2.471923589706421,100.0,139175.0,1.0
1163142.9729949,302369.3125,315617.09375,344452.75,327087.65625,308000.15625,298362.28125,318194.8125,311472.75,-0.1083984375,0.944580078125,0.450927734375,-0.3051757514476776,1.1596678495407104,2.319335699081421,100.0,139176.0,1.0
1163142.9730537,303787.75,315721.4375,345671.875,328314.875,308200.875,298386.78125,318249.25,311535.59375,-0.108642578125,0.94189453125,0.449951171875,-0.2136230319738388,1.0681151151657104,2.166747808456421,100.0,139177.0,1.0
1163142.974918,305186.25,315731.1875,347016.84375,329471.96875,308270.1875,298242.75,318069.8125,311275.59375,-0.105224609375,0.941162109375,0.44677734375,-0.3967284858226776,0.9765624403953552,2.197265386581421,100.0,139178.0,1.0
1163142.9899328,304646.78125,315638.84375,346632.3125,328970.5625,308115.25,298129.375,317908.96875,311052.6875,-0.103271484375,0.94140625,0.439697265625,-0.3662109076976776,1.0986326932907104,2.105712652206421,100.0,139179.0,1.0
1163142.9929754,302943.65625,315583.59375,345105.5,327544.4375,307970.21875,298222.875,318011.78125,311208.375,-0.1015625,0.943603515625,0.44189453125,-0.2746581733226776,0.9765624403953552,2.075195074081421,100.0,139180.0,1.0
1163142.9930235,302390.875,315638.03125,344477.6875,327104.90625,308017.4375,298381.59375,318210.90625,311483.375,-0.101806640625,0.94482421875,0.44384765625,-0.2136230319738388,1.0070799589157104,2.258300542831421,100.0,139181.0,1.0
1163142.9949281,303772.125,315728.6875,345669.3125,328307.28125,308206.15625,298397.84375,318257.125,311540.6875,-0.10400390625,0.94677734375,0.445068359375,-0.2746581733226776,0.9765624403953552,2.349853277206421,100.0,139182.0,1.0
1163142.9974302,305167.03125,315724.40625,347001.5625,329460.625,308263.46875,298236.84375,318063.1875,311266.90625,-0.105712890625,0.94677734375,0.445068359375,-0.3051757514476776,0.9155272841453552,2.410888433456421,100.0,139183.0,1.0
1163143.0016989,304643.375,315624.875,346620.0625,328969.78125,308100.84375,298111.03125,317889.9375,311033.75,-0.107421875,0.9462890625,0.442626953125,-0.4272460639476776,0.8850097060203552,2.319335699081421,100.0,139184.0,1.0
1163143.0017532,302937.15625,315560.96875,345092.8125,327542.5625,307951.0,298199.65625,317989.0,311184.84375,-0.107666015625,0.941650390625,0.439697265625,-0.4272460639476776,0.7629393935203552,2.197265386581421,100.0,139185.0,1.0
1163143.0173937,302365.75,315614.59375,344447.375,327087.9375,307996.6875,298356.90625,318188.375,311465.40625,-0.107666015625,0.9404296875,0.44140625,-0.3051757514476776,0.7324218153953552,1.9836424589157104,100.0,139186.0,1.0
1163143.0205082,303744.40625,315718.6875,345635.6875,328287.6875,308199.09375,298386.0625,318251.5625,311540.0625,-0.105712890625,0.9384765625,0.44189453125,-0.2441406100988388,0.5798339247703552,1.8920897245407104,100.0,139187.0,1.0
1163143.0205666,305167.03125,315733.0625,346996.1875,329463.375,308271.53125,298244.0,318072.84375,311279.09375,-0.107666015625,0.936767578125,0.440673828125,-0.1831054538488388,0.5798339247703552,1.8310545682907104,100.0,139188.0,1.0
1163143.0224066,304676.28125,315640.96875,346646.6875,328995.6875,308117.75,298127.125,317905.03125,311043.21875,-0.10791015625,0.9384765625,0.43701171875,-0.1220703050494194,0.4272460639476776,1.8310545682907104,100.0,139189.0,1.0
1163143.0249791,302969.59375,315570.78125,345123.75,327567.0625,307959.03125,298205.8125,317995.5,311186.90625,-0.109619140625,0.939697265625,0.43701171875,-0.1220703050494194,0.3051757514476776,1.7700194120407104,100.0,139190.0,1.0
1163143.0512078,302353.75,315605.21875,344439.40625,327072.75,307984.15625,298345.65625,318178.34375,311455.40625,-0.10595703125,0.9404296875,0.43603515625,-0.03051757626235485,0.1220703050494194,1.8005369901657104,100.0,139191.0,1.0
1163143.0542751,303710.6875,315708.9375,345599.5625,328253.8125,308184.0,298379.1875,318244.875,311531.84375,-0.1044921875,0.942138671875,0.44140625,-0.0610351525247097,0.1525878757238388,1.6479490995407104,100.0,139192.0,1.0
1163143.0543301,305148.25,315723.5,346967.5,329443.71875,308262.65625,298239.15625,318071.5,311275.59375,-0.10498046875,0.941650390625,0.44189453125,-0.1220703050494194,0.0610351525247097,1.5563963651657104,100.0,139193.0,1.0
1163143.0561617,304682.09375,315630.53125,346648.3125,329002.40625,308110.5,298119.34375,317902.25,311041.0,-0.105712890625,0.94189453125,0.440673828125,-0.1220703050494194,-0.0610351525247097,1.4038084745407104,100.0,139194.0,1.0
1163143.0587335,302982.90625,315569.625,345136.0625,327580.125,307955.71875,298200.90625,317994.53125,311185.21875,-0.106201171875,0.93994140625,0.436279296875,-0.1220703050494194,-0.0915527269244194,1.2817381620407104,100.0,139195.0,1.0
1163143.0612054,302360.90625,315623.1875,344449.0625,327077.65625,307994.96875,298361.03125,318195.5,311466.03125,-0.1064453125,0.9404296875,0.43505859375,-0.1525878757238388,-0.2136230319738388,1.1901854276657104,100.0,139196.0,1.0
1163143.0636971,303711.75,315737.90625,345603.40625,328253.625,308206.34375,298406.625,318272.5,311551.6875,-0.1064453125,0.941650390625,0.435546875,-0.1831054538488388,-0.2136230319738388,1.0070799589157104,100.0,139197.0,1.0
1163143.0662036,305154.78125,315741.03125,346967.75,329443.1875,308270.625,298247.21875,318075.875,311280.0625,-0.10693359375,0.94140625,0.437255859375,-0.3051757514476776,-0.3356933295726776,0.9765624403953552,100.0,139198.0,1.0
1163143.0687032,304707.5,315641.34375,346657.15625,329011.25,308109.78125,298112.65625,317884.5625,311026.25,-0.103515625,0.941650390625,0.4384765625,-0.4577636420726776,-0.3967284858226776,0.8544921278953552,100.0,139199.0,1.0
1163143.0711609,303005.8125,315572.125,345147.59375,327589.5,307955.1875,298195.1875,317975.21875,311166.96875,-0.1025390625,0.938232421875,0.43603515625,-0.5493163466453552,-0.4272460639476776,0.7019042372703552,100.0,139200.0,1.0
1163143.0767731,302347.9375,315610.125,344433.25,327062.28125,307979.875,298345.90625,318170.21875,311444.65625,-0.10205078125,0.93994140625,0.434814453125,-0.6103515028953552,-0.5493163466453552,0.6713866591453552,100.0,139201.0,1.0
1163143.0768284,303668.03125,315711.15625,345548.875,328208.03125,308173.71875,298375.5,318235.03125,311522.34375,-0.103515625,0.940673828125,0.435791015625,-0.5493163466453552,-0.6408690810203552,0.5798339247703552,100.0,139202.0,1.0
1163143.0785709,305147.28125,315739.40625,346948.96875,329435.03125,308266.15625,298245.59375,318072.59375,311277.1875,-0.10498046875,0.939697265625,0.433837890625,-0.4882812201976776,-0.6408690810203552,0.6103515028953552,100.0,139203.0,1.0
1163143.0812058,304726.34375,315641.0625,346667.4375,329029.0625,308111.9375,298115.4375,317891.71875,311026.25,-0.103759765625,0.939208984375,0.435791015625,-0.3967284858226776,-0.6408690810203552,0.5187987685203552,100.0,139204.0,1.0
1163143.0912026,303024.5,315566.5,345162.1875,327607.5625,307951.09375,298189.375,317973.6875,311161.15625,-0.103271484375,0.9365234375,0.4384765625,-0.5187987685203552,-0.6103515028953552,0.4882812201976776,100.0,139205.0,1.0
1163143.0942754,302341.96875,315608.34375,344422.59375,327056.28125,307976.03125,298343.84375,318168.25,311437.0625,-0.102783203125,0.935302734375,0.43505859375,-0.5187987685203552,-0.6408690810203552,0.5187987685203552,100.0,139206.0,1.0
1163143.0943309,303649.96875,315718.9375,345530.625,328194.0,308177.65625,298385.53125,318244.0625,311524.6875,-0.103271484375,0.93603515625,0.434814453125,-0.3967284858226776,-0.6713866591453552,0.4577636420726776,100.0,139207.0,1.0
1163143.0967496,305140.125,315750.59375,346937.0,329427.34375,308270.0,298251.6875,318077.6875,311278.1875,-0.1025390625,0.93603515625,0.432373046875,-0.3051757514476776,-0.7934569716453552,0.4882812201976776,100.0,139208.0,1.0
1163143.096804,304740.9375,315651.625,346674.0625,329039.15625,308116.65625,298116.6875,317890.46875,311021.6875,-0.103271484375,0.935791015625,0.431396484375,-0.3051757514476776,-0.7324218153953552,0.4577636420726776,100.0,139209.0,1.0
1163143.109887,303039.78125,315577.21875,345172.03125,327619.0,307957.6875,298191.15625,317978.15625,311155.78125,-0.103515625,0.937255859375,0.435546875,-0.2746581733226776,-0.7934569716453552,0.3662109076976776,100.0,139210.0,1.0
1163143.1129793,302335.625,315612.8125,344423.78125,327057.8125,307985.25,298349.40625,318180.59375,311441.96875,-0.10400390625,0.937744140625,0.4375,-0.3662109076976776,-0.8239745497703552,0.3662109076976776,100.0,139211.0,1.0
1163143.1130293,303613.6875,315708.5625,345501.03125,328167.34375,308173.4375,298383.46875,318245.75,311522.71875,-0.104248046875,0.9384765625,0.4365234375,-0.2746581733226776,-0.8850097060203552,0.3662109076976776,100.0,139212.0,1.0
1163143.1148983,305106.59375,315725.65625,346905.625,329400.0,308252.21875,298238.625,318069.90625,311268.0,-0.103759765625,0.939453125,0.4404296875,-0.2746581733226776,-0.9460448622703552,0.3967284858226776,100.0,139213.0,1.0
1163143.121168,304750.3125,315637.84375,346684.78125,329048.8125,308113.34375,298112.90625,317892.875,311019.53125,-0.103515625,0.939208984375,0.435302734375,-0.2441406100988388,-0.9460448622703552,0.2746581733226776,100.0,139214.0,1.0
1163143.127355,303065.96875,315569.8125,345195.53125,327640.46875,307959.75,298190.0625,317978.0,311154.71875,-0.1044921875,0.93994140625,0.435791015625,-0.2441406100988388,-1.0070799589157104,0.2746581733226776,100.0,139215.0,1.0
1163143.1342359,302344.5625,315613.71875,344423.9375,327059.78125,307987.90625,298349.40625,318180.125,311441.96875,-0.106201171875,0.938720703125,0.435546875,-0.2136230319738388,-1.0681151151657104,0.2746581733226776,100.0,139216.0,1.0
1163143.1342882,303605.375,315718.21875,345485.9375,328154.28125,308178.8125,298388.90625,318252.90625,311527.1875,-0.106201171875,0.938232421875,0.437744140625,-0.0915527269244194,-1.1596678495407104,0.2746581733226776,100.0,139217.0,1.0
1163143.1480268,305111.4375,315743.09375,346909.5625,329405.71875,308265.875,298254.53125,318084.65625,311279.71875,-0.1044921875,0.939697265625,0.4404296875,-0.1220703050494194,-1.2207030057907104,0.2441406100988388,100.0,139218.0,1.0
1163143.1480963,304779.8125,315656.96875,346708.03125,329075.1875,308125.78125,298128.5625,317905.9375,311028.84375,-0.10595703125,0.939697265625,0.438720703125,-0.1525878757238388,-1.1901854276657104,0.03051757626235485,100.0,139219.0,1.0
1163143.151185,303087.34375,315583.84375,345211.90625,327654.3125,307962.34375,298196.4375,317981.375,311152.84375,-0.1064453125,0.940673828125,0.43701171875,-0.1831054538488388,-1.2207030057907104,-0.03051757626235485,100.0,139220.0,1.0
1163143.1512361,302337.125,315617.65625,344418.21875,327049.75,307980.9375,298349.65625,318179.34375,311438.40625,-0.10546875,0.939453125,0.43408203125,-0.0915527269244194,-1.2512205839157104,-0.1220703050494194,100.0,139221.0,1.0
1163143.1512492,303586.59375,315726.53125,345471.34375,328139.1875,308181.3125,298400.8125,318263.375,311537.5625,-0.107666015625,0.940673828125,0.43798828125,-0.1831054538488388,-1.3427733182907104,-0.3051757514476776,100.0,139222.0,1.0
1163143.15363,305108.46875,315754.53125,346902.125,329402.0625,308273.75,298268.3125,318098.34375,311293.125,-0.109619140625,0.94189453125,0.436767578125,-0.0915527269244194,-1.2512205839157104,-0.4882812201976776,100.0,139223.0,1.0
1163143.1624332,304792.96875,315656.1875,346713.3125,329083.125,308124.625,298125.53125,317902.71875,311025.0,-0.107421875,0.94189453125,0.437744140625,-0.1525878757238388,-1.3732908964157104,-0.4577636420726776,100.0,139224.0,1.0
1163143.1649279,303101.75,315569.625,345221.1875,327664.875,307951.53125,298178.90625,317964.75,311135.03125,-0.107177734375,0.940673828125,0.436767578125,-0.2136230319738388,-1.4343260526657104,-0.6713866591453552,100.0,139225.0,1.0
1163143.1686785,302324.78125,315602.4375,344406.78125,327036.53125,307966.8125,298331.78125,318161.71875,311416.59375,-0.108154296875,0.9423828125,0.4365234375,-0.3051757514476776,-1.3122557401657104,-0.6713866591453552,100.0,139226.0,1.0
1163143.1730311,303563.625,315721.1875,345447.65625,328117.625,308176.375,298392.9375,318257.21875,311530.65625,-0.107666015625,0.941650390625,0.434814453125,-0.3356933295726776,-1.3732908964157104,-0.7629393935203552,100.0,139227.0,1.0
1163143.1730815,305099.0,315749.15625,346889.15625,329391.6875,308271.0625,298262.21875,318095.65625,311291.6875,-0.1083984375,0.9404296875,0.433837890625,-0.3662109076976776,-1.3122557401657104,-0.7324218153953552,100.0,139228.0,1.0
1163143.186731,304814.875,315661.09375,346732.625,329102.4375,308133.375,298128.84375,317911.46875,311032.40625,-0.106689453125,0.941162109375,0.43310546875,-0.3662109076976776,-1.2817381620407104,-0.6103515028953552,100.0,139229.0,1.0
1163143.1867814,303130.875,315583.21875,345252.46875,327696.15625,307968.34375,298189.1875,317980.40625,311147.65625,-0.10693359375,0.9423828125,0.436279296875,-0.3051757514476776,-1.3427733182907104,-0.5493163466453552,100.0,139230.0,1.0
1163143.1886656,302323.375,315609.59375,344403.375,327035.90625,307972.4375,298335.28125,318165.5625,311419.8125,-0.107421875,0.939697265625,0.433349609375,-0.3662109076976776,-1.3122557401657104,-0.6713866591453552,100.0,139231.0,1.0
1163143.1910309,303528.3125,315714.21875,345406.25,328083.21875,308161.8125,298381.59375,318243.34375,311518.15625,-0.106689453125,0.940673828125,0.435546875,-0.3967284858226776,-1.2817381620407104,-0.6408690810203552,100.0,139232.0,1.0
1163143.1987107,305078.875,315743.09375,346867.53125,329375.0625,308263.90625,298252.65625,318085.09375,311283.90625,-0.108642578125,0.940185546875,0.4345703125,-0.3356933295726776,-1.2512205839157104,-0.7019042372703552,100.0,139233.0,1.0
1163143.2011809,304828.0,315653.0625,346740.84375,329112.5625,308130.78125,298117.375,317897.96875,311022.65625,-0.11181640625,0.93896484375,0.4365234375,-0.3051757514476776,-1.1901854276657104,-0.6713866591453552,100.0,139234.0,1.0
1163143.2036819,303148.9375,315573.9375,345264.375,327707.0625,307966.1875,298180.59375,317966.90625,311134.0625,-0.112548828125,0.94140625,0.435546875,-0.3356933295726776,-1.1901854276657104,-0.7324218153953552,100.0,139235.0,1.0
1163143.2098813,302321.9375,315602.71875,344401.15625,327033.125,307969.40625,298328.125,318156.8125,311412.46875,-0.11376953125,0.941162109375,0.436767578125,-0.3356933295726776,-1.1596678495407104,-0.8850097060203552,100.0,139236.0,1.0
1163143.219237,303508.8125,315709.5625,345385.6875,328067.375,308160.5625,298379.09375,318243.78125,311521.03125,-0.114990234375,0.9404296875,0.43798828125,-0.3051757514476776,-1.1596678495407104,-0.9155272841453552,100.0,139237.0,1.0
1163143.2192876,305077.28125,315747.09375,346859.40625,329375.15625,308269.71875,298258.375,318095.03125,311296.25,-0.114501953125,0.93896484375,0.439208984375,-0.2746581733226776,-1.2512205839157104,-0.8850097060203552,100.0,139238.0,1.0
1163143.2217765,304844.625,315655.03125,346750.0625,329124.34375,308128.1875,298115.6875,317894.75,311020.6875,-0.11572265625,0.939697265625,0.4384765625,-0.3051757514476776,-1.3427733182907104,-0.9155272841453552,100.0,139239.0,1.0
1163143.2218276,303170.3125,315576.78125,345284.9375,327722.71875,307961.46875,298175.9375,317960.65625,311126.65625,-0.115478515625,0.942138671875,0.439208984375,-0.3356933295726776,-1.3427733182907104,-0.9765624403953552,100.0,139240.0,1.0
1163143.2299035,302319.25,315610.65625,344405.0,327032.84375,307972.90625,298334.65625,318160.28125,311410.25,-0.11572265625,0.940185546875,0.43798828125,-0.3967284858226776,-1.4343260526657104,-1.0375975370407104,100.0,139241.0,1.0
1163143.2323959,303482.0625,315715.09375,345369.25,328048.78125,308163.78125,298388.84375,318249.4375,311525.21875,-0.11865234375,0.9384765625,0.43701171875,-0.3662109076976776,-1.4343260526657104,-1.0681151151657104,100.0,139242.0,1.0
1163143.2417792,305045.4375,315733.96875,346833.1875,329347.53125,308256.0625,298248.09375,318082.6875,311288.1875,-0.119140625,0.938720703125,0.44091796875,-0.4577636420726776,-1.4038084745407104,-1.0070799589157104,100.0,139243.0,1.0
1163143.2418299,304846.15625,315645.375,346755.40625,329126.40625,308125.53125,298110.5,317891.34375,311019.8125,-0.12060546875,0.938232421875,0.434814453125,-0.4272460639476776,-1.5258787870407104,-1.0681151151657104,100.0,139244.0,1.0
1163143.2436335,303181.75,315567.84375,345294.9375,327732.5625,307960.5625,298173.0,317957.6875,311125.125,-0.12060546875,0.9375,0.436767578125,-0.3967284858226776,-1.4953612089157104,-1.1291502714157104,100.0,139245.0,1.0
1163143.2474179,302311.65625,315600.84375,344387.5625,327021.5,307965.65625,298331.53125,318156.25,311407.75,-0.12158203125,0.936767578125,0.436767578125,-0.3967284858226776,-1.6479490995407104,-1.0070799589157104,100.0,139246.0,1.0
1163143.2592263,303456.5,315708.46875,345342.15625,328024.46875,308161.375,298391.0625,318257.90625,311531.75,-0.119140625,0.935546875,0.437744140625,-0.3356933295726776,-1.7089842557907104,-1.0375975370407104,100.0,139247.0,1.0
1163143.2592747,305053.21875,315748.96875,346845.0,329359.59375,308281.34375,298273.125,318113.34375,311318.96875,-0.12060546875,0.935302734375,0.439208984375,-0.3662109076976776,-1.7395018339157104,-0.9155272841453552,100.0,139248.0,1.0
1163143.2617922,304872.96875,315655.03125,346778.03125,329150.1875,308141.6875,298122.5,317901.90625,311032.5,-0.123046875,0.93505859375,0.441162109375,-0.3662109076976776,-1.7089842557907104,-0.9155272841453552,100.0,139249.0,1.0
1163143.2618589,303206.625,315569.90625,345313.71875,327748.375,307965.75,298169.6875,317950.09375,311119.5,-0.1220703125,0.935302734375,0.4384765625,-0.3662109076976776,-1.7395018339157104,-0.8239745497703552,100.0,139250.0,1.0
1163143.269925,302310.3125,315597.71875,344388.375,327016.84375,307966.0,298325.25,318144.28125,311396.125,-0.119873046875,0.93505859375,0.43798828125,-0.3356933295726776,-1.7395018339157104,-0.7324218153953552,100.0,139251.0,1.0
1163143.2742417,303430.21875,315700.15625,345308.375,327995.78125,308148.59375,298376.65625,318231.46875,311514.9375,-0.1181640625,0.933349609375,0.436279296875,-0.2746581733226776,-1.7700194120407104,-0.7324218153953552,100.0,139252.0,1.0
1163143.2743006,305033.5625,315738.875,346805.5625,329330.875,308261.78125,298254.0,318080.34375,311298.46875,-0.11767578125,0.933837890625,0.43798828125,-0.2746581733226776,-1.7700194120407104,-0.6713866591453552,100.0,139253.0,1.0
1163143.279938,304899.53125,315665.125,346786.53125,329163.78125,308142.9375,298121.21875,317892.5,311030.625,-0.117431640625,0.93212890625,0.436767578125,-0.1831054538488388,-1.6784666776657104,-0.6103515028953552,100.0,139254.0,1.0
1163143.2867747,303239.59375,315584.21875,345338.75,327773.78125,307970.65625,298171.3125,317948.125,311122.34375,-0.118896484375,0.93359375,0.435546875,-0.1831054538488388,-1.6784666776657104,-0.5187987685203552,100.0,139255.0,1.0
1163143.2868257,302316.75,315609.59375,344391.5,327020.25,307965.125,298324.0,318142.125,311402.1875,-0.1181640625,0.93310546875,0.43603515625,-0.0610351525247097,-1.6174315214157104,-0.5493163466453552,100.0,139256.0,1.0
1163143.2886144,303430.03125,315727.625,345312.90625,327998.46875,308167.1875,298400.53125,318259.34375,311545.15625,-0.117431640625,0.933837890625,0.438720703125,0.03051757626235485,-1.5258787870407104,-0.3967284858226776,100.0,139257.0,1.0
1163143.2986897,305052.875,315773.65625,346836.40625,329355.46875,308290.65625,298292.90625,318126.9375,311341.3125,-0.119140625,0.9375,0.43603515625,0.0,-1.4648436307907104,-0.3051757514476776,100.0,139258.0,1.0
1163143.3011611,304921.25,315675.75,346813.15625,329183.8125,308147.6875,298133.3125,317907.4375,311040.71875,-0.120849609375,0.93896484375,0.4375,-0.1220703050494194,-1.4038084745407104,-0.3051757514476776,100.0,139259.0,1.0
1163143.3037049,303266.78125,315589.125,345365.84375,327795.0625,307975.125,298177.375,317952.78125,311122.0,-0.12109375,0.939208984375,0.4375,-0.1525878757238388,-1.4038084745407104,-0.2441406100988388,100.0,139260.0,1.0
1163143.3098853,302322.46875,315612.09375,344400.0,327019.09375,307965.03125,298324.1875,318140.0,311397.90625,-0.12109375,0.940185546875,0.44140625,-0.2746581733226776,-1.4953612089157104,-0.2136230319738388,100.0,139261.0,1.0
1163143.314279,303404.5625,315719.375,345288.59375,327970.65625,308154.03125,298389.46875,318244.5,311534.15625,-0.121337890625,0.938232421875,0.437255859375,-0.3967284858226776,-1.4648436307907104,-0.3051757514476776,100.0,139262.0,1.0
1163143.3143347,305026.59375,315756.75,346807.71875,329330.34375,308270.0,298272.96875,318104.5,311327.71875,-0.12158203125,0.938232421875,0.438232421875,-0.4577636420726776,-1.4038084745407104,-0.3662109076976776,100.0,139263.0,1.0
1163143.3249313,304937.4375,315678.4375,346825.25,329201.6875,308151.8125,298134.375,317909.21875,311050.8125,-0.122314453125,0.939697265625,0.43896484375,-0.5798339247703552,-1.4038084745407104,-0.3051757514476776,100.0,139264.0,1.0
1163143.3280237,303282.96875,315589.5625,345376.59375,327811.15625,307977.46875,298178.0,317953.75,311128.53125,-0.12255859375,0.940673828125,0.4404296875,-0.7019042372703552,-1.4648436307907104,-0.3662109076976776,100.0,139265.0,1.0
1163143.3280743,302309.0625,315599.9375,344383.8125,327013.90625,307956.4375,298321.40625,318138.125,311398.875,-0.123779296875,0.939453125,0.4423828125,-0.7934569716453552,-1.4038084745407104,-0.3356933295726776,100.0,139266.0,1.0
1163143.3361401,303369.4375,315703.21875,345251.59375,327946.875,308141.4375,298382.9375,318241.8125,311533.96875,-0.121826171875,0.9404296875,0.443603515625,-0.9155272841453552,-1.4038084745407104,-0.3356933295726776,100.0,139267.0,1.0
1163143.3392389,305009.9375,315750.3125,346794.125,329323.8125,308270.09375,298271.34375,318111.03125,311333.8125,-0.12255859375,0.94091796875,0.443115234375,-0.9765624403953552,-1.5258787870407104,-0.3967284858226776,100.0,139268.0,1.0
1163143.3392968,304954.25,315678.4375,346846.6875,329223.875,308157.4375,298136.34375,317918.0,311055.28125,-0.122802734375,0.940185546875,0.4443359375,-1.1291502714157104,-1.4953612089157104,-0.4272460639476776,100.0,139269.0,1.0
1163143.3411706,303309.15625,315589.9375,345407.4375,327839.9375,307976.9375,298173.96875,317955.8125,311123.15625,-0.1220703125,0.941162109375,0.443359375,-1.3122557401657104,-1.4648436307907104,-0.3662109076976776,100.0,139270.0,1.0
1163143.349933,302303.0625,315598.0625,344387.1875,327013.0,307951.625,298313.46875,318134.625,311386.28125,-0.123291015625,0.943603515625,0.439208984375,-1.3427733182907104,-1.4343260526657104,-0.3967284858226776,100.0,139271.0,1.0
1163143.3542733,303338.75,315707.125,345237.5625,327929.0625,308142.15625,298388.03125,318248.1875,311532.625,-0.123291015625,0.943359375,0.4423828125,-1.4648436307907104,-1.3732908964157104,-0.3967284858226776,100.0,139272.0,1.0
1163143.3543245,304991.53125,315754.96875,346784.28125,329313.625,308269.46875,298281.28125,318115.3125,311340.5,-0.1240234375,0.94482421875,0.442626953125,-1.5869139432907104,-1.3427733182907104,-0.2441406100988388,100.0,139273.0,1.0
1163143.3623861,304957.46875,315673.875,346848.40625,329224.03125,308149.75,298132.5,317911.28125,311051.90625,-0.12255859375,0.942626953125,0.444580078125,-1.7089842557907104,-1.3732908964157104,-0.3051757514476776,100.0,139274.0,1.0
1163143.3649534,303318.71875,315583.59375,345416.375,327847.4375,307971.1875,298169.25,317949.46875,311115.8125,-0.123779296875,0.943115234375,0.446044921875,-1.7089842557907104,-1.4343260526657104,-0.1831054538488388,100.0,139275.0,1.0
1163143.3686396,302308.4375,315605.03125,344391.125,327020.25,307961.625,298328.21875,318144.5625,311392.28125,-0.126220703125,0.94140625,0.4453125,-1.8920897245407104,-1.5563963651657104,-0.1831054538488388,100.0,139276.0,1.0
1163143.3774033,303322.03125,315704.625,345210.5625,327908.78125,308139.1875,298392.5,318247.625,311532.1875,-0.125732421875,0.940673828125,0.446533203125,-1.9226073026657104,-1.4953612089157104,-0.1525878757238388,100.0,139277.0,1.0
1163143.3805499,304991.90625,315757.84375,346779.46875,329313.90625,308278.03125,298292.4375,318129.8125,311350.78125,-0.125244140625,0.939697265625,0.447998046875,-2.105712652206421,-1.5869139432907104,-0.0915527269244194,100.0,139278.0,1.0
1163143.3806053,304977.59375,315673.625,346870.65625,329246.65625,308159.40625,298140.8125,317920.15625,311055.28125,-0.1259765625,0.9365234375,0.447265625,-2.044677495956421,-1.6174315214157104,0.0610351525247097,100.0,139279.0,1.0
1163143.3917441,303338.125,315576.34375,345434.4375,327860.40625,307972.09375,298164.0625,317939.625,311103.03125,-0.12353515625,0.935302734375,0.44775390625,-2.197265386581421,-1.6784666776657104,0.0915527269244194,100.0,139280.0,1.0
1163143.3917968,302299.75,315591.1875,344387.46875,327007.75,307948.40625,298312.03125,318123.90625,311373.6875,-0.12646484375,0.935791015625,0.448486328125,-2.197265386581421,-1.7089842557907104,0.1220703050494194,100.0,139281.0,1.0
1163143.3964498,303292.4375,315694.8125,345191.15625,327884.5625,308132.21875,298385.875,318236.03125,311523.6875,-0.12451171875,0.934814453125,0.448974609375,-2.105712652206421,-1.7700194120407104,0.1831054538488388,100.0,139282.0,1.0
1163143.3965015,304964.71875,315743.34375,346756.5625,329291.46875,308268.65625,298281.28125,318113.875,311343.53125,-0.126708984375,0.934814453125,0.447509765625,-2.075195074081421,-1.8920897245407104,0.2441406100988388,100.0,139283.0,1.0
1163143.4012018,304989.65625,315670.40625,346879.96875,329254.8125,308159.3125,298135.625,317911.8125,311057.625,-0.13037109375,0.933349609375,0.450927734375,-1.9226073026657104,-1.9836424589157104,0.3051757514476776,100.0,139284.0,1.0
1163143.4036797,303364.3125,315575.25,345460.4375,327884.28125,307978.09375,298164.59375,317940.71875,311108.5,-0.130859375,0.9326171875,0.448974609375,-1.8615721464157104,-2.044677495956421,0.3356933295726776,100.0,139285.0,1.0
1163143.4061625,302305.3125,315591.53125,344398.65625,327015.34375,307958.59375,298319.4375,318133.8125,311384.21875,-0.130126953125,0.932373046875,0.449951171875,-1.7700194120407104,-2.288818120956421,0.3051757514476776,100.0,139286.0,1.0
1163143.4149567,303283.15625,315705.09375,345179.34375,327873.65625,308141.875,298398.9375,318253.1875,311538.4375,-0.13134765625,0.929931640625,0.4482421875,-1.7089842557907104,-2.380370855331421,0.1831054538488388,100.0,139287.0,1.0
1163143.4192755,304975.4375,315764.28125,346765.53125,329297.34375,308288.15625,298301.84375,318139.8125,311368.40625,-0.130615234375,0.93310546875,0.45263671875,-1.6174315214157104,-2.502441167831421,0.1220703050494194,100.0,139288.0,1.0
1163143.4193267,305019.78125,315682.09375,346906.59375,329276.625,308170.9375,298142.6875,317921.5625,311071.03125,-0.12548828125,0.933349609375,0.450927734375,-1.4343260526657104,-2.716064214706421,0.03051757626235485,100.0,139289.0,1.0
1163143.4249544,303394.8125,315581.0,345486.375,327905.125,307978.71875,298161.28125,317935.875,311107.96875,-0.12646484375,0.9326171875,0.453857421875,-1.4648436307907104,-2.716064214706421,-0.03051757626235485,100.0,139290.0,1.0
1163143.4367798,302304.75,315587.78125,344390.6875,327007.375,307946.96875,298306.5,318118.0,311373.3125,-0.12646484375,0.93408203125,0.453369140625,-1.4648436307907104,-2.685546636581421,-0.0915527269244194,100.0,139291.0,1.0
1163143.43683,303249.96875,315693.625,345148.59375,327843.15625,308130.6875,298387.3125,318241.75,311531.5625,-0.122802734375,0.931396484375,0.452392578125,-1.4038084745407104,-2.685546636581421,-0.03051757626235485,100.0,139292.0,1.0
1163143.4461876,304945.40625,315750.0625,346737.34375,329273.21875,308275.625,298293.25,318132.3125,311363.21875,-0.119140625,0.927490234375,0.447021484375,-1.3427733182907104,-2.624511480331421,0.0,100.0,139293.0,1.0
1163143.4462377,305024.53125,315672.1875,346918.65625,329287.34375,308167.0,298141.4375,317923.28125,311069.34375,-0.1162109375,0.923828125,0.447265625,-1.2817381620407104,-2.655029058456421,0.1220703050494194,100.0,139294.0,1.0
1163143.4462509,303411.8125,315576.59375,345508.0,327921.28125,307976.5625,298160.03125,317933.28125,311103.75,-0.112548828125,0.921875,0.446044921875,-1.0070799589157104,-2.532958745956421,0.2746581733226776,100.0,139295.0,1.0
1163143.4485878,302307.96875,315593.40625,344400.15625,327010.40625,307949.21875,298311.59375,318123.46875,311378.78125,-0.109619140625,0.925048828125,0.447998046875,-0.7019042372703552,-2.349853277206421,0.5493163466453552,100.0,139296.0,1.0
1163143.4511639,303238.71875,315704.625,345137.25,327833.40625,308135.625,298396.78125,318254.96875,311547.46875,-0.109619140625,0.927001953125,0.4462890625,-0.4882812201976776,-2.197265386581421,0.7934569716453552,100.0,139297.0,1.0
1163143.45738,304944.96875,315766.78125,346734.21875,329273.75,308285.1875,298303.96875,318149.125,311384.59375,-0.110107421875,0.929443359375,0.4462890625,-0.3356933295726776,-2.044677495956421,0.9765624403953552,100.0,139298.0,1.0
1163143.4612039,305047.5,315689.4375,346932.71875,329304.96875,308179.53125,298150.1875,317934.53125,311083.8125,-0.1123046875,0.9345703125,0.44921875,-0.0915527269244194,-1.8920897245407104,1.1596678495407104,100.0,139299.0,1.0
1163143.4705284,303433.78125,315581.0625,345528.125,327942.21875,307983.0,298158.875,317936.875,311104.125,-0.11376953125,0.936279296875,0.446533203125,-0.2136230319738388,-1.8005369901657104,1.0986326932907104,100.0,139300.0,1.0
1163143.4705783,302306.375,315586.8125,344405.0,327014.875,307948.3125,298304.15625,318121.125,311371.4375,-0.114501953125,0.935791015625,0.447021484375,-0.1831054538488388,-1.5258787870407104,1.1291502714157104,100.0,139301.0,1.0
1163143.4854856,303213.59375,315694.4375,345124.28125,327818.03125,308131.59375,298393.75,318254.25,311543.1875,-0.11572265625,0.93505859375,0.446044921875,-0.1220703050494194,-1.4343260526657104,1.1291502714157104,100.0,139302.0,1.0
1163143.4855448,304919.375,315749.59375,346724.9375,329258.90625,308278.9375,298302.28125,318152.59375,311383.40625,-0.11669921875,0.93701171875,0.447265625,-0.1220703050494194,-1.4038084745407104,0.9460448622703552,100.0,139303.0,1.0
1163143.4885827,305053.125,315679.875,346952.375,329317.84375,308181.3125,298153.5,317943.21875,311088.09375,-0.1181640625,0.9375,0.4462890625,-0.0915527269244194,-1.3732908964157104,0.9155272841453552,100.0,139304.0,1.0
1163143.4886314,303455.0,315583.75,345555.03125,327964.125,307991.6875,298167.71875,317947.40625,311110.71875,-0.119140625,0.940673828125,0.4482421875,-0.0915527269244194,-1.3427733182907104,0.8850097060203552,100.0,139305.0,1.0
1163143.488645,302304.5,315591.28125,344406.78125,327016.40625,307951.53125,298309.53125,318130.6875,311377.78125,-0.12158203125,0.94189453125,0.4501953125,-0.1525878757238388,-1.4648436307907104,0.8544921278953552,100.0,139306.0,1.0
1163143.4917663,303190.625,315700.875,345104.78125,327800.6875,308132.03125,298391.96875,318259.1875,311550.53125,-0.12255859375,0.940185546875,0.44970703125,-0.2441406100988388,-1.5258787870407104,0.5187987685203552,100.0,139307.0,1.0
1163143.491818,304916.15625,315765.15625,346718.40625,329259.71875,308288.25,298304.875,318160.90625,311400.40625,-0.12353515625,0.94091796875,0.449462890625,-0.4272460639476776,-1.5869139432907104,0.3662109076976776,100.0,139308.0,1.0
1163143.5087667,305080.84375,315696.9375,346970.34375,329340.625,308192.03125,298157.1875,317950.375,311102.15625,-0.1240234375,0.94189453125,0.44970703125,-0.6103515028953552,-1.5869139432907104,0.1525878757238388,100.0,139309.0,1.0
1163143.5136163,303495.40625,315597.78125,345590.0,327997.28125,308002.03125,298173.34375,317956.53125,311120.84375,-0.123046875,0.9423828125,0.448974609375,-0.8544921278953552,-1.6784666776657104,-0.0915527269244194,100.0,139310.0,1.0
1163143.513672,302322.03125,315600.125,344427.25,327030.53125,307962.625,298316.78125,318141.875,311385.75,-0.123046875,0.94189453125,0.45166015625,-1.0375975370407104,-1.7395018339157104,-0.3051757514476776,100.0,139311.0,1.0
1163143.5136894,303172.71875,315701.34375,345091.1875,327783.25,308135.8125,298401.0,318268.65625,311551.9375,-0.12353515625,0.9443359375,0.450439453125,-1.2512205839157104,-1.8920897245407104,-0.4882812201976776,100.0,139312.0,1.0
1163143.5161576,304896.6875,315760.78125,346702.21875,329242.46875,308290.375,298314.71875,318168.5,311400.84375,-0.12451171875,0.947265625,0.450927734375,-1.4953612089157104,-2.136230230331421,-0.6103515028953552,100.0,139313.0,1.0
1163143.5199362,305086.125,315690.96875,346980.1875,329348.0625,308195.0625,298162.1875,317952.96875,311100.90625,-0.123046875,0.946044921875,0.452880859375,-1.5563963651657104,-2.105712652206421,-0.7934569716453552,100.0,139314.0,1.0
1163143.5261575,303508.90625,315586.1875,345607.96875,328008.5625,308001.15625,298167.71875,317948.03125,311109.28125,-0.121826171875,0.94921875,0.449951171875,-1.6174315214157104,-2.166747808456421,-0.8239745497703552,100.0,139315.0,1.0
1163143.5330444,302311.5625,315585.28125,344423.9375,327022.75,307956.0,298312.28125,318131.40625,311373.59375,-0.118896484375,0.94970703125,0.45068359375,-1.8310545682907104,-2.166747808456421,-0.7629393935203552,100.0,139316.0,1.0
1163143.533104,303141.0,315692.65625,345063.46875,327759.75,308131.875,298404.65625,318270.34375,311550.625,-0.1171875,0.94677734375,0.45166015625,-1.9836424589157104,-2.136230230331421,-0.6408690810203552,100.0,139317.0,1.0
1163143.5442732,304868.5,315752.375,346668.25,329219.21875,308278.65625,298309.4375,318165.28125,311399.59375,-0.114013671875,0.9462890625,0.45361328125,-2.105712652206421,-2.166747808456421,-0.4882812201976776,100.0,139318.0,1.0
1163143.5443242,305090.875,315682.46875,346975.34375,329355.5625,308184.78125,298151.53125,317950.71875,311101.6875,-0.11328125,0.943115234375,0.4541015625,-2.410888433456421,-2.136230230331421,-0.3356933295726776,100.0,139319.0,1.0
1163143.5511971,303536.53125,315586.1875,345627.71875,328039.5,308003.375,298168.4375,317955.90625,311117.875,-0.113037109375,0.941162109375,0.454345703125,-2.380370855331421,-2.075195074081421,-0.1525878757238388,100.0,139320.0,1.0
1163143.551248,302321.84375,315583.65625,344426.28125,327035.625,307957.625,298313.46875,318138.5625,311380.28125,-0.11279296875,0.938720703125,0.447998046875,-2.349853277206421,-1.9226073026657104,0.0610351525247097,100.0,139321.0,1.0
1163143.5512623,303121.125,315683.625,345038.34375,327745.875,308127.21875,298400.375,318270.625,311555.25,-0.110595703125,0.9365234375,0.451416015625,-2.380370855331421,-1.8920897245407104,0.2441406100988388,100.0,139322.0,1.0
1163143.5549119,304860.65625,315748.4375,346666.53125,329220.03125,308290.28125,298321.9375,318178.96875,311415.15625,-0.111328125,0.9326171875,0.45361328125,-2.410888433456421,-1.7700194120407104,0.4577636420726776,100.0,139323.0,1.0
1163143.5587337,305106.6875,315677.375,346997.71875,329370.0625,308200.09375,298167.0,317960.8125,311110.5625,-0.11328125,0.929931640625,0.454833984375,-2.319335699081421,-1.7089842557907104,0.6103515028953552,100.0,139324.0,1.0
1163143.5704035,303557.625,315578.125,345651.25,328051.84375,308007.15625,298174.875,317951.0,311113.3125,-0.113525390625,0.927001953125,0.453857421875,-2.166747808456421,-1.6479490995407104,0.8850097060203552,100.0,139325.0,1.0
1163143.5704487,302324.875,315579.375,344431.625,327033.21875,307957.875,298315.96875,318127.375,311373.40625,-0.114013671875,0.92626953125,0.45458984375,-1.9836424589157104,-1.5563963651657104,1.0375975370407104,100.0,139326.0,1.0
1163143.579237,303103.96875,315685.40625,345024.75,327728.53125,308128.46875,298404.75,318264.8125,311557.03125,-0.1162109375,0.926025390625,0.45458984375,-1.9226073026657104,-1.5563963651657104,1.1291502714157104,100.0,139327.0,1.0
1163143.5792876,304850.375,315756.3125,346655.09375,329210.375,308291.28125,298325.0,318178.09375,311423.375,-0.116943359375,0.92578125,0.458251953125,-1.6479490995407104,-1.6479490995407104,1.0681151151657104,100.0,139328.0,1.0
1163143.5880207,305125.03125,315690.15625,347013.53125,329386.40625,308207.40625,298168.25,317962.78125,311120.84375,-0.11767578125,0.92724609375,0.455078125,-1.4953612089157104,-1.6174315214157104,1.0986326932907104,100.0,139329.0,1.0
1163143.5880743,303579.53125,315586.71875,345673.6875,328070.53125,308015.8125,298172.5625,317953.40625,311116.1875,-0.116455078125,0.92919921875,0.45654296875,-1.4648436307907104,-1.6479490995407104,1.0986326932907104,100.0,139330.0,1.0
1163143.5905246,302335.78125,315590.1875,344443.15625,327044.125,307968.53125,298323.90625,318138.90625,311383.15625,-0.116943359375,0.930419921875,0.4560546875,-1.2817381620407104,-1.6784666776657104,1.0070799589157104,100.0,139331.0,1.0
1163143.5905811,303093.96875,315694.25,345017.875,327720.9375,308137.5,298416.1875,318277.15625,311567.15625,-0.118408203125,0.9287109375,0.458984375,-1.2512205839157104,-1.7700194120407104,0.9460448622703552,100.0,139332.0,1.0
1163143.6011673,304848.3125,315764.1875,346658.9375,329209.125,308305.6875,298340.625,318196.0625,311439.125,-0.11865234375,0.93212890625,0.45947265625,-1.2817381620407104,-1.8005369901657104,0.7629393935203552,100.0,139333.0,1.0
1163143.6042715,305144.34375,315695.15625,347037.9375,329402.9375,308219.46875,298180.6875,317979.40625,311132.53125,-0.116943359375,0.932861328125,0.460205078125,-1.1901854276657104,-1.8005369901657104,0.7934569716453552,100.0,139334.0,1.0
1163143.604321,303605.625,315587.96875,345703.625,328095.28125,308019.9375,298173.90625,317957.96875,311116.71875,-0.115966796875,0.93212890625,0.45703125,-1.2817381620407104,-1.9226073026657104,0.7019042372703552,100.0,139335.0,1.0
1163143.6061569,302326.65625,315578.3125,344442.46875,327034.8125,307956.4375,298308.09375,318127.125,311367.59375,-0.11376953125,0.932861328125,0.46044921875,-1.1901854276657104,-1.8920897245407104,0.5798339247703552,100.0,139336.0,1.0
1163143.6180252,303062.125,315685.40625,344991.875,327690.96875,308124.96875,298404.28125,318269.28125,311556.15625,-0.111572265625,0.933349609375,0.460693359375,-1.1596678495407104,-1.9531248807907104,0.5798339247703552,100.0,139337.0,1.0
1163143.6180817,304825.0625,315762.65625,346641.96875,329191.78125,308300.5,298333.9375,318194.625,311439.21875,-0.1103515625,0.933837890625,0.459228515625,-1.0986326932907104,-1.9531248807907104,0.4882812201976776,100.0,139338.0,1.0
1163143.6199517,305144.34375,315688.46875,347040.25,329405.625,308211.4375,298164.3125,317965.125,311124.125,-0.10888671875,0.930419921875,0.457275390625,-1.0375975370407104,-1.8005369901657104,0.3967284858226776,100.0,139339.0,1.0
1163143.6224424,303624.21875,315583.65625,345722.3125,328113.15625,308012.96875,298158.15625,317939.8125,311106.0,-0.107421875,0.9267578125,0.455322265625,-0.8544921278953552,-1.6784666776657104,0.4882812201976776,100.0,139340.0,1.0
1163143.6261613,302329.96875,315577.78125,344456.21875,327041.8125,307953.5,298299.4375,318115.6875,311360.09375,-0.1044921875,0.92724609375,0.455078125,-0.7934569716453552,-1.5869139432907104,0.4882812201976776,100.0,139341.0,1.0
1163143.6349121,303033.0,315680.21875,344971.3125,327667.5625,308114.875,298396.59375,318253.90625,311545.25,-0.100830078125,0.927978515625,0.45556640625,-0.6713866591453552,-1.4343260526657104,0.5798339247703552,100.0,139342.0,1.0
1163143.6392975,304800.28125,315763.1875,346616.9375,329170.21875,308295.9375,298334.28125,318187.46875,311435.28125,-0.10107421875,0.929931640625,0.455322265625,-0.5798339247703552,-1.2512205839157104,0.7324218153953552,100.0,139343.0,1.0
1163143.6393477,305163.28125,315699.1875,347061.1875,329422.71875,308221.53125,298175.25,317974.0625,311137.0,-0.1015625,0.931884765625,0.45458984375,-0.2746581733226776,-1.0070799589157104,0.7934569716453552,100.0,139344.0,1.0
1163143.6529494,303652.3125,315585.09375,345757.28125,328132.46875,308019.40625,298160.5625,317943.375,311109.84375,-0.101806640625,0.933837890625,0.4560546875,-0.2136230319738388,-0.7629393935203552,0.8544921278953552,100.0,139345.0,1.0
1163143.653003,302331.59375,315568.125,344460.78125,327038.03125,307949.21875,298293.96875,318109.78125,311358.375,-0.101806640625,0.937255859375,0.4541015625,-0.2136230319738388,-0.4882812201976776,0.8850097060203552,100.0,139346.0,1.0
1163143.6549747,303009.375,315672.1875,344953.40625,327644.21875,308112.8125,298398.3125,318258.28125,311552.21875,-0.10595703125,0.937744140625,0.4541015625,-0.1220703050494194,-0.2746581733226776,1.0375975370407104,100.0,139347.0,1.0
1163143.6574549,304773.03125,315750.3125,346597.96875,329143.3125,308288.3125,298333.5,318187.8125,311437.5,-0.10546875,0.9384765625,0.4560546875,-0.0915527269244194,-0.1220703050494194,1.0681151151657104,100.0,139348.0,1.0
1163143.6599728,305163.375,315694.0,347061.90625,329418.78125,308218.6875,298177.90625,317972.4375,311130.5625,-0.111328125,0.939697265625,0.45654296875,-0.0610351525247097,0.03051757626235485,1.0375975370407104,100.0,139349.0,1.0
1163143.6637346,303676.34375,315589.75,345781.40625,328152.0625,308024.40625,298167.46875,317945.34375,311106.71875,-0.11083984375,0.939697265625,0.454833984375,-0.1831054538488388,0.0915527269244194,1.0986326932907104,100.0,139350.0,1.0
1163143.6892764,302347.9375,315580.4375,344486.1875,327052.0,307958.15625,298305.78125,318121.125,311360.96875,-0.1142578125,0.940185546875,0.451904296875,-0.2441406100988388,0.2746581733226776,0.9460448622703552,100.0,139351.0,1.0
1163143.6893273,303001.78125,315684.0625,344956.8125,327637.4375,308119.09375,298407.6875,318269.53125,311555.53125,-0.115478515625,0.941162109375,0.45361328125,-0.3356933295726776,0.2746581733226776,0.8239745497703552,100.0,139352.0,1.0
1163143.6911002,304774.375,315768.65625,346604.75,329145.375,308303.34375,298347.4375,318204.8125,311451.1875,-0.11669921875,0.938720703125,0.45458984375,-0.5187987685203552,0.2441406100988388,0.7324218153953552,100.0,139353.0,1.0
1163143.6937039,305203.78125,315723.21875,347100.78125,329451.21875,308245.21875,298198.75,317997.9375,311154.90625,-0.115478515625,0.938720703125,0.453125,-0.4882812201976776,0.2441406100988388,0.5187987685203552,100.0,139354.0,1.0
1163143.6962048,303729.28125,315618.625,345831.125,328194.34375,308049.0,298185.96875,317969.3125,311123.4375,-0.1142578125,0.935546875,0.452392578125,-0.5187987685203552,0.1525878757238388,0.5493163466453552,100.0,139355.0,1.0
1163143.7012039,302362.625,315588.125,344496.53125,327057.90625,307958.40625,298302.0,318119.0625,311354.53125,-0.112060546875,0.9345703125,0.44970703125,-0.5798339247703552,0.0915527269244194,0.6408690810203552,100.0,139356.0,1.0
1163143.7037215,302987.84375,315686.21875,344937.78125,327618.03125,308113.625,298401.53125,318265.15625,311549.96875,-0.109619140625,0.9365234375,0.451171875,-0.5187987685203552,0.1220703050494194,0.7019042372703552,100.0,139357.0,1.0
1163143.7062042,304766.59375,315775.4375,346584.75,329129.375,308301.03125,298342.53125,318206.6875,311454.0625,-0.111572265625,0.93701171875,0.4501953125,-0.5187987685203552,0.1220703050494194,0.7934569716453552,100.0,139358.0,1.0
1163143.7088321,305210.65625,315718.6875,347102.125,329454.4375,308238.875,298185.875,317997.3125,311152.75,-0.112548828125,0.940673828125,0.450439453125,-0.4882812201976776,0.2136230319738388,0.9155272841453552,100.0,139359.0,1.0
1163143.711164,303747.71875,315610.65625,345846.21875,328206.15625,308041.28125,298168.875,317960.1875,311113.6875,-0.115478515625,0.939697265625,0.451171875,-0.4882812201976776,0.1525878757238388,1.0375975370407104,100.0,139360.0,1.0
1163143.7212218,302382.0,315594.21875,344521.3125,327076.125,307968.6875,298305.3125,318127.5625,311361.34375,-0.116455078125,0.938720703125,0.451171875,-0.6408690810203552,0.0,0.9155272841453552,100.0,139361.0,1.0
1163143.7242577,302984.71875,315698.75,344944.125,327620.625,308130.0625,298416.28125,318280.8125,311566.34375,-0.116455078125,0.9375,0.448486328125,-0.6713866591453552,-0.03051757626235485,0.9460448622703552,100.0,139362.0,1.0
1163143.7243098,304753.625,315782.40625,346586.78125,329131.78125,308314.34375,298355.84375,318219.375,311469.78125,-0.11376953125,0.9345703125,0.449951171875,-0.6103515028953552,-0.1220703050494194,0.8544921278953552,100.0,139363.0,1.0
1163143.7261446,305205.75,315711.96875,347100.0625,329457.21875,308232.625,298177.65625,317985.15625,311147.28125,-0.111572265625,0.931884765625,0.451904296875,-0.4882812201976776,-0.1525878757238388,0.9765624403953552,100.0,139364.0,1.0
1163143.7286355,303751.625,315595.5625,345840.5,328211.15625,308019.40625,298144.65625,317932.375,311094.8125,-0.110595703125,0.931396484375,0.4521484375,-0.4882812201976776,-0.0915527269244194,1.0375975370407104,100.0,139365.0,1.0
1163143.7310695,302377.375,315588.40625,344510.84375,327071.65625,307951.25,298288.875,318111.21875,311350.34375,-0.109619140625,0.93115234375,0.45166015625,-0.3662109076976776,-0.03051757626235485,1.1596678495407104,100.0,139366.0,1.0
1163143.733584,302951.90625,315688.09375,344906.5625,327589.5,308106.28125,298397.78125,318268.5625,311555.53125,-0.109619140625,0.93359375,0.4501953125,-0.3051757514476776,-0.1220703050494194,1.1596678495407104,100.0,139367.0,1.0
1163143.7366739,304715.1875,315764.53125,346543.59375,329094.6875,308287.4375,298335.90625,318210.28125,311458.15625,-0.11181640625,0.934326171875,0.44921875,-0.2136230319738388,-0.2441406100988388,1.2207030057907104,100.0,139368.0,1.0
1163143.7367089,305215.59375,315711.15625,347113.3125,329467.6875,308232.71875,298183.625,317997.65625,311156.25,-0.114013671875,0.936279296875,0.44921875,-0.2136230319738388,-0.2441406100988388,1.1901854276657104,100.0,139369.0,1.0
1163143.7505577,303786.25,315608.78125,345892.625,328248.25,308041.5625,298170.125,317960.8125,311114.46875,-0.113525390625,0.937744140625,0.452392578125,-0.2136230319738388,-0.2136230319738388,1.0681151151657104,100.0,139370.0,1.0
1163143.7506079,302384.78125,315592.625,344541.4375,327086.15625,307965.21875,298305.40625,318129.09375,311363.3125,-0.113525390625,0.937255859375,0.451904296875,-0.2441406100988388,-0.2136230319738388,1.0070799589157104,100.0,139371.0,1.0
1163143.7524041,302932.21875,315693.46875,344908.8125,327581.8125,308118.625,298417.78125,318285.71875,311570.71875,-0.11376953125,0.937255859375,0.450927734375,-0.2136230319738388,-0.3051757514476776,0.9155272841453552,100.0,139372.0,1.0
1163143.7549087,304710.71875,315777.6875,346550.5,329093.15625,308303.96875,298363.71875,318230.21875,311478.1875,-0.115478515625,0.937744140625,0.455078125,-0.2746581733226776,-0.3967284858226776,0.7324218153953552,100.0,139373.0,1.0
1163143.7587771,305234.71875,315726.375,347128.96875,329479.21875,308245.3125,298203.84375,318008.84375,311167.3125,-0.11376953125,0.937744140625,0.45166015625,-0.3356933295726776,-0.3967284858226776,0.7019042372703552,100.0,139374.0,1.0
1163143.7729929,303819.6875,315614.25,345917.75,328267.65625,308043.4375,298174.96875,317960.46875,311113.15625,-0.114501953125,0.939697265625,0.453125,-0.3967284858226776,-0.4577636420726776,0.6103515028953552,100.0,139375.0,1.0
1163143.7730449,302394.25,315585.46875,344544.03125,327085.875,307953.9375,298300.5,318119.0625,311351.78125,-0.115234375,0.93994140625,0.452880859375,-0.3356933295726776,-0.6103515028953552,0.3967284858226776,100.0,139376.0,1.0
1163143.7754327,302905.125,315678.96875,344873.40625,327548.1875,308096.8125,298403.9375,318268.03125,311553.1875,-0.11328125,0.94140625,0.450927734375,-0.3662109076976776,-0.5798339247703552,0.3967284858226776,100.0,139377.0,1.0
1163143.7754729,304679.5,315765.625,346510.71875,329060.25,308285.90625,298347.15625,318215.90625,311467.1875,-0.113037109375,0.939208984375,0.45166015625,-0.5187987685203552,-0.5798339247703552,0.3356933295726776,100.0,139378.0,1.0
1163143.777451,305233.03125,315720.46875,347119.3125,329472.875,308235.3125,298189.375,318004.0,311163.46875,-0.112060546875,0.94091796875,0.451904296875,-0.5798339247703552,-0.6713866591453552,0.3967284858226776,100.0,139379.0,1.0
1163143.7861505,303837.75,315618.34375,345930.375,328281.6875,308043.8125,298166.5625,317961.0,311112.4375,-0.111572265625,0.940185546875,0.451416015625,-0.5798339247703552,-0.6713866591453552,0.3662109076976776,100.0,139380.0,1.0
1163143.7891717,302408.46875,315600.125,344557.78125,327100.09375,307967.34375,298302.90625,318126.84375,311360.09375,-0.111572265625,0.940185546875,0.45068359375,-0.7629393935203552,-0.6713866591453552,0.3967284858226776,100.0,139381.0,1.0
1163143.7892062,302894.59375,315691.125,344863.125,327542.75,308107.0,298410.90625,318277.5,311564.46875,-0.1123046875,0.94091796875,0.451416015625,-0.7019042372703552,-0.6713866591453552,0.4882812201976776,100.0,139382.0,1.0
1163143.7948749,304659.21875,315765.875,346486.375,329046.125,308285.375,298346.8125,318217.6875,311472.5625,-0.10791015625,0.9384765625,0.45263671875,-0.8239745497703552,-0.6713866591453552,0.4882812201976776,100.0,139383.0,1.0
1163143.8012296,305239.46875,315712.0625,347122.53125,329486.46875,308233.53125,298184.28125,317999.90625,311167.15625,-0.10546875,0.93701171875,0.4521484375,-0.6713866591453552,-0.6408690810203552,0.6713866591453552,100.0,139384.0,1.0
1163143.8104709,303852.40625,315595.65625,345935.0,328295.65625,308028.59375,298148.6875,317937.5625,311097.125,-0.103515625,0.9365234375,0.4521484375,-0.7934569716453552,-0.6713866591453552,0.7629393935203552,100.0,139385.0,1.0
1163143.8105236,302405.4375,315572.125,344542.9375,327094.0,307942.0625,298278.0625,318099.65625,311339.34375,-0.105224609375,0.935302734375,0.450927734375,-0.7019042372703552,-0.6103515028953552,0.8544921278953552,100.0,139386.0,1.0
1163143.81298,302869.09375,315667.96875,344835.75,327521.125,308087.875,298388.90625,318259.71875,311556.5,-0.107421875,0.9345703125,0.4541015625,-0.7019042372703552,-0.5798339247703552,1.0070799589157104,100.0,139387.0,1.0
1163143.8130303,304639.90625,315756.65625,346470.28125,329035.03125,308277.78125,298339.75,318215.0,311478.5625,-0.10693359375,0.935546875,0.455322265625,-0.7019042372703552,-0.4272460639476776,0.9765624403953552,100.0,139388.0,1.0
1163143.823679,305245.625,315712.40625,347126.71875,329493.15625,308233.15625,298181.59375,318001.21875,311170.90625,-0.106201171875,0.934326171875,0.4560546875,-0.6408690810203552,-0.3967284858226776,1.0681151151657104,100.0,139389.0,1.0
1163143.8261284,303886.65625,315609.5,345974.53125,328329.71875,308044.0625,298156.71875,317953.03125,311113.3125,-0.109130859375,0.93310546875,0.454833984375,-0.6713866591453552,-0.3051757514476776,1.1596678495407104,100.0,139390.0,1.0
1163143.8286338,302431.28125,315596.09375,344579.96875,327122.28125,307965.125,298299.5,318121.9375,311359.375,-0.1083984375,0.93310546875,0.455078125,-0.6408690810203552,-0.1525878757238388,1.0070799589157104,100.0,139391.0,1.0
1163143.8311599,302867.59375,315694.8125,344842.375,327523.0625,308107.375,298417.96875,318284.28125,311574.75,-0.109130859375,0.933837890625,0.454833984375,-0.5798339247703552,-0.0915527269244194,0.9765624403953552,100.0,139392.0,1.0
1163143.8374619,304622.46875,315767.84375,346463.78125,329028.59375,308289.9375,298360.5625,318233.0625,311492.21875,-0.111083984375,0.93212890625,0.453857421875,-0.5187987685203552,-0.0610351525247097,0.9460448622703552,100.0,139393.0,1.0
1163143.8492425,305240.53125,315707.9375,347131.625,329496.8125,308235.5625,298189.375,318004.28125,311172.875,-0.114501953125,0.929931640625,0.452880859375,-0.4272460639476776,-0.1220703050494194,0.8239745497703552,100.0,139394.0,1.0
