Time,FZ,C3,CZ,C4,PZ,PO7,OZ,PO8,AccX,AccY,AccZ,Gyro1,Gyro2,Gyro3,Battery,Counter,Validation
484348.1874331,288571.125,305210.75,313371.125,321627.21875,335544.03125,273111.25,271155.1875,277841.84375,-0.091064453125,0.871337890625,-0.5498046875,-0.1525878757238388,1.6784666776657104,2.532958745956421,60.0,1421544.0,1.0
484348.1899573,287002.84375,306821.875,316794.40625,324188.5625,338148.28125,273459.75,274340.0625,278903.375,-0.090576171875,0.870361328125,-0.552001953125,-0.8850097060203552,0.9765624403953552,2.746581792831421,60.0,1421545.0,1.0
484348.1923747,288153.53125,308780.25,321715.75,326886.6875,341218.0,273601.8125,277666.4375,279817.03125,-0.091552734375,0.867919921875,-0.552734375,-1.6479490995407104,0.3662109076976776,2.807616949081421,60.0,1421546.0,1.0
484348.1947149,290603.71875,308335.71875,321222.375,325961.59375,340354.3125,273318.84375,276376.375,279317.875,-0.090576171875,0.865234375,-0.550537109375,-2.014159917831421,-0.2746581733226776,2.624511480331421,60.0,1421547.0,1.0
484348.1972778,290809.4375,306150.34375,316147.65625,322808.28125,336843.40625,272952.375,272387.84375,278128.03125,-0.088134765625,0.860595703125,-0.543701171875,-2.319335699081421,-1.0681151151657104,2.319335699081421,60.0,1421548.0,1.0
484348.1972904,288568.375,305245.1875,313378.71875,321691.78125,335398.125,272920.4375,271059.71875,277837.375,-0.083251953125,0.858154296875,-0.539306640625,-2.838134527206421,-1.6174315214157104,2.075195074081421,60.0,1421549.0,1.0
484348.1999492,286968.78125,306975.21875,316762.3125,324209.3125,337982.625,273257.25,274204.59375,278875.21875,-0.07763671875,0.855224609375,-0.536376953125,-3.356933355331421,-2.288818120956421,1.8920897245407104,60.0,1421550.0,1.0
484348.2022114,288097.375,309074.03125,321603.71875,326858.0625,341000.28125,273429.71875,277476.53125,279779.9375,-0.071044921875,0.848388671875,-0.538818359375,-3.875732183456421,-2.807616949081421,1.8005369901657104,60.0,1421551.0,1.0
484348.2049211,290596.90625,308783.1875,321104.5625,325938.875,340149.21875,273197.25,276216.53125,279263.96875,-0.06787109375,0.84130859375,-0.537841796875,-4.394530773162842,-3.265380620956421,1.9836424589157104,60.0,1421552.0,1.0
484348.2086528,290814.90625,306626.0625,316027.9375,322786.65625,336640.1875,272761.5625,272249.96875,278041.9375,-0.06103515625,0.833740234375,-0.539306640625,-4.882812023162842,-3.784179449081421,2.105712652206421,60.0,1421553.0,1.0
484348.2086663,288564.96875,305650.09375,313258.71875,321675.40625,335193.75,272665.53125,270934.53125,277771.75,-0.056884765625,0.828857421875,-0.542236328125,-5.126952648162842,-4.119872570037842,2.227782964706421,60.0,1421554.0,1.0
484348.241178,286944.90625,307263.53125,316632.40625,324167.625,337786.5625,273003.59375,274097.03125,278822.125,-0.052001953125,0.825927734375,-0.5458984375,-4.943847179412842,-4.425048351287842,2.044677495956421,60.0,1421555.0,1.0
484348.2437163,288066.71875,309229.4375,321451.4375,326777.4375,340803.21875,273205.75,277342.875,279738.25,-0.047607421875,0.825927734375,-0.54150390625,-4.455565929412842,-4.638671398162842,1.8615721464157104,60.0,1421556.0,1.0
484348.2437404,290558.84375,308818.0625,320919.03125,325814.25,339915.875,272944.6875,276023.9375,279225.96875,-0.042236328125,0.82958984375,-0.541259765625,-4.119872570037842,-4.699706554412842,1.7700194120407104,60.0,1421557.0,1.0
484348.2461595,290816.0625,306657.09375,315883.71875,322683.84375,336432.3125,272598.65625,272081.1875,278047.125,-0.03857421875,0.837646484375,-0.534423828125,-3.967284917831421,-4.882812023162842,1.7089842557907104,60.0,1421558.0,1.0
484348.2461772,288597.59375,305740.3125,313185.3125,321611.3125,335054.53125,272618.15625,270834.40625,277813.25,-0.032470703125,0.84814453125,-0.53076171875,-3.936767339706421,-5.035399913787842,1.8615721464157104,60.0,1421559.0,1.0
484348.2511769,286954.3125,307356.875,316554.8125,324090.5625,337655.125,272937.875,273995.5625,278856.25,-0.0322265625,0.85546875,-0.525146484375,-4.089354991912842,-5.065917491912842,2.044677495956421,60.0,1421560.0,1.0
484348.2560979,288087.28125,309292.1875,321373.125,326690.4375,340673.78125,273164.625,277256.25,279756.3125,-0.02880859375,0.859619140625,-0.5244140625,-4.455565929412842,-4.913329601287842,2.288818120956421,60.0,1421561.0,1.0
484348.2585659,290581.53125,308723.375,320850.0,325700.96875,339754.75,272941.71875,275927.65625,279199.125,-0.02880859375,0.862548828125,-0.52490234375,-4.730224132537842,-4.852294445037842,2.655029058456421,60.0,1421562.0,1.0
484348.2611552,290862.1875,306389.3125,315913.125,322590.5,336308.75,272625.125,272039.6875,278025.84375,-0.031005859375,0.870361328125,-0.52294921875,-5.218505382537842,-4.791259288787842,3.021239995956421,60.0,1421563.0,1.0
484348.2635632,288610.125,305267.53125,313256.84375,321518.3125,334929.09375,272684.84375,270808.46875,277788.03125,-0.02978515625,0.873291015625,-0.5224609375,-5.645751476287842,-4.821776866912842,3.082275152206421,60.0,1421564.0,1.0
484348.2662032,286893.15625,306661.125,316584.65625,323965.5625,337463.0,273031.3125,273907.6875,278792.6875,-0.02880859375,0.877197265625,-0.522705078125,-5.859374523162842,-4.577636241912842,3.143310308456421,60.0,1421565.0,1.0
484348.268713,288019.21875,308477.15625,321395.21875,326564.46875,340456.875,273283.71875,277137.3125,279690.875,-0.0263671875,0.880615234375,-0.525634765625,-6.286620616912842,-4.516601085662842,3.265380620956421,60.0,1421566.0,1.0
484348.2687538,290618.125,308029.6875,320980.8125,325658.40625,339623.25,273159.25,275894.84375,279207.28125,-0.025634765625,0.881591796875,-0.527099609375,-6.530761241912842,-4.333495616912842,3.326415777206421,60.0,1421567.0,1.0
484348.2711135,290900.09375,305802.8125,316063.15625,322554.375,336170.15625,272908.46875,272008.84375,278016.71875,-0.026123046875,0.885009765625,-0.52685546875,-6.744384288787842,-4.058837413787842,3.356933355331421,60.0,1421568.0,1.0
484348.2737031,288612.90625,304759.4375,313409.125,321495.25,334782.125,272934.46875,270775.5625,277747.25,-0.025390625,0.88818359375,-0.527099609375,-7.049560070037842,-3.906249761581421,3.417968511581421,60.0,1421569.0,1.0
484348.2762509,286916.21875,306275.34375,316781.09375,324021.71875,337372.59375,273186.0625,273938.0625,278802.34375,-0.0224609375,0.889404296875,-0.522705078125,-7.324218273162842,-3.814697027206421,3.540038824081421,60.0,1421570.0,1.0
484348.2762917,288018.6875,308136.0625,321534.15625,326629.90625,340321.25,273286.46875,277131.96875,279684.96875,-0.023193359375,0.889892578125,-0.5205078125,-7.843017101287842,-3.601073980331421,3.509521245956421,60.0,1421571.0,1.0
484348.2909154,290597.0,307715.0625,321057.6875,325700.0625,339423.59375,273046.5,275822.25,279131.375,-0.019775390625,0.8876953125,-0.517578125,-8.331297874450684,-3.326415777206421,3.570556402206421,60.0,1421572.0,1.0
484348.2909574,290923.71875,305577.6875,316193.5,322666.9375,336013.4375,272770.6875,271974.96875,277970.59375,-0.016845703125,0.88818359375,-0.515625,-8.636473655700684,-2.990722417831421,3.540038824081421,60.0,1421573.0,1.0
484348.2987563,288658.75,304598.0625,313588.03125,321675.15625,334674.28125,272807.15625,270783.625,277745.5625,-0.017822265625,0.893798828125,-0.5146484375,-8.972167015075684,-2.502441167831421,3.417968511581421,60.0,1421574.0,1.0
484348.2987961,286926.125,306103.59375,316929.34375,324193.65625,337253.96875,273116.15625,273927.25,278775.25,-0.01416015625,0.894775390625,-0.517578125,-9.674071311950684,-2.075195074081421,3.265380620956421,60.0,1421575.0,1.0
484348.2988059,288005.8125,307946.53125,321633.65625,326759.4375,340174.0625,273287.90625,277088.0625,279635.8125,-0.013916015625,0.89453125,-0.517822265625,-10.101317405700684,-1.7089842557907104,3.021239995956421,60.0,1421576.0,1.0
484348.3024972,290632.3125,307570.5625,321184.5625,325843.21875,339302.96875,273123.03125,275794.0,279111.6875,-0.0126953125,0.89697265625,-0.5185546875,-10.620116233825684,-1.2207030057907104,2.899169683456421,60.0,1421577.0,1.0
484348.3025389,290996.125,305485.0625,316366.25,322835.46875,335929.5625,272955.59375,271970.59375,277967.90625,-0.011474609375,0.89404296875,-0.517578125,-11.138915061950684,-0.6713866591453552,2.685546636581421,60.0,1421578.0,1.0
484348.3049929,288734.46875,304543.34375,313792.5,321853.0625,334627.8125,273087.0,270810.8125,277756.46875,-0.01220703125,0.891845703125,-0.5166015625,-11.413573265075684,-0.1831054538488388,2.624511480331421,60.0,1421579.0,1.0
484348.3490596,286916.03125,305996.5625,317046.8125,324282.625,337149.53125,273422.90625,273908.125,278750.40625,-0.01025390625,0.884765625,-0.514404296875,-11.749266624450684,0.1831054538488388,2.624511480331421,60.0,1421580.0,1.0
484348.3616065,287976.40625,307833.96875,321694.625,326798.0625,340041.40625,273618.96875,277048.0,279603.25,-0.013671875,0.878662109375,-0.515625,-11.932372093200684,0.6713866591453552,2.563476324081421,60.0,1421581.0,1.0
484348.3616476,290662.46875,307513.53125,321274.34375,325894.96875,339199.90625,273459.125,275787.625,279111.625,-0.01513671875,0.875,-0.514892578125,-11.962889671325684,1.1291502714157104,2.593993902206421,60.0,1421582.0,1.0
484348.3616575,291028.5,305428.8125,316456.1875,322861.9375,335810.03125,273178.65625,271950.5625,277948.78125,-0.0185546875,0.87451171875,-0.513916015625,-11.779784202575684,1.4953612089157104,2.441406011581421,60.0,1421583.0,1.0
484348.3688766,288704.8125,304437.375,313838.96875,321821.3125,334458.09375,273194.65625,270750.53125,277704.25,-0.016845703125,0.875,-0.513671875,-11.627196311950684,1.7700194120407104,2.380370855331421,60.0,1421584.0,1.0
484348.3689169,286897.53125,305915.65625,317112.09375,324254.34375,337008.25,273533.78125,273892.3125,278759.15625,-0.017333984375,0.875,-0.515380859375,-11.535643577575684,2.014159917831421,2.349853277206421,60.0,1421585.0,1.0
484348.3689263,288015.46875,307802.84375,321787.1875,326772.5,339941.53125,273692.28125,277077.4375,279687.21875,-0.01611328125,0.87939453125,-0.5146484375,-11.413573265075684,2.380370855331421,2.197265386581421,60.0,1421586.0,1.0
484348.3689353,290671.5625,307438.15625,321297.65625,325785.71875,339021.09375,273450.1875,275724.78125,279138.15625,-0.01171875,0.878662109375,-0.50732421875,-11.413573265075684,2.777099370956421,2.166747808456421,60.0,1421587.0,1.0
484348.3712167,291064.25,305388.0625,316498.84375,322759.28125,335634.625,273181.25,271877.15625,277984.53125,-0.00927734375,0.877685546875,-0.506591796875,-11.627196311950684,3.295898199081421,2.105712652206421,60.0,1421588.0,1.0
484348.373592,288736.0,304417.28125,313900.75,321705.375,334301.375,273203.6875,270684.75,277744.21875,-0.0029296875,0.875244140625,-0.505615234375,-11.901854515075684,3.753661870956421,2.227782964706421,60.0,1421589.0,1.0
484348.3762528,286888.78125,305873.96875,317143.90625,324093.34375,336840.625,273513.3125,273804.9375,278769.8125,0.000244140625,0.873291015625,-0.51220703125,-12.207030296325684,4.455565929412842,2.288818120956421,60.0,1421590.0,1.0
484348.3785677,287974.25,307724.78125,321759.28125,326576.25,339724.1875,273752.09375,276938.65625,279658.6875,0.00146484375,0.87060546875,-0.51318359375,-12.390135765075684,5.157470226287842,2.227782964706421,60.0,1421591.0,1.0
484348.3810929,290701.34375,307410.0,321303.84375,325637.46875,338836.1875,273507.3125,275604.25,279148.09375,0.002685546875,0.864501953125,-0.51220703125,-12.451170921325684,5.767821788787842,2.197265386581421,60.0,1421592.0,1.0
484348.3836715,291119.0625,305378.125,316542.65625,322622.59375,335475.03125,273170.78125,271776.46875,277996.875,0.00390625,0.857177734375,-0.512939453125,-12.573241233825684,6.256103038787842,2.136230230331421,60.0,1421593.0,1.0
484348.386199,288800.75,304438.03125,313985.53125,321612.1875,334173.875,273214.9375,270647.8125,277780.875,0.001708984375,0.84423828125,-0.512451171875,-12.756346702575684,6.835937023162842,1.9226073026657104,60.0,1421594.0,1.0
484348.3885777,286955.375,305919.3125,317251.28125,324049.4375,336743.0,273559.0,273825.0625,278827.125,0.004638671875,0.8310546875,-0.513671875,-12.725829124450684,7.537841320037842,1.5563963651657104,60.0,1421595.0,1.0
484348.391147,288017.4375,307750.28125,321826.96875,326512.59375,339607.875,273749.15625,276956.1875,279683.5625,0.00341796875,0.81787109375,-0.514404296875,-12.573241233825684,8.178709983825684,1.0375975370407104,60.0,1421596.0,1.0
484348.393716,290736.9375,307416.6875,321346.84375,325552.1875,338691.875,273556.125,275615.71875,279154.0,0.00244140625,0.806884765625,-0.5126953125,-12.084959983825684,8.605956077575684,0.3662109076976776,60.0,1421597.0,1.0
484348.3977748,291166.71875,305396.0,316598.53125,322536.9375,335334.03125,273279.40625,271799.625,278022.46875,0.000732421875,0.80224609375,-0.51025390625,-11.444090843200684,9.216307640075684,-0.2441406100988388,60.0,1421598.0,1.0
484348.4075159,288833.28125,304441.875,314035.9375,321521.1875,334023.6875,273329.5625,270644.21875,277802.0625,0.000244140625,0.8046875,-0.506591796875,-10.620116233825684,9.796141624450684,-1.0681151151657104,60.0,1421599.0,1.0
484348.4075582,286948.5,305889.71875,317255.40625,323930.09375,336555.6875,273652.0625,273793.59375,278817.71875,0.00244140625,0.813232421875,-0.50634765625,-9.979247093200684,10.284422874450684,-1.6784666776657104,60.0,1421600.0,1.0
484348.4098421,287994.5625,307689.84375,321787.71875,326380.28125,339384.15625,273796.28125,276891.46875,279663.6875,0.0,0.82177734375,-0.509765625,-9.399413108825684,10.833739280700684,-2.380370855331421,60.0,1421601.0,1.0
484348.4198935,290737.65625,307357.4375,321301.78125,325437.03125,338470.59375,273582.3125,275533.8125,279163.65625,-0.00390625,0.833251953125,-0.512451171875,-8.697508811950684,11.383055686950684,-3.051757574081421,60.0,1421602.0,1.0
484348.4199372,291170.46875,305335.65625,316553.09375,322450.21875,335120.53125,273340.3125,271710.59375,278045.53125,-0.006103515625,0.84375,-0.51318359375,-8.331297874450684,11.749266624450684,-3.692626714706421,60.0,1421603.0,1.0
484348.422494,288819.5,304381.34375,313992.21875,321461.90625,333817.96875,273393.78125,270567.96875,277827.09375,-0.008544921875,0.854736328125,-0.5146484375,-8.178709983825684,12.084959983825684,-4.089354991912842,60.0,1421604.0,1.0
484348.4249841,286947.96875,305858.6875,317236.625,323926.59375,336373.75,273699.90625,273735.375,278848.65625,-0.010498046875,0.858642578125,-0.515869140625,-8.026122093200684,12.481688499450684,-4.486083507537842,60.0,1421605.0,1.0
484348.4273302,288011.09375,307681.78125,321767.9375,326423.5625,339198.8125,273806.75,276820.125,279674.0625,-0.013916015625,0.85888671875,-0.517822265625,-7.812499523162842,12.817381858825684,-4.760741710662842,60.0,1421606.0,1.0
484348.4298397,290744.71875,307354.21875,321276.03125,325509.375,338282.59375,273577.59375,275464.625,279144.34375,-0.017578125,0.854248046875,-0.516357421875,-7.507323741912842,13.031004905700684,-4.943847179412842,60.0,1421607.0,1.0
484348.4324663,291138.1875,305314.46875,316497.84375,322536.125,334909.0625,273308.5625,271623.6875,277992.875,-0.02197265625,0.8525390625,-0.513671875,-7.263183116912842,13.244627952575684,-5.187987804412842,60.0,1421608.0,1.0
484348.4349612,288787.40625,304389.90625,313957.625,321590.46875,333623.3125,273356.3125,270489.5625,277781.3125,-0.02880859375,0.848388671875,-0.51123046875,-6.958007335662842,13.275145530700684,-5.310058116912842,60.0,1421609.0,1.0
484348.4374994,286902.1875,305875.84375,317204.25,324069.71875,336176.5,273658.5,273634.28125,278800.5625,-0.035400390625,0.849365234375,-0.508056640625,-6.622313976287842,13.427733421325684,-5.371093273162842,60.0,1421610.0,1.0
484348.4375398,287981.59375,307711.65625,321756.3125,326586.8125,339027.625,273829.4375,276734.8125,279647.53125,-0.040283203125,0.851806640625,-0.51025390625,-6.225585460662842,13.183592796325684,-5.126952648162842,60.0,1421611.0,1.0
484348.4687674,290723.875,307367.53125,321255.65625,325696.3125,338111.09375,273626.21875,275380.75,279133.25,-0.04443359375,0.857666015625,-0.510498046875,-5.950927257537842,12.939452171325684,-4.669188976287842,60.0,1421612.0,1.0
484348.4688083,291108.59375,305309.09375,316482.9375,322757.3125,334742.96875,273334.75,271550.1875,277975.15625,-0.05224609375,0.861083984375,-0.50634765625,-5.828856945037842,12.603758811950684,-4.394530773162842,60.0,1421613.0,1.0
484348.4712015,288751.46875,304375.625,313958.53125,321826.96875,333470.59375,273374.0,270432.96875,277756.375,-0.05908203125,0.860595703125,-0.504638671875,-5.920409679412842,12.145995140075684,-4.028319835662842,60.0,1421614.0,1.0
484348.4762287,286900.125,305895.78125,317251.90625,324310.25,336062.4375,273716.0625,273622.28125,278795.90625,-0.06689453125,0.8583984375,-0.5048828125,-5.920409679412842,11.596678733825684,-3.631591558456421,60.0,1421615.0,1.0
484348.4837242,288013.25,307762.34375,321824.375,326819.53125,338930.5,273905.0,276745.09375,279655.28125,-0.072509765625,0.857177734375,-0.50390625,-5.798339366912842,10.833739280700684,-3.387450933456421,60.0,1421616.0,1.0
484348.4862036,290754.46875,307411.96875,321299.0,325923.40625,337996.3125,273681.21875,275377.875,279126.4375,-0.0751953125,0.8603515625,-0.50341796875,-5.676269054412842,10.101317405700684,-3.051757574081421,60.0,1421617.0,1.0
484348.4885882,291109.40625,305324.84375,316489.4375,322972.71875,334598.03125,273353.625,271514.0625,277944.9375,-0.07568359375,0.863525390625,-0.50341796875,-5.584716320037842,9.307860374450684,-2.777099370956421,60.0,1421618.0,1.0
484348.4912155,288782.125,304434.875,314010.09375,322061.21875,333372.09375,273418.96875,270438.78125,277759.0625,-0.0771484375,0.868896484375,-0.506103515625,-5.523681163787842,8.575438499450684,-2.471923589706421,60.0,1421619.0,1.0
484348.493737,286899.75,305929.59375,317283.84375,324462.78125,335946.5625,273717.5,273613.34375,278766.5,-0.07568359375,0.868896484375,-0.505126953125,-5.645751476287842,7.751464366912842,-2.136230230331421,60.0,1421620.0,1.0
484348.4960535,287985.625,307745.8125,321814.875,326890.0625,338776.375,273871.8125,276705.03125,279592.4375,-0.074462890625,0.871337890625,-0.507568359375,-5.676269054412842,7.019042491912842,-1.7700194120407104,60.0,1421621.0,1.0
484348.4987514,290717.0,307358.9375,321270.21875,325958.1875,337822.21875,273643.46875,275321.46875,279048.5,-0.07275390625,0.87060546875,-0.50927734375,-5.737304210662842,6.408690929412842,-1.4648436307907104,60.0,1421622.0,1.0
484348.4987924,291111.0,305309.03125,316512.34375,323029.03125,334471.78125,273364.1875,271512.5625,277913.8125,-0.07177734375,0.871337890625,-0.507568359375,-5.767821788787842,5.859374523162842,-1.0681151151657104,60.0,1421623.0,1.0
484348.5012358,288749.0625,304399.40625,314021.28125,322054.78125,333229.5625,273399.75,270428.5,277711.59375,-0.072998046875,0.875732421875,-0.5107421875,-5.767821788787842,5.187987804412842,-0.7629393935203552,60.0,1421624.0,1.0
484348.5035836,286864.8125,305900.0,317302.59375,324407.0625,335809.84375,273706.78125,273613.25,278728.875,-0.072998046875,0.875244140625,-0.510986328125,-5.767821788787842,4.608153820037842,-0.4272460639476776,60.0,1421625.0,1.0
484348.5053303,287980.0625,307739.375,321849.3125,326802.28125,338659.0625,273885.875,276726.59375,279581.0,-0.07275390625,0.87890625,-0.510986328125,-5.767821788787842,3.906249761581421,-0.0915527269244194,60.0,1421626.0,1.0
484348.5123665,290739.78125,307369.59375,321317.4375,325840.875,337713.78125,273675.03125,275351.6875,279048.84375,-0.0673828125,0.876953125,-0.511474609375,-5.767821788787842,3.326415777206421,0.0915527269244194,60.0,1421627.0,1.0
484348.5124071,291099.5625,305282.71875,316521.5625,322850.21875,334320.875,273367.75,271501.125,277883.25,-0.065185546875,0.872802734375,-0.513916015625,-5.950927257537842,2.960204839706421,0.3662109076976776,60.0,1421628.0,1.0
484348.5149594,288698.28125,304346.5625,314014.9375,321828.75,333057.1875,273381.34375,270401.6875,277660.0,-0.060791015625,0.869384765625,-0.514404296875,-5.859374523162842,2.532958745956421,0.7324218153953552,60.0,1421629.0,1.0
484348.5199969,286834.40625,305876.3125,317330.6875,324187.40625,335675.46875,273701.875,273631.84375,278710.96875,-0.0595703125,0.865234375,-0.513916015625,-5.706786632537842,2.227782964706421,1.1901854276657104,60.0,1421630.0,1.0
484348.5249574,287941.8125,307703.15625,321852.09375,326550.78125,338508.96875,273868.0625,276730.96875,279545.5,-0.05908203125,0.86572265625,-0.5126953125,-5.584716320037842,1.8920897245407104,1.5563963651657104,60.0,1421631.0,1.0
484348.5273859,290709.21875,307328.71875,321295.875,325580.53125,337543.28125,273663.59375,275335.78125,279019.15625,-0.060791015625,0.864501953125,-0.514404296875,-5.645751476287842,1.4953612089157104,1.9836424589157104,60.0,1421632.0,1.0
484348.5274276,291115.125,305296.15625,316556.25,322616.6875,334205.0,273381.875,271536.4375,277901.5,-0.06298828125,0.86572265625,-0.515625,-5.493163585662842,1.2207030057907104,2.227782964706421,60.0,1421633.0,1.0
484348.5300031,288715.625,304374.71875,314072.6875,321615.0625,332972.0,273419.15625,270469.875,277702.90625,-0.0634765625,0.866943359375,-0.513427734375,-5.493163585662842,0.8544921278953552,2.441406011581421,60.0,1421634.0,1.0
484348.5300445,286831.8125,305894.625,317371.09375,323991.84375,335583.65625,273738.59375,273697.9375,278747.0,-0.059814453125,0.867431640625,-0.513427734375,-5.462646007537842,0.5493163466453552,2.655029058456421,60.0,1421635.0,1.0
484348.5411015,287933.3125,307702.4375,321862.46875,326366.96875,338398.71875,273886.5,276774.875,279575.28125,-0.055419921875,0.86865234375,-0.5166015625,-5.554198741912842,0.4272460639476776,2.777099370956421,60.0,1421636.0,1.0
484348.543746,290701.875,307312.625,321277.46875,325385.8125,337409.6875,273667.34375,275349.09375,279022.46875,-0.0537109375,0.8681640625,-0.515625,-5.523681163787842,0.2136230319738388,2.899169683456421,60.0,1421637.0,1.0
484348.5437887,291101.8125,305272.71875,316531.84375,322430.09375,334061.40625,273377.9375,271537.40625,277891.28125,-0.053466796875,0.866943359375,-0.515869140625,-5.401610851287842,0.0610351525247097,3.112792730331421,60.0,1421638.0,1.0
484348.5486744,288710.25,304371.59375,314075.5625,321481.03125,332850.125,273404.59375,270487.78125,277694.59375,-0.053466796875,0.86376953125,-0.5166015625,-5.279540538787842,-0.1220703050494194,3.387450933456421,60.0,1421639.0,1.0
484348.5549134,286797.40625,305867.375,317353.65625,323903.4375,335443.90625,273718.03125,273692.46875,278710.0,-0.05126953125,0.86328125,-0.51416015625,-5.249022960662842,-0.2441406100988388,3.601073980331421,60.0,1421640.0,1.0
484348.5612767,287909.15625,307679.03125,321837.5,326340.5,338253.53125,273894.90625,276757.0625,279559.1875,-0.05322265625,0.86328125,-0.511962890625,-5.035399913787842,-0.3356933295726776,3.753661870956421,60.0,1421641.0,1.0
484348.5613165,290714.21875,307322.5625,321282.90625,325409.125,337288.46875,273689.625,275347.21875,279032.9375,-0.053466796875,0.862060546875,-0.5126953125,-4.882812023162842,-0.4882812201976776,3.875732183456421,60.0,1421642.0,1.0
484348.5660879,291120.84375,305293.46875,316551.9375,322474.25,333947.5,273404.125,271537.6875,277901.21875,-0.054443359375,0.859619140625,-0.5126953125,-4.821776866912842,-0.6408690810203552,3.936767339706421,60.0,1421643.0,1.0
484348.5680073,288709.09375,304381.40625,314100.6875,321553.375,332737.125,273428.375,270490.71875,277700.0625,-0.056884765625,0.859375,-0.51171875,-4.699706554412842,-0.8239745497703552,3.753661870956421,60.0,1421644.0,1.0
484348.5936818,286807.0625,305886.0625,317391.65625,324045.15625,335349.59375,273764.28125,273720.71875,278739.9375,-0.0576171875,0.859375,-0.515625,-4.486083507537842,-0.8239745497703552,3.631591558456421,60.0,1421645.0,1.0
484348.5961996,287896.03125,307659.96875,321824.0,326469.3125,338117.09375,273898.375,276746.09375,279535.3125,-0.0556640625,0.85595703125,-0.519287109375,-4.333495616912842,-0.9460448622703552,3.570556402206421,60.0,1421646.0,1.0
484348.5987379,290690.53125,307284.09375,321227.5625,325505.15625,337113.21875,273659.125,275292.21875,278971.96875,-0.055419921875,0.8525390625,-0.517578125,-4.241942882537842,-1.0070799589157104,3.570556402206421,60.0,1421647.0,1.0
484348.6011049,291107.78125,305277.8125,316518.0625,322591.125,333789.0625,273379.625,271494.03125,277844.0,-0.052001953125,0.852783203125,-0.514404296875,-3.936767339706421,-1.0375975370407104,3.448486089706421,60.0,1421648.0,1.0
484348.6036922,288689.15625,304381.40625,314085.21875,321703.84375,332594.875,273416.65625,270463.8125,277649.1875,-0.0498046875,0.853759765625,-0.511962890625,-3.631591558456421,-1.1596678495407104,3.356933355331421,60.0,1421649.0,1.0
484348.6061978,286761.1875,305873.71875,317375.84375,324189.1875,335210.65625,273740.5625,273696.59375,278683.875,-0.051025390625,0.850830078125,-0.51416015625,-3.295898199081421,-1.1901854276657104,3.417968511581421,60.0,1421650.0,1.0
484348.6076728,287886.375,307670.0,321829.71875,326629.09375,338004.71875,273901.6875,276744.03125,279507.875,-0.050048828125,0.850341796875,-0.516357421875,-3.051757574081421,-1.3122557401657104,3.448486089706421,60.0,1421651.0,1.0
484348.6149686,290710.46875,307305.03125,321240.90625,325669.40625,337011.65625,273682.5625,275292.40625,278959.25,-0.05029296875,0.851318359375,-0.515380859375,-2.716064214706421,-1.2207030057907104,3.479003667831421,60.0,1421652.0,1.0
484348.617465,291112.34375,305283.53125,316524.40625,322743.46875,333677.125,273407.28125,271481.15625,277825.3125,-0.052001953125,0.84716796875,-0.517333984375,-2.258300542831421,-1.3122557401657104,3.417968511581421,60.0,1421653.0,1.0
484348.6249838,288709.71875,304403.25,314136.15625,321878.1875,332528.0,273472.625,270499.03125,277664.8125,-0.0556640625,0.843994140625,-0.5205078125,-1.7089842557907104,-1.2512205839157104,3.326415777206421,60.0,1421654.0,1.0
484348.6250263,286764.5,305871.84375,317420.0,324328.84375,335138.84375,273770.71875,273733.96875,278686.5625,-0.055908203125,0.84375,-0.51513671875,-0.9460448622703552,-1.4343260526657104,3.265380620956421,60.0,1421655.0,1.0
484348.6274643,287847.46875,307621.53125,321807.8125,326693.90625,337867.375,273872.0,276718.8125,279459.5,-0.053955078125,0.846923828125,-0.508056640625,-0.3051757514476776,-1.5869139432907104,2.990722417831421,60.0,1421656.0,1.0
484348.6300045,290703.9375,307298.15625,321237.59375,325736.375,336893.375,273662.78125,275282.5625,278939.3125,-0.04833984375,0.853515625,-0.504150390625,0.3662109076976776,-1.4648436307907104,2.685546636581421,60.0,1421657.0,1.0
484348.6323841,291057.0,305244.46875,316479.09375,322753.75,333516.75,273342.28125,271423.6875,277763.25,-0.045654296875,0.865234375,-0.505859375,0.7629393935203552,-1.4648436307907104,2.532958745956421,60.0,1421658.0,1.0
484348.6324239,288600.46875,304300.96875,314053.1875,321837.25,332328.34375,273380.1875,270401.40625,277562.46875,-0.049072265625,0.8818359375,-0.509033203125,1.0375975370407104,-1.3427733182907104,2.593993902206421,60.0,1421659.0,1.0
484348.6347948,286665.6875,305672.09375,317358.75,324294.15625,334956.65625,273730.75,273652.6875,278602.96875,-0.055419921875,0.8935546875,-0.511962890625,1.1901854276657104,-1.3122557401657104,2.746581792831421,60.0,1421660.0,1.0
484348.6462894,287813.9375,307346.15625,321799.96875,326693.75,337737.375,273924.5,276681.625,279430.25,-0.060302734375,0.8994140625,-0.512451171875,0.9765624403953552,-1.4038084745407104,2.685546636581421,60.0,1421661.0,1.0
484348.6463296,290669.4375,306964.65625,321217.84375,325720.28125,336746.9375,273730.21875,275227.40625,278901.3125,-0.065185546875,0.8994140625,-0.50927734375,0.7324218153953552,-1.5563963651657104,2.685546636581421,60.0,1421662.0,1.0
484348.6486605,291070.0625,304995.28125,316514.3125,322787.09375,333423.59375,273436.3125,271428.6875,277776.6875,-0.06494140625,0.890625,-0.505859375,0.4272460639476776,-1.8310545682907104,2.532958745956421,60.0,1421663.0,1.0
484348.6487001,288603.9375,304148.78125,314107.5625,321872.09375,332248.15625,273423.375,270426.4375,277572.28125,-0.064453125,0.879638671875,-0.50537109375,0.3662109076976776,-1.9226073026657104,2.288818120956421,60.0,1421664.0,1.0
484348.6510905,286662.5625,305686.75,317414.1875,324316.3125,334879.46875,273704.0,273683.96875,278607.1875,-0.061767578125,0.872802734375,-0.505859375,0.1831054538488388,-1.9226073026657104,1.9531248807907104,60.0,1421665.0,1.0
484348.6685744,287810.90625,307502.1875,321830.625,326689.1875,337653.15625,273856.09375,276706.90625,279426.875,-0.057861328125,0.8681640625,-0.50732421875,0.2746581733226776,-1.9531248807907104,1.7089842557907104,60.0,1421666.0,1.0
484348.6725414,290634.5625,307135.5,321177.3125,325650.0,336610.65625,273625.59375,275200.3125,278847.6875,-0.054931640625,0.864990234375,-0.507568359375,0.3356933295726776,-1.9836424589157104,1.3122557401657104,60.0,1421667.0,1.0
484348.6725821,291019.28125,305147.375,316464.96875,322700.09375,333280.875,273355.59375,271402.6875,277718.28125,-0.052734375,0.86376953125,-0.506591796875,0.3662109076976776,-1.9531248807907104,1.0986326932907104,60.0,1421668.0,1.0
484348.6725928,288574.96875,304294.78125,314108.375,321810.78125,332150.6875,273412.1875,270456.03125,277554.9375,-0.048828125,0.86328125,-0.510009765625,0.3662109076976776,-1.8920897245407104,0.8850097060203552,60.0,1421669.0,1.0
484348.674993,286645.3125,305802.625,317440.21875,324252.65625,334805.53125,273706.0625,273744.34375,278609.15625,-0.046630859375,0.865234375,-0.509521484375,0.3967284858226776,-1.8310545682907104,0.6713866591453552,60.0,1421670.0,1.0
484348.6773515,287809.21875,307586.65625,321846.8125,326597.28125,337563.75,273837.5,276756.09375,279423.5625,-0.047119140625,0.866943359375,-0.51025390625,0.3967284858226776,-1.7089842557907104,0.3967284858226776,60.0,1421671.0,1.0
484348.707462,290648.34375,307206.15625,321183.75,325535.1875,336511.875,273610.3125,275238.78125,278854.46875,-0.04541015625,0.86962890625,-0.510009765625,0.3967284858226776,-1.4038084745407104,0.0610351525247097,60.0,1421672.0,1.0
484348.7102512,290999.15625,305178.3125,316438.9375,322537.3125,333152.59375,273294.0,271408.65625,277702.375,-0.046142578125,0.869873046875,-0.512939453125,0.3356933295726776,-1.1291502714157104,-0.2746581733226776,60.0,1421673.0,1.0
484348.7102923,288541.71875,304314.28125,314083.25,321645.09375,332024.8125,273335.375,270465.40625,277537.6875,-0.0458984375,0.86865234375,-0.509765625,0.1831054538488388,-0.9765624403953552,-0.4577636420726776,60.0,1421674.0,1.0
484348.7103027,286604.625,305814.0,317411.5,324097.8125,334673.3125,273652.96875,273748.09375,278584.65625,-0.046875,0.864013671875,-0.511474609375,0.0610351525247097,-0.7324218153953552,-0.5493163466453552,60.0,1421675.0,1.0
484348.7320942,287818.25,307634.9375,321847.96875,326487.65625,337460.03125,273857.15625,276781.9375,279426.9375,-0.04736328125,0.862548828125,-0.5126953125,0.0610351525247097,-0.4272460639476776,-0.5798339247703552,60.0,1421676.0,1.0
484348.7321345,290665.84375,307257.09375,321175.90625,325416.46875,336398.40625,273623.4375,275248.0625,278855.625,-0.051025390625,0.859619140625,-0.514892578125,0.0610351525247097,-0.2441406100988388,-0.5798339247703552,60.0,1421677.0,1.0
484348.7321431,291021.59375,305243.40625,316449.21875,322422.84375,333057.1875,273317.6875,271436.8125,277720.53125,-0.054931640625,0.85791015625,-0.51611328125,0.1525878757238388,-0.2441406100988388,-0.7019042372703552,60.0,1421678.0,1.0
484348.7321523,288565.78125,304394.21875,314129.03125,321565.875,331958.1875,273369.09375,270528.0,277576.75,-0.05712890625,0.855712890625,-0.51611328125,0.3356933295726776,-0.1525878757238388,-0.9460448622703552,60.0,1421679.0,1.0
484348.739905,286597.375,305855.75,317444.0625,324021.09375,334588.71875,273650.09375,273786.71875,278589.28125,-0.0576171875,0.85302734375,-0.51708984375,0.5187987685203552,-0.0610351525247097,-1.0681151151657104,60.0,1421680.0,1.0
484348.7399468,287775.6875,307620.625,321830.34375,326384.21875,337328.625,273795.46875,276762.53125,279392.25,-0.059814453125,0.851806640625,-0.512451171875,0.7019042372703552,0.0,-1.3122557401657104,60.0,1421681.0,1.0
484348.7424041,290634.21875,307248.625,321153.09375,325331.96875,336268.5,273590.09375,275230.375,278835.875,-0.061767578125,0.850341796875,-0.509765625,0.9155272841453552,-0.0915527269244194,-1.4343260526657104,60.0,1421682.0,1.0
484348.7449417,290985.40625,305242.78125,316418.8125,322362.875,332931.5625,273320.09375,271427.78125,277712.9375,-0.0625,0.85302734375,-0.512451171875,1.0375975370407104,0.03051757626235485,-1.5563963651657104,60.0,1421683.0,1.0
484348.7473618,288514.09375,304390.1875,314090.9375,321531.75,331827.125,273365.59375,270511.46875,277556.90625,-0.06005859375,0.85546875,-0.512451171875,1.0986326932907104,-0.0610351525247097,-1.8005369901657104,60.0,1421684.0,1.0
484348.7523735,286595.6875,305896.875,317462.65625,324081.8125,334507.0,273678.96875,273818.375,278608.34375,-0.0625,0.85693359375,-0.5126953125,1.1291502714157104,-0.0915527269244194,-1.8615721464157104,60.0,1421685.0,1.0
484348.7549209,287791.5,307653.1875,321852.09375,326484.875,337250.28125,273824.8125,276790.96875,279402.28125,-0.061279296875,0.863037109375,-0.515625,1.4343260526657104,0.03051757626235485,-1.6784666776657104,60.0,1421686.0,1.0
484348.7649119,290635.28125,307239.84375,321129.6875,325427.8125,336156.21875,273590.5625,275214.375,278809.59375,-0.062744140625,0.861083984375,-0.513916015625,1.3427733182907104,0.0915527269244194,-1.6174315214157104,60.0,1421687.0,1.0
484348.7699706,290984.5,305230.53125,316406.75,322488.21875,332834.375,273293.90625,271417.34375,277682.71875,-0.064697265625,0.86181640625,-0.51171875,1.4648436307907104,0.0,-1.6174315214157104,60.0,1421688.0,1.0
484348.7724739,288491.125,304358.34375,314087.8125,321679.96875,331734.78125,273332.53125,270503.3125,277517.84375,-0.062744140625,0.86083984375,-0.51171875,1.4953612089157104,-0.03051757626235485,-1.6479490995407104,60.0,1421689.0,1.0
484348.7748385,286584.5,305873.625,317475.0625,324243.90625,334420.8125,273658.15625,273808.4375,278574.8125,-0.06103515625,0.859130859375,-0.51123046875,1.5563963651657104,-0.0915527269244194,-1.6784666776657104,60.0,1421690.0,1.0
484348.7823918,287807.875,307649.4375,321861.125,326640.0,337158.1875,273823.28125,276766.65625,279380.5625,-0.058349609375,0.8623046875,-0.511962890625,1.4648436307907104,-0.03051757626235485,-1.5563963651657104,60.0,1421691.0,1.0
484348.782432,290624.375,307215.90625,321088.0,325534.9375,336018.8125,273569.375,275144.09375,278755.15625,-0.05712890625,0.866455078125,-0.50927734375,1.3732908964157104,0.0915527269244194,-1.4648436307907104,60.0,1421692.0,1.0
484348.7849693,290987.09375,305240.34375,316386.1875,322618.75,332721.03125,273318.3125,271382.1875,277657.6875,-0.05615234375,0.8681640625,-0.51123046875,1.3122557401657104,0.2136230319738388,-1.3122557401657104,60.0,1421693.0,1.0
484348.7873187,288496.65625,304388.65625,314093.0,321808.53125,331642.78125,273356.9375,270498.40625,277498.09375,-0.0576171875,0.86865234375,-0.510498046875,1.1596678495407104,0.3051757514476776,-1.0375975370407104,60.0,1421694.0,1.0
484348.79232,286597.75,305904.46875,317509.125,324352.53125,334354.9375,273677.71875,273829.4375,278558.71875,-0.0595703125,0.86865234375,-0.5087890625,1.0070799589157104,0.3051757514476776,-0.8850097060203552,60.0,1421695.0,1.0
484348.797419,287771.21875,307594.8125,321828.5625,326657.875,337027.21875,273791.34375,276721.59375,279293.28125,-0.062744140625,0.866455078125,-0.50830078125,0.7934569716453552,0.4882812201976776,-0.6408690810203552,60.0,1421696.0,1.0
484348.7998295,290650.84375,307200.25,321110.71875,325595.65625,335951.03125,273592.4375,275159.09375,278740.21875,-0.0654296875,0.864501953125,-0.511474609375,0.5798339247703552,0.5187987685203552,-0.5493163466453552,60.0,1421697.0,1.0
484348.8022527,290984.15625,305197.34375,316392.0,322648.4375,332642.6875,273324.28125,271382.5625,277629.40625,-0.06787109375,0.860595703125,-0.51171875,0.3967284858226776,0.5187987685203552,-0.5493163466453552,60.0,1421698.0,1.0
484348.8074114,288474.40625,304345.3125,314113.5625,321822.9375,331572.78125,273366.125,270507.875,277469.5625,-0.068603515625,0.86181640625,-0.513427734375,0.2441406100988388,0.4882812201976776,-0.4272460639476776,60.0,1421699.0,1.0
484348.807426,286568.34375,305858.4375,317534.34375,324347.625,334282.0625,273671.71875,273841.15625,278534.40625,-0.0673828125,0.862548828125,-0.51123046875,0.0610351525247097,0.4882812201976776,-0.4577636420726776,60.0,1421700.0,1.0
484348.8099284,287792.65625,307590.5,321878.625,326659.6875,336981.875,273799.5,276759.59375,279319.84375,-0.065185546875,0.864013671875,-0.51416015625,0.03051757626235485,0.5187987685203552,-0.5493163466453552,60.0,1421701.0,1.0
484348.8149422,290659.6875,307184.6875,321120.03125,325556.125,335866.53125,273586.96875,275155.34375,278733.5,-0.065185546875,0.8603515625,-0.514892578125,-0.1525878757238388,0.4577636420726776,-0.3967284858226776,60.0,1421702.0,1.0
484348.8172505,290974.03125,305186.53125,316385.375,322590.125,332539.875,273306.5,271364.84375,277608.9375,-0.06494140625,0.862548828125,-0.5126953125,-0.3051757514476776,0.4272460639476776,-0.3051757514476776,60.0,1421703.0,1.0
484348.8190241,288444.1875,304332.34375,314097.625,321751.5,331456.8125,273329.21875,270483.21875,277439.96875,-0.065185546875,0.859130859375,-0.5126953125,-0.6408690810203552,0.4882812201976776,-0.1831054538488388,60.0,1421704.0,1.0
484348.8259858,286559.84375,305880.5,317535.96875,324284.5,334183.53125,273646.53125,273835.09375,278510.78125,-0.06396484375,0.857666015625,-0.512451171875,-0.7629393935203552,0.4577636420726776,-0.0610351525247097,60.0,1421705.0,1.0
484348.8285423,287855.0625,307686.0,321936.75,326644.03125,336941.84375,273822.75,276806.15625,279342.625,-0.06396484375,0.855712890625,-0.512451171875,-0.9155272841453552,0.4577636420726776,-0.03051757626235485,60.0,1421706.0,1.0
484348.8285519,290701.96875,307253.875,321139.25,325506.9375,335792.40625,273582.0625,275168.40625,278739.5,-0.064453125,0.85546875,-0.512451171875,-1.0375975370407104,0.4882812201976776,0.0915527269244194,60.0,1421707.0,1.0
484348.8309743,290988.25,305227.375,316382.15625,322520.3125,332441.1875,273283.875,271361.0,277597.15625,-0.06689453125,0.857421875,-0.5126953125,-1.0681151151657104,0.4577636420726776,0.2136230319738388,60.0,1421708.0,1.0
484348.8334463,288493.8125,304401.09375,314149.65625,321726.8125,331404.9375,273342.71875,270534.0,277462.84375,-0.068603515625,0.859375,-0.5126953125,-1.1596678495407104,0.4577636420726776,0.3662109076976776,60.0,1421709.0,1.0
484348.8359476,286603.8125,305914.125,317583.78125,324258.03125,334117.375,273674.875,273875.59375,278518.5,-0.070556640625,0.864990234375,-0.51171875,-1.1901854276657104,0.3662109076976776,0.3662109076976776,60.0,1421710.0,1.0
484348.8397466,287878.59375,307655.0625,321928.4375,326573.5625,336814.96875,273833.75,276787.03125,279305.625,-0.072265625,0.871337890625,-0.505859375,-1.3427733182907104,0.1525878757238388,0.3356933295726776,60.0,1421711.0,1.0
484348.8397521,290760.8125,307223.84375,321140.3125,325444.0,335677.25,273612.90625,275154.71875,278718.9375,-0.073486328125,0.87646484375,-0.509033203125,-1.5563963651657104,-0.0915527269244194,0.3356933295726776,60.0,1421712.0,1.0
484348.8662313,291045.65625,305175.34375,316388.59375,322462.03125,332329.96875,273323.75,271347.875,277585.625,-0.07421875,0.880615234375,-0.510986328125,-1.8615721464157104,-0.0915527269244194,0.3356933295726776,60.0,1421713.0,1.0
484348.8662431,288565.15625,304346.09375,314196.78125,321703.5,331325.46875,273399.9375,270550.71875,277476.09375,-0.075927734375,0.8818359375,-0.509033203125,-2.197265386581421,-0.2136230319738388,0.4577636420726776,60.0,1421714.0,1.0
484348.8710772,286729.875,305886.84375,317704.65625,324309.78125,334104.0625,273770.78125,273954.53125,278593.6875,-0.07763671875,0.88232421875,-0.510009765625,-2.624511480331421,-0.4882812201976776,0.5187987685203552,60.0,1421715.0,1.0
484348.8710892,287993.5625,307566.90625,322023.5625,326627.3125,336771.6875,273926.53125,276830.75,279355.59375,-0.076904296875,0.885009765625,-0.5078125,-2.899169683456421,-0.7324218153953552,0.4882812201976776,60.0,1421716.0,1.0
484348.8736148,290821.96875,307054.40625,321161.875,325447.9375,335554.15625,273652.25,275117.875,278706.40625,-0.0771484375,0.885009765625,-0.506591796875,-3.295898199081421,-0.9155272841453552,0.5798339247703552,60.0,1421717.0,1.0
484348.8786506,291134.53125,305068.34375,316461.90625,322523.0,332254.0625,273377.84375,271357.25,277603.125,-0.073486328125,0.884033203125,-0.506103515625,-3.631591558456421,-1.1596678495407104,0.5493163466453552,60.0,1421718.0,1.0
484348.8861525,288660.53125,304316.59375,314326.25,321814.875,331304.46875,273450.90625,270612.9375,277513.5625,-0.069091796875,0.8828125,-0.504638671875,-3.875732183456421,-1.3427733182907104,0.7629393935203552,60.0,1421719.0,1.0
484348.8886499,286726.59375,305821.6875,317749.09375,324355.9375,334004.0,273726.4375,273934.21875,278544.3125,-0.0703125,0.88037109375,-0.5029296875,-4.211425304412842,-1.3732908964157104,1.0070799589157104,60.0,1421720.0,1.0
484348.8935071,287982.65625,307534.34375,322029.1875,326658.25,336644.125,273866.375,276777.0,279293.46875,-0.07080078125,0.87841796875,-0.50537109375,-4.638671398162842,-1.5563963651657104,1.1596678495407104,60.0,1421721.0,1.0
484348.8986525,290896.0,307111.03125,321237.59375,325555.3125,335496.84375,273694.8125,275131.46875,278713.5625,-0.068115234375,0.87890625,-0.50634765625,-5.096435070037842,-1.5869139432907104,1.4038084745407104,60.0,1421722.0,1.0
484348.9036885,291228.59375,305117.6875,316565.4375,322659.34375,332212.125,273448.65625,271388.53125,277623.0625,-0.06591796875,0.874267578125,-0.508056640625,-5.310058116912842,-1.6784666776657104,1.6174315214157104,60.0,1421723.0,1.0
484348.906116,288703.5625,304261.96875,314389.5625,321923.59375,331210.03125,273468.6875,270597.125,277487.53125,-0.065185546875,0.869873046875,-0.5078125,-5.493163585662842,-1.8005369901657104,1.8310545682907104,60.0,1421724.0,1.0
484348.9085337,286792.21875,305747.375,317848.4375,324481.53125,333946.0,273758.0,273962.5625,278553.53125,-0.06689453125,0.86474609375,-0.5068359375,-5.645751476287842,-1.9531248807907104,1.8615721464157104,60.0,1421725.0,1.0
484348.9136552,288107.375,307483.84375,322193.15625,326800.5,336655.375,273923.6875,276873.21875,279355.6875,-0.06689453125,0.866455078125,-0.506591796875,-5.523681163787842,-1.9226073026657104,1.9531248807907104,60.0,1421726.0,1.0
484348.9160611,290953.5625,306956.78125,321313.9375,325597.25,335412.34375,273698.03125,275128.625,278691.75,-0.067138671875,0.867919921875,-0.505126953125,-5.554198741912842,-2.014159917831421,2.014159917831421,60.0,1421727.0,1.0
484348.921136,291219.46875,304870.65625,316593.4375,322637.875,332063.4375,273439.28125,271319.15625,277550.9375,-0.067626953125,0.871337890625,-0.5078125,-5.523681163787842,-2.227782964706421,2.197265386581421,60.0,1421728.0,1.0
484348.9261443,288728.75,304022.28125,314491.28125,321956.59375,331127.25,273558.1875,270598.625,277485.5625,-0.066650390625,0.87255859375,-0.50244140625,-5.676269054412842,-2.319335699081421,2.227782964706421,60.0,1421729.0,1.0
484348.9349097,286817.0625,305468.875,317966.375,324514.4375,333884.03125,273861.375,273993.59375,278556.5625,-0.063232421875,0.872802734375,-0.49853515625,-5.920409679412842,-2.349853277206421,2.258300542831421,60.0,1421730.0,1.0
484348.9349319,288086.8125,307115.75,322238.78125,326767.78125,336522.53125,273982.875,276834.6875,279314.21875,-0.06201171875,0.872314453125,-0.497314453125,-6.072997570037842,-2.441406011581421,2.319335699081421,60.0,1421731.0,1.0
484348.9372264,291003.53125,306649.21875,321404.59375,325593.40625,335315.34375,273772.75,275110.46875,278687.65625,-0.059814453125,0.871337890625,-0.493896484375,-6.164550304412842,-2.502441167831421,2.593993902206421,60.0,1421732.0,1.0
484348.9399197,291338.5625,304677.71875,316763.75,322684.375,332036.0625,273530.46875,271356.09375,277598.5625,-0.055908203125,0.87158203125,-0.49560546875,-6.500243663787842,-2.471923589706421,2.807616949081421,60.0,1421733.0,1.0
484348.9473341,288801.375,303847.21875,314655.28125,321962.3125,331095.5,273598.59375,270625.90625,277503.625,-0.054931640625,0.869384765625,-0.496337890625,-6.896972179412842,-2.502441167831421,3.295898199081421,60.0,1421734.0,1.0
484348.9522841,286838.34375,305273.25,318099.40625,324505.5,333831.09375,273915.8125,274008.34375,278556.125,-0.05712890625,0.866455078125,-0.50048828125,-7.049560070037842,-2.410888433456421,3.509521245956421,60.0,1421735.0,1.0
484348.9575173,288134.84375,306935.40625,322379.125,326777.25,336483.96875,274083.53125,276869.46875,279321.8125,-0.05810546875,0.862548828125,-0.50244140625,-7.019042491912842,-2.380370855331421,3.753661870956421,60.0,1421736.0,1.0
484348.9575659,291101.1875,306493.75,321584.5,325618.71875,335307.84375,273882.03125,275172.4375,278726.4375,-0.06005859375,0.86279296875,-0.50244140625,-6.805419445037842,-2.441406011581421,4.119872570037842,60.0,1421737.0,1.0
484348.9600382,291394.34375,304455.4375,316926.75,322661.84375,331992.0,273603.875,271380.40625,277587.125,-0.058349609375,0.861572265625,-0.503662109375,-6.774901866912842,-2.502441167831421,4.425048351287842,60.0,1421738.0,1.0
484348.9623373,288800.75,303567.09375,314793.75,321926.375,331011.28125,273661.90625,270622.96875,277462.40625,-0.057861328125,0.86083984375,-0.501220703125,-6.591796398162842,-2.502441167831421,4.638671398162842,60.0,1421739.0,1.0
484348.9673754,286860.0625,305060.125,318270.09375,324516.5,333791.59375,273990.28125,274058.875,278565.6875,-0.057861328125,0.859130859375,-0.49853515625,-6.469726085662842,-2.380370855331421,4.791259288787842,60.0,1421740.0,1.0
484348.9699866,288195.4375,306811.59375,322570.1875,326805.21875,336479.0625,274152.28125,276957.15625,279367.6875,-0.057373046875,0.858642578125,-0.49658203125,-6.256103038787842,-2.502441167831421,5.126952648162842,60.0,1421741.0,1.0
484348.9700277,291078.75,306307.53125,321665.40625,325525.1875,335178.5625,273855.8125,275129.59375,278654.5625,-0.0576171875,0.856201171875,-0.499267578125,-6.256103038787842,-2.471923589706421,5.401610851287842,60.0,1421742.0,1.0
484348.9724636,291400.875,304328.40625,317049.75,322584.78125,331883.625,273593.59375,271346.875,277542.53125,-0.0576171875,0.856689453125,-0.5,-6.164550304412842,-2.471923589706421,5.584716320037842,60.0,1421743.0,1.0
484348.9749788,288804.03125,303478.84375,314945.3125,321861.90625,330926.1875,273631.6875,270615.53125,277430.40625,-0.05859375,0.8583984375,-0.499755859375,-5.889892101287842,-2.532958745956421,5.737304210662842,60.0,1421744.0,1.0
484348.9775124,286816.25,304924.84375,318382.90625,324437.5625,333674.53125,273985.5625,274035.34375,278510.15625,-0.057373046875,0.862548828125,-0.4990234375,-5.584716320037842,-2.502441167831421,5.798339366912842,60.0,1421745.0,1.0
484348.9799857,288122.125,306605.5,322608.8125,326698.75,336285.6875,274140.3125,276865.78125,279277.8125,-0.056884765625,0.866943359375,-0.49951171875,-5.340575695037842,-2.441406011581421,5.981444835662842,60.0,1421746.0,1.0
484348.9800284,291104.5625,306176.34375,321772.6875,325494.25,335039.78125,273901.5,275079.96875,278653.5,-0.0556640625,0.868408203125,-0.495849609375,-5.187987804412842,-2.441406011581421,6.286620616912842,60.0,1421747.0,1.0
484349.0162368,291478.21875,304275.46875,317213.03125,322598.09375,331784.21875,273660.03125,271326.125,277591.875,-0.050537109375,0.8701171875,-0.49169921875,-5.035399913787842,-2.441406011581421,6.439208507537842,60.0,1421748.0,1.0
484349.0201123,288870.75,303475.5625,315125.5625,321907.0625,330843.75,273700.0625,270612.6875,277481.625,-0.046630859375,0.8701171875,-0.49365234375,-4.913329601287842,-2.288818120956421,6.591796398162842,60.0,1421749.0,1.0
484349.0201532,286854.625,304961.125,318541.0625,324493.625,333589.78125,273997.25,274039.65625,278551.21875,-0.042236328125,0.871337890625,-0.4951171875,-4.760741710662842,-1.9226073026657104,6.683349132537842,60.0,1421750.0,1.0
484349.0201617,288137.0625,306667.125,322716.46875,326730.65625,336177.21875,274123.5,276850.875,279285.5,-0.04150390625,0.87451171875,-0.498291015625,-4.669188976287842,-1.7395018339157104,6.774901866912842,60.0,1421751.0,1.0
484349.0201711,291106.09375,306259.875,321830.1875,325486.21875,334889.78125,273874.6875,275031.15625,278618.4375,-0.04248046875,0.87939453125,-0.4970703125,-4.638671398162842,-1.4648436307907104,6.805419445037842,60.0,1421752.0,1.0
484349.0449707,291462.5625,304377.40625,317250.03125,322578.15625,331615.15625,273627.5625,271265.34375,277530.1875,-0.037109375,0.880859375,-0.496826171875,-4.547118663787842,-1.1901854276657104,7.110595226287842,60.0,1421753.0,1.0
484349.045012,288857.875,303606.09375,315186.34375,321923.59375,330708.03125,273680.9375,270582.53125,277448.5625,-0.03125,0.881591796875,-0.49462890625,-4.394530773162842,-0.9460448622703552,7.324218273162842,60.0,1421754.0,1.0
484349.0450205,286828.3125,305082.09375,318588.625,324520.0,333463.71875,273974.8125,274013.4375,278525.5625,-0.026123046875,0.8857421875,-0.493896484375,-3.875732183456421,-0.5187987685203552,7.537841320037842,60.0,1421755.0,1.0
484349.0450283,288090.84375,306752.125,322705.5625,326729.84375,336010.5625,274073.875,276785.875,279236.875,-0.02490234375,0.889404296875,-0.489501953125,-3.936767339706421,-0.03051757626235485,7.690429210662842,60.0,1421756.0,1.0
484349.0450361,291130.0625,306426.25,321867.46875,325530.03125,334770.9375,273852.0625,275009.875,278618.1875,-0.022216796875,0.891357421875,-0.4892578125,-4.089354991912842,0.5493163466453552,7.965087413787842,60.0,1421757.0,1.0
484349.0450455,291500.03125,304587.875,317312.34375,322634.40625,331514.65625,273572.9375,271255.78125,277545.90625,-0.023193359375,0.892333984375,-0.491943359375,-4.211425304412842,1.2512205839157104,8.117674827575684,60.0,1421758.0,1.0
484349.0476252,288851.25,303806.0,315219.15625,321963.40625,330582.21875,273609.78125,270560.375,277435.0625,-0.024658203125,0.893310546875,-0.491943359375,-4.364013195037842,1.7700194120407104,8.331297874450684,60.0,1421759.0,1.0
484349.0476646,286776.28125,305249.125,318571.65625,324537.25,333310.03125,273901.0625,273989.5,278492.125,-0.028564453125,0.892822265625,-0.492431640625,-4.486083507537842,2.410888433456421,8.605956077575684,60.0,1421760.0,1.0
484349.047675,288061.0625,306914.5,322694.03125,326739.78125,335878.875,274009.25,276789.09375,279213.34375,-0.03173828125,0.88916015625,-0.493896484375,-4.302978038787842,2.929687261581421,8.605956077575684,60.0,1421761.0,1.0
484349.0790222,291167.59375,306602.125,321894.09375,325573.8125,334672.3125,273840.625,275040.5625,278629.875,-0.03515625,0.88330078125,-0.49560546875,-4.089354991912842,3.448486089706421,8.758543968200684,60.0,1421762.0,1.0
484349.0937076,291544.46875,304742.8125,317345.96875,322676.875,331410.3125,273596.09375,271275.90625,277547.25,-0.0439453125,0.8759765625,-0.493896484375,-3.784179449081421,3.936767339706421,8.758543968200684,60.0,1421763.0,1.0
484349.0962356,288860.90625,303937.6875,315246.875,321977.25,330472.25,273607.0,270572.71875,277420.03125,-0.05078125,0.86962890625,-0.492919921875,-3.509521245956421,4.089354991912842,8.636473655700684,60.0,1421764.0,1.0
484349.101076,286810.09375,305433.21875,318641.9375,324587.5625,333262.03125,273935.9375,274066.65625,278522.5,-0.055908203125,0.86279296875,-0.490966796875,-3.143310308456421,4.241942882537842,8.789061546325684,60.0,1421765.0,1.0
484349.1037152,288115.15625,307127.75,322756.875,326808.96875,335843.90625,274081.03125,276883.21875,279278.0,-0.05908203125,0.85302734375,-0.485595703125,-2.746581792831421,4.333495616912842,8.758543968200684,60.0,1421766.0,1.0
484349.106228,291189.875,306786.75,321910.1875,325575.4375,334590.96875,273864.59375,275076.59375,278650.28125,-0.05908203125,0.845703125,-0.47998046875,-2.227782964706421,4.150390148162842,8.697508811950684,60.0,1421767.0,1.0
484349.1086194,291572.34375,304954.0625,317375.65625,322672.84375,331330.90625,273626.3125,271306.65625,277570.9375,-0.057373046875,0.839111328125,-0.482421875,-1.7395018339157104,4.119872570037842,8.544920921325684,60.0,1421768.0,1.0
484349.111047,288916.34375,304212.53125,315327.6875,322006.65625,330441.40625,273623.625,270658.34375,277470.46875,-0.053466796875,0.8330078125,-0.48193359375,-1.1901854276657104,4.058837413787842,8.209227561950684,60.0,1421769.0,1.0
484349.1137306,286797.3125,305666.75,318658.90625,324547.0,333177.53125,273867.4375,274109.90625,278523.65625,-0.051025390625,0.826904296875,-0.480224609375,-0.3662109076976776,4.180907726287842,7.843017101287842,60.0,1421770.0,1.0
484349.1160779,288072.0625,307339.0,322706.1875,326706.4375,335706.40625,273970.53125,276872.0625,279235.15625,-0.05126953125,0.825439453125,-0.480224609375,0.2746581733226776,4.302978038787842,7.476806163787842,60.0,1421771.0,1.0
484349.1211729,291153.75,307002.9375,321826.78125,325450.1875,334430.21875,273739.15625,275030.53125,278593.59375,-0.04638671875,0.824951171875,-0.48486328125,0.8544921278953552,4.455565929412842,7.110595226287842,60.0,1421772.0,1.0
484349.123706,291515.125,305165.53125,317269.09375,322527.09375,331154.0625,273479.0625,271232.71875,277497.53125,-0.04345703125,0.82568359375,-0.48486328125,1.4343260526657104,4.516601085662842,6.927489757537842,60.0,1421773.0,1.0
484349.1262066,288845.875,304431.03125,315226.5,321891.5,330276.53125,273519.28125,270589.59375,277417.71875,-0.039794921875,0.826171875,-0.4912109375,2.075195074081421,4.699706554412842,6.774901866912842,60.0,1421774.0,1.0
484349.1287418,286754.84375,305915.65625,318586.40625,324494.6875,333053.625,273827.75,274077.1875,278502.40625,-0.033447265625,0.82958984375,-0.493408203125,2.685546636581421,4.974364757537842,6.713866710662842,60.0,1421775.0,1.0
484349.1310734,288044.71875,307585.9375,322619.375,326680.40625,335579.0,273937.71875,276830.75,279207.1875,-0.02978515625,0.83447265625,-0.493408203125,3.509521245956421,5.157470226287842,6.652831554412842,60.0,1421776.0,1.0
484349.1336947,291101.28125,307217.6875,321690.53125,325407.34375,334270.0,273657.96875,274943.28125,278524.21875,-0.0263671875,0.840087890625,-0.49462890625,4.241942882537842,5.462646007537842,6.622313976287842,60.0,1421777.0,1.0
484349.1412439,291457.71875,305376.4375,317133.71875,322512.09375,331013.53125,273386.6875,271149.5625,277449.34375,-0.030029296875,0.84423828125,-0.497314453125,4.730224132537842,5.798339366912842,6.439208507537842,60.0,1421778.0,1.0
484349.1412858,288806.28125,304653.5,315132.4375,321927.09375,330183.21875,273459.40625,270544.09375,277396.4375,-0.03369140625,0.8505859375,-0.498291015625,5.187987804412842,6.195067882537842,6.317138195037842,60.0,1421779.0,1.0
484349.1427901,286695.03125,306091.96875,318482.25,324521.78125,332945.0,273743.25,274006.5625,278457.25,-0.0322265625,0.85693359375,-0.50244140625,5.554198741912842,6.408690929412842,5.920409679412842,60.0,1421780.0,1.0
484349.1549581,288024.5,307766.1875,322533.71875,326728.53125,335496.40625,273889.4375,276773.0,279194.125,-0.032470703125,0.86474609375,-0.50048828125,5.889892101287842,6.652831554412842,5.737304210662842,60.0,1421781.0,1.0
484349.1549983,291098.9375,307392.03125,321598.25,325472.09375,334202.3125,273665.75,274901.625,278551.375,-0.033447265625,0.871826171875,-0.499755859375,6.011962413787842,6.896972179412842,5.523681163787842,60.0,1421782.0,1.0
484349.1550082,291401.125,305496.40625,316996.46875,322541.59375,330908.03125,273389.03125,271089.5625,277431.65625,-0.032470703125,0.8759765625,-0.499267578125,6.103515148162842,7.080077648162842,5.218505382537842,60.0,1421783.0,1.0
484349.1574754,288740.5625,304764.1875,315019.15625,321950.4375,330086.375,273447.0625,270502.875,277371.40625,-0.03125,0.87939453125,-0.50146484375,6.134032726287842,7.263183116912842,4.882812023162842,60.0,1421784.0,1.0
484349.1623525,286665.875,306218.90625,318414.21875,324554.6875,332871.40625,273718.9375,273981.09375,278442.59375,-0.031982421875,0.8818359375,-0.500244140625,6.072997570037842,7.415771007537842,4.638671398162842,60.0,1421785.0,1.0
484349.1675063,287986.25,307849.96875,322442.71875,326723.78125,335393.9375,273820.59375,276705.75,279164.53125,-0.03076171875,0.884033203125,-0.500732421875,6.042479991912842,7.598876476287842,4.455565929412842,60.0,1421786.0,1.0
484349.1675547,291069.96875,307477.75,321508.5,325486.03125,334111.46875,273607.34375,274852.09375,278540.65625,-0.029296875,0.88427734375,-0.498779296875,6.011962413787842,7.720946788787842,4.272460460662842,60.0,1421787.0,1.0
484349.1699883,291345.71875,305571.78125,316884.71875,322555.625,330803.5,273317.0625,271042.4375,277415.03125,-0.03271484375,0.88427734375,-0.49609375,6.011962413787842,7.659911632537842,4.150390148162842,60.0,1421788.0,1.0
484349.172341,288661.625,304825.6875,314889.78125,321962.5,329948.6875,273362.46875,270436.53125,277335.1875,-0.031982421875,0.886962890625,-0.499755859375,5.767821788787842,7.781981945037842,4.211425304412842,60.0,1421789.0,1.0
484349.1723764,286656.5625,306328.25,318361.71875,324623.59375,332788.4375,273679.34375,273971.96875,278451.6875,-0.032470703125,0.8857421875,-0.49853515625,5.676269054412842,7.843017101287842,4.241942882537842,60.0,1421790.0,1.0
484349.1749666,287989.0,307943.5625,322383.0625,326788.40625,335302.03125,273799.9375,276691.71875,279162.84375,-0.034423828125,0.8857421875,-0.4970703125,5.432128429412842,7.720946788787842,4.241942882537842,60.0,1421791.0,1.0
484349.1773045,291037.53125,307513.625,321398.4375,325516.4375,333978.71875,273579.1875,274801.375,278505.53125,-0.03662109375,0.8837890625,-0.499755859375,5.340575695037842,7.629394054412842,4.272460460662842,60.0,1421792.0,1.0
484349.1823459,291307.4375,305588.875,316795.40625,322609.53125,330693.71875,273317.40625,271017.0625,277392.59375,-0.036865234375,0.879638671875,-0.5029296875,5.065917491912842,7.476806163787842,4.150390148162842,60.0,1421793.0,1.0
484349.1850027,288641.40625,304836.6875,314839.53125,322040.46875,329867.59375,273387.15625,270441.0,277329.625,-0.03759765625,0.87646484375,-0.500732421875,4.974364757537842,7.293700695037842,4.150390148162842,60.0,1421794.0,1.0
484349.1873045,286610.96875,306284.71875,318283.40625,324654.90625,332662.71875,273662.78125,273927.96875,278400.8125,-0.03466796875,0.873046875,-0.500244140625,4.852294445037842,7.080077648162842,4.028319835662842,60.0,1421795.0,1.0
484349.1899597,287992.84375,307911.9375,322340.59375,326826.25,335206.09375,273787.25,276666.25,279131.8125,-0.03515625,0.873779296875,-0.498291015625,4.821776866912842,6.896972179412842,4.028319835662842,60.0,1421796.0,1.0
484349.1925281,291039.5,307458.1875,321344.96875,325542.34375,333884.5625,273582.25,274777.0625,278480.03125,-0.034423828125,0.873046875,-0.50048828125,4.730224132537842,6.805419445037842,3.967284917831421,60.0,1421797.0,1.0
484349.1925683,291285.0,305509.5625,316721.1875,322622.5,330584.1875,273327.96875,270987.09375,277362.28125,-0.034912109375,0.8720703125,-0.501220703125,4.638671398162842,6.652831554412842,3.875732183456421,60.0,1421798.0,1.0
484349.1948053,288645.625,304794.21875,314818.625,322069.0625,329797.40625,273401.90625,270452.46875,277318.09375,-0.033935546875,0.869873046875,-0.4990234375,4.455565929412842,6.408690929412842,3.784179449081421,60.0,1421799.0,1.0
484349.1974902,286661.9375,306288.90625,318315.78125,324685.3125,332630.09375,273674.875,273972.59375,278416.5625,-0.03271484375,0.86865234375,-0.501953125,4.425048351287842,6.317138195037842,3.753661870956421,60.0,1421800.0,1.0
484349.1975324,288012.625,307888.59375,322320.65625,326785.90625,335124.625,273767.3125,276661.15625,279112.40625,-0.03369140625,0.866455078125,-0.503173828125,4.272460460662842,6.164550304412842,3.570556402206421,60.0,1421801.0,1.0
484349.1999871,291001.3125,307402.75,321247.4375,325430.78125,333736.59375,273518.84375,274709.125,278416.90625,-0.031494140625,0.864013671875,-0.505126953125,4.394530773162842,5.889892101287842,3.326415777206421,60.0,1421802.0,1.0
484349.2062023,291257.1875,305526.71875,316647.25,322516.09375,330470.375,273260.8125,270954.03125,277326.96875,-0.029296875,0.8623046875,-0.5078125,4.333495616912842,5.584716320037842,3.112792730331421,60.0,1421803.0,1.0
484349.2337265,288614.5,304857.34375,314769.625,321944.625,329705.6875,273323.9375,270440.5625,277291.1875,-0.027587890625,0.86083984375,-0.5048828125,4.272460460662842,5.371093273162842,3.021239995956421,60.0,1421804.0,1.0
484349.2337681,286636.8125,306353.46875,318286.71875,324546.625,332542.03125,273626.125,273964.28125,278387.40625,-0.026123046875,0.861572265625,-0.506103515625,4.241942882537842,5.310058116912842,2.990722417831421,60.0,1421805.0,1.0
484349.2423988,288009.21875,307935.34375,322289.09375,326644.28125,335026.5625,273744.15625,276644.875,279089.34375,-0.02685546875,0.857177734375,-0.508056640625,4.211425304412842,5.157470226287842,2.899169683456421,60.0,1421806.0,1.0
484349.2424394,291007.375,307424.65625,321214.78125,325292.90625,333645.75,273516.15625,274700.8125,278415.5,-0.026611328125,0.85693359375,-0.506103515625,4.364013195037842,5.065917491912842,2.716064214706421,60.0,1421807.0,1.0
484349.2448218,291218.9375,305467.34375,316587.09375,322347.03125,330354.875,273254.5625,270923.28125,277304.78125,-0.0283203125,0.857177734375,-0.50537109375,4.394530773162842,4.852294445037842,2.655029058456421,60.0,1421808.0,1.0
484349.2474634,288596.625,304787.0625,314764.25,321820.15625,329633.09375,273347.53125,270452.0,277296.28125,-0.02734375,0.8564453125,-0.50830078125,4.364013195037842,4.791259288787842,2.471923589706421,60.0,1421809.0,1.0
484349.2515708,286653.96875,306297.3125,318327.65625,324473.5,332504.375,273672.96875,273997.53125,278411.375,-0.029296875,0.859375,-0.5087890625,4.425048351287842,4.638671398162842,2.227782964706421,60.0,1421810.0,1.0
484349.2586894,288014.40625,307851.9375,322303.59375,326562.40625,334964.5,273755.78125,276638.625,279088.28125,-0.027099609375,0.860595703125,-0.509521484375,4.455565929412842,4.516601085662842,1.9226073026657104,60.0,1421811.0,1.0
484349.2612039,291020.71875,307350.09375,321225.6875,325234.09375,333593.625,273537.4375,274702.3125,278427.65625,-0.025634765625,0.862548828125,-0.50830078125,4.425048351287842,4.302978038787842,1.7395018339157104,60.0,1421812.0,1.0
484349.2636949,291185.84375,305369.1875,316564.71875,322288.65625,330280.375,273254.03125,270908.25,277298.53125,-0.0234375,0.865234375,-0.509765625,4.302978038787842,4.211425304412842,1.4343260526657104,60.0,1421813.0,1.0
484349.2660601,288509.90625,304654.375,314708.8125,321762.125,329519.53125,273308.75,270399.875,277249.09375,-0.026123046875,0.8681640625,-0.513671875,4.180907726287842,3.997802495956421,1.1901854276657104,60.0,1421814.0,1.0
484349.2687169,286588.1875,306189.5,318289.75,324464.65625,332396.65625,273638.03125,273948.71875,278366.03125,-0.025634765625,0.869384765625,-0.512939453125,4.028319835662842,3.936767339706421,1.0070799589157104,60.0,1421815.0,1.0
484349.2712546,287968.90625,307754.125,322257.46875,326582.53125,334846.9375,273728.78125,276573.625,279045.4375,-0.026123046875,0.8720703125,-0.51318359375,3.723144292831421,3.784179449081421,0.7324218153953552,60.0,1421816.0,1.0
484349.2712951,290941.59375,307234.5625,321133.875,325236.6875,333441.90625,273466.8125,274598.625,278357.8125,-0.02490234375,0.873291015625,-0.512939453125,3.601073980331421,3.845214605331421,0.6408690810203552,60.0,1421817.0,1.0
484349.2736916,291134.15625,305322.0625,316517.78125,322353.375,330183.65625,273221.375,270858.625,277270.53125,-0.026123046875,0.874755859375,-0.511474609375,3.387450933456421,3.570556402206421,0.2746581733226776,60.0,1421818.0,1.0
484349.2761476,288495.78125,304684.78125,314715.34375,321884.0,329474.90625,273293.90625,270394.4375,277255.25,-0.027099609375,0.873779296875,-0.512939453125,3.082275152206421,3.448486089706421,-0.03051757626235485,60.0,1421819.0,1.0
484349.27871,286557.25,306226.25,318276.15625,324557.71875,332320.125,273576.5,273903.125,278332.78125,-0.028564453125,0.874267578125,-0.51611328125,2.807616949081421,3.326415777206421,-0.0915527269244194,60.0,1421820.0,1.0
484349.2787502,287971.125,307843.4375,322247.09375,326686.84375,334779.25,273700.625,276532.5625,279021.75,-0.029296875,0.871337890625,-0.5146484375,2.563476324081421,3.234863042831421,-0.1831054538488388,60.0,1421821.0,1.0
484349.2810802,290936.65625,307339.28125,321092.75,325330.0,333363.84375,273461.625,274547.21875,278330.5625,-0.029296875,0.8681640625,-0.513671875,2.349853277206421,3.082275152206421,-0.1220703050494194,60.0,1421822.0,1.0
484349.2849675,291097.34375,305392.53125,316455.5625,322434.46875,330091.84375,273203.34375,270802.21875,277228.4375,-0.030029296875,0.869384765625,-0.513427734375,2.075195074081421,2.746581792831421,-0.1831054538488388,60.0,1421823.0,1.0
484349.318741,288437.28125,304683.78125,314647.40625,321954.375,329363.4375,273290.5,270334.4375,277207.59375,-0.031494140625,0.866943359375,-0.509521484375,1.8615721464157104,2.502441167831421,-0.3051757514476776,60.0,1421824.0,1.0
484349.3187816,286551.0625,306204.34375,318272.21875,324647.75,332257.90625,273581.25,273888.90625,278308.75,-0.03076171875,0.863525390625,-0.510009765625,1.6174315214157104,2.288818120956421,-0.3967284858226776,60.0,1421825.0,1.0
484349.3287547,287974.625,307754.125,322250.65625,326731.125,334717.65625,273676.375,276507.0,278968.65625,-0.034423828125,0.86328125,-0.51171875,1.4038084745407104,2.105712652206421,-0.5187987685203552,60.0,1421826.0,1.0
484349.328801,290927.625,307179.6875,321076.65625,325339.3125,333277.5,273467.96875,274502.3125,278276.90625,-0.03466796875,0.860107421875,-0.51171875,1.2512205839157104,1.7700194120407104,-0.5798339247703552,60.0,1421827.0,1.0
484349.3325163,291049.15625,305182.25,316410.6875,322401.5,329971.40625,273203.5,270728.90625,277170.5,-0.035888671875,0.859130859375,-0.508056640625,1.0986326932907104,1.4343260526657104,-0.7324218153953552,60.0,1421828.0,1.0
484349.3325547,288387.9375,304503.0,314636.40625,321913.59375,329266.59375,273274.75,270281.875,277150.1875,-0.035888671875,0.860107421875,-0.50830078125,0.9460448622703552,1.0681151151657104,-1.0070799589157104,60.0,1421829.0,1.0
484349.3325631,286551.96875,306091.15625,318319.0,324621.46875,332212.21875,273615.59375,273882.71875,278292.46875,-0.03515625,0.85986328125,-0.508056640625,0.8239745497703552,0.8850097060203552,-1.4343260526657104,60.0,1421830.0,1.0
484349.3325723,288006.8125,307666.5,322287.9375,326700.0,334660.78125,273756.84375,276489.84375,278979.75,-0.034912109375,0.8583984375,-0.5078125,0.8239745497703552,0.6713866591453552,-1.7089842557907104,60.0,1421831.0,1.0
484349.3373492,290928.71875,307072.40625,321061.625,325270.03125,333174.59375,273494.25,274436.875,278253.84375,-0.032958984375,0.85888671875,-0.511474609375,0.8544921278953552,0.4272460639476776,-2.075195074081421,60.0,1421832.0,1.0
484349.3373877,291070.78125,305126.71875,316431.0625,322365.0,329908.53125,273235.34375,270705.3125,277174.875,-0.0341796875,0.860107421875,-0.51171875,0.8544921278953552,0.0,-2.319335699081421,60.0,1421833.0,1.0
484349.3399633,288381.40625,304439.53125,314648.5625,321859.78125,329193.125,273297.75,270253.15625,277140.53125,-0.033935546875,0.86181640625,-0.51123046875,0.9155272841453552,-0.1220703050494194,-2.471923589706421,60.0,1421834.0,1.0
484349.342473,286494.3125,305978.5,318279.5625,324525.8125,332079.96875,273589.65625,273802.8125,278238.46875,-0.033447265625,0.865234375,-0.5078125,0.7934569716453552,-0.2746581733226776,-2.593993902206421,60.0,1421835.0,1.0
484349.3448432,287968.625,307566.625,322255.125,326609.59375,334532.6875,273706.96875,276412.15625,278929.03125,-0.0322265625,0.86767578125,-0.510009765625,0.6408690810203552,-0.4882812201976776,-2.746581792831421,60.0,1421836.0,1.0
484349.3473587,290890.1875,306972.875,321009.15625,325170.15625,333032.96875,273458.9375,274344.96875,278196.1875,-0.0361328125,0.868896484375,-0.510986328125,0.4577636420726776,-0.5187987685203552,-2.929687261581421,60.0,1421837.0,1.0
484349.3612485,291016.15625,305036.40625,316373.59375,322261.9375,329766.84375,273219.15625,270620.4375,277129.1875,-0.051513671875,0.86669921875,-0.513671875,0.1831054538488388,-0.6713866591453552,-3.326415777206421,60.0,1421838.0,1.0
484349.36129,288323.65625,304363.90625,314608.5,321773.84375,329064.90625,273274.125,270189.25,277101.21875,-0.02783203125,0.87158203125,-0.515380859375,0.1525878757238388,-1.3427733182907104,-3.540038824081421,60.0,1421839.0,1.0
484349.3637342,286488.5,305964.5625,318296.8125,324486.8125,331995.3125,273594.84375,273783.59375,278235.25,-0.0224609375,0.86962890625,-0.51025390625,0.0915527269244194,-1.4648436307907104,-3.295898199081421,60.0,1421840.0,1.0
484349.3661794,287977.03125,307575.21875,322267.5625,326551.21875,334443.09375,273709.90625,276383.53125,278930.75,-0.025634765625,0.8671875,-0.50634765625,0.1525878757238388,-1.4648436307907104,-3.173827886581421,60.0,1421841.0,1.0
484349.3687365,290907.0,307005.6875,321020.6875,325111.0625,332952.125,273444.09375,274322.09375,278206.8125,-0.02734375,0.868408203125,-0.506591796875,0.1220703050494194,-1.4038084745407104,-3.204345464706421,60.0,1421842.0,1.0
484349.3712474,290984.15625,305038.375,316333.09375,322181.53125,329646.84375,273162.375,270561.53125,277098.53125,-0.02734375,0.867431640625,-0.509765625,0.03051757626235485,-1.3427733182907104,-3.204345464706421,60.0,1421843.0,1.0
484349.3712875,288314.1875,304425.3125,314616.46875,321747.65625,328998.84375,273236.59375,270183.96875,277096.46875,-0.02685546875,0.867919921875,-0.513916015625,-0.0610351525247097,-1.2512205839157104,-2.929687261581421,60.0,1421844.0,1.0
484349.3761868,286450.03125,306002.09375,318272.40625,324448.28125,331903.3125,273524.9375,273742.28125,278195.90625,-0.031005859375,0.864013671875,-0.51220703125,-0.2136230319738388,-1.2817381620407104,-2.624511480331421,60.0,1421845.0,1.0
484349.3787326,287960.125,307609.90625,322228.5625,326541.46875,334345.28125,273683.625,276327.21875,278905.0,-0.033935546875,0.864990234375,-0.509521484375,-0.1525878757238388,-1.3427733182907104,-2.349853277206421,60.0,1421846.0,1.0
484349.3823317,290934.0625,307071.0625,320999.0625,325152.90625,332883.125,273489.0,274291.78125,278223.71875,-0.038330078125,0.862548828125,-0.5078125,-0.2441406100988388,-1.4953612089157104,-2.166747808456421,60.0,1421847.0,1.0
484349.3823717,291016.40625,305126.0,316337.0,322259.34375,329608.3125,273230.5,270562.4375,277135.8125,-0.040771484375,0.861083984375,-0.5107421875,-0.1831054538488388,-1.5869139432907104,-1.8920897245407104,60.0,1421848.0,1.0
484349.4490432,288301.9375,304474.5,314597.59375,321804.78125,328941.96875,273258.75,270165.1875,277097.1875,-0.045654296875,0.85986328125,-0.513671875,-0.1525878757238388,-1.7395018339157104,-1.5869139432907104,60.0,1421849.0,1.0
484349.4612695,286437.09375,306035.90625,318254.96875,324506.40625,331842.15625,273545.40625,273714.8125,278193.84375,-0.0439453125,0.856201171875,-0.5126953125,0.0915527269244194,-1.9226073026657104,-1.4343260526657104,60.0,1421850.0,1.0
484349.4613093,287950.90625,307628.6875,322196.75,326581.4375,334268.65625,273659.75,276276.25,278885.84375,-0.044677734375,0.8564453125,-0.513427734375,0.2136230319738388,-2.105712652206421,-1.2512205839157104,60.0,1421851.0,1.0
484349.4613192,290910.46875,307067.65625,320942.09375,325162.5625,332791.375,273432.46875,274221.84375,278190.375,-0.047119140625,0.857421875,-0.511474609375,0.4577636420726776,-2.380370855331421,-0.9460448622703552,60.0,1421852.0,1.0
484349.4626784,290979.59375,305110.4375,316268.78125,322255.3125,329512.75,273187.0625,270490.4375,277100.3125,-0.048095703125,0.85888671875,-0.5107421875,0.6103515028953552,-2.593993902206421,-0.7324218153953552,60.0,1421853.0,1.0
484349.4699457,288301.40625,304487.0,314573.90625,321848.25,328880.375,273287.0,270135.25,277111.9375,-0.047119140625,0.86181640625,-0.511962890625,0.9155272841453552,-2.929687261581421,-0.5187987685203552,60.0,1421854.0,1.0
484349.4749991,286497.6875,306082.46875,318291.625,324588.75,331830.09375,273620.15625,273737.8125,278243.5625,-0.0439453125,0.86474609375,-0.51513671875,1.0986326932907104,-3.112792730331421,-0.4577636420726776,60.0,1421855.0,1.0
484349.4773235,288013.96875,307630.125,322207.46875,326622.65625,334224.21875,273724.03125,276263.09375,278907.125,-0.042724609375,0.86767578125,-0.516357421875,1.1291502714157104,-3.082275152206421,-0.1525878757238388,60.0,1421856.0,1.0
484349.4799422,290970.1875,307039.75,320932.96875,325174.625,332722.8125,273480.84375,274179.75,278196.71875,-0.04345703125,0.8681640625,-0.511962890625,1.1901854276657104,-3.204345464706421,0.0,60.0,1421857.0,1.0
484349.4849468,291040.375,305070.3125,316275.5,322273.90625,329458.28125,273223.625,270458.1875,277104.6875,-0.042236328125,0.87060546875,-0.511474609375,1.2817381620407104,-3.417968511581421,0.0,60.0,1421858.0,1.0
484349.4899933,288322.59375,304402.0625,314561.375,321846.625,328796.3125,273309.28125,270076.5,277084.03125,-0.044189453125,0.8740234375,-0.51171875,1.3732908964157104,-3.601073980331421,0.0610351525247097,60.0,1421859.0,1.0
484349.4973221,286519.0625,305980.46875,318269.90625,324584.8125,331727.4375,273654.9375,273660.09375,278211.5625,-0.04638671875,0.878173828125,-0.510498046875,1.3427733182907104,-3.723144292831421,0.1831054538488388,60.0,1421860.0,1.0
484349.4998324,288095.5,307566.375,322217.03125,326656.1875,334148.9375,273776.0625,276204.8125,278902.9375,-0.04638671875,0.877197265625,-0.509765625,1.2207030057907104,-3.784179449081421,0.3051757514476776,60.0,1421861.0,1.0
484349.5024746,291050.125,306978.96875,320925.28125,325200.5625,332634.75,273507.03125,274105.1875,278183.75,-0.045654296875,0.876708984375,-0.5087890625,1.0681151151657104,-3.967284917831421,0.3051757514476776,60.0,1421862.0,1.0
484349.5073258,291127.90625,305055.28125,316301.6875,322326.5625,329406.625,273253.21875,270427.34375,277127.5,-0.04345703125,0.8720703125,-0.50537109375,1.1596678495407104,-4.089354991912842,0.3967284858226776,60.0,1421863.0,1.0
484349.5099154,288407.4375,304417.8125,314622.90625,321918.6875,328780.0625,273317.15625,270080.78125,277118.1875,-0.04150390625,0.868896484375,-0.501953125,1.2207030057907104,-4.150390148162842,0.4577636420726776,60.0,1421864.0,1.0
484349.5124462,286598.65625,306011.40625,318345.8125,324654.46875,331725.90625,273639.71875,273674.9375,278238.09375,-0.03759765625,0.866455078125,-0.500244140625,1.2207030057907104,-4.211425304412842,0.5493163466453552,60.0,1421865.0,1.0
484349.5149878,288150.46875,307584.15625,322255.40625,326681.5,334118.625,273749.0625,276189.78125,278896.9375,-0.035400390625,0.864990234375,-0.5009765625,1.1901854276657104,-4.272460460662842,0.7324218153953552,60.0,1421866.0,1.0
484349.5173278,291087.0625,306989.4375,320925.28125,325202.78125,332575.5625,273518.5,274068.53125,278166.125,-0.033935546875,0.867431640625,-0.504638671875,1.3427733182907104,-4.364013195037842,1.0681151151657104,60.0,1421867.0,1.0
484349.5198206,291117.71875,305037.75,316260.03125,322301.4375,329308.96875,273271.90625,270364.46875,277074.75,-0.033447265625,0.87060546875,-0.509765625,1.4343260526657104,-4.241942882537842,1.5563963651657104,60.0,1421868.0,1.0
484349.5224407,288417.8125,304430.78125,314621.90625,321927.90625,328720.78125,273351.9375,270070.59375,277090.9375,-0.032470703125,0.874755859375,-0.510009765625,1.2512205839157104,-4.180907726287842,1.9531248807907104,60.0,1421869.0,1.0
484349.5249761,286625.65625,306025.4375,318366.8125,324678.15625,331684.15625,273674.9375,273692.21875,278237.9375,-0.032958984375,0.876220703125,-0.50634765625,1.1291502714157104,-4.089354991912842,2.349853277206421,60.0,1421870.0,1.0
484349.527319,288209.3125,307603.1875,322285.71875,326708.9375,334084.21875,273807.375,276218.5,278927.25,-0.03076171875,0.872802734375,-0.506103515625,1.3122557401657104,-4.058837413787842,2.746581792831421,60.0,1421871.0,1.0
484349.5299662,291159.28125,307022.78125,320959.96875,325213.6875,332548.71875,273568.65625,274103.3125,278201.8125,-0.03076171875,0.874267578125,-0.5048828125,1.4038084745407104,-3.967284917831421,2.838134527206421,60.0,1421872.0,1.0
484349.5324389,291162.25,305065.84375,316284.53125,322294.5625,329267.125,273285.84375,270383.25,277095.125,-0.03173828125,0.867431640625,-0.50244140625,1.4343260526657104,-3.936767339706421,3.051757574081421,60.0,1421873.0,1.0
484349.5324826,288467.15625,304483.4375,314672.25,321950.0625,328704.9375,273385.8125,270111.71875,277129.0,-0.03076171875,0.864013671875,-0.506591796875,1.4648436307907104,-3.753661870956421,3.326415777206421,60.0,1421874.0,1.0
484349.5348271,286673.84375,306087.75,318413.84375,324700.21875,331672.90625,273697.75,273733.875,278265.46875,-0.036376953125,0.861083984375,-0.510009765625,1.4038084745407104,-3.784179449081421,3.417968511581421,60.0,1421875.0,1.0
484349.537365,288237.28125,307642.8125,322279.8125,326686.3125,334026.375,273803.875,276210.875,278911.59375,-0.0380859375,0.86083984375,-0.51123046875,1.4038084745407104,-3.662109136581421,3.601073980331421,60.0,1421876.0,1.0
484349.5399869,291164.21875,307038.5,320916.0,325148.96875,332457.0,273550.75,274059.3125,278163.28125,-0.0390625,0.860107421875,-0.51513671875,1.3427733182907104,-3.692626714706421,3.692626714706421,60.0,1421877.0,1.0
484349.5400279,291194.875,305115.53125,316269.15625,322255.03125,329212.5,273330.46875,270378.4375,277097.375,-0.036376953125,0.856689453125,-0.51513671875,1.6479490995407104,-3.753661870956421,3.784179449081421,60.0,1421878.0,1.0
484349.5424875,288510.15625,304554.4375,314701.3125,321933.4375,328691.28125,273441.0625,270152.40625,277162.28125,-0.035400390625,0.85205078125,-0.51611328125,2.105712652206421,-3.723144292831421,3.875732183456421,60.0,1421879.0,1.0
484349.5425301,286673.125,306098.9375,318409.90625,324655.09375,331620.59375,273719.375,273741.03125,278251.59375,-0.0361328125,0.850830078125,-0.51513671875,2.410888433456421,-3.723144292831421,3.845214605331421,60.0,1421880.0,1.0
484349.5449932,288206.8125,307594.53125,322218.21875,326590.90625,333917.28125,273769.46875,276159.65625,278844.09375,-0.037841796875,0.848388671875,-0.516357421875,2.563476324081421,-3.570556402206421,3.692626714706421,60.0,1421881.0,1.0
484349.5563512,291152.3125,307001.125,320850.375,325063.125,332350.6875,273544.59375,274005.9375,278121.0625,-0.0390625,0.850341796875,-0.51904296875,2.899169683456421,-3.662109136581421,3.417968511581421,60.0,1421882.0,1.0
484349.5563914,291166.875,305085.9375,316214.4375,322184.59375,329115.78125,273316.78125,270333.0,277060.875,-0.039306640625,0.853515625,-0.518798828125,3.295898199081421,-3.753661870956421,3.112792730331421,60.0,1421883.0,1.0
484349.5564013,288446.0625,304502.84375,314626.84375,321875.5,328568.59375,273406.1875,270086.5,277099.0625,-0.037841796875,0.85498046875,-0.51513671875,3.784179449081421,-3.906249761581421,2.868652105331421,60.0,1421884.0,1.0
484349.558756,286679.46875,306116.375,318404.90625,324690.03125,331563.65625,273722.5,273734.59375,278250.34375,-0.03564453125,0.855224609375,-0.513671875,3.967284917831421,-3.723144292831421,2.777099370956421,60.0,1421885.0,1.0
484349.5587969,288246.6875,307641.28125,322223.65625,326662.625,333876.4375,273799.40625,276153.75,278858.0625,-0.034912109375,0.85302734375,-0.510986328125,4.180907726287842,-3.784179449081421,2.593993902206421,60.0,1421886.0,1.0
484349.5612295,291176.28125,307051.21875,320824.34375,325121.875,332297.21875,273548.625,273973.03125,278114.1875,-0.034423828125,0.850830078125,-0.510986328125,4.486083507537842,-3.723144292831421,2.380370855331421,60.0,1421887.0,1.0
484349.5632965,291148.21875,305128.9375,316158.1875,322233.5,329039.40625,273301.9375,270277.40625,277034.78125,-0.033935546875,0.851806640625,-0.51123046875,4.760741710662842,-3.692626714706421,2.166747808456421,60.0,1421888.0,1.0
484349.5633372,288413.4375,304554.875,314579.90625,321935.40625,328497.34375,273378.03125,270035.09375,277072.15625,-0.037353515625,0.85009765625,-0.515625,5.157470226287842,-3.692626714706421,2.044677495956421,60.0,1421889.0,1.0
484349.5698561,286632.78125,306150.15625,318332.3125,324726.53125,331459.21875,273682.0,273643.5625,278195.71875,-0.03759765625,0.851806640625,-0.51513671875,5.401610851287842,-3.570556402206421,1.9836424589157104,60.0,1421890.0,1.0
484349.5723252,288241.9375,307705.21875,322161.875,326708.3125,333783.1875,273792.78125,276070.0625,278840.71875,-0.0380859375,0.853515625,-0.51611328125,5.828856945037842,-3.509521245956421,1.7395018339157104,60.0,1421891.0,1.0
484349.5749794,291174.59375,307131.9375,320755.0625,325173.90625,332204.0625,273565.0625,273899.09375,278118.21875,-0.03759765625,0.8544921875,-0.51611328125,6.225585460662842,-3.448486089706421,1.4343260526657104,60.0,1421892.0,1.0
484349.5774175,291083.75,305175.09375,316044.28125,322229.8125,328917.125,273274.9375,270181.5625,276997.21875,-0.034912109375,0.8583984375,-0.51318359375,6.591796398162842,-3.356933355331421,1.1596678495407104,60.0,1421893.0,1.0
484349.5798087,288371.75,304628.4375,314521.0625,321948.5625,328425.1875,273353.875,269990.65625,277061.15625,-0.03076171875,0.8642578125,-0.514404296875,6.744384288787842,-3.204345464706421,0.8850097060203552,60.0,1421894.0,1.0
484349.5824904,286614.5625,306222.59375,318297.875,324725.96875,331395.125,273664.03125,273607.8125,278189.28125,-0.02880859375,0.86962890625,-0.514892578125,6.927489757537842,-2.929687261581421,0.7324218153953552,60.0,1421895.0,1.0
484349.5825317,288214.84375,307752.34375,322086.25,326658.15625,333682.59375,273752.46875,275994.25,278804.40625,-0.0283203125,0.8720703125,-0.5146484375,6.927489757537842,-2.624511480331421,0.6408690810203552,60.0,1421896.0,1.0
484349.5848981,291101.53125,307154.65625,320617.90625,325065.375,332065.21875,273502.03125,273788.40625,278049.28125,-0.028076171875,0.872314453125,-0.512451171875,6.683349132537842,-2.410888433456421,0.5798339247703552,60.0,1421897.0,1.0
484349.5849393,291017.21875,305236.59375,315928.15625,322142.3125,328814.84375,273226.5,270119.25,276964.875,-0.031005859375,0.8720703125,-0.51513671875,6.469726085662842,-2.014159917831421,0.3967284858226776,60.0,1421898.0,1.0
484349.5873747,288302.90625,304696.5,314409.40625,321871.9375,328323.34375,273321.0625,269936.5,277040.84375,-0.03125,0.8720703125,-0.517822265625,6.469726085662842,-1.7089842557907104,0.3967284858226776,60.0,1421899.0,1.0
484349.6162083,286595.25,306319.75,318234.5,324688.96875,331327.53125,273637.75,273578.21875,278191.96875,-0.031494140625,0.869140625,-0.51708984375,6.408690929412842,-1.4953612089157104,0.2746581733226776,60.0,1421900.0,1.0
484349.6236953,288217.1875,307836.46875,322035.53125,326628.46875,333621.53125,273727.53125,275961.625,278809.3125,-0.03369140625,0.8681640625,-0.518310546875,6.195067882537842,-1.1901854276657104,0.1220703050494194,60.0,1421901.0,1.0
484349.6237344,291082.3125,307195.25,320543.53125,325032.46875,331995.46875,273494.96875,273751.125,278064.03125,-0.03369140625,0.868896484375,-0.518798828125,6.134032726287842,-0.9765624403953552,0.03051757626235485,60.0,1421902.0,1.0
484349.6237442,290965.90625,305237.75,315836.0625,322112.625,328738.75,273233.28125,270085.96875,276980.875,-0.033447265625,0.87060546875,-0.517822265625,5.950927257537842,-0.7934569716453552,-0.1831054538488388,60.0,1421903.0,1.0
484349.6276421,288283.6875,304722.0625,314371.40625,321886.78125,328293.3125,273343.25,269951.5,277063.75,-0.034423828125,0.87158203125,-0.515869140625,5.859374523162842,-0.6103515028953552,-0.3662109076976776,60.0,1421904.0,1.0
484349.6276908,286608.65625,306360.28125,318234.21875,324728.65625,331315.625,273661.375,273608.875,278215.65625,-0.034912109375,0.870849609375,-0.514892578125,5.615233898162842,-0.4272460639476776,-0.4577636420726776,60.0,1421905.0,1.0
484349.6277004,288235.25,307863.90625,322023.9375,326659.5,333589.25,273746.65625,275969.21875,278825.0625,-0.0361328125,0.87060546875,-0.516845703125,5.310058116912842,-0.3051757514476776,-0.4882812201976776,60.0,1421906.0,1.0
484349.6277098,291077.3125,307201.3125,320503.75,325044.71875,331946.5,273504.1875,273744.40625,278068.5,-0.034912109375,0.8681640625,-0.515380859375,5.249022960662842,-0.0610351525247097,-0.5187987685203552,60.0,1421907.0,1.0
484349.6299423,290917.625,305216.21875,315764.90625,322113.5,328666.9375,273231.84375,270065.78125,276968.0,-0.034423828125,0.86767578125,-0.51611328125,4.882812023162842,0.0915527269244194,-0.6408690810203552,60.0,1421908.0,1.0
484349.6322439,288207.59375,304666.71875,314294.5,321875.25,328200.25,273307.5,269914.6875,277022.96875,-0.035888671875,0.867431640625,-0.518310546875,4.638671398162842,0.3051757514476776,-0.7629393935203552,60.0,1421909.0,1.0
484349.6349754,286552.875,306288.90625,318180.125,324725.625,331220.78125,273625.6875,273568.28125,278167.84375,-0.036376953125,0.86865234375,-0.5166015625,4.486083507537842,0.4272460639476776,-0.8850097060203552,60.0,1421910.0,1.0
484349.6374838,288196.625,307773.78125,321963.75,326648.9375,333480.875,273722.96875,275912.0,278777.40625,-0.038330078125,0.8701171875,-0.52001953125,4.180907726287842,0.5798339247703552,-0.8850097060203552,60.0,1421911.0,1.0
484349.643745,291036.96875,307107.09375,320426.40625,325027.625,331835.53125,273490.25,273686.65625,278027.28125,-0.038818359375,0.867431640625,-0.520751953125,3.906249761581421,0.7629393935203552,-0.9460448622703552,60.0,1421912.0,1.0
484349.6437858,290909.125,305168.84375,315742.90625,322138.1875,328624.03125,273249.71875,270074.96875,276974.6875,-0.038818359375,0.86669921875,-0.520751953125,3.753661870956421,0.8544921278953552,-0.9765624403953552,60.0,1421913.0,1.0
484349.666276,288179.71875,304606.0,314267.40625,321885.625,328145.875,273322.875,269913.6875,277020.1875,-0.039794921875,0.86328125,-0.5224609375,3.509521245956421,0.9460448622703552,-1.0986326932907104,60.0,1421914.0,1.0
484349.6663177,286538.90625,306236.34375,318164.59375,324723.75,331163.46875,273632.03125,273559.4375,278157.71875,-0.0419921875,0.862548828125,-0.521484375,3.204345464706421,1.1901854276657104,-1.1291502714157104,60.0,1421915.0,1.0
484349.6690079,288203.75,307734.625,321951.3125,326636.34375,333426.4375,273711.0625,275898.40625,278760.5,-0.041015625,0.86181640625,-0.523681640625,3.173827886581421,1.3427733182907104,-1.1901854276657104,60.0,1421916.0,1.0
484349.6690477,290986.46875,307019.46875,320342.28125,324963.34375,331724.59375,273437.5,273614.875,277973.625,-0.03955078125,0.85986328125,-0.524658203125,2.929687261581421,1.5563963651657104,-1.2207030057907104,60.0,1421917.0,1.0
484349.6690576,290831.71875,305084.0625,315639.625,322068.90625,328504.9375,273193.21875,270000.15625,276917.75,-0.041015625,0.860107421875,-0.522705078125,2.746581792831421,1.5869139432907104,-1.4648436307907104,60.0,1421918.0,1.0
484349.6762172,288153.25,304599.21875,314254.8125,321876.9375,328108.15625,273306.5,269923.0,277017.78125,-0.04248046875,0.860107421875,-0.526123046875,2.685546636581421,1.7089842557907104,-1.4648436307907104,60.0,1421919.0,1.0
484349.6787615,286525.0625,306240.0,318168.96875,324714.90625,331130.28125,273612.625,273571.96875,278157.90625,-0.0439453125,0.85986328125,-0.5263671875,2.349853277206421,1.8615721464157104,-1.5563963651657104,60.0,1421920.0,1.0
484349.681071,288207.53125,307737.03125,321936.75,326610.9375,333379.15625,273697.40625,275886.34375,278753.1875,-0.04296875,0.859375,-0.526611328125,2.166747808456421,1.9531248807907104,-1.6479490995407104,60.0,1421921.0,1.0
484349.6837382,291007.3125,307047.1875,320339.21875,324947.96875,331705.71875,273454.21875,273626.40625,277982.5,-0.043212890625,0.85791015625,-0.528076171875,1.9836424589157104,2.105712652206421,-1.5563963651657104,60.0,1421922.0,1.0
484349.6860775,290795.59375,305070.75,315594.21875,322030.1875,328455.3125,273192.5,269982.96875,276913.625,-0.0458984375,0.853759765625,-0.528564453125,1.8310545682907104,2.105712652206421,-1.5258787870407104,60.0,1421923.0,1.0
484349.6885933,288085.9375,304558.90625,314179.25,321821.59375,328021.0625,273268.25,269869.0625,276979.25,-0.0478515625,0.85107421875,-0.5302734375,1.7395018339157104,2.258300542831421,-1.7089842557907104,60.0,1421924.0,1.0
484349.7162704,286476.15625,306207.125,318109.875,324674.125,331045.53125,273560.0625,273510.34375,278105.78125,-0.048583984375,0.849609375,-0.525390625,1.6479490995407104,2.227782964706421,-1.8005369901657104,60.0,1421925.0,1.0
484349.7163116,288199.75,307736.6875,321909.3125,326599.9375,333324.59375,273669.0625,275848.96875,278733.78125,-0.04833984375,0.849609375,-0.527099609375,1.7395018339157104,2.380370855331421,-1.8920897245407104,60.0,1421926.0,1.0
484349.718638,290975.1875,307026.0,320261.8125,324926.0625,331616.3125,273435.59375,273555.6875,277961.375,-0.046875,0.849853515625,-0.52783203125,1.7089842557907104,2.410888433456421,-1.8920897245407104,60.0,1421927.0,1.0
484349.7186776,290762.15625,305073.25,315528.15625,322029.09375,328389.25,273184.5625,269939.15625,276906.5625,-0.046630859375,0.8505859375,-0.5302734375,1.6479490995407104,2.441406011581421,-1.8615721464157104,60.0,1421928.0,1.0
484349.7210287,288049.34375,304572.125,314141.53125,321833.65625,327978.6875,273258.84375,269847.96875,276978.0,-0.047119140625,0.84912109375,-0.52978515625,1.6479490995407104,2.593993902206421,-1.8310545682907104,60.0,1421929.0,1.0
484349.723765,286484.8125,306257.71875,318119.25,324715.53125,331037.3125,273578.5625,273520.375,278130.46875,-0.047119140625,0.8505859375,-0.533203125,1.5258787870407104,2.685546636581421,-1.8310545682907104,60.0,1421930.0,1.0
484349.7260604,288206.34375,307764.65625,321892.0625,326618.09375,333289.5625,273672.4375,275825.90625,278733.15625,-0.04833984375,0.8525390625,-0.532958984375,1.5258787870407104,2.746581792831421,-1.8615721464157104,60.0,1421931.0,1.0
484349.7286619,290961.96875,307026.625,320219.15625,324921.34375,331568.03125,273420.9375,273518.21875,277948.0625,-0.047607421875,0.8544921875,-0.534423828125,1.5563963651657104,2.990722417831421,-1.8005369901657104,60.0,1421932.0,1.0
484349.7311963,290715.84375,305049.5625,315462.96875,322020.15625,328323.34375,273186.96875,269894.5625,276890.125,-0.046875,0.855712890625,-0.534912109375,1.4343260526657104,3.173827886581421,-1.6784666776657104,60.0,1421933.0,1.0
484349.7337758,287998.40625,304551.75,314093.0625,321836.0,327920.9375,273253.9375,269816.6875,276965.3125,-0.049072265625,0.859130859375,-0.53466796875,1.3122557401657104,3.326415777206421,-1.6479490995407104,60.0,1421934.0,1.0
484349.7338174,286442.53125,306232.59375,318088.9375,324706.5,330984.375,273549.5,273488.1875,278105.15625,-0.050048828125,0.8603515625,-0.5302734375,1.2207030057907104,3.356933355331421,-1.5258787870407104,60.0,1421935.0,1.0
484349.7412037,288182.5,307735.34375,321859.3125,326602.375,333227.96875,273640.625,275781.65625,278708.375,-0.05029296875,0.86279296875,-0.530029296875,1.0070799589157104,3.448486089706421,-1.5258787870407104,60.0,1421936.0,1.0
484349.7437362,290909.5625,306974.65625,320147.71875,324882.625,331477.1875,273379.1875,273451.15625,277909.625,-0.05029296875,0.863037109375,-0.530517578125,0.7019042372703552,3.601073980331421,-1.3732908964157104,60.0,1421937.0,1.0
484349.7486375,290639.65625,304990.90625,315376.34375,321971.1875,328227.5,273136.0,269828.75,276840.84375,-0.0546875,0.863525390625,-0.533203125,0.5798339247703552,3.692626714706421,-1.2207030057907104,60.0,1421938.0,1.0
484349.7486775,287971.40625,304551.28125,314077.875,321847.53125,327882.75,273260.28125,269815.53125,276960.46875,-0.056640625,0.863525390625,-0.536376953125,0.4272460639476776,3.753661870956421,-1.2817381620407104,60.0,1421939.0,1.0
484349.7511009,286460.5,306271.65625,318115.21875,324747.96875,330973.90625,273578.40625,273518.40625,278133.0625,-0.058349609375,0.863525390625,-0.534912109375,0.2746581733226776,3.814697027206421,-1.2817381620407104,60.0,1421940.0,1.0
484349.7548604,288198.65625,307755.90625,321852.96875,326613.0,333186.90625,273656.96875,275783.78125,278720.375,-0.0595703125,0.862060546875,-0.535400390625,0.0915527269244194,3.814697027206421,-1.1291502714157104,60.0,1421941.0,1.0
484349.7712712,290938.71875,307004.875,320142.34375,324904.15625,331447.40625,273405.9375,273466.71875,277932.15625,-0.060302734375,0.859130859375,-0.53515625,0.03051757626235485,3.784179449081421,-1.1291502714157104,60.0,1421942.0,1.0
484349.7713113,290632.6875,305001.46875,315351.21875,321979.9375,328181.1875,273144.21875,269835.5625,276844.96875,-0.05810546875,0.857421875,-0.530029296875,-0.2136230319738388,3.814697027206421,-1.0375975370407104,60.0,1421943.0,1.0
484349.7813892,287967.71875,304582.5,314070.625,321860.5,327851.8125,273259.3125,269839.5625,276974.875,-0.0576171875,0.8544921875,-0.532470703125,-0.3356933295726776,3.753661870956421,-0.8544921278953552,60.0,1421944.0,1.0
484349.8111678,286507.34375,306363.9375,318168.5,324793.3125,330993.6875,273601.28125,273589.84375,278172.5625,-0.05859375,0.853515625,-0.53125,-0.3356933295726776,3.814697027206421,-0.7324218153953552,60.0,1421945.0,1.0
484349.8127976,288227.8125,307835.03125,321875.875,326620.4375,333178.34375,273650.09375,275823.40625,278717.0625,-0.056640625,0.852783203125,-0.53125,-0.5187987685203552,3.845214605331421,-0.7019042372703552,60.0,1421946.0,1.0
484349.8285761,290918.6875,307044.6875,320095.875,324865.0,331383.59375,273372.3125,273450.71875,277895.75,-0.055908203125,0.852294921875,-0.534912109375,-0.4272460639476776,3.906249761581421,-0.5187987685203552,60.0,1421947.0,1.0
484349.8312197,290634.46875,305076.28125,315337.09375,321982.71875,328156.0,273146.28125,269860.3125,276855.0625,-0.05517578125,0.850830078125,-0.531982421875,-0.4577636420726776,3.936767339706421,-0.2746581733226776,60.0,1421948.0,1.0
484349.8336045,287958.875,304646.34375,314065.28125,321870.40625,327827.875,273257.25,269867.46875,276973.25,-0.052978515625,0.8505859375,-0.533935546875,-0.4882812201976776,4.058837413787842,-0.1525878757238388,60.0,1421949.0,1.0
484349.8360561,286466.125,306372.875,318124.4375,324767.375,330921.53125,273562.5625,273568.46875,278124.28125,-0.05078125,0.85107421875,-0.53271484375,-0.5493163466453552,4.150390148162842,-0.0610351525247097,60.0,1421950.0,1.0
484349.8387301,288203.9375,307825.28125,321826.96875,326601.375,333102.875,273628.375,275793.0,278689.6875,-0.0517578125,0.85205078125,-0.533203125,-0.5798339247703552,4.180907726287842,0.03051757626235485,60.0,1421951.0,1.0
484349.8411112,290917.4375,307041.28125,320056.25,324870.71875,331323.78125,273377.75,273435.0625,277877.09375,-0.052490234375,0.8525390625,-0.531982421875,-0.6408690810203552,4.302978038787842,0.2136230319738388,60.0,1421952.0,1.0
484349.8436209,290611.84375,305059.9375,315289.625,321975.46875,328093.5,273127.5,269838.84375,276831.375,-0.053955078125,0.850341796875,-0.53271484375,-0.7019042372703552,4.364013195037842,0.3662109076976776,60.0,1421953.0,1.0
484349.8760703,287977.125,304678.875,314082.09375,321916.1875,327824.8125,273284.34375,269903.3125,277009.65625,-0.056640625,0.85009765625,-0.53173828125,-0.7019042372703552,4.425048351287842,0.4577636420726776,60.0,1421954.0,1.0
484349.8785401,286491.53125,306406.03125,318157.96875,324818.34375,330931.09375,273601.1875,273612.09375,278161.5625,-0.058349609375,0.8515625,-0.532958984375,-0.7934569716453552,4.364013195037842,0.4882812201976776,60.0,1421955.0,1.0
484349.8897618,288226.5625,307837.71875,321833.84375,326624.1875,333088.21875,273678.34375,275808.03125,278706.40625,-0.062744140625,0.849365234375,-0.535400390625,-0.9155272841453552,4.241942882537842,0.4272460639476776,60.0,1421956.0,1.0
484349.8950041,290922.09375,307022.5,320031.21875,324864.75,331284.6875,273406.90625,273421.5625,277898.625,-0.0634765625,0.849609375,-0.534912109375,-0.7324218153953552,4.119872570037842,0.3051757514476776,60.0,1421957.0,1.0
484349.8950478,290621.96875,305057.6875,315283.625,321995.125,328077.59375,273167.3125,269847.78125,276860.625,-0.064697265625,0.848876953125,-0.532958984375,-0.5798339247703552,3.967284917831421,0.2746581733226776,60.0,1421958.0,1.0
484349.8974299,287952.71875,304656.71875,314066.15625,321920.3125,327793.8125,273282.90625,269896.15625,276993.5625,-0.06396484375,0.84912109375,-0.5322265625,-0.4577636420726776,3.845214605331421,0.1220703050494194,60.0,1421959.0,1.0
484349.8998966,286495.8125,306414.8125,318173.25,324829.78125,330923.9375,273592.59375,273625.34375,278164.625,-0.064697265625,0.85107421875,-0.530517578125,-0.5187987685203552,3.631591558456421,0.0610351525247097,60.0,1421960.0,1.0
484349.9038834,288219.5,307831.46875,321811.59375,326601.28125,333046.09375,273632.125,275784.96875,278685.21875,-0.062744140625,0.85546875,-0.531982421875,-0.4882812201976776,3.479003667831421,0.0610351525247097,60.0,1421961.0,1.0
484349.9039241,290917.1875,307037.96875,320004.5,324845.6875,331242.84375,273370.6875,273401.53125,277880.5625,-0.0615234375,0.8564453125,-0.531005859375,-0.5493163466453552,3.356933355331421,0.1525878757238388,60.0,1421962.0,1.0
484349.9039328,290601.3125,305079.25,315246.78125,321977.15625,328031.0,273140.375,269828.65625,276851.5,-0.060791015625,0.858154296875,-0.528564453125,-0.7019042372703552,3.204345464706421,0.1525878757238388,60.0,1421963.0,1.0
484349.9039427,287925.625,304682.09375,314040.875,321907.96875,327748.84375,273258.40625,269883.375,276992.40625,-0.059326171875,0.860107421875,-0.5283203125,-0.7934569716453552,2.990722417831421,0.3967284858226776,60.0,1421964.0,1.0
484349.906227,286465.875,306412.75,318141.875,324819.9375,330861.0,273565.25,273592.875,278136.71875,-0.0576171875,0.859130859375,-0.53564453125,-0.9460448622703552,2.868652105331421,0.5798339247703552,60.0,1421965.0,1.0
484349.9062618,288254.625,307852.28125,321820.6875,326639.8125,333021.875,273647.0625,275785.3125,278704.53125,-0.05712890625,0.854736328125,-0.534912109375,-1.0375975370407104,2.899169683456421,0.6408690810203552,60.0,1421966.0,1.0
484349.9086409,290938.90625,307008.375,319977.65625,324863.03125,331190.65625,273383.75,273376.25,277885.9375,-0.056640625,0.85546875,-0.53564453125,-0.9765624403953552,2.868652105331421,0.6713866591453552,60.0,1421967.0,1.0
484349.911053,290597.625,305007.375,315203.25,321988.78125,327955.625,273151.46875,269787.53125,276839.40625,-0.05859375,0.857421875,-0.53369140625,-0.9765624403953552,2.593993902206421,0.6408690810203552,60.0,1421968.0,1.0
484349.9135525,287936.53125,304613.78125,314034.0625,321940.5,327702.34375,273265.8125,269871.21875,276984.875,-0.056884765625,0.856689453125,-0.533203125,-1.1901854276657104,2.624511480331421,0.6713866591453552,60.0,1421969.0,1.0
484349.9162095,286500.75,306356.6875,318163.96875,324866.875,330841.6875,273589.3125,273607.53125,278146.375,-0.0546875,0.857421875,-0.53466796875,-1.1291502714157104,2.532958745956421,0.7629393935203552,60.0,1421970.0,1.0
484349.9186742,288280.03125,307762.71875,321815.34375,326660.5625,332976.90625,273667.0,275775.03125,278694.09375,-0.053466796875,0.85888671875,-0.532958984375,-1.1596678495407104,2.563476324081421,0.8850097060203552,60.0,1421971.0,1.0
484349.9211971,290960.53125,306898.5,319954.25,324871.96875,331128.59375,273412.8125,273347.1875,277868.21875,-0.049072265625,0.859375,-0.532958984375,-1.0986326932907104,2.593993902206421,1.0986326932907104,60.0,1421972.0,1.0
484349.92616,290660.125,304944.6875,315241.25,322041.28125,327952.78125,273220.21875,269817.84375,276865.625,-0.047607421875,0.86181640625,-0.529541015625,-1.1291502714157104,2.532958745956421,1.3427733182907104,60.0,1421973.0,1.0
484349.9286004,287960.5625,304516.34375,314062.78125,321968.59375,327683.75,273308.28125,269890.25,276992.9375,-0.04833984375,0.86083984375,-0.529541015625,-1.4648436307907104,2.532958745956421,1.4343260526657104,60.0,1421974.0,1.0
484349.9310298,286530.0625,306256.03125,318195.5,324896.5625,330818.96875,273648.65625,273629.25,278166.40625,-0.049560546875,0.85498046875,-0.52880859375,-1.6479490995407104,2.593993902206421,1.5258787870407104,60.0,1421975.0,1.0
484349.9336486,288373.375,307712.53125,321875.78125,326711.71875,332982.28125,273773.21875,275824.03125,278746.125,-0.049072265625,0.848876953125,-0.529052734375,-1.7395018339157104,2.655029058456421,1.6479490995407104,60.0,1421976.0,1.0
484349.9361313,291041.4375,306841.53125,319983.46875,324890.9375,331100.53125,273485.84375,273362.65625,277895.6875,-0.049072265625,0.84423828125,-0.52978515625,-1.9836424589157104,2.777099370956421,1.4038084745407104,60.0,1421977.0,1.0
484349.9412066,290689.90625,304861.625,315234.1875,322029.71875,327880.875,273250.1875,269796.3125,276856.84375,-0.04931640625,0.846435546875,-0.532958984375,-1.6174315214157104,2.563476324081421,1.2817381620407104,60.0,1421978.0,1.0
484349.9412196,287995.625,304467.4375,314077.0625,321974.5625,327626.15625,273321.875,269883.5625,276975.9375,-0.050537109375,0.85009765625,-0.530517578125,-1.3427733182907104,2.563476324081421,1.3732908964157104,60.0,1421979.0,1.0
484349.943679,286587.1875,306244.75,318235.03125,324914.53125,330789.46875,273645.96875,273640.71875,278159.34375,-0.047607421875,0.849365234375,-0.528076171875,-1.3122557401657104,2.471923589706421,1.5258787870407104,60.0,1421980.0,1.0
484349.9461803,288401.09375,307672.125,321872.5625,326685.78125,332919.0625,273723.0625,275793.8125,278700.59375,-0.04638671875,0.84619140625,-0.525146484375,-1.3732908964157104,2.441406011581421,1.5258787870407104,60.0,1421981.0,1.0
484349.9461933,291074.8125,306812.65625,319978.28125,324865.71875,331041.15625,273454.65625,273333.3125,277858.03125,-0.04345703125,0.8427734375,-0.524169921875,-1.4038084745407104,2.471923589706421,1.5258787870407104,60.0,1421982.0,1.0
484349.9536876,290733.1875,304868.40625,315246.6875,322025.8125,327842.25,273237.03125,269784.59375,276833.15625,-0.043701171875,0.840576171875,-0.52880859375,-1.2512205839157104,2.441406011581421,1.4648436307907104,60.0,1421983.0,1.0
484349.9537032,288056.40625,304523.40625,314130.28125,322015.875,327626.25,273353.8125,269916.90625,276995.71875,-0.044677734375,0.840087890625,-0.526611328125,-0.8544921278953552,2.288818120956421,1.4343260526657104,60.0,1421984.0,1.0
484349.9561885,286612.6875,306280.875,318252.90625,324927.875,330759.4375,273660.375,273651.15625,278145.21875,-0.046630859375,0.83935546875,-0.528076171875,-0.5798339247703552,2.197265386581421,1.4648436307907104,60.0,1421985.0,1.0
484349.9611204,288436.125,307717.71875,321857.90625,326695.875,332868.0,273728.5,275782.53125,278683.96875,-0.047607421875,0.840576171875,-0.529541015625,-0.3967284858226776,2.227782964706421,1.2817381620407104,60.0,1421986.0,1.0
484349.961137,291131.84375,306892.3125,319963.1875,324899.78125,330999.65625,273468.5,273330.8125,277864.28125,-0.045654296875,0.841796875,-0.531005859375,-0.1831054538488388,2.319335699081421,1.3122557401657104,60.0,1421987.0,1.0
484349.9673634,290731.5625,304914.65625,315194.9375,322024.8125,327767.96875,273214.15625,269751.15625,276811.25,-0.0478515625,0.84326171875,-0.531982421875,0.0915527269244194,2.197265386581421,1.2207030057907104,60.0,1421988.0,1.0
484349.9699132,288046.3125,304573.28125,314087.0,322020.96875,327558.9375,273338.0625,269893.21875,276966.65625,-0.044189453125,0.8447265625,-0.52978515625,0.3356933295726776,2.197265386581421,0.8850097060203552,60.0,1421989.0,1.0
484349.9699359,286649.875,306375.28125,318259.25,324983.28125,330737.4375,273668.5,273668.34375,278162.90625,-0.04150390625,0.850341796875,-0.53076171875,0.4577636420726776,2.288818120956421,0.8239745497703552,60.0,1421990.0,1.0
484349.9761464,288444.625,307779.15625,321829.71875,326707.5,332817.84375,273713.03125,275764.03125,278681.90625,-0.040283203125,0.853271484375,-0.532470703125,0.5493163466453552,2.319335699081421,0.6713866591453552,60.0,1421991.0,1.0
484349.9836072,291115.03125,306934.96875,319909.0,324883.59375,330934.03125,273451.875,273292.375,277846.3125,-0.041748046875,0.85302734375,-0.5322265625,0.6408690810203552,2.349853277206421,0.6103515028953552,60.0,1421992.0,1.0
484349.9949273,290732.8125,304994.9375,315175.875,322046.71875,327743.90625,273232.75,269757.5,276827.25,-0.041748046875,0.854736328125,-0.528564453125,0.6713866591453552,2.471923589706421,0.5798339247703552,60.0,1421993.0,1.0
484349.99749,287989.71875,304618.0,314042.84375,322006.5625,327507.875,273311.15625,269873.8125,276949.75,-0.041748046875,0.853271484375,-0.5263671875,0.7324218153953552,2.624511480331421,0.4882812201976776,60.0,1421994.0,1.0
484349.9975335,286584.59375,306415.4375,318208.21875,324947.4375,330674.75,273630.15625,273634.8125,278121.78125,-0.041748046875,0.854248046875,-0.525390625,0.7629393935203552,2.655029058456421,0.3662109076976776,60.0,1421995.0,1.0
484349.999844,288412.4375,307846.03125,321778.84375,326684.09375,332760.625,273689.78125,275735.4375,278654.5625,-0.04052734375,0.855712890625,-0.528076171875,0.7934569716453552,2.777099370956421,0.3051757514476776,60.0,1421996.0,1.0
484350.0049527,291069.4375,306994.875,319825.9375,324843.625,330861.4375,273407.4375,273252.6875,277812.71875,-0.0419921875,0.857177734375,-0.528564453125,0.8850097060203552,2.838134527206421,0.2746581733226776,60.0,1421997.0,1.0
484350.0049957,290673.53125,305056.71875,315095.0625,322006.5625,327685.71875,273181.78125,269736.125,276805.8125,-0.04248046875,0.860107421875,-0.527099609375,0.8239745497703552,2.838134527206421,0.1525878757238388,60.0,1421998.0,1.0
484350.0074359,287977.03125,304730.28125,314023.15625,322018.75,327506.1875,273303.65625,269910.1875,276977.71875,-0.04296875,0.861328125,-0.53076171875,0.8850097060203552,2.899169683456421,0.1525878757238388,60.0,1421999.0,1.0
484350.0099543,286527.03125,306483.03125,318144.375,324901.125,330620.3125,273573.65625,273618.34375,278101.125,-0.046630859375,0.86328125,-0.530517578125,0.8544921278953552,2.960204839706421,0.0,60.0,1422000.0,1.0
484350.0123568,288362.1875,307929.625,321697.3125,326621.84375,332691.78125,273616.3125,275696.25,278615.75,-0.045654296875,0.8662109375,-0.52783203125,0.9460448622703552,2.960204839706421,-0.2136230319738388,60.0,1422001.0,1.0
484350.0174702,291027.40625,307112.71875,319745.28125,324792.84375,330806.5625,273349.15625,273222.8125,277786.59375,-0.046875,0.8642578125,-0.523681640625,0.7019042372703552,2.899169683456421,-0.0915527269244194,60.0,1422002.0,1.0
484350.0222975,290618.5625,305170.0,315019.34375,321967.3125,327638.6875,273150.03125,269716.28125,276779.0625,-0.046142578125,0.86181640625,-0.52734375,0.3356933295726776,2.838134527206421,0.0610351525247097,60.0,1422003.0,1.0
484350.0248811,287901.75,304807.71875,313954.75,321979.9375,327455.3125,273278.625,269889.0,276925.34375,-0.044189453125,0.85791015625,-0.5283203125,0.0915527269244194,2.899169683456421,0.2441406100988388,60.0,1422004.0,1.0
484350.0275114,286496.1875,306548.46875,318127.9375,324902.75,330606.53125,273579.8125,273629.25,278082.28125,-0.045166015625,0.8564453125,-0.526611328125,0.03051757626235485,2.838134527206421,0.3356933295726776,60.0,1422005.0,1.0
484350.0275529,288334.84375,307916.65625,321674.15625,326610.5,332665.5,273610.3125,275687.5,278602.625,-0.0458984375,0.855712890625,-0.52490234375,-0.03051757626235485,2.960204839706421,0.3356933295726776,60.0,1422006.0,1.0
484350.0299452,290982.8125,307017.84375,319691.28125,324766.46875,330750.65625,273343.6875,273184.71875,277767.375,-0.047607421875,0.8544921875,-0.526123046875,-0.0610351525247097,2.899169683456421,0.2746581733226776,60.0,1422007.0,1.0
484350.0324394,290540.9375,305038.65625,314940.125,321925.84375,327553.125,273124.5625,269655.125,276740.09375,-0.04638671875,0.85400390625,-0.52978515625,-0.1220703050494194,2.899169683456421,0.0915527269244194,60.0,1422008.0,1.0
484350.0347961,287850.53125,304721.71875,313921.875,321972.96875,327403.90625,273268.5,269866.5625,276924.0,-0.046142578125,0.852783203125,-0.527587890625,-0.1220703050494194,2.990722417831421,-0.03051757626235485,60.0,1422009.0,1.0
484350.0374674,286485.28125,306522.375,318131.0625,324919.375,330588.5625,273590.1875,273637.5,278100.5,-0.044921875,0.851806640625,-0.528564453125,0.03051757626235485,2.990722417831421,-0.03051757626235485,60.0,1422010.0,1.0
484350.0399622,288338.9375,307917.375,321656.0,326614.78125,332631.53125,273632.5625,275680.0,278605.75,-0.044189453125,0.8525390625,-0.530029296875,0.1220703050494194,2.899169683456421,-0.1220703050494194,60.0,1422011.0,1.0
484350.0400044,290973.0625,307040.46875,319640.875,324754.6875,330694.875,273337.25,273155.3125,277757.28125,-0.04296875,0.853515625,-0.530029296875,0.3662109076976776,3.021239995956421,-0.1525878757238388,60.0,1422012.0,1.0
484350.0424241,290524.84375,305098.8125,314896.5625,321928.15625,327512.875,273111.0625,269641.90625,276741.96875,-0.042724609375,0.8544921875,-0.52880859375,0.3356933295726776,3.112792730331421,-0.1831054538488388,60.0,1422013.0,1.0
484350.0661879,287820.75,304784.03125,313877.78125,321972.78125,327364.1875,273230.6875,269849.125,276913.4375,-0.042236328125,0.853271484375,-0.5302734375,0.2746581733226776,3.204345464706421,0.0,60.0,1422014.0,1.0
484350.0662028,286438.59375,306546.40625,318073.5625,324896.125,330531.4375,273524.3125,273596.0,278065.1875,-0.043701171875,0.855224609375,-0.52783203125,0.3356933295726776,3.173827886581421,0.1525878757238388,60.0,1422015.0,1.0
484350.0686515,288338.0625,307946.625,321629.46875,326619.96875,332605.0625,273619.875,275664.15625,278608.59375,-0.043212890625,0.85546875,-0.524658203125,0.2746581733226776,3.173827886581421,0.0915527269244194,60.0,1422016.0,1.0
484350.0710029,290970.90625,307026.96875,319600.53125,324749.6875,330653.9375,273347.46875,273126.71875,277754.78125,-0.042236328125,0.8564453125,-0.52685546875,0.1831054538488388,3.143310308456421,0.2136230319738388,60.0,1422017.0,1.0
484350.0734692,290487.40625,305032.40625,314841.0625,321897.84375,327451.1875,273098.8125,269594.9375,276712.90625,-0.042724609375,0.857177734375,-0.52392578125,0.1220703050494194,3.173827886581421,0.2441406100988388,60.0,1422018.0,1.0
484350.0759644,287799.8125,304736.0,313865.8125,321972.0625,327335.59375,273239.28125,269836.09375,276906.46875,-0.04150390625,0.857421875,-0.524658203125,0.1831054538488388,3.295898199081421,0.2136230319738388,60.0,1422019.0,1.0
484350.0786708,286455.21875,306538.90625,318100.03125,324923.21875,330528.5,273558.46875,273607.71875,278085.5,-0.041259765625,0.85888671875,-0.5244140625,0.1220703050494194,3.479003667831421,0.3051757514476776,60.0,1422020.0,1.0
484350.081148,288326.875,307911.9375,321602.46875,326599.5,332551.15625,273608.34375,275623.03125,278582.15625,-0.041748046875,0.859619140625,-0.52294921875,0.0610351525247097,3.570556402206421,0.3967284858226776,60.0,1422021.0,1.0
484350.0836733,290947.5,306985.40625,319547.09375,324726.53125,330583.125,273352.625,273075.84375,277722.59375,-0.041015625,0.85595703125,-0.524169921875,0.03051757626235485,3.509521245956421,0.4577636420726776,60.0,1422022.0,1.0
484350.0836891,290465.21875,304999.5,314795.09375,321905.46875,327388.78125,273136.71875,269564.46875,276712.09375,-0.04296875,0.857666015625,-0.525390625,0.03051757626235485,3.662109136581421,0.5493163466453552,60.0,1422023.0,1.0
484350.0872423,287818.34375,304749.59375,313887.4375,322026.78125,327332.8125,273293.28125,269868.34375,276950.09375,-0.04345703125,0.857421875,-0.52587890625,0.03051757626235485,3.631591558456421,0.5798339247703552,60.0,1422024.0,1.0
484350.116216,286465.6875,306531.125,318115.9375,324962.71875,330514.71875,273594.84375,273627.125,278105.15625,-0.04443359375,0.8583984375,-0.52490234375,0.0,3.692626714706421,0.5798339247703552,60.0,1422025.0,1.0
484350.1162545,288361.03125,307904.40625,321622.9375,326636.15625,332543.71875,273659.84375,275645.84375,278612.09375,-0.0458984375,0.858642578125,-0.524169921875,-0.0610351525247097,3.723144292831421,0.6713866591453552,60.0,1422026.0,1.0
484350.1187273,290931.125,306915.03125,319509.0,324699.96875,330520.96875,273345.65625,273041.59375,277700.6875,-0.043701171875,0.8603515625,-0.5263671875,-0.1831054538488388,3.753661870956421,0.6713866591453552,60.0,1422027.0,1.0
484350.118768,290448.25,304938.53125,314780.78125,321884.09375,327350.15625,273122.5,269552.03125,276688.6875,-0.044677734375,0.857421875,-0.524658203125,-0.2746581733226776,3.723144292831421,0.7019042372703552,60.0,1422028.0,1.0
484350.1211839,287777.28125,304672.4375,313869.28125,322000.59375,327280.34375,273296.5,269850.125,276916.84375,-0.044921875,0.85888671875,-0.52392578125,-0.3662109076976776,3.814697027206421,0.7324218153953552,60.0,1422029.0,1.0
484350.1235536,286449.15625,306471.84375,318114.78125,324951.90625,330468.15625,273625.78125,273621.84375,278091.75,-0.04541015625,0.8583984375,-0.525390625,-0.4272460639476776,3.784179449081421,0.8239745497703552,60.0,1422030.0,1.0
484350.1261848,288344.03125,307826.90625,321591.0,326606.65625,332465.9375,273677.625,275610.53125,278583.46875,-0.04443359375,0.85791015625,-0.528076171875,-0.5187987685203552,3.784179449081421,0.8239745497703552,60.0,1422031.0,1.0
484350.1285864,290947.21875,306879.53125,319500.15625,324703.28125,330476.46875,273380.96875,273036.9375,277705.78125,-0.044677734375,0.858154296875,-0.527587890625,-0.6103515028953552,3.875732183456421,0.8239745497703552,60.0,1422032.0,1.0
484350.1310614,290440.09375,304900.0625,314761.46875,321880.15625,327298.21875,273134.125,269539.96875,276684.75,-0.0439453125,0.858642578125,-0.526611328125,-0.7629393935203552,3.875732183456421,0.7324218153953552,60.0,1422033.0,1.0
484350.1336714,287738.75,304623.53125,313843.4375,321976.625,327218.03125,273264.9375,269824.375,276887.78125,-0.041748046875,0.85986328125,-0.5263671875,-0.8544921278953552,3.845214605331421,0.7629393935203552,60.0,1422034.0,1.0
484350.1363532,286420.375,306436.625,318107.90625,324935.0,330419.5,273583.03125,273601.71875,278057.15625,-0.04248046875,0.85986328125,-0.521728515625,-0.8850097060203552,3.875732183456421,0.7934569716453552,60.0,1422035.0,1.0
484350.1363943,288338.78125,307812.40625,321581.53125,326602.1875,332418.03125,273670.75,275588.96875,278563.0,-0.041015625,0.859375,-0.52294921875,-0.9155272841453552,3.997802495956421,0.7934569716453552,60.0,1422036.0,1.0
484350.1386406,290955.4375,306885.71875,319482.25,324705.9375,330426.5625,273402.625,273015.03125,277705.78125,-0.041259765625,0.856689453125,-0.524658203125,-0.9460448622703552,3.997802495956421,0.6713866591453552,60.0,1422037.0,1.0
484350.1743813,290467.90625,304950.59375,314774.4375,321919.59375,327281.40625,273162.46875,269547.9375,276709.59375,-0.04345703125,0.855712890625,-0.525634765625,-1.0070799589157104,4.028319835662842,0.6103515028953552,60.0,1422038.0,1.0
484350.1743917,287744.40625,304688.34375,313858.375,322018.28125,327197.46875,273253.9375,269828.75,276898.96875,-0.04296875,0.853759765625,-0.527099609375,-0.9460448622703552,4.058837413787842,0.4882812201976776,60.0,1422039.0,1.0
484350.182531,286420.53125,306530.9375,318108.96875,324965.0625,330392.59375,273567.03125,273596.375,278064.9375,-0.04345703125,0.853271484375,-0.52783203125,-0.8850097060203552,4.119872570037842,0.3967284858226776,60.0,1422040.0,1.0
484350.1953152,288330.625,307916.9375,321542.71875,326594.40625,332368.59375,273617.1875,275554.71875,278551.125,-0.04296875,0.854248046875,-0.529296875,-0.8239745497703552,4.089354991912842,0.4577636420726776,60.0,1422041.0,1.0
484350.2022866,290937.03125,306984.0625,319415.125,324683.78125,330360.21875,273336.625,272962.28125,277682.625,-0.04052734375,0.855224609375,-0.526611328125,-0.9155272841453552,4.119872570037842,0.5798339247703552,60.0,1422042.0,1.0
484350.2048695,290427.21875,305031.40625,314698.28125,321884.28125,327208.1875,273104.90625,269494.625,276679.5625,-0.04052734375,0.855712890625,-0.5234375,-0.9460448622703552,4.119872570037842,0.7324218153953552,60.0,1422043.0,1.0
484350.2073248,287712.5625,304761.9375,313808.9375,321994.40625,327148.90625,273229.78125,269802.46875,276884.5625,-0.039794921875,0.8564453125,-0.525146484375,-0.9155272841453552,4.180907726287842,0.7934569716453552,60.0,1422044.0,1.0
484350.2099219,286400.15625,306569.125,318066.5,324945.03125,330342.875,273558.46875,273570.0625,278053.125,-0.040771484375,0.855712890625,-0.520751953125,-1.0070799589157104,4.302978038787842,0.7019042372703552,60.0,1422045.0,1.0
484350.2122013,288339.40625,307934.1875,321509.125,326586.625,332326.03125,273626.59375,275530.9375,278548.71875,-0.041748046875,0.853515625,-0.5205078125,-0.9155272841453552,4.150390148162842,0.7324218153953552,60.0,1422046.0,1.0
484350.2149071,290962.6875,307003.09375,319391.34375,324691.46875,330335.65625,273366.9375,272953.78125,277701.46875,-0.045166015625,0.853515625,-0.522216796875,-0.9155272841453552,4.241942882537842,0.7934569716453552,60.0,1422047.0,1.0
484350.2172326,290442.4375,305047.0625,314674.21875,321901.4375,327184.59375,273143.0625,269491.875,276698.34375,-0.045654296875,0.8515625,-0.52392578125,-0.8544921278953552,4.150390148162842,0.8850097060203552,60.0,1422048.0,1.0
484350.2199451,287722.5625,304785.0,313794.28125,322026.4375,327129.96875,273267.875,269807.125,276904.0625,-0.047119140625,0.850830078125,-0.5244140625,-0.7934569716453552,4.119872570037842,0.8850097060203552,60.0,1422049.0,1.0
484350.2222679,286425.09375,306612.5625,318074.0,324983.90625,330343.6875,273581.78125,273594.03125,278076.09375,-0.04833984375,0.853515625,-0.521240234375,-0.6408690810203552,3.967284917831421,0.7324218153953552,60.0,1422050.0,1.0
484350.2247261,288324.28125,307930.25,321458.34375,326567.5,332268.1875,273591.28125,275496.96875,278524.84375,-0.0458984375,0.85205078125,-0.522216796875,-0.5187987685203552,3.784179449081421,0.6713866591453552,60.0,1422051.0,1.0
484350.2274052,290917.28125,306969.3125,319302.09375,324644.4375,330244.09375,273311.5,272889.34375,277650.625,-0.043212890625,0.853759765625,-0.52490234375,-0.4577636420726776,3.723144292831421,0.7019042372703552,60.0,1422052.0,1.0
484350.2299195,290393.875,305026.40625,314593.3125,321866.84375,327100.71875,273109.53125,269438.59375,276658.71875,-0.042236328125,0.855224609375,-0.5224609375,-0.4272460639476776,3.631591558456421,0.8239745497703552,60.0,1422053.0,1.0
484350.232272,287695.5,304793.125,313763.4375,322019.1875,327087.3125,273253.5,269795.65625,276891.0,-0.0400390625,0.85693359375,-0.5234375,-0.4882812201976776,3.540038824081421,0.8850097060203552,60.0,1422054.0,1.0
484350.232293,286408.5625,306604.625,318051.84375,324977.21875,330301.65625,273572.5,273581.34375,278065.0,-0.04052734375,0.85791015625,-0.5224609375,-0.5187987685203552,3.356933355331421,0.9460448622703552,60.0,1422055.0,1.0
484350.2349469,288347.4375,307915.5,321443.125,326579.03125,332234.125,273633.09375,275488.03125,278532.34375,-0.042724609375,0.860107421875,-0.521728515625,-0.6103515028953552,3.326415777206421,1.0375975370407104,60.0,1422056.0,1.0
484350.2349707,290941.3125,306925.59375,319275.71875,324659.625,330198.125,273368.5625,272869.21875,277658.3125,-0.045166015625,0.859130859375,-0.5224609375,-0.6103515028953552,3.234863042831421,1.0070799589157104,60.0,1422057.0,1.0
484350.2399466,290426.15625,304986.0,314606.0,321911.90625,327087.5,273182.6875,269453.78125,276683.5,-0.048828125,0.860107421875,-0.521484375,-0.6713866591453552,3.112792730331421,1.0070799589157104,60.0,1422058.0,1.0
484350.2423425,287694.5,304718.75,313764.875,322045.1875,327052.4375,273299.71875,269793.96875,276885.28125,-0.0517578125,0.859130859375,-0.5205078125,-0.8239745497703552,2.960204839706421,0.9155272841453552,60.0,1422059.0,1.0
484350.2523403,286406.3125,306527.71875,318055.5,324988.46875,330260.90625,273613.25,273572.9375,278056.96875,-0.053955078125,0.86083984375,-0.518310546875,-0.8544921278953552,2.746581792831421,0.8239745497703552,60.0,1422060.0,1.0
484350.2523729,288370.78125,307859.625,321454.125,326592.25,332203.09375,273653.125,275484.90625,278541.90625,-0.05322265625,0.861083984375,-0.519287109375,-0.9460448622703552,2.441406011581421,0.6408690810203552,60.0,1422061.0,1.0
484350.2598213,290942.3125,306856.90625,319247.125,324629.0625,330139.21875,273332.0625,272835.78125,277645.15625,-0.053466796875,0.862548828125,-0.522216796875,-1.0070799589157104,2.227782964706421,0.4882812201976776,60.0,1422062.0,1.0
