Time,FZ,C3,CZ,C4,PZ,PO7,OZ,PO8,AccX,AccY,AccZ,Gyro1,Gyro2,Gyro3,Battery,Counter,Validation
1011957.9122641,334875.5625,323438.96875,343287.0625,328930.4375,319419.9375,313359.03125,309101.65625,307210.09375,-0.17041015625,0.6455078125,-0.595703125,-35.278316497802734,-6.439208507537842,-0.7019042372703552,60.0,196859.0,1.0
1011957.9148405,341271.28125,327214.1875,350426.5625,333604.71875,322352.3125,314279.9375,309436.21875,307469.375,-0.16552734375,0.63330078125,-0.599365234375,-33.172603607177734,-6.439208507537842,-1.0375975370407104,60.0,196860.0,1.0
1011957.914853,338983.34375,325591.09375,347362.5,331733.78125,321179.21875,313388.28125,308882.0,307005.34375,-0.162841796875,0.6240234375,-0.60302734375,-30.548093795776367,-6.286620616912842,-1.4343260526657104,60.0,196861.0,1.0
1011957.9173086,331030.0625,320721.25,338198.71875,325821.65625,317479.1875,311888.125,308193.375,306450.03125,-0.16162109375,0.6181640625,-0.603515625,-27.832029342651367,-6.134032726287842,-1.7700194120407104,60.0,196862.0,1.0
1011957.926062,328553.03125,319433.34375,335664.65625,324066.25,316394.6875,311874.25,308321.21875,306571.53125,-0.160400390625,0.613037109375,-0.60595703125,-24.597166061401367,-5.615233898162842,-2.166747808456421,60.0,196863.0,1.0
1011957.9260764,334830.75,323403.125,343153.46875,328868.84375,319435.3125,313327.5625,309085.46875,307203.5625,-0.162109375,0.6103515625,-0.6083984375,-21.392820358276367,-5.218505382537842,-2.502441167831421,60.0,196864.0,1.0
1011957.9285096,341325.5625,327239.84375,350453.5625,333621.875,322426.0625,314271.09375,309432.75,307472.125,-0.16552734375,0.6123046875,-0.604736328125,-18.096921920776367,-4.730224132537842,-2.929687261581421,60.0,196865.0,1.0
1011957.9335196,339139.375,325667.875,347578.40625,331818.8125,321284.25,313395.0,308879.03125,307008.03125,-0.171875,0.615478515625,-0.599365234375,-14.801024436950684,-4.180907726287842,-3.265380620956421,60.0,196866.0,1.0
1011957.938522,331171.5,320773.3125,338396.75,325884.34375,317561.09375,311887.0625,308179.53125,306444.84375,-0.175048828125,0.62255859375,-0.600830078125,-11.871336936950684,-3.753661870956421,-3.723144292831421,60.0,196867.0,1.0
1011957.9410724,328646.125,319458.3125,335785.71875,324094.84375,316463.0625,311875.34375,308309.96875,306564.375,-0.1787109375,0.633544921875,-0.592041015625,-9.307860374450684,-3.601073980331421,-4.058837413787842,60.0,196868.0,1.0
1011957.9435166,334913.0,323439.5,343279.625,328914.6875,319500.6875,313336.15625,309081.625,307199.71875,-0.183837890625,0.641357421875,-0.5869140625,-7.080077648162842,-3.417968511581421,-4.425048351287842,60.0,196869.0,1.0
1011957.9459293,341475.3125,327325.75,350679.125,333742.21875,322524.34375,314292.625,309438.90625,307476.875,-0.19140625,0.65380859375,-0.580810546875,-5.340575695037842,-3.356933355331421,-5.065917491912842,60.0,196870.0,1.0
1011957.9484789,339362.15625,325794.5625,347885.78125,332003.34375,321406.65625,313429.40625,308891.75,307015.71875,-0.19677734375,0.66796875,-0.578125,-4.028319835662842,-3.570556402206421,-5.737304210662842,60.0,196871.0,1.0
1011957.9510319,331328.40625,320852.34375,338616.4375,326020.15625,317639.6875,311899.125,308183.53125,306443.40625,-0.20703125,0.68359375,-0.576416015625,-2.960204839706421,-3.784179449081421,-6.561278820037842,60.0,196872.0,1.0
1011957.9560242,328631.8125,319430.9375,335807.71875,324096.09375,316436.625,311854.25,308295.5625,306550.53125,-0.218017578125,0.7001953125,-0.57763671875,-2.502441167831421,-4.302978038787842,-7.080077648162842,60.0,196873.0,1.0
1011957.9560438,334807.5,323355.375,343191.125,328839.40625,319410.1875,313314.78125,309062.5,307181.75,-0.22607421875,0.713134765625,-0.575439453125,-2.319335699081421,-4.760741710662842,-7.720946788787842,60.0,196874.0,1.0
1011957.9583658,341408.53125,327256.65625,350607.78125,333673.28125,322420.71875,314286.375,309423.875,307464.96875,-0.233642578125,0.726318359375,-0.577880859375,-2.349853277206421,-5.523681163787842,-8.331297874450684,60.0,196875.0,1.0
1011957.9610164,339351.875,325753.0,347850.125,331949.625,321308.03125,313421.0,308874.375,307003.28125,-0.239990234375,0.73779296875,-0.584228515625,-2.410888433456421,-6.225585460662842,-9.033202171325684,60.0,196876.0,1.0
1011957.9660591,331268.59375,320772.40625,338504.75,325913.21875,317501.71875,311872.03125,308151.71875,306418.65625,-0.24365234375,0.748779296875,-0.5849609375,-2.685546636581421,-6.927489757537842,-9.887694358825684,60.0,196877.0,1.0
1011957.9660839,328449.34375,319277.4375,335536.8125,323883.3125,316229.1875,311805.96875,308256.59375,306520.5625,-0.245361328125,0.7568359375,-0.58544921875,-2.868652105331421,-7.720946788787842,-10.559081077575684,60.0,196878.0,1.0
1011957.9685219,334550.375,323171.1875,342825.71875,328555.09375,319168.71875,313258.28125,309026.21875,307157.34375,-0.246337890625,0.76513671875,-0.5859375,-3.143310308456421,-8.300780296325684,-11.260985374450684,60.0,196879.0,1.0
1011957.9709429,341172.75,327103.9375,350281.71875,333409.28125,322213.90625,314245.96875,309397.6875,307451.21875,-0.24755859375,0.771240234375,-0.586181640625,-3.448486089706421,-8.758543968200684,-11.779784202575684,60.0,196880.0,1.0
1011957.9735389,339192.84375,325644.0,347615.0625,331745.59375,321143.0,313396.15625,308857.84375,306999.25,-0.248779296875,0.77392578125,-0.585205078125,-3.845214605331421,-9.185790061950684,-12.298583030700684,60.0,196881.0,1.0
1011957.9759427,331132.4375,320678.53125,338286.34375,325735.65625,317350.0,311852.8125,308139.90625,306421.0625,-0.25,0.778076171875,-0.586181640625,-4.211425304412842,-9.521483421325684,-12.969969749450684,60.0,196882.0,1.0
1011957.9784381,328259.34375,319161.125,335257.9375,323673.46875,316057.25,311781.28125,308240.0625,306518.96875,-0.247802734375,0.78369140625,-0.58642578125,-4.669188976287842,-9.796141624450684,-13.427733421325684,60.0,196883.0,1.0
1011957.982413,334360.9375,323069.8125,342557.3125,328347.78125,319003.3125,313239.40625,309013.59375,307155.09375,-0.24560546875,0.788818359375,-0.5859375,-5.340575695037842,-10.070799827575684,-13.885497093200684,60.0,196884.0,1.0
1011957.9824536,341120.1875,327100.0,350185.15625,333315.65625,322131.46875,314257.125,309404.84375,307459.25,-0.24267578125,0.79345703125,-0.59033203125,-5.920409679412842,-10.284422874450684,-14.190672874450684,60.0,196885.0,1.0
1011957.982464,339310.75,325748.0,347719.65625,331803.53125,321167.03125,313440.59375,308883.96875,307019.8125,-0.24072265625,0.796875,-0.592529296875,-6.622313976287842,-10.284422874450684,-14.404295921325684,60.0,196886.0,1.0
1011957.9847824,331275.65625,320778.65625,338424.125,325826.59375,317396.21875,311878.90625,308159.125,306428.65625,-0.242919921875,0.80029296875,-0.595458984375,-7.293700695037842,-10.162352561950684,-14.617918968200684,60.0,196887.0,1.0
1011957.9848133,328337.84375,319212.875,335320.875,323719.15625,316082.84375,311785.65625,308249.0625,306513.6875,-0.244140625,0.802001953125,-0.59912109375,-8.056639671325684,-10.009764671325684,-14.770506858825684,60.0,196888.0,1.0
1011957.9872762,334419.125,323118.0,342611.9375,328376.03125,319030.75,313246.5625,309018.34375,307146.6875,-0.246337890625,0.807373046875,-0.602294921875,-8.728026390075684,-9.826659202575684,-14.831542015075684,60.0,196889.0,1.0
1011957.991066,341252.0625,327197.0,350344.9375,333406.3125,322207.46875,314281.71875,309414.125,307454.53125,-0.25048828125,0.81103515625,-0.6064453125,-9.368895530700684,-9.613036155700684,-14.923094749450684,60.0,196890.0,1.0
1011958.0023136,339495.125,325861.90625,347959.8125,331951.40625,321276.5625,313463.90625,308885.5625,307010.53125,-0.25537109375,0.815185546875,-0.609130859375,-9.948729515075684,-9.185790061950684,-14.892577171325684,60.0,196891.0,1.0
1011958.0048548,331435.53125,320863.59375,338638.6875,325972.75,317501.09375,311889.0,308149.84375,306418.1875,-0.260498046875,0.818603515625,-0.611572265625,-10.406493186950684,-8.941649436950684,-14.831542015075684,60.0,196892.0,1.0
1011958.0048941,328412.59375,319252.21875,335443.8125,323806.25,316154.875,311784.0625,308237.1875,306505.1875,-0.267333984375,0.81884765625,-0.61328125,-10.742186546325684,-8.483885765075684,-14.648436546325684,60.0,196893.0,1.0
1011958.0086744,334446.84375,323144.90625,342693.75,328426.09375,319093.53125,313248.53125,309013.59375,307144.09375,-0.2705078125,0.816162109375,-0.611328125,-10.864256858825684,-7.843017101287842,-14.434813499450684,60.0,196894.0,1.0
1011958.0269535,341314.65625,327248.59375,350481.625,333488.5,322304.125,314299.15625,309418.78125,307461.75,-0.276123046875,0.816650390625,-0.6083984375,-10.864256858825684,-7.385253429412842,-14.129637718200684,60.0,196895.0,1.0
1011958.0269957,339622.53125,325942.28125,348163.5625,332086.5,321407.1875,313492.8125,308898.25,307024.90625,-0.28466796875,0.816162109375,-0.6064453125,-10.986327171325684,-6.774901866912842,-13.916014671325684,60.0,196896.0,1.0
1011958.0359781,331514.46875,320909.03125,338771.8125,326078.53125,317603.375,311903.21875,308155.90625,306425.96875,-0.290283203125,0.81640625,-0.6025390625,-11.047362327575684,-6.225585460662842,-13.702391624450684,60.0,196897.0,1.0
1011958.0383993,328364.125,319223.0625,335419.59375,323811.34375,316184.3125,311778.5,308228.6875,306502.6875,-0.296142578125,0.814697265625,-0.599365234375,-11.047362327575684,-5.859374523162842,-13.366698265075684,60.0,196898.0,1.0
1011958.0459004,334343.75,323097.0625,342599.875,328375.84375,319090.75,313250.6875,309008.9375,307148.125,-0.2998046875,0.816650390625,-0.595458984375,-11.260985374450684,-5.432128429412842,-13.336180686950684,60.0,196899.0,1.0
1011958.0485465,341262.53125,327240.1875,350441.5,333470.25,322323.4375,314313.1875,309427.65625,307479.8125,-0.302734375,0.817626953125,-0.590576171875,-11.535643577575684,-5.279540538787842,-13.122557640075684,60.0,196900.0,1.0
1011958.051092,339633.78125,325962.65625,348182.09375,332111.90625,321441.53125,313501.8125,308913.09375,307046.71875,-0.303955078125,0.816650390625,-0.58203125,-12.023924827575684,-5.126952648162842,-13.000487327575684,60.0,196901.0,1.0
1011958.0535936,331505.34375,320890.0625,338746.25,326082.375,317609.90625,311894.75,308161.1875,306442.25,-0.302490234375,0.812255859375,-0.5751953125,-12.634276390075684,-5.096435070037842,-12.695311546325684,60.0,196902.0,1.0
1011958.0559906,328242.4375,319126.96875,335250.0,323721.75,316127.25,311750.34375,308219.65625,306505.5625,-0.301513671875,0.806640625,-0.572021484375,-13.275145530700684,-5.126952648162842,-12.390135765075684,60.0,196903.0,1.0
1011958.0560301,334170.3125,322978.53125,342374.28125,328235.46875,319004.46875,313220.46875,308991.15625,307137.125,-0.300048828125,0.798828125,-0.568359375,-13.916014671325684,-5.187987804412842,-11.993407249450684,60.0,196904.0,1.0
1011958.0588248,341152.28125,327164.09375,350306.75,333375.3125,322258.78125,314296.5625,309415.3125,307464.34375,-0.2998046875,0.790771484375,-0.56640625,-14.373778343200684,-5.187987804412842,-11.596678733825684,60.0,196905.0,1.0
1011958.0611314,339623.875,325938.875,348159.1875,332094.0,321416.5,313496.5625,308902.71875,307035.90625,-0.302490234375,0.780029296875,-0.56591796875,-14.678954124450684,-5.187987804412842,-11.108397483825684,60.0,196906.0,1.0
1011958.0636544,331498.125,320865.03125,338707.0,326063.875,317572.96875,311883.84375,308145.09375,306425.625,-0.303955078125,0.768310546875,-0.565673828125,-14.831542015075684,-4.974364757537842,-10.650633811950684,60.0,196907.0,1.0
1011958.066074,328163.84375,319070.1875,335128.125,323647.03125,316048.5,311721.28125,308200.53125,306485.0,-0.30322265625,0.759521484375,-0.566162109375,-14.587401390075684,-4.852294445037842,-10.162352561950684,60.0,196908.0,1.0
1011958.0661151,334059.4375,322928.4375,342242.6875,328142.75,318927.125,313200.15625,308989.71875,307136.0625,-0.30419921875,0.751953125,-0.568115234375,-14.007567405700684,-4.638671398162842,-9.704588890075684,60.0,196909.0,1.0
1011958.077322,341103.28125,327167.59375,350270.4375,333336.40625,322229.28125,314294.40625,309424.6875,307478.46875,-0.30322265625,0.74462890625,-0.568359375,-13.336180686950684,-4.486083507537842,-9.277342796325684,60.0,196910.0,1.0
1011958.0797986,339669.90625,325987.0625,348229.90625,332130.5,321431.6875,313495.84375,308911.3125,307049.3125,-0.3046875,0.739013671875,-0.569580078125,-12.359618186950684,-4.211425304412842,-8.789061546325684,60.0,196911.0,1.0
1011958.0798327,331542.46875,320895.4375,338762.4375,326106.25,317583.71875,311868.28125,308142.875,306432.3125,-0.3046875,0.734375,-0.568359375,-11.169432640075684,-3.753661870956421,-8.300780296325684,60.0,196912.0,1.0
1011958.1060902,328123.1875,319048.625,335069.75,323619.5625,316017.65625,311697.40625,308187.03125,306480.53125,-0.302978515625,0.72998046875,-0.564453125,-9.704588890075684,-3.326415777206421,-7.751464366912842,60.0,196913.0,1.0
1011958.1097802,333990.59375,322899.5625,342151.75,328081.5,318879.75,313177.8125,308972.125,307123.0,-0.30126953125,0.72705078125,-0.56201171875,-8.392333030700684,-2.899169683456421,-7.202147960662842,60.0,196914.0,1.0
1011958.1098198,341108.125,327186.46875,350276.15625,333331.84375,322228.5,314294.0625,309419.9375,307473.5625,-0.30224609375,0.72607421875,-0.556884765625,-7.202147960662842,-2.410888433456421,-6.530761241912842,60.0,196915.0,1.0
1011958.1098305,339767.0,326055.09375,348343.375,332197.09375,321481.3125,313516.125,308918.90625,307059.34375,-0.300537109375,0.72412109375,-0.5546875,-6.042479991912842,-2.014159917831421,-6.042479991912842,60.0,196916.0,1.0
1011958.112433,331649.65625,320962.9375,338877.21875,326177.875,317636.0,311883.84375,308151.71875,306445.375,-0.301513671875,0.72412109375,-0.552001953125,-5.065917491912842,-1.6784666776657104,-5.523681163787842,60.0,196917.0,1.0
1011958.1148862,328134.53125,319054.28125,335076.4375,323621.96875,316027.125,311694.5625,308189.8125,306487.5,-0.302734375,0.72607421875,-0.548828125,-4.425048351287842,-1.4648436307907104,-5.004882335662842,60.0,196918.0,1.0
1011958.1173411,333930.96875,322861.5625,342086.5,328030.1875,318858.75,313168.59375,308974.0,307123.09375,-0.30419921875,0.728759765625,-0.548828125,-3.753661870956421,-1.2817381620407104,-4.608153820037842,60.0,196919.0,1.0
1011958.1196823,341113.46875,327187.4375,350288.6875,333324.34375,322237.59375,314301.21875,309430.59375,307478.75,-0.3076171875,0.733642578125,-0.54638671875,-3.265380620956421,-1.2207030057907104,-4.150390148162842,60.0,196920.0,1.0
1011958.1223423,339871.875,326112.78125,348465.15625,332260.3125,321535.65625,313545.0,308934.03125,307068.375,-0.30810546875,0.73583984375,-0.54443359375,-2.899169683456421,-1.1291502714157104,-3.753661870956421,60.0,196921.0,1.0
1011958.1247221,331734.59375,320992.25,338967.8125,326225.0625,317673.90625,311906.375,308156.53125,306446.90625,-0.307373046875,0.740966796875,-0.543212890625,-2.563476324081421,-1.0986326932907104,-3.326415777206421,60.0,196922.0,1.0
1011958.127342,328116.84375,319018.25,335046.6875,323588.0,316008.09375,311692.21875,308184.78125,306481.40625,-0.3046875,0.7431640625,-0.5458984375,-2.197265386581421,-1.0070799589157104,-2.868652105331421,60.0,196923.0,1.0
1011958.1273818,333870.34375,322809.4375,342007.0,327959.03125,318816.28125,313160.21875,308964.15625,307118.15625,-0.30419921875,0.742919921875,-0.5478515625,-1.8615721464157104,-0.8544921278953552,-2.288818120956421,60.0,196924.0,1.0
1011958.1521819,341106.78125,327174.03125,350279.03125,333302.15625,322226.15625,314309.25,309429.78125,307484.375,-0.301513671875,0.7431640625,-0.5498046875,-1.5563963651657104,-0.7019042372703552,-1.7395018339157104,60.0,196925.0,1.0
1011958.1547626,339939.125,326135.65625,348542.125,332300.90625,321554.09375,313555.90625,308936.53125,307070.15625,-0.304931640625,0.74462890625,-0.553466796875,-1.1901854276657104,-0.5798339247703552,-1.2817381620407104,60.0,196926.0,1.0
1011958.1548101,331807.90625,321011.46875,339038.78125,326269.78125,317684.71875,311908.6875,308154.03125,306443.875,-0.3037109375,0.747314453125,-0.557861328125,-0.7324218153953552,-0.4577636420726776,-0.8544921278953552,60.0,196927.0,1.0
1011958.1596625,328105.125,318988.1875,335006.53125,323565.3125,315971.96875,311681.0625,308170.3125,306472.90625,-0.3056640625,0.7490234375,-0.5595703125,-0.3967284858226776,-0.2441406100988388,-0.5187987685203552,60.0,196928.0,1.0
1011958.1623703,333808.46875,322760.1875,341907.15625,327899.03125,318760.03125,313147.875,308954.9375,307114.59375,-0.3056640625,0.75244140625,-0.562744140625,-0.03051757626235485,-0.0610351525247097,-0.3051757514476776,60.0,196929.0,1.0
1011958.1646737,341085.65625,327156.59375,350235.65625,333274.0,322190.03125,314303.4375,309426.46875,307488.59375,-0.3037109375,0.751953125,-0.562255859375,0.3967284858226776,0.0610351525247097,-0.0610351525247097,60.0,196930.0,1.0
1011958.1672859,340003.40625,326172.21875,348601.3125,332334.78125,321555.34375,313561.375,308936.09375,307081.34375,-0.30224609375,0.751953125,-0.5625,0.6713866591453552,0.2746581733226776,0.1220703050494194,60.0,196931.0,1.0
1011958.1977073,331871.5625,321043.125,339096.90625,326302.125,317687.59375,311910.90625,308151.96875,306452.625,-0.30078125,0.75244140625,-0.560302734375,1.2207030057907104,0.4882812201976776,0.2136230319738388,60.0,196932.0,1.0
1011958.2127497,328076.5,318962.8125,334961.75,323531.0625,315935.5625,311670.40625,308162.09375,306475.34375,-0.300048828125,0.751953125,-0.56298828125,1.4953612089157104,0.7629393935203552,0.4882812201976776,60.0,196933.0,1.0
1011958.2171772,333697.96875,322692.875,341783.125,327807.125,318687.78125,313135.25,308942.59375,307110.3125,-0.30224609375,0.754150390625,-0.564453125,1.8615721464157104,0.9155272841453552,0.5187987685203552,60.0,196934.0,1.0
1011958.2197763,341018.875,327122.53125,350170.84375,333219.375,322139.71875,314309.25,309419.5,307484.75,-0.30126953125,0.75244140625,-0.5703125,2.166747808456421,1.0986326932907104,0.4272460639476776,60.0,196935.0,1.0
1011958.2223299,340041.3125,326200.9375,348656.84375,332361.25,321556.59375,313587.21875,308937.59375,307086.53125,-0.3017578125,0.7529296875,-0.57177734375,2.410888433456421,1.4038084745407104,0.3051757514476776,60.0,196936.0,1.0
1011958.2272933,331921.90625,321078.0,339162.625,326335.40625,317688.84375,311929.15625,308149.21875,306452.34375,-0.303466796875,0.75634765625,-0.5732421875,2.441406011581421,1.4038084745407104,0.0610351525247097,60.0,196937.0,1.0
1011958.2296648,328059.59375,318963.96875,334942.78125,323509.40625,315901.40625,311675.6875,308155.5625,306469.25,-0.303955078125,0.75830078125,-0.57470703125,2.563476324081421,1.5258787870407104,-0.1831054538488388,60.0,196938.0,1.0
1011958.2322843,333646.21875,322675.78125,341710.1875,327755.625,318633.34375,313136.0625,308939.9375,307108.4375,-0.30322265625,0.7646484375,-0.5751953125,2.807616949081421,1.5563963651657104,-0.5798339247703552,60.0,196939.0,1.0
1011958.234783,341017.53125,327128.875,350159.0625,333210.15625,322109.40625,314317.65625,309425.9375,307491.1875,-0.302978515625,0.765625,-0.573974609375,2.777099370956421,1.6479490995407104,-0.7019042372703552,60.0,196940.0,1.0
1011958.2401998,340120.15625,326245.0,348742.65625,332413.1875,321562.40625,313599.09375,308941.0,307084.46875,-0.29736328125,0.767822265625,-0.57568359375,2.838134527206421,1.8615721464157104,-0.7629393935203552,60.0,196941.0,1.0
1011958.2473298,332017.375,321133.96875,339266.40625,326401.09375,317709.59375,311939.4375,308151.09375,306443.25,-0.29296875,0.771240234375,-0.577880859375,2.929687261581421,2.136230230331421,-0.9765624403953552,60.0,196942.0,1.0
1011958.2496894,328066.84375,318961.8125,334940.0,323506.75,315885.40625,311663.625,308148.40625,306447.15625,-0.291748046875,0.775390625,-0.5791015625,2.838134527206421,2.410888433456421,-1.0070799589157104,60.0,196943.0,1.0
1011958.2523564,333594.15625,322638.3125,341649.03125,327709.9375,318597.21875,313125.0625,308933.9375,307086.78125,-0.29150390625,0.7783203125,-0.581298828125,2.716064214706421,2.624511480331421,-1.0681151151657104,60.0,196944.0,1.0
1011958.2572878,341003.15625,327120.75,350154.75,333199.09375,322098.75,314318.46875,309422.90625,307478.46875,-0.289306640625,0.776123046875,-0.5849609375,2.655029058456421,2.838134527206421,-1.2512205839157104,60.0,196945.0,1.0
1011958.2596886,340194.90625,326298.375,348843.25,332471.125,321598.0625,313615.65625,308952.34375,307092.96875,-0.290283203125,0.774658203125,-0.58447265625,2.532958745956421,3.173827886581421,-1.2512205839157104,60.0,196946.0,1.0
1011958.2622856,332107.5,321194.9375,339383.28125,326472.625,317754.5625,311950.78125,308161.28125,306452.34375,-0.289306640625,0.7744140625,-0.583740234375,2.166747808456421,3.295898199081421,-1.2207030057907104,60.0,196947.0,1.0
1011958.2673553,328092.5,318987.03125,334989.28125,323538.21875,315908.9375,311663.96875,308151.8125,306448.40625,-0.285888671875,0.767578125,-0.580810546875,1.9226073026657104,3.631591558456421,-1.4038084745407104,60.0,196948.0,1.0
1011958.2673963,333567.875,322640.375,341657.15625,327718.6875,318620.28125,313114.53125,308934.125,307088.65625,-0.2802734375,0.759765625,-0.573486328125,1.7700194120407104,4.089354991912842,-1.4953612089157104,60.0,196949.0,1.0
1011958.2698713,341065.28125,327187.8125,350282.4375,333293.9375,322196.65625,314335.8125,309444.53125,307493.3125,-0.280029296875,0.7470703125,-0.55859375,1.5869139432907104,4.791259288787842,-1.4343260526657104,60.0,196950.0,1.0
1011958.2722115,340465.0,326496.6875,349230.75,332741.40625,321826.34375,313677.96875,308994.03125,307115.5625,-0.27978515625,0.736328125,-0.549072265625,1.4038084745407104,5.462646007537842,-1.3427733182907104,60.0,196951.0,1.0
1011958.2722513,332495.09375,321468.09375,339926.34375,326852.15625,318073.65625,312032.6875,308209.75,306484.53125,-0.28173828125,0.731689453125,-0.54345703125,1.3732908964157104,6.225585460662842,-1.4648436307907104,60.0,196952.0,1.0
1011958.2761931,328423.5,319226.75,335488.4375,323887.875,316224.1875,311730.5,308189.71875,306479.4375,-0.28466796875,0.72998046875,-0.538330078125,1.1291502714157104,6.988524913787842,-1.7700194120407104,60.0,196953.0,1.0
1011958.27623,333793.46875,322805.96875,342044.28125,327989.15625,318880.65625,313154.46875,308956.90625,307109.5,-0.2880859375,0.72998046875,-0.536865234375,0.7934569716453552,7.507323741912842,-2.166747808456421,60.0,196954.0,1.0
1011958.2762403,341187.40625,327260.5,350547.4375,333477.5,322376.90625,314336.8125,309445.875,307504.21875,-0.291748046875,0.7353515625,-0.5341796875,0.4577636420726776,7.781981945037842,-2.685546636581421,60.0,196955.0,1.0
1011958.2810055,340450.6875,326452.25,349301.625,332794.15625,321886.15625,313635.59375,308972.46875,307113.6875,-0.296630859375,0.745361328125,-0.53662109375,-0.2441406100988388,7.690429210662842,-3.051757574081421,60.0,196956.0,1.0
1011958.2810409,332331.5625,321302.9375,339770.65625,326746.125,317991.40625,311952.0625,308163.15625,306460.125,-0.298095703125,0.7529296875,-0.5361328125,-1.4343260526657104,7.263183116912842,-3.234863042831421,60.0,196957.0,1.0
1011958.2860458,328121.03125,318974.875,335129.90625,323637.53125,316033.21875,311639.125,308136.96875,306447.0,-0.2958984375,0.757568359375,-0.535888671875,-2.593993902206421,6.622313976287842,-3.479003667831421,60.0,196958.0,1.0
1011958.2934701,333432.0625,322543.375,341596.90625,327673.09375,318647.03125,313077.15625,308913.09375,307079.375,-0.29296875,0.76025390625,-0.53466796875,-3.601073980331421,6.042479991912842,-3.662109136581421,60.0,196959.0,1.0
1011958.2935104,340891.75,327057.34375,350168.78125,333204.53125,322172.96875,314289.0625,309418.15625,307480.4375,-0.2978515625,0.75830078125,-0.533935546875,-4.577636241912842,5.371093273162842,-3.875732183456421,60.0,196960.0,1.0
1011958.2961848,340286.625,326337.8125,349062.125,332612.3125,321740.875,313616.0,308963.53125,307104.03125,-0.2998046875,0.7568359375,-0.535888671875,-5.310058116912842,4.638671398162842,-3.997802495956421,60.0,196961.0,1.0
1011958.3009299,332211.65625,321218.71875,339562.625,326582.34375,317854.6875,311937.125,308155.1875,306449.59375,-0.3017578125,0.756103515625,-0.541748046875,-5.828856945037842,4.058837413787842,-4.058837413787842,60.0,196962.0,1.0
1011958.3035397,327931.5,318854.09375,334825.40625,323406.15625,315845.0,311604.625,308110.84375,306420.96875,-0.30419921875,0.756591796875,-0.550537109375,-6.042479991912842,3.479003667831421,-4.119872570037842,60.0,196963.0,1.0
1011958.3060769,333185.40625,322391.75,341229.625,327388.15625,318417.96875,313034.3125,308879.125,307049.3125,-0.3056640625,0.75732421875,-0.56103515625,-5.920409679412842,2.990722417831421,-4.272460460662842,60.0,196964.0,1.0
1011958.3061193,340699.4375,326945.0625,349870.09375,332949.71875,321956.875,314250.15625,309389.71875,307453.71875,-0.306640625,0.756591796875,-0.56787109375,-5.737304210662842,2.471923589706421,-4.333495616912842,60.0,196965.0,1.0
1011958.3087183,340232.0,326304.46875,348917.09375,332458.78125,321586.0,313609.125,308955.125,307094.03125,-0.30859375,0.752685546875,-0.5732421875,-5.554198741912842,2.166747808456421,-4.425048351287842,60.0,196966.0,1.0
1011958.3113478,332217.46875,321212.46875,339482.15625,326485.34375,317736.9375,311937.75,308160.65625,306454.6875,-0.310791015625,0.74609375,-0.579345703125,-5.035399913787842,1.9836424589157104,-4.486083507537842,60.0,196967.0,1.0
1011958.3159653,327820.625,318770.59375,334620.28125,323235.65625,315681.84375,311576.53125,308107.53125,306416.875,-0.312744140625,0.7392578125,-0.583984375,-4.455565929412842,1.8920897245407104,-4.699706554412842,60.0,196968.0,1.0
1011958.3184333,332950.0,322242.53125,340890.84375,327135.125,318205.15625,312986.03125,308873.9375,307045.84375,-0.3134765625,0.73486328125,-0.586669921875,-3.601073980331421,1.8615721464157104,-4.821776866912842,60.0,196969.0,1.0
1011958.3209368,340493.78125,326826.15625,349574.875,332727.28125,321764.46875,314221.8125,309390.90625,307463.5625,-0.316650390625,0.731201171875,-0.58740234375,-2.746581792831421,2.044677495956421,-5.035399913787842,60.0,196970.0,1.0
1011958.3234442,340133.125,326248.5,348740.59375,332314.65625,321436.53125,313592.21875,308949.84375,307100.09375,-0.31640625,0.727294921875,-0.591796875,-1.8920897245407104,2.166747808456421,-5.310058116912842,60.0,196971.0,1.0
1011958.3260101,332069.6875,321103.5625,339229.125,326296.40625,317541.78125,311895.28125,308129.375,306436.71875,-0.31640625,0.727294921875,-0.591796875,-1.0986326932907104,2.532958745956421,-5.493163585662842,60.0,196972.0,1.0
1011958.3260494,327492.78125,318534.0,334124.25,322885.625,315371.6875,311492.21875,308054.53125,306381.625,-0.31494140625,0.730712890625,-0.592041015625,-0.2746581733226776,2.807616949081421,-5.676269054412842,60.0,196973.0,1.0
1011958.3284811,332507.6875,321926.90625,340240.875,326667.71875,317814.90625,312885.71875,308809.5625,306996.40625,-0.31494140625,0.730224609375,-0.591552734375,0.5493163466453552,2.990722417831421,-5.950927257537842,60.0,196974.0,1.0
1011958.3523729,340147.34375,326578.9375,349027.34375,332322.90625,321418.46875,314159.5,309356.28125,307432.15625,-0.31787109375,0.733154296875,-0.586669921875,1.2207030057907104,3.387450933456421,-6.011962413787842,60.0,196975.0,1.0
1011958.3524153,340021.5625,326159.25,348469.15625,332099.1875,321216.65625,313586.21875,308948.25,307092.34375,-0.318603515625,0.7314453125,-0.576904296875,1.8310545682907104,3.784179449081421,-6.164550304412842,60.0,196976.0,1.0
1011958.3548478,332089.09375,321097.84375,339118.53125,326198.15625,317403.375,311905.65625,308132.9375,306436.0,-0.321533203125,0.731689453125,-0.573486328125,2.258300542831421,4.180907726287842,-6.195067882537842,60.0,196977.0,1.0
1011958.3573364,327375.5625,318432.0,333863.8125,322701.28125,315179.09375,311466.03125,308038.875,306368.125,-0.325439453125,0.72998046875,-0.56884765625,2.655029058456421,4.455565929412842,-6.347655773162842,60.0,196978.0,1.0
1011958.3597117,332193.6875,321699.46875,339747.5,326328.40625,317508.34375,312822.59375,308779.875,306973.15625,-0.333984375,0.72802734375,-0.562744140625,3.021239995956421,4.608153820037842,-6.530761241912842,60.0,196979.0,1.0
1011958.3621779,339839.78125,326361.5,348536.03125,331972.40625,321091.125,314117.21875,309329.375,307410.71875,-0.34130859375,0.72705078125,-0.5595703125,3.356933355331421,4.669188976287842,-6.500243663787842,60.0,196980.0,1.0
1011958.3648219,339868.40625,326044.5625,348154.71875,331858.6875,320953.4375,313580.15625,308936.625,307080.8125,-0.3486328125,0.727294921875,-0.553466796875,3.479003667831421,4.455565929412842,-6.530761241912842,60.0,196981.0,1.0
1011958.3673064,331949.78125,320979.75,338816.34375,325980.90625,317147.65625,311882.65625,308114.34375,306416.875,-0.350341796875,0.729248046875,-0.54638671875,3.601073980331421,4.058837413787842,-6.713866710662842,60.0,196982.0,1.0
1011958.3697366,327054.75,318179.15625,333347.9375,322351.15625,314824.875,311387.875,307992.375,306330.125,-0.35205078125,0.730224609375,-0.5439453125,3.753661870956421,3.540038824081421,-6.927489757537842,60.0,196983.0,1.0
1011958.3697764,331741.125,321361.6875,339074.0,325863.3125,317078.375,312723.375,308719.53125,306927.375,-0.354248046875,0.73388671875,-0.54296875,3.753661870956421,3.082275152206421,-7.080077648162842,60.0,196984.0,1.0
1011958.37232,339595.96875,326179.375,348106.875,331653.21875,320765.25,314081.1875,309302.03125,307389.34375,-0.35400390625,0.7333984375,-0.537841796875,3.692626714706421,2.105712652206421,-7.110595226287842,60.0,196985.0,1.0
1011958.4022623,340028.0,326150.21875,348223.21875,331871.75,320870.75,313636.03125,308955.75,307093.21875,-0.352783203125,0.733154296875,-0.53466796875,3.662109136581421,1.2817381620407104,-6.988524913787842,60.0,196986.0,1.0
1011958.4022758,332316.46875,321225.53125,339174.15625,326204.59375,317229.46875,311967.15625,308145.53125,306441.90625,-0.35009765625,0.730224609375,-0.536376953125,3.540038824081421,0.3356933295726776,-6.805419445037842,60.0,196987.0,1.0
1011958.4071278,327355.15625,318379.875,333675.09375,322570.90625,314923.5,311436.15625,308004.28125,306341.84375,-0.34814453125,0.72705078125,-0.53662109375,3.387450933456421,-0.5187987685203552,-6.622313976287842,60.0,196988.0,1.0
1011958.4071404,331993.875,321536.21875,339377.625,326064.21875,317186.8125,312764.9375,308732.5,306937.3125,-0.34716796875,0.72412109375,-0.537841796875,3.479003667831421,-1.2207030057907104,-6.317138195037842,60.0,196989.0,1.0
1011958.4095842,339960.40625,326442.6875,348576.1875,331958.125,320974.8125,314162.625,309344.5,307426.1875,-0.345703125,0.71728515625,-0.537841796875,3.692626714706421,-1.8615721464157104,-5.889892101287842,60.0,196990.0,1.0
1011958.4122549,340543.6875,326515.28125,348906.8125,332318.96875,321195.3125,313746.90625,309010.28125,307143.5625,-0.344970703125,0.71435546875,-0.5380859375,4.241942882537842,-2.258300542831421,-5.401610851287842,60.0,196991.0,1.0
1011958.4170576,332863.71875,321605.3125,339924.1875,326711.0,317611.6875,312073.46875,308197.84375,306490.25,-0.345703125,0.711181640625,-0.541015625,4.852294445037842,-2.502441167831421,-4.882812023162842,60.0,196992.0,1.0
1011958.4196166,327771.09375,318667.3125,334287.625,323003.71875,315272.34375,311508.5,308044.875,306380.03125,-0.349609375,0.70947265625,-0.545166015625,5.676269054412842,-2.838134527206421,-4.333495616912842,60.0,196993.0,1.0
1011958.4222395,332227.125,321707.59375,339787.03125,326359.90625,317454.59375,312806.0625,308756.65625,306959.75,-0.354248046875,0.70947265625,-0.548583984375,6.622313976287842,-3.143310308456421,-3.723144292831421,60.0,196994.0,1.0
1011958.424786,340118.375,326563.125,348906.375,332180.71875,321191.375,314192.5,309359.15625,307437.875,-0.359619140625,0.7080078125,-0.5517578125,7.507323741912842,-3.295898199081421,-3.204345464706421,60.0,196995.0,1.0
1011958.4248035,340746.625,326659.125,349280.34375,332559.28125,321418.8125,313795.71875,309039.25,307166.8125,-0.36181640625,0.707275390625,-0.550537109375,7.995604991912842,-3.387450933456421,-3.021239995956421,60.0,196996.0,1.0
1011958.4272899,333038.6875,321724.59375,340244.8125,326923.5,317806.3125,312115.125,308226.28125,306510.46875,-0.3662109375,0.709228515625,-0.55029296875,8.972167015075684,-3.570556402206421,-2.685546636581421,60.0,196997.0,1.0
1011958.4295403,327757.875,318651.65625,334358.34375,323053.0,315343.34375,311496.25,308042.0,306372.59375,-0.3681640625,0.715576171875,-0.5517578125,9.765624046325684,-3.784179449081421,-2.349853277206421,60.0,196998.0,1.0
1011958.4322512,332012.125,321543.4375,339583.8125,326216.46875,317379.6875,312744.09375,308725.25,306934.71875,-0.36669921875,0.7236328125,-0.554931640625,10.528563499450684,-3.936767339706421,-2.044677495956421,60.0,196999.0,1.0
1011958.4373029,339843.90625,326358.09375,348596.5625,331946.5625,321036.25,314125.875,309318.5625,307407.65625,-0.36376953125,0.729736328125,-0.55615234375,11.077879905700684,-4.211425304412842,-1.8005369901657104,60.0,197000.0,1.0
1011958.4373218,340609.03125,326556.59375,349100.8125,332395.5,321301.4375,313763.15625,309010.125,307143.90625,-0.35888671875,0.7373046875,-0.556396484375,11.566161155700684,-4.486083507537842,-1.4648436307907104,60.0,197001.0,1.0
1011958.442098,333004.625,321693.28125,340180.875,326836.875,317735.78125,312096.34375,308202.9375,306491.6875,-0.3525390625,0.74365234375,-0.556640625,11.718749046325684,-4.669188976287842,-0.9765624403953552,60.0,197002.0,1.0
1011958.4447985,327645.28125,318567.09375,334205.1875,322921.46875,315244.46875,311465.125,308019.65625,306358.03125,-0.347412109375,0.751220703125,-0.553955078125,11.718749046325684,-4.730224132537842,-0.3356933295726776,60.0,197003.0,1.0
1011958.4448242,331792.34375,321396.28125,339307.625,326004.59375,317224.5625,312700.5625,308701.9375,306922.28125,-0.3427734375,0.755615234375,-0.55224609375,11.749266624450684,-4.821776866912842,0.5493163466453552,60.0,197004.0,1.0
1011958.4772202,339726.9375,326291.84375,348441.71875,331802.625,320932.71875,314119.28125,309311.84375,307404.53125,-0.3349609375,0.7578125,-0.55322265625,11.688231468200684,-4.638671398162842,1.3732908964157104,60.0,197005.0,1.0
1011958.4772596,340706.6875,326636.15625,349205.0,332423.46875,321325.75,313805.1875,309026.65625,307157.5,-0.327880859375,0.761962890625,-0.55517578125,11.566161155700684,-4.394530773162842,2.380370855331421,60.0,197006.0,1.0
1011958.4796951,333183.15625,321818.71875,340393.125,326958.03125,317831.71875,312140.53125,308223.0625,306507.0625,-0.31884765625,0.76220703125,-0.557861328125,11.505125999450684,-4.089354991912842,3.509521245956421,60.0,197007.0,1.0
1011958.4823389,327724.0625,318616.09375,334305.75,322989.34375,315307.21875,311471.75,308022.625,306357.59375,-0.3115234375,0.765380859375,-0.562744140625,11.566161155700684,-3.662109136581421,4.608153820037842,60.0,197008.0,1.0
1011958.4847365,331736.84375,321348.1875,339243.34375,325962.84375,317216.0625,312675.96875,308688.25,306910.5625,-0.306640625,0.769287109375,-0.571044921875,11.413573265075684,-3.234863042831421,5.676269054412842,60.0,197009.0,1.0
1011958.4871765,339669.65625,326248.40625,348372.4375,331746.3125,320910.625,314101.125,309306.5,307402.21875,-0.29833984375,0.773681640625,-0.579345703125,11.230467796325684,-2.532958745956421,7.202147960662842,60.0,197010.0,1.0
1011958.4897921,340781.5,326698.84375,349295.03125,332464.5,321369.46875,313834.40625,309046.78125,307173.4375,-0.294677734375,0.776123046875,-0.587890625,11.291502952575684,-1.9531248807907104,8.331297874450684,60.0,197011.0,1.0
1011958.4922114,333336.3125,321946.125,340578.09375,327068.0,317923.71875,312189.96875,308248.8125,306524.3125,-0.292236328125,0.7763671875,-0.5908203125,11.260985374450684,-1.3122557401657104,9.399413108825684,60.0,197012.0,1.0
1011958.4973485,327785.75,318678.125,334395.78125,323051.65625,315371.78125,311494.8125,308034.9375,306368.5,-0.288818359375,0.77685546875,-0.598876953125,11.322020530700684,-0.7019042372703552,10.345458030700684,60.0,197013.0,1.0
1011958.4996761,331659.9375,321309.65625,339172.4375,325929.65625,317212.84375,312668.28125,308687.625,306912.1875,-0.28466796875,0.779296875,-0.607177734375,11.444090843200684,0.1525878757238388,11.169432640075684,60.0,197014.0,1.0
1011958.5023162,339595.625,326206.65625,348301.625,331711.71875,320902.125,314102.5625,309307.5625,307406.0625,-0.279052734375,0.78173828125,-0.6123046875,11.779784202575684,1.1291502714157104,12.054442405700684,60.0,197015.0,1.0
1011958.5023579,340860.53125,326761.25,349400.34375,332541.5,321435.8125,313868.21875,309065.71875,307187.375,-0.27001953125,0.78466796875,-0.619384765625,12.176512718200684,2.197265386581421,12.939452171325684,60.0,197016.0,1.0
1011958.504856,333509.59375,322070.40625,340801.34375,327223.375,318049.4375,312235.28125,308273.84375,306541.6875,-0.263427734375,0.78955078125,-0.6259765625,12.420653343200684,3.356933355331421,13.702391624450684,60.0,197017.0,1.0
1011958.5073463,327862.1875,318730.53125,334507.90625,323147.21875,315456.53125,311502.0625,308041.125,306372.4375,-0.254638671875,0.79296875,-0.631591796875,12.847899436950684,4.547118663787842,14.465331077575684,60.0,197018.0,1.0
1011958.5073891,331591.1875,321256.1875,339112.1875,325921.53125,317220.25,312630.65625,308677.25,306898.0625,-0.2490234375,0.80029296875,-0.63330078125,13.183592796325684,5.828856945037842,15.167235374450684,60.0,197019.0,1.0
1011958.5265141,339517.375,326150.21875,348223.375,331684.34375,320891.21875,314065.8125,309296.5625,307384.5,-0.242919921875,0.8095703125,-0.6357421875,13.366698265075684,7.080077648162842,16.021726608276367,60.0,197020.0,1.0
1011958.5648811,340923.65625,326805.75,349483.9375,332602.8125,321489.8125,313871.625,309062.0625,307176.71875,-0.23681640625,0.81787109375,-0.636962890625,13.549803733825684,8.270262718200684,17.028806686401367,60.0,197021.0,1.0
1011958.5649236,333672.59375,322188.25,341000.71875,327359.8125,318166.71875,312259.0625,308282.96875,306542.9375,-0.22900390625,0.829345703125,-0.641845703125,13.427733421325684,9.521483421325684,17.852781295776367,60.0,197022.0,1.0
1011958.5672356,327936.21875,318792.03125,334609.28125,323226.34375,315544.15625,311505.1875,308038.0,306360.28125,-0.220703125,0.83837890625,-0.647705078125,13.214110374450684,10.925292015075684,18.798826217651367,60.0,197023.0,1.0
1011958.5689273,331516.875,321213.4375,339040.65625,325897.21875,317239.40625,312613.125,308661.0625,306886.34375,-0.213134765625,0.850341796875,-0.648193359375,13.031004905700684,12.084959983825684,19.653318405151367,60.0,197024.0,1.0
1011958.6023181,339455.0625,326108.03125,348158.9375,331673.625,320916.71875,314069.125,309297.5625,307394.53125,-0.206787109375,0.862060546875,-0.64892578125,12.512206077575684,13.000487327575684,20.629880905151367,60.0,197025.0,1.0
1011958.6048466,341008.25,326857.71875,349586.84375,332697.5,321583.15625,313910.5,309083.96875,307197.5625,-0.1982421875,0.87548828125,-0.649658203125,11.871336936950684,14.099120140075684,21.728513717651367,60.0,197026.0,1.0
1011958.6072221,333854.875,322306.28125,341223.28125,327525.59375,318316.03125,312316.46875,308312.75,306571.71875,-0.190673828125,0.883544921875,-0.654541015625,10.955809593200684,15.258788108825684,22.827146530151367,60.0,197027.0,1.0
1011958.6146878,328027.5,318844.34375,334732.9375,323327.3125,315657.53125,311525.5625,308049.25,306379.125,-0.185791015625,0.89111328125,-0.64990234375,10.009764671325684,16.296384811401367,23.895261764526367,60.0,197028.0,1.0
1011958.6173091,331458.15625,321166.34375,338993.375,325897.46875,317285.625,312596.5,308658.5625,306894.75,-0.181884765625,0.900634765625,-0.64453125,9.002684593200684,17.395017623901367,24.963376998901367,60.0,197029.0,1.0
1011958.6198164,339393.28125,326063.34375,348108.40625,331676.21875,320951.9375,314054.1875,309293.25,307405.0,-0.17919921875,0.9072265625,-0.642822265625,7.781981945037842,18.432615280151367,26.062009811401367,60.0,197030.0,1.0
1011958.6223693,341125.09375,326928.34375,349713.4375,332807.03125,321655.75,313931.0625,309095.6875,307221.53125,-0.178955078125,0.912353515625,-0.64453125,6.561278820037842,19.439695358276367,27.008054733276367,60.0,197031.0,1.0
1011958.6247233,334074.71875,322439.65625,341454.5625,327683.84375,318396.9375,312344.8125,308323.71875,306585.3125,-0.177001953125,0.913330078125,-0.6416015625,5.157470226287842,20.294187545776367,27.893064498901367,60.0,197032.0,1.0
1011958.6271825,328132.03125,318917.75,334860.71875,323415.09375,315712.0625,311530.03125,308051.65625,306375.71875,-0.173583984375,0.912841796875,-0.63623046875,3.631591558456421,21.148679733276367,28.564451217651367,60.0,197033.0,1.0
1011958.6298123,331401.90625,321134.6875,338961.28125,325899.09375,317319.40625,312576.03125,308648.8125,306881.40625,-0.169189453125,0.911376953125,-0.63525390625,2.044677495956421,21.850584030151367,29.205320358276367,60.0,197034.0,1.0
1011958.6347424,339313.90625,326007.90625,348058.78125,331691.5,321021.03125,314041.125,309290.84375,307397.5625,-0.168212890625,0.904296875,-0.629638671875,-0.03051757626235485,22.430418014526367,29.724119186401367,60.0,197035.0,1.0
1011958.6372518,341158.53125,326951.15625,349808.84375,332910.375,321804.4375,313935.90625,309097.46875,307219.1875,-0.165771484375,0.896728515625,-0.626953125,-2.197265386581421,22.949216842651367,30.212400436401367,60.0,197036.0,1.0
1011958.6372907,334169.59375,322513.59375,341631.0625,327815.25,318594.625,312358.125,308322.03125,306588.53125,-0.166748046875,0.884521484375,-0.62353515625,-4.058837413787842,23.345945358276367,30.426023483276367,60.0,197037.0,1.0
1011958.6396907,328148.75,318932.59375,334933.5,323470.34375,315847.96875,311527.53125,308040.65625,306376.8125,-0.165283203125,0.873291015625,-0.62255859375,-6.134032726287842,23.651121139526367,30.456541061401367,60.0,197038.0,1.0
1011958.6422885,331281.03125,321061.0,338869.375,325866.8125,317352.84375,312550.625,308635.84375,306880.15625,-0.162353515625,0.862060546875,-0.620849609375,-8.117674827575684,24.047849655151367,30.334470748901367,60.0,197039.0,1.0
1011958.6447016,339184.96875,325930.90625,347959.90625,331668.34375,321017.125,314017.71875,309280.125,307400.78125,-0.160400390625,0.8466796875,-0.62060546875,-10.009764671325684,24.291990280151367,30.120847702026367,60.0,197040.0,1.0
1011958.6471737,341177.40625,326972.25,349869.90625,332980.65625,321852.96875,313946.625,309096.5625,307229.03125,-0.1572265625,0.831787109375,-0.6201171875,-11.474608421325684,24.444578170776367,29.815671920776367,60.0,197041.0,1.0
1011958.6497933,334308.71875,322617.21875,341804.6875,327938.46875,318681.1875,312390.6875,308331.6875,306600.78125,-0.158935546875,0.818359375,-0.622314453125,-12.786864280700684,24.566648483276367,29.327390670776367,60.0,197042.0,1.0
1011958.6523009,328202.3125,318990.78125,334998.65625,323520.3125,315898.84375,311543.0,308045.0625,306383.59375,-0.157958984375,0.805419921875,-0.623779296875,-13.702391624450684,24.719236373901367,28.778074264526367,60.0,197043.0,1.0
1011958.6548387,331171.40625,321017.5625,338755.90625,325818.625,317340.875,312535.875,308625.40625,306875.96875,-0.158447265625,0.792724609375,-0.623779296875,-14.343260765075684,24.993894577026367,28.198240280151367,60.0,197044.0,1.0
1011958.6573094,339088.6875,325898.28125,347866.28125,331662.4375,321032.21875,314015.28125,309286.125,307409.46875,-0.1552734375,0.78125,-0.62646484375,-14.678954124450684,25.024412155151367,27.557371139526367,60.0,197045.0,1.0
1011958.662254,341258.21875,327044.3125,349962.4375,333101.1875,321955.34375,313987.3125,309132.15625,307261.3125,-0.154052734375,0.76708984375,-0.629638671875,-14.556883811950684,25.115964889526367,26.885984420776367,60.0,197046.0,1.0
1011958.6622941,334468.75,322725.40625,341967.5,328078.5625,318790.53125,312429.3125,308352.34375,306622.0625,-0.156494140625,0.756591796875,-0.6259765625,-14.221190452575684,25.115964889526367,26.153562545776367,60.0,197047.0,1.0
1011958.6647381,328251.75,319024.0625,335034.0625,323562.71875,315936.375,311542.90625,308042.1875,306387.96875,-0.158447265625,0.748046875,-0.62353515625,-13.671874046325684,24.902341842651367,25.268552780151367,60.0,197048.0,1.0
1011958.6647746,331077.09375,320963.46875,338650.03125,325783.5,317320.21875,312507.71875,308616.1875,306875.53125,-0.159423828125,0.74267578125,-0.618896484375,-12.817381858825684,24.627683639526367,24.291990280151367,60.0,197049.0,1.0
1011958.6672391,338990.40625,325834.8125,347775.0,331652.34375,321019.625,313990.4375,309281.90625,307412.75,-0.15869140625,0.734619140625,-0.618896484375,-11.993407249450684,24.291990280151367,23.406980514526367,60.0,197050.0,1.0
1011958.6672697,341310.15625,327068.96875,350035.03125,333182.28125,321996.75,313990.4375,309136.34375,307271.5,-0.161376953125,0.730712890625,-0.61328125,-11.016844749450684,23.803709030151367,22.338865280151367,60.0,197051.0,1.0
1011958.6759318,334620.125,322812.75,342138.15625,328188.25,318853.90625,312449.34375,308361.1875,306632.59375,-0.16455078125,0.729248046875,-0.60791015625,-10.131834983825684,23.284910202026367,21.270750045776367,60.0,197052.0,1.0
1011958.6759643,328309.5,319049.53125,335099.34375,323586.125,315952.75,311550.78125,308040.03125,306384.59375,-0.16259765625,0.72705078125,-0.60546875,-9.185790061950684,22.491453170776367,20.172117233276367,60.0,197053.0,1.0
1011958.6787803,330984.28125,320894.4375,338560.0,325713.75,317284.71875,312503.5,308608.6875,306865.59375,-0.1630859375,0.728759765625,-0.601806640625,-8.483885765075684,21.545408248901367,19.134519577026367,60.0,197054.0,1.0
1011958.6788118,338899.9375,325771.15625,347696.6875,331604.40625,320999.9375,314001.4375,309287.28125,307413.46875,-0.1640625,0.729248046875,-0.599365234375,-7.873534679412842,20.599363327026367,17.944334030151367,60.0,197055.0,1.0
1011958.6811011,341359.875,327090.78125,350106.03125,333225.53125,322030.4375,314020.375,309152.28125,307277.9375,-0.1650390625,0.72998046875,-0.5966796875,-7.202147960662842,19.409177780151367,16.784666061401367,60.0,197056.0,1.0
1011958.6811418,334759.9375,322884.28125,342289.90625,328268.71875,318908.71875,312480.71875,308372.09375,306637.4375,-0.165283203125,0.731689453125,-0.593505859375,-6.744384288787842,18.218992233276367,15.533446311950684,60.0,197057.0,1.0
1011958.6836241,328358.40625,319069.03125,335144.125,323591.5,315954.71875,311550.0625,308037.09375,306380.5625,-0.162841796875,0.731201171875,-0.591064453125,-6.164550304412842,17.150876998901367,14.404295921325684,60.0,197058.0,1.0
1011958.6836632,330882.1875,320833.90625,338446.8125,325622.1875,317223.84375,312475.625,308602.15625,306856.21875,-0.162353515625,0.73095703125,-0.58984375,-5.645751476287842,15.930174827575684,13.153075218200684,60.0,197059.0,1.0
1011958.6860498,338781.21875,325701.0625,347577.25,331514.28125,320934.78125,313972.90625,309279.75,307403.1875,-0.15771484375,0.73095703125,-0.589599609375,-5.218505382537842,14.739989280700684,11.993407249450684,60.0,197060.0,1.0
1011958.6885585,341380.8125,327102.40625,350138.03125,333232.25,322021.40625,314021.09375,309148.875,307276.96875,-0.152099609375,0.73388671875,-0.589111328125,-4.638671398162842,13.580321311950684,10.925292015075684,60.0,197061.0,1.0
1011958.6910618,334875.0,322950.1875,342417.03125,328330.6875,318935.0,312496.28125,308370.3125,306640.125,-0.149658203125,0.7373046875,-0.59033203125,-4.150390148162842,12.542723655700684,9.826659202575684,60.0,197062.0,1.0
1011958.6934969,328397.5625,319082.25,335178.1875,323586.9375,315945.0625,311551.5,308022.34375,306372.4375,-0.14892578125,0.738525390625,-0.590576171875,-3.570556402206421,11.596678733825684,8.850096702575684,60.0,197063.0,1.0
1011958.7198633,330810.5625,320779.09375,338355.625,325545.3125,317170.90625,312464.53125,308582.46875,306847.625,-0.1455078125,0.74072265625,-0.592041015625,-2.990722417831421,10.803221702575684,7.995604991912842,60.0,197064.0,1.0
1011958.7198992,338715.125,325654.21875,347495.15625,331454.5625,320881.46875,313974.15625,309277.34375,307409.0,-0.142822265625,0.7421875,-0.592529296875,-2.380370855331421,10.101317405700684,7.171630382537842,60.0,197065.0,1.0
1011958.719908,341444.0,327138.4375,350192.9375,333257.5625,322007.5625,314048.09375,309163.53125,307297.4375,-0.139404296875,0.744384765625,-0.59130859375,-1.7700194120407104,9.552000999450684,6.256103038787842,60.0,197066.0,1.0
1011958.7199173,335012.15625,323028.15625,342549.0,328396.0625,318946.8125,312520.59375,308382.125,306657.09375,-0.13916015625,0.751708984375,-0.593505859375,-1.0986326932907104,8.972167015075684,5.523681163787842,60.0,197067.0,1.0
1011958.7221848,328460.59375,319113.53125,335225.84375,323598.90625,315929.9375,311552.5625,308028.40625,306381.71875,-0.135009765625,0.755615234375,-0.593994140625,-0.6408690810203552,8.575438499450684,4.882812023162842,60.0,197068.0,1.0
1011958.7222175,330735.03125,320720.5625,338259.34375,325464.84375,317098.5,312440.125,308576.3125,306844.40625,-0.130126953125,0.761474609375,-0.594970703125,0.0,8.209227561950684,4.333495616912842,60.0,197069.0,1.0
1011958.7246571,338616.0625,325577.21875,347378.84375,331359.53125,320801.90625,313940.625,309262.15625,307397.65625,-0.130126953125,0.771728515625,-0.596923828125,0.2746581733226776,7.965087413787842,3.692626714706421,60.0,197070.0,1.0
1011958.7270777,341475.9375,327143.625,350223.0625,333256.75,321999.34375,314037.8125,309165.9375,307298.25,-0.12939453125,0.77685546875,-0.59814453125,0.5493163466453552,7.751464366912842,3.204345464706421,60.0,197071.0,1.0
1011958.7322772,335149.3125,323101.90625,342695.71875,328472.59375,318993.75,312537.125,308395.96875,306665.78125,-0.126220703125,0.782958984375,-0.59912109375,0.7019042372703552,7.598876476287842,2.716064214706421,60.0,197072.0,1.0
1011958.7397942,328524.53125,319143.0625,335292.375,323619.5625,315941.03125,311547.9375,308020.8125,306369.75,-0.126708984375,0.787353515625,-0.600830078125,0.7019042372703552,7.446288585662842,2.349853277206421,60.0,197073.0,1.0
1011958.7422934,330657.25,320671.46875,338170.375,325385.0,317052.53125,312409.4375,308558.59375,306827.96875,-0.1279296875,0.78662109375,-0.600341796875,0.7019042372703552,7.415771007537842,2.044677495956421,60.0,197074.0,1.0
1011958.7447981,338535.78125,325544.15625,347302.40625,331296.9375,320778.46875,313934.375,309263.03125,307403.8125,-0.12890625,0.789794921875,-0.599853515625,0.4272460639476776,7.476806163787842,1.8615721464157104,60.0,197075.0,1.0
1011958.7522724,341492.125,327171.71875,350263.375,333274.90625,322026.34375,314055.875,309168.8125,307303.875,-0.13037109375,0.79345703125,-0.599609375,0.2746581733226776,7.324218273162842,1.5258787870407104,60.0,197076.0,1.0
1011958.7522858,335239.34375,323168.78125,342808.625,328539.375,319044.96875,312559.21875,308394.53125,306662.46875,-0.12890625,0.79638671875,-0.599853515625,0.0915527269244194,7.324218273162842,1.2512205839157104,60.0,197077.0,1.0
1011958.7547964,328554.125,319169.15625,335333.3125,323646.40625,315968.65625,311560.8125,308018.59375,306369.46875,-0.130615234375,0.798828125,-0.599853515625,-0.1525878757238388,7.232665538787842,0.9155272841453552,60.0,197078.0,1.0
1011958.7572806,330572.9375,320622.75,338089.71875,325330.375,317027.40625,312398.375,308542.875,306817.21875,-0.1298828125,0.802001953125,-0.601318359375,-0.3662109076976776,7.202147960662842,0.7019042372703552,60.0,197079.0,1.0
1011958.7596208,338419.1875,325471.8125,347190.8125,331215.21875,320737.0,313907.28125,309241.6875,307380.84375,-0.129150390625,0.803955078125,-0.6044921875,-0.7324218153953552,7.080077648162842,0.5798339247703552,60.0,197080.0,1.0
1011958.7621879,341503.46875,327188.34375,350291.1875,333280.71875,322047.4375,314064.375,309169.6875,307297.875,-0.127197265625,0.80810546875,-0.6044921875,-0.9460448622703552,7.110595226287842,0.3662109076976776,60.0,197081.0,1.0
1011958.7672884,335348.5,323250.59375,342936.9375,328612.5,319113.53125,312584.78125,308407.96875,306670.5,-0.129150390625,0.810546875,-0.605712890625,-1.2512205839157104,7.049560070037842,0.3356933295726776,60.0,197082.0,1.0
1011958.767305,328592.84375,319205.8125,335380.34375,323665.96875,316002.71875,311558.3125,308019.46875,306367.6875,-0.129638671875,0.81103515625,-0.607177734375,-1.4953612089157104,7.049560070037842,0.3967284858226776,60.0,197083.0,1.0
1011958.7734028,330481.375,320580.28125,337994.875,325260.0,316999.0625,312370.375,308529.5625,306806.125,-0.1298828125,0.810791015625,-0.605224609375,-1.5563963651657104,6.805419445037842,0.4882812201976776,60.0,197084.0,1.0
1011958.7734228,338329.53125,325433.1875,347097.5625,331151.3125,320709.625,313894.59375,309238.46875,307383.8125,-0.131103515625,0.810791015625,-0.604248046875,-1.6479490995407104,6.835937023162842,0.4272460639476776,60.0,197085.0,1.0
1011958.7748911,341523.3125,327207.375,350320.6875,333303.25,322065.5,314071.96875,309170.59375,307308.25,-0.13134765625,0.8095703125,-0.607666015625,-1.7700194120407104,6.774901866912842,0.4882812201976776,60.0,197086.0,1.0
1011958.8647705,335437.28125,323304.59375,343042.0625,328689.125,319157.34375,312596.40625,308405.71875,306676.5,-0.1337890625,0.808349609375,-0.605712890625,-1.8005369901657104,6.805419445037842,0.5493163466453552,60.0,197087.0,1.0
1011958.8648104,328638.25,319236.65625,335432.09375,323715.5,316030.71875,311567.5,308021.4375,306375.375,-0.135009765625,0.806396484375,-0.609130859375,-1.8615721464157104,6.835937023162842,0.5798339247703552,60.0,197088.0,1.0
1011958.8672364,330427.09375,320556.5625,337934.625,325236.59375,316992.53125,312370.375,308537.3125,306811.59375,-0.134765625,0.808349609375,-0.607421875,-1.9531248807907104,6.591796398162842,0.5798339247703552,60.0,197089.0,1.0
1011958.8672771,338236.96875,325391.34375,347004.6875,331099.34375,320684.34375,313887.25,309240.34375,307384.4375,-0.136962890625,0.809326171875,-0.60888671875,-1.9226073026657104,6.317138195037842,0.6408690810203552,60.0,197090.0,1.0
1011958.8707332,341534.59375,327227.84375,350342.6875,333318.71875,322074.96875,314083.5,309178.5625,307313.34375,-0.13671875,0.809814453125,-0.609130859375,-2.014159917831421,6.195067882537842,0.6713866591453552,60.0,197091.0,1.0
1011958.8707735,335542.71875,323377.53125,343158.84375,328768.25,319203.3125,312621.0,308416.4375,306680.0625,-0.13818359375,0.81005859375,-0.609130859375,-2.136230230331421,6.072997570037842,0.6103515028953552,60.0,197092.0,1.0
1011958.8707824,328661.75,319246.3125,335455.4375,323727.75,316029.1875,311558.21875,308006.59375,306357.125,-0.139892578125,0.81005859375,-0.605712890625,-2.166747808456421,5.981444835662842,0.6713866591453552,60.0,197093.0,1.0
1011958.870792,330324.03125,320484.34375,337818.375,325149.78125,316926.28125,312333.625,308504.875,306782.625,-0.140625,0.812744140625,-0.603271484375,-2.258300542831421,5.737304210662842,0.7324218153953552,60.0,197094.0,1.0
1011958.8996928,338131.9375,325317.5,346895.4375,331019.25,320624.25,313866.15625,309217.90625,307367.0,-0.14111328125,0.812744140625,-0.603515625,-2.319335699081421,5.523681163787842,0.7019042372703552,60.0,197095.0,1.0
1011958.8997342,341540.65625,327221.78125,350362.09375,333326.75,322072.1875,314083.6875,309171.40625,307305.9375,-0.142333984375,0.812255859375,-0.60400390625,-2.502441167831421,5.401610851287842,0.8850097060203552,60.0,197096.0,1.0
1011958.9023591,335641.3125,323421.09375,343267.75,328839.25,319243.1875,312628.9375,308419.3125,306679.4375,-0.14208984375,0.810546875,-0.605712890625,-2.716064214706421,5.279540538787842,0.9765624403953552,60.0,197097.0,1.0
1011958.9037904,328714.875,319261.875,335499.875,323764.125,316049.21875,311553.1875,308006.59375,306353.375,-0.14306640625,0.8095703125,-0.60400390625,-2.899169683456421,5.249022960662842,1.0375975370407104,60.0,197098.0,1.0
1011958.926396,330270.8125,320439.90625,337742.65625,325108.03125,316899.65625,312312.09375,308500.125,306776.0,-0.143798828125,0.81103515625,-0.60791015625,-2.929687261581421,5.218505382537842,1.2207030057907104,60.0,197099.0,1.0
1011958.9485364,338056.125,325264.46875,346799.3125,330961.75,320590.71875,313844.34375,309216.375,307358.6875,-0.14599609375,0.8125,-0.609130859375,-2.960204839706421,5.096435070037842,1.1901854276657104,60.0,197100.0,1.0
1011958.9546441,341583.84375,327245.03125,350397.5,333355.71875,322092.9375,314090.65625,309185.96875,307316.375,-0.143310546875,0.81103515625,-0.609130859375,-2.899169683456421,5.035399913787842,1.3732908964157104,60.0,197101.0,1.0
1011958.9573303,335769.8125,323495.75,343395.6875,328929.4375,319295.3125,312653.09375,308434.96875,306692.40625,-0.146240234375,0.8125,-0.60693359375,-3.021239995956421,4.943847179412842,1.5258787870407104,60.0,197102.0,1.0
1011958.9596736,328785.15625,319300.125,335564.25,323815.0,316077.03125,311565.0,308016.53125,306354.28125,-0.14599609375,0.814453125,-0.607177734375,-2.960204839706421,4.943847179412842,1.6784666776657104,60.0,197103.0,1.0
1011958.9621998,330212.09375,320399.125,337668.53125,325070.90625,316873.46875,312307.34375,308499.5,306760.1875,-0.146484375,0.813232421875,-0.608642578125,-2.929687261581421,5.035399913787842,1.8005369901657104,60.0,197104.0,1.0
1011958.9647466,337968.0625,325203.15625,346705.53125,330907.21875,320550.21875,313840.3125,309212.78125,307346.25,-0.146728515625,0.81201171875,-0.6064453125,-2.868652105331421,5.035399913787842,1.9226073026657104,60.0,197105.0,1.0
1011958.9671763,341598.5,327241.8125,350422.0,333373.6875,322097.875,314102.28125,309189.28125,307310.75,-0.14404296875,0.810302734375,-0.603759765625,-2.777099370956421,5.004882335662842,2.136230230331421,60.0,197106.0,1.0
1011958.9696819,335872.0,323544.375,343516.1875,329011.0,319338.59375,312667.21875,308441.21875,306694.375,-0.14501953125,0.809326171875,-0.6025390625,-2.593993902206421,4.730224132537842,2.410888433456421,60.0,197107.0,1.0
1011958.9775142,328822.15625,319310.25,335610.125,323848.71875,316089.96875,311560.34375,308011.0625,306358.3125,-0.142822265625,0.808349609375,-0.6025390625,-2.502441167831421,4.730224132537842,2.532958745956421,60.0,197108.0,1.0
1011959.1021915,330141.90625,320352.71875,337597.8125,325025.5,316840.5625,312280.78125,308488.96875,306767.34375,-0.14306640625,0.807861328125,-0.60009765625,-2.410888433456421,4.730224132537842,2.716064214706421,60.0,197109.0,1.0
1011959.1047862,337884.0,325156.65625,346624.53125,330857.59375,320518.84375,313815.75,309209.5,307353.5625,-0.144287109375,0.806884765625,-0.59765625,-2.349853277206421,4.516601085662842,2.929687261581421,60.0,197110.0,1.0
1011959.1098283,341616.75,327265.0625,350457.5625,333402.03125,322115.21875,314101.5625,309193.75,307322.1875,-0.1435546875,0.8046875,-0.595458984375,-2.349853277206421,4.516601085662842,2.929687261581421,60.0,197111.0,1.0
1011959.1121852,335977.125,323620.8125,343644.84375,329098.25,319398.03125,312690.09375,308452.84375,306702.96875,-0.14404296875,0.806884765625,-0.598388671875,-2.319335699081421,4.394530773162842,3.112792730331421,60.0,197112.0,1.0
1011959.1147184,328875.8125,319353.15625,335676.0,323897.0,316131.28125,311581.0,308020.71875,306358.03125,-0.14306640625,0.806884765625,-0.597412109375,-2.319335699081421,4.302978038787842,3.295898199081421,60.0,197113.0,1.0
1011959.117181,330084.84375,320328.59375,337536.46875,324992.21875,316834.5625,312288.40625,308494.3125,306763.125,-0.14208984375,0.80615234375,-0.595703125,-2.258300542831421,4.272460460662842,3.448486089706421,60.0,197114.0,1.0
1011959.1223228,337806.3125,325123.125,346548.875,330813.25,320505.96875,313830.5,309219.0625,307358.125,-0.143798828125,0.806884765625,-0.59375,-2.319335699081421,4.150390148162842,3.540038824081421,60.0,197115.0,1.0
1011959.1248183,341632.75,327289.8125,350497.28125,333429.3125,322145.6875,314142.15625,309214.59375,307334.90625,-0.14013671875,0.8046875,-0.594970703125,-2.288818120956421,4.028319835662842,3.723144292831421,60.0,197116.0,1.0
1011959.1271736,336077.09375,323691.375,343768.6875,329179.4375,319456.59375,312722.90625,308468.65625,306719.5,-0.13916015625,0.8017578125,-0.597900390625,-2.471923589706421,4.028319835662842,3.845214605331421,60.0,197117.0,1.0
1011959.1300189,328920.78125,319376.125,335725.375,323930.53125,316151.84375,311569.375,308015.625,306364.03125,-0.139404296875,0.802734375,-0.597900390625,-2.410888433456421,4.058837413787842,3.967284917831421,60.0,197118.0,1.0
1011959.1323426,330001.15625,320262.96875,337441.34375,324931.625,316789.21875,312238.25,308473.21875,306754.28125,-0.14013671875,0.80224609375,-0.5966796875,-2.563476324081421,3.906249761581421,4.058837413787842,60.0,197119.0,1.0
1011959.1323832,337695.34375,325041.84375,346428.4375,330734.40625,320446.96875,313775.40625,309197.59375,307346.96875,-0.140625,0.80322265625,-0.597900390625,-2.471923589706421,3.936767339706421,4.241942882537842,60.0,197120.0,1.0
1011959.1347308,341638.84375,327281.59375,350506.3125,333435.84375,322139.71875,314111.9375,309207.96875,307335.875,-0.14111328125,0.80029296875,-0.5986328125,-2.410888433456421,3.906249761581421,4.302978038787842,60.0,197121.0,1.0
1011959.1396711,336179.5625,323742.3125,343877.03125,329250.0625,319491.125,312719.15625,308467.3125,306720.84375,-0.141357421875,0.801513671875,-0.59716796875,-2.349853277206421,4.028319835662842,4.364013195037842,60.0,197122.0,1.0
1011959.1446862,328965.21875,319395.0,335766.21875,323956.53125,316162.59375,311562.21875,308006.875,306355.96875,-0.139404296875,0.802978515625,-0.593017578125,-2.410888433456421,4.028319835662842,4.425048351287842,60.0,197123.0,1.0
1011959.1521739,329939.375,320227.28125,337369.03125,324886.375,316765.4375,312228.75,308460.71875,306746.0625,-0.14111328125,0.801025390625,-0.59130859375,-2.227782964706421,4.058837413787842,4.547118663787842,60.0,197124.0,1.0
1011959.154822,337613.90625,325001.96875,346350.03125,330690.84375,320431.3125,313779.96875,309196.4375,307350.625,-0.142333984375,0.800048828125,-0.59326171875,-2.197265386581421,4.058837413787842,4.669188976287842,60.0,197125.0,1.0
1011959.1621686,341652.0625,327299.75,350536.875,333463.09375,322171.53125,314133.84375,309217.0,307348.9375,-0.14501953125,0.7978515625,-0.592041015625,-2.105712652206421,4.180907726287842,4.760741710662842,60.0,197126.0,1.0
1011959.1646795,336273.4375,323805.34375,343991.65625,329328.125,319553.78125,312741.96875,308476.71875,306732.46875,-0.144287109375,0.798828125,-0.593017578125,-2.105712652206421,4.211425304412842,4.791259288787842,60.0,197127.0,1.0
1011959.2648217,329014.375,319424.25,335817.8125,323998.84375,316195.46875,311571.34375,308008.3125,306357.125,-0.143798828125,0.79833984375,-0.591552734375,-2.166747808456421,4.119872570037842,4.699706554412842,60.0,197128.0,1.0
1011959.3359625,329887.71875,320189.28125,337301.25,324854.09375,316744.8125,312215.09375,308456.5,306741.59375,-0.14404296875,0.79736328125,-0.59375,-2.319335699081421,4.119872570037842,4.699706554412842,60.0,197129.0,1.0
1011959.3360014,337535.21875,324944.9375,346256.625,330639.1875,320396.4375,313754.9375,309191.53125,307345.34375,-0.144775390625,0.79638671875,-0.593017578125,-2.380370855331421,3.936767339706421,4.516601085662842,60.0,197130.0,1.0
1011959.3360101,341675.75,327313.40625,350562.90625,333481.53125,322184.6875,314134.65625,309221.8125,307349.71875,-0.142333984375,0.794921875,-0.5947265625,-2.532958745956421,3.814697027206421,4.547118663787842,60.0,197131.0,1.0
1011959.3360181,336401.46875,323887.96875,344135.625,329417.15625,319619.0625,312772.90625,308490.375,306738.28125,-0.141357421875,0.79541015625,-0.593505859375,-2.593993902206421,3.631591558456421,4.455565929412842,60.0,197132.0,1.0
1011959.3360259,329087.53125,319472.5,335900.78125,324047.375,316241.71875,311583.59375,308014.75,306360.34375,-0.141357421875,0.7958984375,-0.59326171875,-2.593993902206421,3.479003667831421,4.486083507537842,60.0,197133.0,1.0
1011959.3360343,329825.5,320155.5,337234.71875,324807.59375,316729.0625,312202.75,308448.09375,306732.5625,-0.13916015625,0.797607421875,-0.59326171875,-2.471923589706421,3.479003667831421,4.516601085662842,60.0,197134.0,1.0
1011959.3360433,337445.375,324894.15625,346161.46875,330573.90625,320363.625,313749.125,309182.125,307330.5,-0.140380859375,0.79736328125,-0.592529296875,-2.349853277206421,3.356933355331421,4.577636241912842,60.0,197135.0,1.0
1011959.3436374,341688.375,327322.28125,350583.375,333490.1875,322190.9375,314144.84375,309220.84375,307338.8125,-0.141845703125,0.79638671875,-0.59375,-2.136230230331421,3.265380620956421,4.669188976287842,60.0,197136.0,1.0
1011959.3436761,336494.8125,323942.0625,344236.8125,329479.75,319653.9375,312782.375,308492.96875,306736.65625,-0.142822265625,0.796630859375,-0.59423828125,-2.044677495956421,3.387450933456421,4.730224132537842,60.0,197137.0,1.0
1011959.3436862,329137.21875,319491.28125,335942.96875,324076.09375,316256.46875,311582.96875,308012.15625,306358.3125,-0.142333984375,0.79931640625,-0.593994140625,-1.8615721464157104,3.356933355331421,4.852294445037842,60.0,197138.0,1.0
1011959.3474209,329768.09375,320099.15625,337157.5,324760.65625,316693.84375,312180.5625,308433.625,306719.875,-0.142822265625,0.797607421875,-0.59521484375,-1.7395018339157104,3.448486089706421,4.852294445037842,60.0,197139.0,1.0
1011959.3474567,337360.625,324824.3125,346069.03125,330524.65625,320327.34375,313731.875,309177.3125,307326.75,-0.14306640625,0.798583984375,-0.595458984375,-1.5563963651657104,3.448486089706421,4.821776866912842,60.0,197140.0,1.0
1011959.3474669,341698.5625,327313.25,350605.71875,333513.34375,322206.75,314154.59375,309231.3125,307354.84375,-0.143310546875,0.800048828125,-0.5947265625,-1.4343260526657104,3.265380620956421,4.852294445037842,60.0,197141.0,1.0
1011959.3499699,336602.34375,323995.34375,344363.59375,329565.125,319707.65625,312808.3125,308505.75,306752.84375,-0.14501953125,0.802490234375,-0.59033203125,-1.3732908964157104,3.112792730331421,4.913329601287842,60.0,197142.0,1.0
1011959.3500062,329198.125,319520.53125,336011.375,324120.6875,316282.65625,311589.6875,308013.03125,306361.59375,-0.145751953125,0.8056640625,-0.589111328125,-1.4038084745407104,3.021239995956421,5.065917491912842,60.0,197143.0,1.0
1011959.3538253,329719.0,320072.0,337096.96875,324725.34375,316674.96875,312172.875,308432.625,306722.46875,-0.144775390625,0.806884765625,-0.58837890625,-1.4953612089157104,2.746581792831421,5.218505382537842,60.0,197144.0,1.0
1011959.3538644,337283.625,324792.59375,345981.875,330470.03125,320300.875,313725.78125,309176.59375,307332.3125,-0.14208984375,0.8056640625,-0.58837890625,-1.7395018339157104,2.624511480331421,5.096435070037842,60.0,197145.0,1.0
1011959.3538736,341710.34375,327350.53125,350630.3125,333531.5,322227.3125,314173.625,309243.8125,307365.8125,-0.143310546875,0.80712890625,-0.589111328125,-1.8615721464157104,2.380370855331421,5.065917491912842,60.0,197146.0,1.0
1011959.3538827,336703.9375,324086.53125,344488.3125,329647.03125,319772.46875,312845.125,308523.8125,306762.15625,-0.14306640625,0.807861328125,-0.5888671875,-2.014159917831421,2.044677495956421,5.126952648162842,60.0,197147.0,1.0
1011959.3584358,329264.71875,319584.1875,336090.40625,324174.78125,316331.5625,311618.90625,308024.125,306365.90625,-0.1416015625,0.809326171875,-0.588134765625,-2.258300542831421,1.9226073026657104,5.035399913787842,60.0,197148.0,1.0
1011959.3648316,329661.34375,320048.46875,337041.15625,324691.1875,316664.15625,312168.0625,308431.65625,306717.71875,-0.140380859375,0.811767578125,-0.590576171875,-2.441406011581421,1.8005369901657104,5.157470226287842,60.0,197149.0,1.0
1011959.3671949,337182.875,324732.96875,345887.625,330415.5625,320272.15625,313713.90625,309175.96875,307329.0,-0.13916015625,0.81005859375,-0.5927734375,-2.593993902206421,1.7089842557907104,5.249022960662842,60.0,197150.0,1.0
1011959.3698183,341711.0625,327350.6875,350649.625,333551.0,322241.8125,314185.875,309251.6875,307369.65625,-0.13671875,0.81103515625,-0.593994140625,-2.777099370956421,1.6174315214157104,5.371093273162842,60.0,197151.0,1.0
1011959.3722788,336791.53125,324136.6875,344593.1875,329717.84375,319818.0625,312864.34375,308532.40625,306765.28125,-0.137939453125,0.810546875,-0.59716796875,-2.960204839706421,1.6174315214157104,5.523681163787842,60.0,197152.0,1.0
1011959.3748278,329298.53125,319592.9375,336124.03125,324202.0625,316345.59375,311614.96875,308021.34375,306354.71875,-0.137451171875,0.81103515625,-0.5947265625,-2.868652105331421,1.6479490995407104,5.706786632537842,60.0,197153.0,1.0
1011959.3771561,329591.875,319994.125,336955.59375,324644.0,316627.125,312146.59375,308418.15625,306696.0,-0.13916015625,0.811767578125,-0.59521484375,-2.899169683456421,1.7089842557907104,5.798339366912842,60.0,197154.0,1.0
1011959.5247048,337093.1875,324674.125,345784.53125,330361.21875,320229.625,313698.0625,309168.1875,307312.4375,-0.140869140625,0.8134765625,-0.59375,-2.899169683456421,1.7395018339157104,5.859374523162842,60.0,197155.0,1.0
1011959.5247459,341708.46875,327352.125,350650.53125,333558.59375,322239.65625,314189.28125,309251.40625,307363.15625,-0.14111328125,0.814697265625,-0.595703125,-2.929687261581421,1.8005369901657104,5.981444835662842,60.0,197156.0,1.0
1011959.5247548,336893.8125,324207.6875,344711.40625,329794.71875,319863.21875,312886.8125,308544.9375,306774.65625,-0.140869140625,0.81640625,-0.5927734375,-3.051757574081421,1.8615721464157104,6.042479991912842,60.0,197157.0,1.0
1011959.5247629,329362.8125,319640.5,336204.75,324249.4375,316375.71875,311618.28125,308022.34375,306356.0625,-0.139404296875,0.816162109375,-0.592529296875,-3.112792730331421,1.9531248807907104,6.134032726287842,60.0,197158.0,1.0
1011959.5247708,329535.1875,319967.28125,336906.4375,324608.5,316607.03125,312121.46875,308405.09375,306690.71875,-0.13818359375,0.817138671875,-0.5908203125,-3.387450933456421,1.9836424589157104,6.042479991912842,60.0,197159.0,1.0
1011959.524779,336998.875,324632.1875,345701.75,330307.3125,320202.6875,313675.375,309161.375,307317.1875,-0.138916015625,0.81787109375,-0.58837890625,-3.692626714706421,1.9226073026657104,6.164550304412842,60.0,197160.0,1.0
1011959.5247869,341708.84375,327367.0625,350676.625,333575.3125,322257.375,314186.40625,309257.21875,307374.21875,-0.139892578125,0.818603515625,-0.586181640625,-4.058837413787842,1.7700194120407104,6.225585460662842,60.0,197161.0,1.0
1011959.5247951,336982.15625,324264.5625,344827.34375,329867.78125,319917.03125,312896.0,308546.4375,306778.59375,-0.1416015625,0.817626953125,-0.5869140625,-4.333495616912842,1.5258787870407104,6.103515148162842,60.0,197162.0,1.0
1011959.5248033,329414.40625,319661.53125,336257.875,324287.25,316406.9375,311618.1875,308018.40625,306356.78125,-0.139892578125,0.817138671875,-0.58544921875,-4.821776866912842,1.1901854276657104,6.042479991912842,60.0,197163.0,1.0
1011959.5248112,329472.15625,319914.09375,336824.71875,324561.375,316585.75,312110.03125,308398.75,306682.40625,-0.135986328125,0.816650390625,-0.586669921875,-5.157470226287842,1.1291502714157104,6.011962413787842,60.0,197164.0,1.0
1011959.5248191,336906.78125,324562.625,345597.15625,330238.46875,320166.40625,313667.0625,309151.375,307298.0625,-0.134765625,0.814697265625,-0.586181640625,-5.310058116912842,0.9460448622703552,5.981444835662842,60.0,197165.0,1.0
1011959.5248271,341709.375,327361.34375,350682.78125,333573.96875,322266.75,314194.375,309255.53125,307363.78125,-0.135498046875,0.813720703125,-0.586669921875,-5.523681163787842,0.8544921278953552,5.981444835662842,60.0,197166.0,1.0
1011959.5248351,337080.25,324317.46875,344941.0,329927.0625,319963.0,312907.8125,308548.78125,306770.8125,-0.133056640625,0.81494140625,-0.591064453125,-5.798339366912842,0.6103515028953552,6.042479991912842,60.0,197167.0,1.0
1011959.524843,329473.03125,319690.3125,336326.34375,324313.90625,316428.65625,311620.71875,308017.0625,306341.75,-0.13330078125,0.814697265625,-0.590576171875,-5.798339366912842,0.7019042372703552,5.920409679412842,60.0,197168.0,1.0
1011959.5248509,329430.84375,319885.03125,336778.5625,324520.78125,316568.125,312096.34375,308390.34375,306667.90625,-0.133056640625,0.814453125,-0.589111328125,-5.798339366912842,0.7019042372703552,6.011962413787842,60.0,197169.0,1.0
1011959.5272638,336815.59375,324505.40625,345506.9375,330181.25,320138.15625,313645.5,309143.9375,307291.15625,-0.13232421875,0.81591796875,-0.590576171875,-5.889892101287842,0.9155272841453552,5.981444835662842,60.0,197170.0,1.0
1011959.5272957,341708.21875,327364.28125,350704.96875,333590.78125,322283.375,314197.59375,309259.75,307368.40625,-0.134765625,0.812744140625,-0.5908203125,-5.798339366912842,0.8850097060203552,5.889892101287842,60.0,197171.0,1.0
1011959.5424179,337173.40625,324380.59375,345064.09375,330009.84375,320018.53125,312931.5,308555.46875,306778.59375,-0.131591796875,0.814697265625,-0.58837890625,-5.706786632537842,0.9765624403953552,5.920409679412842,60.0,197172.0,1.0
1011959.542455,329519.625,319717.84375,336383.125,324355.375,316451.90625,311620.25,308003.21875,306336.125,-0.129638671875,0.814697265625,-0.58740234375,-5.767821788787842,1.2207030057907104,5.828856945037842,60.0,197173.0,1.0
1011959.5424646,329357.34375,319839.4375,336700.96875,324480.375,316534.5,312072.65625,308371.125,306661.84375,-0.130615234375,0.81494140625,-0.58740234375,-5.767821788787842,1.3732908964157104,5.798339366912842,60.0,197174.0,1.0
1011959.5424725,336708.84375,324447.9375,345405.625,330126.4375,320099.25,313627.96875,309135.625,307296.625,-0.131591796875,0.81591796875,-0.5859375,-5.981444835662842,1.5869139432907104,5.828856945037842,60.0,197175.0,1.0
1011959.5424804,341688.8125,327362.875,350705.25,333599.90625,322289.09375,314201.53125,309259.90625,307376.5625,-0.131103515625,0.81689453125,-0.581787109375,-6.103515148162842,1.6784666776657104,5.706786632537842,60.0,197176.0,1.0
1011959.5424883,337268.875,324448.1875,345176.9375,330090.84375,320072.875,312957.34375,308564.59375,306791.75,-0.13037109375,0.817626953125,-0.582763671875,-6.286620616912842,1.7089842557907104,5.615233898162842,60.0,197177.0,1.0
1011959.5424963,329599.5625,319768.90625,336464.21875,324415.28125,316493.84375,311636.34375,308011.0625,306343.28125,-0.133056640625,0.817626953125,-0.581787109375,-6.530761241912842,1.8310545682907104,5.615233898162842,60.0,197178.0,1.0
1011959.5425052,329314.96875,319809.21875,336642.78125,324444.78125,316513.78125,312061.46875,308363.59375,306649.78125,-0.13330078125,0.81494140625,-0.58203125,-6.744384288787842,1.8615721464157104,5.584716320037842,60.0,197179.0,1.0
1011959.5447396,336626.5,324393.9375,345307.46875,330066.96875,320058.03125,313614.03125,309127.15625,307278.3125,-0.132568359375,0.814453125,-0.58056640625,-6.866454601287842,1.8920897245407104,5.493163585662842,60.0,197180.0,1.0
1011959.5496999,341702.5625,327370.1875,350721.25,333611.6875,322290.34375,314212.6875,309265.71875,307375.40625,-0.13330078125,0.813720703125,-0.58349609375,-7.080077648162842,1.9226073026657104,5.310058116912842,60.0,197181.0,1.0
1011959.5497353,337371.625,324507.125,345290.9375,330160.21875,320106.21875,312974.0625,308573.96875,306798.625,-0.13232421875,0.81396484375,-0.58349609375,-7.080077648162842,1.9226073026657104,5.218505382537842,60.0,197182.0,1.0
1011959.552185,329655.6875,319796.25,336523.5,324455.0,316507.96875,311641.0,308017.34375,306350.6875,-0.1328125,0.815673828125,-0.58203125,-6.988524913787842,1.9836424589157104,5.126952648162842,60.0,197183.0,1.0
1011959.5547656,329257.84375,319765.0625,336579.1875,324411.53125,316482.65625,312043.875,308360.21875,306653.625,-0.131591796875,0.81787109375,-0.58056640625,-7.019042491912842,1.9531248807907104,5.187987804412842,60.0,197184.0,1.0
1011959.5598207,336519.46875,324324.1875,345201.625,330009.75,320013.78125,313590.15625,309126.34375,307285.375,-0.132568359375,0.81689453125,-0.580322265625,-7.049560070037842,1.9226073026657104,5.035399913787842,60.0,197185.0,1.0
1011959.559862,341685.21875,327362.59375,350723.125,333623.40625,322295.28125,314205.28125,309270.03125,307382.1875,-0.134521484375,0.816650390625,-0.581787109375,-7.019042491912842,1.8920897245407104,4.974364757537842,60.0,197186.0,1.0
1011959.5623911,337465.21875,324566.84375,345408.9375,330241.6875,320156.65625,312983.625,308576.5625,306800.15625,-0.133544921875,0.813720703125,-0.57861328125,-6.927489757537842,1.8615721464157104,4.882812023162842,60.0,197187.0,1.0
1011959.5698102,329724.375,319838.1875,336592.15625,324502.5625,316538.8125,311641.28125,308013.03125,306349.28125,-0.134521484375,0.81396484375,-0.576416015625,-6.896972179412842,1.9531248807907104,4.882812023162842,60.0,197188.0,1.0
1011959.572162,329221.90625,319745.375,336519.65625,324374.6875,316458.15625,312023.5625,308345.625,306644.75,-0.1328125,0.813232421875,-0.577880859375,-6.683349132537842,2.105712652206421,4.852294445037842,60.0,197189.0,1.0
1011959.5747931,336446.15625,324283.0625,345112.46875,329956.28125,319980.09375,313568.96875,309107.75,307276.15625,-0.132080078125,0.810302734375,-0.57421875,-6.561278820037842,2.136230230331421,4.730224132537842,60.0,197190.0,1.0
1011959.5773662,341687.375,327364.75,350729.5625,333631.53125,322301.96875,314203.03125,309266.875,307386.65625,-0.12890625,0.80908203125,-0.573486328125,-6.591796398162842,2.227782964706421,4.608153820037842,60.0,197191.0,1.0
1011959.5796233,337559.375,324617.4375,345510.25,330305.78125,320199.65625,312991.03125,308580.5,306810.6875,-0.128173828125,0.811279296875,-0.573486328125,-6.561278820037842,2.197265386581421,4.547118663787842,60.0,197192.0,1.0
1011959.5821633,329787.84375,319864.21875,336660.5625,324540.71875,316567.78125,311639.125,308008.3125,306352.21875,-0.12646484375,0.813720703125,-0.572265625,-6.530761241912842,2.319335699081421,4.455565929412842,60.0,197193.0,1.0
1011959.5847555,329165.9375,319703.375,336463.25,324331.78125,316444.375,312009.90625,308337.78125,306641.0,-0.12939453125,0.81494140625,-0.572998046875,-6.713866710662842,2.441406011581421,4.455565929412842,60.0,197194.0,1.0
1011959.5933861,336349.0625,324231.03125,345025.375,329894.0625,319963.09375,313565.5625,309113.1875,307277.3125,-0.133056640625,0.8154296875,-0.57275390625,-6.774901866912842,2.502441167831421,4.333495616912842,60.0,197195.0,1.0
1011959.6735478,341683.0,327383.875,350755.9375,333643.25,322334.6875,314228.71875,309288.875,307401.21875,-0.135498046875,0.81201171875,-0.5693359375,-6.835937023162842,2.502441167831421,4.211425304412842,60.0,197196.0,1.0
1011959.6735934,337656.90625,324705.25,345645.34375,330389.8125,320274.5,313033.25,308610.375,306830.46875,-0.135986328125,0.810302734375,-0.569580078125,-6.927489757537842,2.380370855331421,4.211425304412842,60.0,197197.0,1.0
1011959.7411606,329839.0625,319918.125,336729.40625,324584.8125,316609.4375,311654.84375,308020.71875,306356.875,-0.13525390625,0.804443359375,-0.568603515625,-6.927489757537842,2.441406011581421,4.180907726287842,60.0,197198.0,1.0
1011959.7487318,329109.4375,319686.03125,336401.90625,324301.21875,316429.8125,312003.09375,308338.65625,306635.90625,-0.134765625,0.802001953125,-0.57177734375,-6.713866710662842,2.410888433456421,4.058837413787842,60.0,197199.0,1.0
1011959.7487699,336246.34375,324177.8125,344911.9375,329836.75,319928.03125,313555.65625,309109.8125,307270.15625,-0.1357421875,0.80322265625,-0.572265625,-6.530761241912842,2.380370855331421,3.753661870956421,60.0,197200.0,1.0
1011959.7487787,341657.78125,327363.125,350729.09375,333637.25,322328.53125,314228.09375,309284.6875,307393.09375,-0.138916015625,0.80517578125,-0.575439453125,-6.378173351287842,2.410888433456421,3.631591558456421,60.0,197201.0,1.0
1011959.7487868,337738.53125,324731.15625,345728.40625,330446.59375,320302.40625,313039.59375,308604.84375,306825.625,-0.1416015625,0.8076171875,-0.5732421875,-6.134032726287842,2.380370855331421,3.540038824081421,60.0,197202.0,1.0
1011959.7487947,329900.6875,319922.15625,336782.875,324617.625,316616.3125,311648.875,308012.25,306347.84375,-0.14404296875,0.808349609375,-0.572021484375,-5.920409679412842,2.288818120956421,3.387450933456421,60.0,197203.0,1.0
1011959.7488029,329053.71875,319626.46875,336323.9375,324248.46875,316383.0625,311972.4375,308320.96875,306621.59375,-0.144775390625,0.8076171875,-0.5732421875,-5.676269054412842,2.227782964706421,3.326415777206421,60.0,197204.0,1.0
1011959.748811,336149.96875,324110.9375,344802.125,329762.53125,319868.78125,313522.65625,309099.53125,307267.46875,-0.144287109375,0.8076171875,-0.569580078125,-5.279540538787842,2.197265386581421,3.112792730331421,60.0,197205.0,1.0
1011959.7510067,341648.21875,327361.4375,350732.5,333635.75,322318.78125,314219.40625,309289.25,307402.9375,-0.14453125,0.80810546875,-0.56884765625,-5.035399913787842,2.044677495956421,3.021239995956421,60.0,197206.0,1.0
1011959.7510501,341648.21875,327361.4375,350732.5,333635.75,322318.78125,314219.40625,309289.25,307402.9375,-0.14453125,0.80810546875,-0.56884765625,-5.035399913787842,2.044677495956421,3.021239995956421,60.0,197207.0,0.0
1011959.7510517,341648.21875,327361.4375,350732.5,333635.75,322318.78125,314219.40625,309289.25,307402.9375,-0.14453125,0.80810546875,-0.56884765625,-5.035399913787842,2.044677495956421,3.021239995956421,60.0,197208.0,0.0
1011959.7510532,341648.21875,327361.4375,350732.5,333635.75,322318.78125,314219.40625,309289.25,307402.9375,-0.14453125,0.80810546875,-0.56884765625,-5.035399913787842,2.044677495956421,3.021239995956421,60.0,197209.0,0.0
1011959.7510547,341648.21875,327361.4375,350732.5,333635.75,322318.78125,314219.40625,309289.25,307402.9375,-0.14453125,0.80810546875,-0.56884765625,-5.035399913787842,2.044677495956421,3.021239995956421,60.0,197210.0,0.0
1011959.751056,341648.21875,327361.4375,350732.5,333635.75,322318.78125,314219.40625,309289.25,307402.9375,-0.14453125,0.80810546875,-0.56884765625,-5.035399913787842,2.044677495956421,3.021239995956421,60.0,197211.0,0.0
1011959.7510574,341648.21875,327361.4375,350732.5,333635.75,322318.78125,314219.40625,309289.25,307402.9375,-0.14453125,0.80810546875,-0.56884765625,-5.035399913787842,2.044677495956421,3.021239995956421,60.0,197212.0,0.0
1011959.7510587,341648.21875,327361.4375,350732.5,333635.75,322318.78125,314219.40625,309289.25,307402.9375,-0.14453125,0.80810546875,-0.56884765625,-5.035399913787842,2.044677495956421,3.021239995956421,60.0,197213.0,0.0
1011959.75106,341648.21875,327361.4375,350732.5,333635.75,322318.78125,314219.40625,309289.25,307402.9375,-0.14453125,0.80810546875,-0.56884765625,-5.035399913787842,2.044677495956421,3.021239995956421,60.0,197214.0,0.0
1011959.7510614,341648.21875,327361.4375,350732.5,333635.75,322318.78125,314219.40625,309289.25,307402.9375,-0.14453125,0.80810546875,-0.56884765625,-5.035399913787842,2.044677495956421,3.021239995956421,60.0,197215.0,0.0
1011959.7510627,341648.21875,327361.4375,350732.5,333635.75,322318.78125,314219.40625,309289.25,307402.9375,-0.14453125,0.80810546875,-0.56884765625,-5.035399913787842,2.044677495956421,3.021239995956421,60.0,197216.0,0.0
1011959.751064,341648.21875,327361.4375,350732.5,333635.75,322318.78125,314219.40625,309289.25,307402.9375,-0.14453125,0.80810546875,-0.56884765625,-5.035399913787842,2.044677495956421,3.021239995956421,60.0,197217.0,0.0
1011959.7510653,341648.21875,327361.4375,350732.5,333635.75,322318.78125,314219.40625,309289.25,307402.9375,-0.14453125,0.80810546875,-0.56884765625,-5.035399913787842,2.044677495956421,3.021239995956421,60.0,197218.0,0.0
1011959.7510666,341648.21875,327361.4375,350732.5,333635.75,322318.78125,314219.40625,309289.25,307402.9375,-0.14453125,0.80810546875,-0.56884765625,-5.035399913787842,2.044677495956421,3.021239995956421,60.0,197219.0,0.0
1011959.7510679,341648.21875,327361.4375,350732.5,333635.75,322318.78125,314219.40625,309289.25,307402.9375,-0.14453125,0.80810546875,-0.56884765625,-5.035399913787842,2.044677495956421,3.021239995956421,60.0,197220.0,0.0
1011959.7510693,341648.21875,327361.4375,350732.5,333635.75,322318.78125,314219.40625,309289.25,307402.9375,-0.14453125,0.80810546875,-0.56884765625,-5.035399913787842,2.044677495956421,3.021239995956421,60.0,197221.0,0.0
1011959.7510706,341648.21875,327361.4375,350732.5,333635.75,322318.78125,314219.40625,309289.25,307402.9375,-0.14453125,0.80810546875,-0.56884765625,-5.035399913787842,2.044677495956421,3.021239995956421,60.0,197222.0,0.0
1011959.7510719,341648.21875,327361.4375,350732.5,333635.75,322318.78125,314219.40625,309289.25,307402.9375,-0.14453125,0.80810546875,-0.56884765625,-5.035399913787842,2.044677495956421,3.021239995956421,60.0,197223.0,0.0
1011959.7510732,341648.21875,327361.4375,350732.5,333635.75,322318.78125,314219.40625,309289.25,307402.9375,-0.14453125,0.80810546875,-0.56884765625,-5.035399913787842,2.044677495956421,3.021239995956421,60.0,197224.0,0.0
1011959.7510745,341648.21875,327361.4375,350732.5,333635.75,322318.78125,314219.40625,309289.25,307402.9375,-0.14453125,0.80810546875,-0.56884765625,-5.035399913787842,2.044677495956421,3.021239995956421,60.0,197225.0,0.0
1011959.7510759,341648.21875,327361.4375,350732.5,333635.75,322318.78125,314219.40625,309289.25,307402.9375,-0.14453125,0.80810546875,-0.56884765625,-5.035399913787842,2.044677495956421,3.021239995956421,60.0,197226.0,0.0
1011959.7510772,341648.21875,327361.4375,350732.5,333635.75,322318.78125,314219.40625,309289.25,307402.9375,-0.14453125,0.80810546875,-0.56884765625,-5.035399913787842,2.044677495956421,3.021239995956421,60.0,197227.0,0.0
1011959.7510785,341648.21875,327361.4375,350732.5,333635.75,322318.78125,314219.40625,309289.25,307402.9375,-0.14453125,0.80810546875,-0.56884765625,-5.035399913787842,2.044677495956421,3.021239995956421,60.0,197228.0,0.0
1011959.7510798,341648.21875,327361.4375,350732.5,333635.75,322318.78125,314219.40625,309289.25,307402.9375,-0.14453125,0.80810546875,-0.56884765625,-5.035399913787842,2.044677495956421,3.021239995956421,60.0,197229.0,0.0
1011959.7510812,341648.21875,327361.4375,350732.5,333635.75,322318.78125,314219.40625,309289.25,307402.9375,-0.14453125,0.80810546875,-0.56884765625,-5.035399913787842,2.044677495956421,3.021239995956421,60.0,197230.0,0.0
1011959.7510825,341648.21875,327361.4375,350732.5,333635.75,322318.78125,314219.40625,309289.25,307402.9375,-0.14453125,0.80810546875,-0.56884765625,-5.035399913787842,2.044677495956421,3.021239995956421,60.0,197231.0,0.0
1011959.7510838,341648.21875,327361.4375,350732.5,333635.75,322318.78125,314219.40625,309289.25,307402.9375,-0.14453125,0.80810546875,-0.56884765625,-5.035399913787842,2.044677495956421,3.021239995956421,60.0,197232.0,0.0
1011959.7510851,341648.21875,327361.4375,350732.5,333635.75,322318.78125,314219.40625,309289.25,307402.9375,-0.14453125,0.80810546875,-0.56884765625,-5.035399913787842,2.044677495956421,3.021239995956421,60.0,197233.0,0.0
1011959.7510865,341648.21875,327361.4375,350732.5,333635.75,322318.78125,314219.40625,309289.25,307402.9375,-0.14453125,0.80810546875,-0.56884765625,-5.035399913787842,2.044677495956421,3.021239995956421,60.0,197234.0,0.0
1011959.7510878,335604.84375,323753.6875,344190.9375,329355.125,319592.78125,313423.40625,309053.90625,307229.125,-0.138671875,0.809814453125,-0.5693359375,-2.014159917831421,-1.0375975370407104,2.258300542831421,60.0,197235.0,1.0
1011959.753482,341556.3125,327308.78125,350674.375,333590.25,322282.5,314239.875,309311.59375,307420.1875,-0.1416015625,0.810791015625,-0.56982421875,-1.8310545682907104,-1.1901854276657104,2.136230230331421,60.0,197236.0,1.0
1011959.7572653,338331.9375,325102.375,346435.78125,330879.59375,320564.09375,313165.3125,308672.0625,306880.15625,-0.14013671875,0.810791015625,-0.572998046875,-1.5563963651657104,-1.1901854276657104,2.105712652206421,60.0,197237.0,1.0
1011959.7572933,330344.84375,320172.75,337265.75,324911.59375,316785.03125,311700.53125,308021.8125,306355.78125,-0.13818359375,0.810546875,-0.572998046875,-1.1596678495407104,-1.2207030057907104,2.075195074081421,60.0,197238.0,1.0
1011959.7573044,328760.5625,319413.875,335947.09375,323992.5625,316203.53125,311888.75,308265.71875,306574.9375,-0.140869140625,0.810302734375,-0.575439453125,-1.0070799589157104,-1.1901854276657104,2.136230230331421,60.0,197239.0,1.0
1011959.7596311,335526.4375,323713.90625,344098.6875,329303.625,319566.40625,313429.125,309058.125,307235.75,-0.140869140625,0.8115234375,-0.56982421875,-0.6713866591453552,-1.1901854276657104,2.075195074081421,60.0,197240.0,1.0
1011959.7697601,341541.90625,327304.3125,350667.3125,333585.5,322281.40625,314258.3125,309315.0625,307433.34375,-0.141845703125,0.813232421875,-0.56787109375,-0.5493163466453552,-1.1291502714157104,2.014159917831421,60.0,197241.0,1.0
1011959.7722715,338428.3125,325170.0625,346551.5625,330952.375,320620.15625,313203.21875,308686.625,306907.09375,-0.141845703125,0.812255859375,-0.569091796875,-0.4577636420726776,-1.0986326932907104,1.9836424589157104,60.0,197242.0,1.0
1011959.7747607,330429.25,320228.09375,337363.84375,324972.5625,316838.125,311714.65625,308034.6875,306377.6875,-0.14111328125,0.814453125,-0.56884765625,-0.3967284858226776,-1.0375975370407104,1.9226073026657104,60.0,197243.0,1.0
1011959.7797617,328722.90625,319381.3125,335900.34375,323955.84375,316189.9375,311861.46875,308258.5625,306577.34375,-0.140380859375,0.814453125,-0.5693359375,-0.4577636420726776,-0.9765624403953552,1.8310545682907104,60.0,197244.0,1.0
1011959.7821107,335434.25,323640.75,343985.6875,329222.78125,319516.9375,313386.65625,309038.4375,307222.40625,-0.1416015625,0.81591796875,-0.56640625,-0.4577636420726776,-0.9765624403953552,1.7395018339157104,60.0,197245.0,1.0
1011959.7872409,341530.125,327278.625,350641.9375,333563.6875,322270.96875,314239.53125,309311.3125,307424.65625,-0.141845703125,0.818115234375,-0.564697265625,-0.5798339247703552,-0.8850097060203552,1.6784666776657104,60.0,197246.0,1.0
1011959.7897569,338508.15625,325199.03125,346630.78125,330995.28125,320647.78125,313206.875,308691.46875,306900.09375,-0.14208984375,0.8203125,-0.566162109375,-0.7934569716453552,-0.8850097060203552,1.6174315214157104,60.0,197247.0,1.0
1011959.7921337,330492.375,320247.0625,337414.25,325001.1875,316852.625,311721.90625,308030.46875,306367.59375,-0.142333984375,0.81982421875,-0.566650390625,-0.9155272841453552,-0.9765624403953552,1.6174315214157104,60.0,197248.0,1.0
1011959.9385578,328691.53125,319348.5,335841.6875,323920.4375,316164.8125,311858.625,308255.25,306571.8125,-0.143310546875,0.8193359375,-0.56787109375,-0.9460448622703552,-0.9765624403953552,1.5258787870407104,60.0,197249.0,1.0
1011959.9385712,335340.5625,323577.09375,343869.625,329149.9375,319469.5625,313379.59375,309036.84375,307222.875,-0.146728515625,0.818603515625,-0.56640625,-1.1291502714157104,-1.0070799589157104,1.4343260526657104,60.0,197250.0,1.0
1011959.9385729,341504.625,327271.65625,350619.3125,333549.03125,322261.5625,314254.28125,309319.28125,307439.21875,-0.146240234375,0.817626953125,-0.568115234375,-1.2207030057907104,-1.1901854276657104,1.4343260526657104,60.0,197251.0,1.0
1011959.9385744,338586.3125,325261.625,346726.96875,331054.46875,320684.6875,313226.71875,308698.875,306912.96875,-0.14453125,0.818115234375,-0.566650390625,-1.2207030057907104,-1.3122557401657104,1.4343260526657104,60.0,197252.0,1.0
1011959.9385758,330560.3125,320297.28125,337491.59375,325049.90625,316882.40625,311726.65625,308033.6875,306374.9375,-0.145263671875,0.8203125,-0.568115234375,-1.3122557401657104,-1.3427733182907104,1.3427733182907104,60.0,197253.0,1.0
1011959.9385772,328662.9375,319337.34375,335811.71875,323898.96875,316150.15625,311845.03125,308248.90625,306570.5625,-0.14404296875,0.817138671875,-0.567626953125,-1.2817381620407104,-1.5258787870407104,1.2512205839157104,60.0,197254.0,1.0
1011959.9385786,335258.65625,323543.46875,343787.375,329092.625,319438.09375,313366.65625,309035.21875,307218.65625,-0.142333984375,0.818359375,-0.5712890625,-1.4038084745407104,-1.6784666776657104,1.3122557401657104,60.0,197255.0,1.0
1011959.9385801,341487.5625,327281.21875,350616.625,333544.1875,322269.875,314263.5625,309332.78125,307442.09375,-0.14111328125,0.814208984375,-0.56982421875,-1.3122557401657104,-1.6784666776657104,1.3122557401657104,60.0,197256.0,1.0
1011959.9385817,338671.3125,325330.625,346835.875,331125.5625,320746.46875,313264.625,308725.78125,306926.125,-0.139404296875,0.815673828125,-0.57275390625,-1.1901854276657104,-1.7700194120407104,1.2817381620407104,60.0,197257.0,1.0
1011959.9385831,330633.53125,320355.15625,337580.03125,325110.96875,316933.625,311755.1875,308045.9375,306383.96875,-0.138671875,0.817138671875,-0.57275390625,-1.1291502714157104,-1.6784666776657104,1.3122557401657104,60.0,197258.0,1.0
1011959.9385846,328630.65625,319331.15625,335770.25,323881.96875,316143.90625,311845.5625,308243.0,306567.6875,-0.140869140625,0.815185546875,-0.5703125,-0.9765624403953552,-1.5869139432907104,1.3732908964157104,60.0,197259.0,1.0
1011959.938586,335163.875,323493.9375,343678.125,329030.5625,319396.875,313350.46875,309019.0625,307207.65625,-0.1376953125,0.8125,-0.571533203125,-0.8544921278953552,-1.4648436307907104,1.5258787870407104,60.0,197260.0,1.0
1011959.9385875,341453.75,327273.09375,350586.15625,333528.28125,322255.21875,314256.6875,309318.90625,307434.5,-0.140380859375,0.812744140625,-0.57177734375,-0.7019042372703552,-1.3732908964157104,1.5563963651657104,60.0,197261.0,1.0
1011959.9385889,338749.71875,325393.40625,346935.375,331190.1875,320781.0625,313270.1875,308715.0625,306922.8125,-0.141845703125,0.813232421875,-0.572998046875,-0.6408690810203552,-1.2207030057907104,1.5869139432907104,60.0,197262.0,1.0
1011959.9385903,330702.46875,320405.375,337667.375,325168.625,316968.6875,311757.75,308032.90625,306373.59375,-0.1416015625,0.814697265625,-0.573974609375,-0.3662109076976776,-1.0375975370407104,1.5563963651657104,60.0,197263.0,1.0
1011959.9385917,328592.28125,319311.21875,335728.21875,323853.90625,316128.96875,311836.53125,308222.875,306548.28125,-0.1416015625,0.81494140625,-0.5732421875,-0.3356933295726776,-0.9155272841453552,1.5869139432907104,60.0,197264.0,1.0
1011959.9409139,335084.125,323450.40625,343589.15625,328972.1875,319369.6875,313346.4375,309010.03125,307197.84375,-0.140869140625,0.813720703125,-0.57177734375,-0.2441406100988388,-0.7629393935203552,1.4953612089157104,60.0,197265.0,1.0
1011959.9409197,341429.96875,327260.59375,350574.96875,333515.40625,322257.1875,314266.71875,309320.0,307430.5625,-0.14013671875,0.81591796875,-0.571044921875,-0.2136230319738388,-0.5798339247703552,1.5563963651657104,60.0,197266.0,1.0
1011959.9433809,338821.09375,325436.6875,347029.1875,331245.09375,320824.78125,313299.84375,308725.0,306925.0625,-0.14013671875,0.815673828125,-0.567626953125,-0.2441406100988388,-0.4272460639476776,1.4648436307907104,60.0,197267.0,1.0
1011959.9473266,330771.21875,320440.25,337745.59375,325216.5625,317005.34375,311771.4375,308040.84375,306375.28125,-0.13818359375,0.813720703125,-0.56884765625,-0.3051757514476776,-0.4272460639476776,1.4953612089157104,60.0,197268.0,1.0
1011959.9473405,328577.0,319280.28125,335705.59375,323832.1875,316121.4375,311816.5,308218.9375,306546.0625,-0.13720703125,0.814208984375,-0.5673828125,-0.3967284858226776,-0.3662109076976776,1.6479490995407104,60.0,197269.0,1.0
1011959.9473437,328577.0,319280.28125,335705.59375,323832.1875,316121.4375,311816.5,308218.9375,306546.0625,-0.13720703125,0.814208984375,-0.5673828125,-0.3967284858226776,-0.3662109076976776,1.6479490995407104,60.0,197270.0,0.0
1011959.947344,328577.0,319280.28125,335705.59375,323832.1875,316121.4375,311816.5,308218.9375,306546.0625,-0.13720703125,0.814208984375,-0.5673828125,-0.3967284858226776,-0.3662109076976776,1.6479490995407104,60.0,197271.0,0.0
1011959.9473443,328577.0,319280.28125,335705.59375,323832.1875,316121.4375,311816.5,308218.9375,306546.0625,-0.13720703125,0.814208984375,-0.5673828125,-0.3967284858226776,-0.3662109076976776,1.6479490995407104,60.0,197272.0,0.0
1011959.9473446,328577.0,319280.28125,335705.59375,323832.1875,316121.4375,311816.5,308218.9375,306546.0625,-0.13720703125,0.814208984375,-0.5673828125,-0.3967284858226776,-0.3662109076976776,1.6479490995407104,60.0,197273.0,0.0
1011959.9473449,328577.0,319280.28125,335705.59375,323832.1875,316121.4375,311816.5,308218.9375,306546.0625,-0.13720703125,0.814208984375,-0.5673828125,-0.3967284858226776,-0.3662109076976776,1.6479490995407104,60.0,197274.0,0.0
1011959.9473451,328577.0,319280.28125,335705.59375,323832.1875,316121.4375,311816.5,308218.9375,306546.0625,-0.13720703125,0.814208984375,-0.5673828125,-0.3967284858226776,-0.3662109076976776,1.6479490995407104,60.0,197275.0,0.0
1011959.9473454,328577.0,319280.28125,335705.59375,323832.1875,316121.4375,311816.5,308218.9375,306546.0625,-0.13720703125,0.814208984375,-0.5673828125,-0.3967284858226776,-0.3662109076976776,1.6479490995407104,60.0,197276.0,0.0
1011959.9473456,328577.0,319280.28125,335705.59375,323832.1875,316121.4375,311816.5,308218.9375,306546.0625,-0.13720703125,0.814208984375,-0.5673828125,-0.3967284858226776,-0.3662109076976776,1.6479490995407104,60.0,197277.0,0.0
1011959.9473459,328577.0,319280.28125,335705.59375,323832.1875,316121.4375,311816.5,308218.9375,306546.0625,-0.13720703125,0.814208984375,-0.5673828125,-0.3967284858226776,-0.3662109076976776,1.6479490995407104,60.0,197278.0,0.0
1011959.9473461,328577.0,319280.28125,335705.59375,323832.1875,316121.4375,311816.5,308218.9375,306546.0625,-0.13720703125,0.814208984375,-0.5673828125,-0.3967284858226776,-0.3662109076976776,1.6479490995407104,60.0,197279.0,0.0
1011959.9473464,328577.0,319280.28125,335705.59375,323832.1875,316121.4375,311816.5,308218.9375,306546.0625,-0.13720703125,0.814208984375,-0.5673828125,-0.3967284858226776,-0.3662109076976776,1.6479490995407104,60.0,197280.0,0.0
1011959.9473466,328577.0,319280.28125,335705.59375,323832.1875,316121.4375,311816.5,308218.9375,306546.0625,-0.13720703125,0.814208984375,-0.5673828125,-0.3967284858226776,-0.3662109076976776,1.6479490995407104,60.0,197281.0,0.0
1011959.9473469,328577.0,319280.28125,335705.59375,323832.1875,316121.4375,311816.5,308218.9375,306546.0625,-0.13720703125,0.814208984375,-0.5673828125,-0.3967284858226776,-0.3662109076976776,1.6479490995407104,60.0,197282.0,0.0
1011959.9473472,328577.0,319280.28125,335705.59375,323832.1875,316121.4375,311816.5,308218.9375,306546.0625,-0.13720703125,0.814208984375,-0.5673828125,-0.3967284858226776,-0.3662109076976776,1.6479490995407104,60.0,197283.0,0.0
1011959.9473474,328448.09375,319197.5,335525.09375,323721.9375,316036.78125,311761.0625,308194.71875,306521.03125,-0.13671875,0.820556640625,-0.5703125,0.2136230319738388,0.7324218153953552,1.8615721464157104,60.0,197284.0,1.0
1011959.9548132,334695.9375,323194.71875,343124.3125,328671.78125,319165.84375,313244.34375,308976.40625,307173.15625,-0.138427734375,0.822265625,-0.57080078125,0.0,0.7934569716453552,1.8005369901657104,60.0,197285.0,1.0
1011959.9548265,341282.1875,327171.34375,350409.9375,333414.625,322180.65625,314234.78125,309328.75,307445.75,-0.138671875,0.821533203125,-0.56787109375,-0.2441406100988388,0.7934569716453552,1.7395018339157104,60.0,197286.0,1.0
1011959.9548283,339089.5625,325613.875,347332.90625,331443.03125,320940.40625,313340.28125,308762.0,306966.4375,-0.1376953125,0.81982421875,-0.567626953125,-0.5187987685203552,0.6713866591453552,1.5869139432907104,60.0,197287.0,1.0
1011959.9548301,331031.9375,320609.6875,338016.5,325396.09375,317109.9375,311788.15625,308057.21875,306396.75,-0.136474609375,0.8193359375,-0.566162109375,-0.8239745497703552,0.7324218153953552,1.4648436307907104,60.0,197288.0,1.0
1011959.9583959,328423.5,319197.9375,335493.53125,323702.4375,316027.03125,311760.09375,308199.375,306530.40625,-0.13525390625,0.818359375,-0.570068359375,-0.9765624403953552,0.6408690810203552,1.3732908964157104,60.0,197289.0,1.0
1011959.9584093,334607.25,323156.1875,343024.28125,328602.40625,319124.09375,313239.59375,308976.84375,307176.09375,-0.135009765625,0.8203125,-0.56787109375,-1.0070799589157104,0.5493163466453552,1.4038084745407104,60.0,197290.0,1.0
1011959.9584114,341261.34375,327171.71875,350386.5,333388.90625,322169.65625,314255.09375,309335.46875,307448.0,-0.134765625,0.8173828125,-0.56884765625,-1.0375975370407104,0.5798339247703552,1.3122557401657104,60.0,197291.0,1.0
1011959.9609782,339176.03125,325668.5,347420.96875,331491.21875,320976.78125,313382.375,308776.125,306970.03125,-0.134521484375,0.81787109375,-0.5703125,-1.0681151151657104,0.6713866591453552,1.1901854276657104,60.0,197292.0,1.0
1011959.9633737,331110.34375,320642.59375,338087.40625,325436.59375,317137.03125,311806.5,308059.53125,306385.5625,-0.134033203125,0.816650390625,-0.572509765625,-1.0375975370407104,0.6713866591453552,1.0681151151657104,60.0,197293.0,1.0
1011959.9633868,328393.625,319152.15625,335438.46875,323662.3125,316001.375,311745.4375,308183.71875,306502.4375,-0.134521484375,0.817626953125,-0.57275390625,-1.0681151151657104,0.6713866591453552,1.0375975370407104,60.0,197294.0,1.0
1011959.965959,334509.4375,323065.34375,342896.4375,328520.5,319069.28125,313217.78125,308962.28125,307151.78125,-0.1337890625,0.8173828125,-0.57373046875,-0.9460448622703552,0.8239745497703552,1.0375975370407104,60.0,197295.0,1.0
1011959.968476,341220.3125,327121.625,350333.75,333356.25,322142.46875,314237.90625,309329.21875,307438.6875,-0.133544921875,0.81884765625,-0.5732421875,-0.7629393935203552,0.9155272841453552,0.9765624403953552,60.0,197296.0,1.0
1011959.9709501,339238.53125,325683.09375,347489.0,331530.65625,320997.0,313375.3125,308772.03125,306965.09375,-0.13525390625,0.8173828125,-0.572998046875,-0.8850097060203552,1.0375975370407104,0.8239745497703552,60.0,197297.0,1.0
1011959.9732997,331186.25,320671.90625,338166.53125,325485.9375,317168.75,311807.21875,308060.875,306390.3125,-0.138427734375,0.81787109375,-0.57275390625,-0.7934569716453552,1.1596678495407104,0.6713866591453552,60.0,197298.0,1.0
1011959.9760329,328369.59375,319134.65625,335397.6875,323638.15625,315987.78125,311732.03125,308182.65625,306511.8125,-0.1357421875,0.82177734375,-0.5732421875,-0.7629393935203552,1.3122557401657104,0.4272460639476776,60.0,197299.0,1.0
1011959.9784917,334420.75,323022.59375,342788.4375,328448.625,319028.15625,313196.9375,308959.15625,307157.0625,-0.135986328125,0.819091796875,-0.570068359375,-0.8239745497703552,1.3427733182907104,0.3356933295726776,60.0,197300.0,1.0
1011959.9820948,341188.40625,327121.71875,350299.78125,333330.6875,322132.71875,314242.65625,309333.75,307440.03125,-0.136962890625,0.817138671875,-0.570556640625,-0.8544921278953552,1.4343260526657104,0.2441406100988388,60.0,197301.0,1.0
1011959.9871296,339315.5,325755.5,347578.3125,331583.21875,321038.3125,313399.09375,308785.0625,306970.65625,-0.13671875,0.8173828125,-0.5732421875,-1.0070799589157104,1.5563963651657104,0.1220703050494194,60.0,197302.0,1.0
1011959.9871468,331253.5,320730.28125,338234.5625,325521.34375,317193.96875,311810.4375,308060.96875,306381.0,-0.138427734375,0.817138671875,-0.5693359375,-1.1596678495407104,1.6784666776657104,-0.0915527269244194,60.0,197303.0,1.0
1011959.9871495,328348.84375,319130.90625,335358.78125,323601.59375,315964.1875,311707.875,308169.78125,306489.1875,-0.13818359375,0.8154296875,-0.566162109375,-1.2512205839157104,1.7700194120407104,-0.1525878757238388,60.0,197304.0,1.0
1011959.987152,334335.53125,322976.90625,342682.3125,328365.03125,318974.53125,313158.59375,308939.21875,307130.6875,-0.138671875,0.81396484375,-0.5673828125,-1.3122557401657104,1.7700194120407104,-0.4272460639476776,60.0,197305.0,1.0
1011959.9871546,341151.28125,327112.34375,350266.4375,333295.0,322109.3125,314219.84375,309326.6875,307432.96875,-0.141845703125,0.814453125,-0.56884765625,-1.4953612089157104,1.8615721464157104,-0.6103515028953552,60.0,197306.0,1.0
1011959.9934483,339382.75,325813.625,347671.125,331635.1875,321068.34375,313405.34375,308795.53125,306978.875,-0.14111328125,0.8173828125,-0.570068359375,-1.4648436307907104,1.9531248807907104,-0.8544921278953552,60.0,197307.0,1.0
1011959.993466,331340.5,320807.1875,338346.0625,325599.9375,317246.5625,311839.5625,308082.34375,306401.84375,-0.140625,0.81591796875,-0.56982421875,-1.5869139432907104,1.9836424589157104,-1.0681151151657104,60.0,197308.0,1.0
1011959.9934691,328334.53125,319146.34375,335354.25,323605.8125,315970.90625,311728.09375,308184.71875,306505.09375,-0.14111328125,0.81689453125,-0.568359375,-1.7089842557907104,1.9531248807907104,-1.2512205839157104,60.0,197309.0,1.0
1011959.9934719,334260.15625,322955.71875,342611.5,328331.75,318958.6875,313181.5625,308957.71875,307150.8125,-0.14013671875,0.816162109375,-0.56689453125,-1.6784666776657104,1.9226073026657104,-1.3732908964157104,60.0,197310.0,1.0
1011959.9934748,341133.5,327117.34375,350259.375,333305.65625,322121.03125,314254.53125,309349.6875,307454.15625,-0.141357421875,0.818603515625,-0.5673828125,-1.7395018339157104,1.9531248807907104,-1.4343260526657104,60.0,197311.0,1.0
1011959.9959965,339467.9375,325869.21875,347772.40625,331713.21875,321119.125,313447.28125,308814.40625,306993.90625,-0.140625,0.8193359375,-0.568603515625,-1.7700194120407104,1.9226073026657104,-1.4038084745407104,60.0,197312.0,1.0
1011959.9960144,339467.9375,325869.21875,347772.40625,331713.21875,321119.125,313447.28125,308814.40625,306993.90625,-0.140625,0.8193359375,-0.568603515625,-1.7700194120407104,1.9226073026657104,-1.4038084745407104,60.0,197313.0,0.0
1011959.996015,339467.9375,325869.21875,347772.40625,331713.21875,321119.125,313447.28125,308814.40625,306993.90625,-0.140625,0.8193359375,-0.568603515625,-1.7700194120407104,1.9226073026657104,-1.4038084745407104,60.0,197314.0,0.0
1011959.9960155,339467.9375,325869.21875,347772.40625,331713.21875,321119.125,313447.28125,308814.40625,306993.90625,-0.140625,0.8193359375,-0.568603515625,-1.7700194120407104,1.9226073026657104,-1.4038084745407104,60.0,197315.0,0.0
1011959.996016,339467.9375,325869.21875,347772.40625,331713.21875,321119.125,313447.28125,308814.40625,306993.90625,-0.140625,0.8193359375,-0.568603515625,-1.7700194120407104,1.9226073026657104,-1.4038084745407104,60.0,197316.0,0.0
1011959.9960165,339467.9375,325869.21875,347772.40625,331713.21875,321119.125,313447.28125,308814.40625,306993.90625,-0.140625,0.8193359375,-0.568603515625,-1.7700194120407104,1.9226073026657104,-1.4038084745407104,60.0,197317.0,0.0
1011959.9960169,339467.9375,325869.21875,347772.40625,331713.21875,321119.125,313447.28125,308814.40625,306993.90625,-0.140625,0.8193359375,-0.568603515625,-1.7700194120407104,1.9226073026657104,-1.4038084745407104,60.0,197318.0,0.0
1011959.9960174,339467.9375,325869.21875,347772.40625,331713.21875,321119.125,313447.28125,308814.40625,306993.90625,-0.140625,0.8193359375,-0.568603515625,-1.7700194120407104,1.9226073026657104,-1.4038084745407104,60.0,197319.0,0.0
1011959.9960178,339467.9375,325869.21875,347772.40625,331713.21875,321119.125,313447.28125,308814.40625,306993.90625,-0.140625,0.8193359375,-0.568603515625,-1.7700194120407104,1.9226073026657104,-1.4038084745407104,60.0,197320.0,0.0
1011959.9960183,339467.9375,325869.21875,347772.40625,331713.21875,321119.125,313447.28125,308814.40625,306993.90625,-0.140625,0.8193359375,-0.568603515625,-1.7700194120407104,1.9226073026657104,-1.4038084745407104,60.0,197321.0,0.0
1011959.9960187,339467.9375,325869.21875,347772.40625,331713.21875,321119.125,313447.28125,308814.40625,306993.90625,-0.140625,0.8193359375,-0.568603515625,-1.7700194120407104,1.9226073026657104,-1.4038084745407104,60.0,197322.0,0.0
1011959.9960192,339467.9375,325869.21875,347772.40625,331713.21875,321119.125,313447.28125,308814.40625,306993.90625,-0.140625,0.8193359375,-0.568603515625,-1.7700194120407104,1.9226073026657104,-1.4038084745407104,60.0,197323.0,0.0
1011959.9960197,339467.9375,325869.21875,347772.40625,331713.21875,321119.125,313447.28125,308814.40625,306993.90625,-0.140625,0.8193359375,-0.568603515625,-1.7700194120407104,1.9226073026657104,-1.4038084745407104,60.0,197324.0,0.0
1011959.9960201,339467.9375,325869.21875,347772.40625,331713.21875,321119.125,313447.28125,308814.40625,306993.90625,-0.140625,0.8193359375,-0.568603515625,-1.7700194120407104,1.9226073026657104,-1.4038084745407104,60.0,197325.0,0.0
1011959.9960206,339467.9375,325869.21875,347772.40625,331713.21875,321119.125,313447.28125,308814.40625,306993.90625,-0.140625,0.8193359375,-0.568603515625,-1.7700194120407104,1.9226073026657104,-1.4038084745407104,60.0,197326.0,0.0
1011959.996021,339467.9375,325869.21875,347772.40625,331713.21875,321119.125,313447.28125,308814.40625,306993.90625,-0.140625,0.8193359375,-0.568603515625,-1.7700194120407104,1.9226073026657104,-1.4038084745407104,60.0,197327.0,0.0
1011959.9960215,339467.9375,325869.21875,347772.40625,331713.21875,321119.125,313447.28125,308814.40625,306993.90625,-0.140625,0.8193359375,-0.568603515625,-1.7700194120407104,1.9226073026657104,-1.4038084745407104,60.0,197328.0,0.0
1011959.996022,339467.9375,325869.21875,347772.40625,331713.21875,321119.125,313447.28125,308814.40625,306993.90625,-0.140625,0.8193359375,-0.568603515625,-1.7700194120407104,1.9226073026657104,-1.4038084745407104,60.0,197329.0,0.0
1011959.9960224,339467.9375,325869.21875,347772.40625,331713.21875,321119.125,313447.28125,308814.40625,306993.90625,-0.140625,0.8193359375,-0.568603515625,-1.7700194120407104,1.9226073026657104,-1.4038084745407104,60.0,197330.0,0.0
1011959.9960229,339467.9375,325869.21875,347772.40625,331713.21875,321119.125,313447.28125,308814.40625,306993.90625,-0.140625,0.8193359375,-0.568603515625,-1.7700194120407104,1.9226073026657104,-1.4038084745407104,60.0,197331.0,0.0
1011959.9960233,339467.9375,325869.21875,347772.40625,331713.21875,321119.125,313447.28125,308814.40625,306993.90625,-0.140625,0.8193359375,-0.568603515625,-1.7700194120407104,1.9226073026657104,-1.4038084745407104,60.0,197332.0,0.0
1011959.9960238,339467.9375,325869.21875,347772.40625,331713.21875,321119.125,313447.28125,308814.40625,306993.90625,-0.140625,0.8193359375,-0.568603515625,-1.7700194120407104,1.9226073026657104,-1.4038084745407104,60.0,197333.0,0.0
1011959.9960242,339467.9375,325869.21875,347772.40625,331713.21875,321119.125,313447.28125,308814.40625,306993.90625,-0.140625,0.8193359375,-0.568603515625,-1.7700194120407104,1.9226073026657104,-1.4038084745407104,60.0,197334.0,0.0
1011959.9960247,339467.9375,325869.21875,347772.40625,331713.21875,321119.125,313447.28125,308814.40625,306993.90625,-0.140625,0.8193359375,-0.568603515625,-1.7700194120407104,1.9226073026657104,-1.4038084745407104,60.0,197335.0,0.0
1011959.9960252,339467.9375,325869.21875,347772.40625,331713.21875,321119.125,313447.28125,308814.40625,306993.90625,-0.140625,0.8193359375,-0.568603515625,-1.7700194120407104,1.9226073026657104,-1.4038084745407104,60.0,197336.0,0.0
1011959.9960256,339467.9375,325869.21875,347772.40625,331713.21875,321119.125,313447.28125,308814.40625,306993.90625,-0.140625,0.8193359375,-0.568603515625,-1.7700194120407104,1.9226073026657104,-1.4038084745407104,60.0,197337.0,0.0
1011959.9960261,339467.9375,325869.21875,347772.40625,331713.21875,321119.125,313447.28125,308814.40625,306993.90625,-0.140625,0.8193359375,-0.568603515625,-1.7700194120407104,1.9226073026657104,-1.4038084745407104,60.0,197338.0,0.0
1011959.9960266,328243.25,319047.28125,335199.65625,323516.84375,315917.875,311666.75,308132.125,306460.84375,-0.14111328125,0.827880859375,-0.564697265625,-1.3427733182907104,0.7629393935203552,0.1525878757238388,60.0,197339.0,1.0
1011960.0671968,333720.84375,322602.21875,341982.0625,327917.28125,318704.15625,313057.75,308887.1875,307087.59375,-0.141845703125,0.826171875,-0.565673828125,-1.3732908964157104,0.7934569716453552,0.3356933295726776,60.0,197340.0,1.0
1011960.071894,340888.34375,326972.59375,350021.1875,333144.71875,322033.65625,314228.71875,309343.15625,307449.40625,-0.140380859375,0.826416015625,-0.56689453125,-1.3427733182907104,0.8850097060203552,0.3967284858226776,60.0,197341.0,1.0
1011960.0719084,339883.15625,326134.5,348281.9375,332042.34375,321338.875,313544.65625,308867.9375,307044.3125,-0.13916015625,0.824462890625,-0.566650390625,-1.3732908964157104,0.9155272841453552,0.6103515028953552,60.0,197342.0,1.0
1011960.1335769,331905.8125,321132.96875,338978.875,326028.09375,317518.78125,311920.9375,308111.5625,306430.625,-0.139404296875,0.82373046875,-0.565185546875,-1.3122557401657104,1.1291502714157104,0.8239745497703552,60.0,197343.0,1.0
1011960.1336181,328233.875,319052.125,335191.15625,323514.78125,315913.84375,311659.15625,308137.21875,306472.28125,-0.138671875,0.82275390625,-0.5654296875,-1.3427733182907104,1.2207030057907104,1.0070799589157104,60.0,197344.0,1.0
1011960.136077,333641.5625,322560.8125,341890.34375,327859.96875,318664.90625,313043.15625,308884.21875,307093.03125,-0.14013671875,0.823486328125,-0.5693359375,-1.2512205839157104,1.3427733182907104,1.0986326932907104,60.0,197345.0,1.0
1011960.1361193,340837.21875,326939.6875,349969.59375,333110.21875,322007.5625,314217.625,309339.21875,307445.9375,-0.140380859375,0.81982421875,-0.567626953125,-1.1901854276657104,1.6479490995407104,1.2512205839157104,60.0,197346.0,1.0
1011960.1387332,339958.78125,326184.21875,348364.84375,332096.5,321379.21875,313562.71875,308874.125,307043.59375,-0.140380859375,0.820068359375,-0.5634765625,-1.1596678495407104,1.6784666776657104,1.3427733182907104,60.0,197347.0,1.0
1011960.1387694,332008.4375,321202.375,339086.8125,326101.25,317577.1875,311943.71875,308113.34375,306423.03125,-0.1416015625,0.81982421875,-0.56494140625,-1.1901854276657104,1.8615721464157104,1.3732908964157104,60.0,197348.0,1.0
1011960.1410978,328225.625,319052.40625,335175.875,323506.03125,315921.71875,311658.53125,308125.96875,306450.9375,-0.143310546875,0.820556640625,-0.561767578125,-1.2512205839157104,2.044677495956421,1.3427733182907104,60.0,197349.0,1.0
1011960.1411332,333559.65625,322523.96875,341798.875,327802.28125,318642.28125,313037.96875,308876.625,307076.6875,-0.142822265625,0.820556640625,-0.56494140625,-1.2207030057907104,2.166747808456421,1.2817381620407104,60.0,197350.0,1.0
1011960.1448103,340800.90625,326942.46875,349938.84375,333094.46875,322011.6875,314233.09375,309343.25,307445.21875,-0.1435546875,0.8212890625,-0.56494140625,-1.3122557401657104,2.258300542831421,1.0986326932907104,60.0,197351.0,1.0
1011960.144846,340020.46875,326245.09375,348449.9375,332152.84375,321424.625,313590.15625,308882.15625,307049.875,-0.142578125,0.821533203125,-0.5634765625,-1.3732908964157104,2.197265386581421,1.0070799589157104,60.0,197352.0,1.0
1011960.1448559,332093.375,321266.375,339193.1875,326169.28125,317626.34375,311959.8125,308121.40625,306432.78125,-0.142578125,0.82177734375,-0.561279296875,-1.5258787870407104,2.197265386581421,1.0070799589157104,60.0,197353.0,1.0
1011960.1471447,328206.59375,319045.0625,335157.90625,323488.59375,315912.59375,311640.03125,308117.28125,306448.78125,-0.14306640625,0.81982421875,-0.5615234375,-1.6479490995407104,2.075195074081421,0.9765624403953552,60.0,197354.0,1.0
1011960.1496033,333457.71875,322457.53125,341686.21875,327715.46875,318584.875,312996.84375,308856.5,307066.84375,-0.141357421875,0.820068359375,-0.55810546875,-1.7700194120407104,2.044677495956421,0.8544921278953552,60.0,197355.0,1.0
1011960.1522078,340759.875,326910.28125,349894.5,333053.625,321982.625,314209.125,309333.5,307446.21875,-0.1416015625,0.8193359375,-0.559814453125,-1.8005369901657104,1.9836424589157104,0.8239745497703552,60.0,197356.0,1.0
1011960.1572933,340091.03125,326275.84375,348527.1875,332193.6875,321443.03125,313590.59375,308884.6875,307059.15625,-0.14208984375,0.819580078125,-0.56005859375,-1.8310545682907104,1.9531248807907104,0.7324218153953552,60.0,197357.0,1.0
1011960.1598156,332175.71875,321297.21875,339270.25,326211.84375,317642.90625,311961.625,308114.25,306432.40625,-0.141357421875,0.81884765625,-0.559814453125,-1.8615721464157104,1.8310545682907104,0.5798339247703552,60.0,197358.0,1.0
1011960.1622774,328212.21875,319026.03125,335137.0625,323473.375,315897.03125,311631.875,308104.875,306446.53125,-0.14208984375,0.81884765625,-0.5595703125,-1.8310545682907104,1.8615721464157104,0.3967284858226776,60.0,197359.0,1.0
1011960.1722833,333388.90625,322400.59375,341590.90625,327658.4375,318547.40625,312983.71875,308847.75,307063.4375,-0.1416015625,0.8173828125,-0.56201171875,-1.7089842557907104,1.7395018339157104,0.3662109076976776,60.0,197360.0,1.0
1011960.1723232,340705.0625,326868.09375,349839.34375,333019.1875,321958.21875,314200.28125,309331.96875,307437.1875,-0.14111328125,0.81689453125,-0.5625,-1.4648436307907104,1.7395018339157104,0.2441406100988388,60.0,197361.0,1.0
1011960.1723324,340141.96875,326300.78125,348600.3125,332238.84375,321467.90625,313597.3125,308892.09375,307055.6875,-0.14306640625,0.819091796875,-0.560302734375,-1.5563963651657104,1.7395018339157104,0.2746581733226776,60.0,197362.0,1.0
1011960.1723403,332248.5,321330.46875,339362.25,326275.03125,317677.3125,311962.59375,308120.25,306429.90625,-0.14208984375,0.820068359375,-0.560546875,-1.4038084745407104,1.8005369901657104,0.1525878757238388,60.0,197363.0,1.0
1011960.1723484,328198.1875,319001.25,335119.28125,323466.40625,315884.625,311615.53125,308102.09375,306434.28125,-0.141357421875,0.81982421875,-0.5625,-1.3427733182907104,1.8005369901657104,0.0915527269244194,60.0,197364.0,1.0
1011960.1723563,333302.34375,322330.40625,341490.6875,327597.65625,318503.25,312970.125,308843.71875,307055.21875,-0.14111328125,0.820556640625,-0.561767578125,-1.3122557401657104,1.8310545682907104,-0.0915527269244194,60.0,197365.0,1.0
1011960.1723642,340650.34375,326812.28125,349785.25,332984.9375,321929.25,314193.375,309329.21875,307435.5625,-0.142578125,0.81982421875,-0.56298828125,-1.3732908964157104,1.9226073026657104,-0.0915527269244194,60.0,197366.0,1.0
1011960.1723721,340192.3125,326306.34375,348661.9375,332277.46875,321486.3125,313605.09375,308894.3125,307061.84375,-0.1435546875,0.821044921875,-0.5625,-1.4038084745407104,2.014159917831421,-0.0610351525247097,60.0,197367.0,1.0
1011960.1723805,332326.5625,321348.28125,339446.21875,326323.25,317701.53125,311965.1875,308111.75,306425.34375,-0.142822265625,0.8212890625,-0.560546875,-1.4343260526657104,2.014159917831421,-0.1831054538488388,60.0,197368.0,1.0
1011960.1723884,328183.4375,318966.21875,335096.28125,323445.40625,315871.65625,311601.5625,308092.78125,306425.71875,-0.142822265625,0.8212890625,-0.559814453125,-1.4648436307907104,1.9531248807907104,-0.2746581733226776,60.0,197369.0,1.0
1011960.1723964,333206.40625,322265.40625,341385.53125,327517.53125,318459.34375,312948.125,308838.90625,307042.71875,-0.14306640625,0.819091796875,-0.560546875,-1.4648436307907104,2.014159917831421,-0.1831054538488388,60.0,197370.0,1.0
1011960.1759511,340599.65625,326799.40625,349744.1875,332947.3125,321916.625,314199.65625,309338.5,307440.9375,-0.143798828125,0.8193359375,-0.561767578125,-1.4648436307907104,1.9836424589157104,-0.2441406100988388,60.0,197371.0,1.0
1011960.185082,340258.75,326377.3125,348756.25,332330.75,321534.5,313649.875,308917.125,307080.34375,-0.142333984375,0.821044921875,-0.56103515625,-1.4343260526657104,1.9531248807907104,-0.1831054538488388,60.0,197372.0,1.0
1011960.1851195,332430.0,321450.65625,339578.53125,326408.875,317778.25,312030.0,308149.9375,306455.5,-0.142822265625,0.821044921875,-0.561279296875,-1.4038084745407104,1.8005369901657104,-0.1525878757238388,60.0,197373.0,1.0
1011960.1851283,328183.78125,319000.96875,335107.5625,323449.78125,315892.84375,311642.59375,308113.28125,306445.375,-0.141845703125,0.817626953125,-0.560791015625,-1.3122557401657104,1.7700194120407104,-0.2441406100988388,60.0,197374.0,1.0
1011960.1851363,333120.21875,322237.4375,341298.71875,327457.90625,318432.53125,312965.125,308844.4375,307054.40625,-0.143798828125,0.8193359375,-0.56103515625,-1.2512205839157104,1.7700194120407104,-0.2136230319738388,60.0,197375.0,1.0
1011960.1924544,340549.21875,326791.5625,349698.6875,332919.6875,321909.65625,314220.65625,309347.4375,307452.0,-0.141845703125,0.81982421875,-0.56201171875,-1.0986326932907104,1.7700194120407104,-0.0915527269244194,60.0,197376.0,1.0
1011960.1924951,340549.21875,326791.5625,349698.6875,332919.6875,321909.65625,314220.65625,309347.4375,307452.0,-0.141845703125,0.81982421875,-0.56201171875,-1.0986326932907104,1.7700194120407104,-0.0915527269244194,60.0,197377.0,0.0
