Time,FZ,C3,CZ,C4,PZ,PO7,OZ,PO8,AccX,AccY,AccZ,Gyro1,Gyro2,Gyro3,Battery,Counter,Validation
473303.1324663,264138.96875,263317.34375,282818.875,272070.90625,277333.40625,256312.03125,242700.703125,236625.5,0.08349609375,1.021240234375,-0.368408203125,-60.943599700927734,-20.324705123901367,-17.242429733276367,80.0,954315.0,1.0
473303.1348544,263627.9375,263526.46875,283919.1875,273881.21875,278965.875,256407.6875,244153.296875,237164.0,0.08642578125,1.013671875,-0.365966796875,-62.255855560302734,-19.897459030151367,-16.632078170776367,80.0,954316.0,1.0
473303.1348681,263884.96875,263731.28125,285011.9375,275698.59375,280639.84375,256436.296875,245299.5,237519.125,0.086669921875,1.00439453125,-0.367431640625,-63.201900482177734,-19.409177780151367,-16.082761764526367,80.0,954317.0,1.0
473303.1414556,264646.71875,263681.5,284622.5625,275018.8125,280064.96875,256367.640625,244584.78125,237201.28125,0.082763671875,0.997802734375,-0.371826171875,-64.11742401123047,-18.737791061401367,-15.502928733825684,80.0,954318.0,1.0
473303.1438703,264809.4375,263434.90625,283320.90625,272863.75,278125.0,256290.125,243096.78125,236670.734375,0.07763671875,0.9912109375,-0.374267578125,-64.91088104248047,-18.096921920776367,-14.862059593200684,80.0,954319.0,1.0
473303.1463098,264190.46875,263343.96875,282888.15625,272181.0625,277502.8125,256312.390625,242915.90625,236651.25,0.07421875,0.985107421875,-0.371826171875,-65.42967987060547,-17.425535202026367,-14.282225608825684,80.0,954320.0,1.0
473303.1514581,263642.40625,263533.15625,283921.71875,273941.90625,279077.1875,256400.984375,244350.265625,237183.9375,0.06884765625,0.978759765625,-0.368408203125,-65.79589080810547,-16.815183639526367,-13.488768577575684,80.0,954321.0,1.0
473303.151476,263918.6875,263747.5625,285009.15625,275757.25,280733.09375,256419.140625,245499.859375,237567.5,0.060546875,0.96875,-0.362548828125,-65.67382049560547,-16.571043014526367,-12.390135765075684,80.0,954322.0,1.0
473303.1539359,264751.0625,263704.8125,284664.0625,275105.65625,280175.03125,256315.0625,244772.53125,237250.015625,0.059814453125,0.9609375,-0.357421875,-65.24657440185547,-16.540525436401367,-11.169432640075684,80.0,954323.0,1.0
473303.1562914,264950.15625,263453.84375,283383.9375,272952.1875,278238.71875,256216.71875,243258.78125,236701.671875,0.05029296875,0.955078125,-0.349365234375,-65.00243377685547,-16.143796920776367,-9.918211936950684,80.0,954324.0,1.0
473303.1589133,264311.53125,263352.375,282923.3125,272235.6875,277583.90625,256245.234375,243056.546875,236676.015625,0.04345703125,0.93701171875,-0.34765625,-65.70433807373047,-15.808104515075684,-8.789061546325684,80.0,954325.0,1.0
473303.16142,263703.03125,263522.6875,283902.03125,273953.375,279117.5,256342.78125,244479.90625,237202.09375,0.032958984375,0.918701171875,-0.341064453125,-65.55175018310547,-15.624999046325684,-7.629394054412842,80.0,954326.0,1.0
473303.1639306,263902.78125,263717.4375,284961.15625,275750.1875,280757.9375,256379.96875,245619.671875,237557.390625,0.027099609375,0.894775390625,-0.345947265625,-65.18553924560547,-15.472411155700684,-6.683349132537842,80.0,954327.0,1.0
473303.1664754,264712.4375,263686.5,284651.625,275114.5,280217.125,256315.25,244871.953125,237237.21875,0.021728515625,0.880615234375,-0.353759765625,-64.20897674560547,-15.380858421325684,-6.256103038787842,80.0,954328.0,1.0
473303.1689691,264931.5,263454.84375,283407.4375,272964.78125,278287.8125,256251.5,243318.6875,236695.59375,0.02392578125,0.871337890625,-0.36328125,-62.561031341552734,-15.533446311950684,-5.615233898162842,80.0,954329.0,1.0
473303.171289,264277.21875,263341.125,282912.03125,272212.0625,277597.78125,256282.515625,243074.15625,236659.921875,0.018310546875,0.859619140625,-0.371826171875,-61.065670013427734,-15.563963890075684,-5.279540538787842,80.0,954330.0,1.0
473303.1739647,263630.625,263493.0,283837.65625,273905.25,279089.34375,256380.328125,244486.4375,237178.484375,0.013916015625,0.849609375,-0.381103515625,-58.715816497802734,-15.472411155700684,-4.882812023162842,80.0,954331.0,1.0
473303.1763825,263836.53125,263698.46875,284901.34375,275734.34375,280735.5,256420.03125,245654.53125,237551.046875,0.015869140625,0.840087890625,-0.377197265625,-55.755611419677734,-15.563963890075684,-4.516601085662842,80.0,954332.0,1.0
473303.1813496,264687.40625,263696.25,284646.15625,275151.25,280235.09375,256358.703125,244924.703125,237255.90625,0.026123046875,0.82958984375,-0.382568359375,-53.070064544677734,-15.624999046325684,-4.302978038787842,80.0,954333.0,1.0
473303.1864797,264937.03125,263479.78125,283431.40625,273017.375,278318.5625,256295.75,243344.265625,236719.5625,0.036376953125,0.8203125,-0.38427734375,-49.957271575927734,-15.472411155700684,-3.753661870956421,80.0,954334.0,1.0
473303.1865216,264270.84375,263355.25,282909.53125,272238.1875,277589.0,256324.0,243068.890625,236674.859375,0.04345703125,0.814453125,-0.3818359375,-46.508785247802734,-15.167235374450684,-3.265380620956421,80.0,954335.0,1.0
473303.1914141,263584.65625,263481.9375,283780.71875,273891.59375,279021.21875,256404.390625,244460.421875,237183.84375,0.0498046875,0.81640625,-0.381591796875,-42.846675872802734,-14.770506858825684,-2.655029058456421,80.0,954336.0,1.0
473303.1914544,263762.125,263663.34375,284815.40625,275703.0625,280628.5,256419.765625,245608.046875,237545.671875,0.05517578125,0.821044921875,-0.375732421875,-39.154048919677734,-14.251708030700684,-1.8615721464157104,80.0,954337.0,1.0
473303.1938657,264642.78125,263667.28125,284585.5625,275133.4375,280134.96875,256355.296875,244860.875,237259.125,0.06103515625,0.824462890625,-0.373291015625,-36.285396575927734,-13.519286155700684,-1.1291502714157104,80.0,954338.0,1.0
473303.2015023,264954.0,263472.375,283407.625,273019.25,278231.75,256301.75,243263.796875,236736.015625,0.06396484375,0.8271484375,-0.364501953125,-33.416744232177734,-12.481688499450684,-0.2136230319738388,80.0,954339.0,1.0
473303.2015419,264301.0,263340.125,282864.375,272211.28125,277474.21875,256317.390625,242956.234375,236670.734375,0.064697265625,0.834228515625,-0.351806640625,-30.578611373901367,-11.779784202575684,0.8239745497703552,80.0,954340.0,1.0
473303.2038479,263607.8125,263467.53125,283712.0625,273828.71875,278881.375,256403.9375,244336.671875,237168.46875,0.064208984375,0.83837890625,-0.341552734375,-28.564451217651367,-10.925292015075684,1.7700194120407104,80.0,954341.0,1.0
473303.2064046,263781.1875,263656.1875,284747.90625,275624.1875,280479.625,256414.75,245477.234375,237528.15625,0.0615234375,0.8330078125,-0.333740234375,-26.245115280151367,-10.070799827575684,2.899169683456421,80.0,954342.0,1.0
473303.2064456,264656.65625,263656.375,284530.65625,275048.15625,279981.0,256336.875,244707.453125,237223.8125,0.0595703125,0.83056640625,-0.331787109375,-23.834226608276367,-9.460448265075684,3.692626714706421,80.0,954343.0,1.0
473303.2090048,264952.59375,263450.71875,283346.90625,272899.6875,278055.1875,256262.859375,243079.171875,236681.65625,0.0595703125,0.8271484375,-0.335205078125,-21.667478561401367,-8.514403343200684,4.455565929412842,80.0,954344.0,1.0
473303.2113298,264282.9375,263312.875,282786.5,272061.0625,277263.9375,256275.71875,242757.484375,236612.625,0.056396484375,0.827392578125,-0.332275390625,-19.439695358276367,-7.843017101287842,5.279540538787842,80.0,954345.0,1.0
473303.2165219,263584.375,263441.25,283626.9375,273696.5,278664.40625,256368.4375,244165.640625,237115.625,0.047119140625,0.831787109375,-0.333740234375,-17.120359420776367,-7.171630382537842,5.950927257537842,80.0,954346.0,1.0
473303.2165634,263750.875,263632.40625,284673.875,275537.03125,280285.25,256396.515625,245354.484375,237487.125,0.04150390625,0.836669921875,-0.334228515625,-14.862059593200684,-6.561278820037842,6.378173351287842,80.0,954347.0,1.0
473303.218891,264636.53125,263651.625,284480.3125,274991.5625,279812.375,256334.375,244626.265625,237205.578125,0.041015625,0.844970703125,-0.329833984375,-12.451170921325684,-5.981444835662842,6.835937023162842,80.0,954348.0,1.0
473303.2213681,264937.75,263452.0625,283294.59375,272831.125,277876.0,256267.765625,242997.984375,236663.234375,0.037353515625,0.849853515625,-0.32421875,-10.162352561950684,-5.462646007537842,7.263183116912842,80.0,954349.0,1.0
473303.2240114,264277.28125,263319.46875,282726.875,271980.40625,277071.4375,256279.84375,242648.84375,236594.828125,0.0322265625,0.857177734375,-0.31884765625,-8.178709983825684,-5.035399913787842,7.385253429412842,80.0,954350.0,1.0
473303.2264669,263581.71875,263446.6875,283558.625,273616.3125,278461.4375,256366.75,244010.703125,237095.328125,0.0263671875,0.865478515625,-0.30908203125,-6.103515148162842,-4.669188976287842,7.629394054412842,80.0,954351.0,1.0
473303.2627011,263749.53125,263646.09375,284614.4375,275479.09375,280094.28125,256400.890625,245180.140625,237470.578125,0.021240234375,0.87255859375,-0.302978515625,-4.486083507537842,-4.455565929412842,7.598876476287842,80.0,954352.0,1.0
473303.2627155,264624.46875,263656.28125,284421.59375,274934.53125,279630.09375,256325.703125,244438.875,237177.953125,0.02001953125,0.881103515625,-0.2978515625,-3.051757574081421,-4.241942882537842,7.598876476287842,80.0,954353.0,1.0
473303.2652624,264919.0625,263438.03125,283223.09375,272753.0625,277680.84375,256251.046875,242801.296875,236626.75,0.021240234375,0.89013671875,-0.293212890625,-1.8920897245407104,-4.089354991912842,7.568358898162842,80.0,954354.0,1.0
473303.2652763,264274.0,263305.34375,282650.875,271897.90625,276872.40625,256284.3125,242461.71875,236566.21875,0.02490234375,0.896728515625,-0.291748046875,-0.9155272841453552,-3.845214605331421,7.415771007537842,80.0,954355.0,1.0
473303.267665,263603.625,263444.03125,283498.71875,273553.96875,278282.4375,256382.921875,243853.34375,237084.515625,0.024169921875,0.9013671875,-0.286376953125,-0.0915527269244194,-3.570556402206421,7.293700695037842,80.0,954356.0,1.0
473303.285188,263771.875,263638.75,284565.34375,275436.53125,279933.625,256403.9375,245044.515625,237464.3125,0.027099609375,0.907958984375,-0.2841796875,0.5187987685203552,-3.509521245956421,7.263183116912842,80.0,954357.0,1.0
473303.2876931,264650.75,263657.25,284393.78125,274917.625,279495.0625,256333.125,244327.203125,237188.59375,0.02734375,0.914306640625,-0.28515625,1.1596678495407104,-3.143310308456421,7.049560070037842,80.0,954358.0,1.0
473303.2915244,264943.375,263432.75,283193.40625,272732.25,277543.5,256240.953125,242678.625,236623.265625,0.02880859375,0.921142578125,-0.28515625,1.7700194120407104,-3.021239995956421,7.049560070037842,80.0,954359.0,1.0
473303.2915431,264300.53125,263297.65625,282620.3125,271871.625,276734.375,256259.90625,242336.90625,236559.078125,0.030029296875,0.924560546875,-0.2861328125,2.288818120956421,-2.899169683456421,6.713866710662842,80.0,954360.0,1.0
473303.2915466,263604.40625,263420.3125,283447.03125,273507.125,278128.65625,256339.203125,243719.234375,237062.53125,0.031494140625,0.925537109375,-0.2900390625,2.777099370956421,-2.593993902206421,6.408690929412842,80.0,954361.0,1.0
473303.293958,263753.375,263610.75,284509.28125,275388.875,279779.9375,256359.40625,244915.046875,237431.328125,0.034912109375,0.9296875,-0.28857421875,3.234863042831421,-2.441406011581421,6.103515148162842,80.0,954362.0,1.0
473303.2964248,264615.0625,263621.21875,284338.25,274880.6875,279351.125,256294.953125,244208.015625,237153.546875,0.0400390625,0.927978515625,-0.287841796875,3.631591558456421,-2.166747808456421,5.859374523162842,80.0,954363.0,1.0
473303.2989309,264929.34375,263424.25,283165.15625,272723.75,277436.21875,256238.4375,242589.21875,236619.15625,0.04833984375,0.93310546875,-0.285888671875,3.997802495956421,-1.8005369901657104,5.493163585662842,80.0,954364.0,1.0
473303.3014881,264300.53125,263301.15625,282598.5625,271858.28125,276634.6875,256272.859375,242250.1875,236561.671875,0.050537109375,0.936767578125,-0.284423828125,4.364013195037842,-1.3732908964157104,5.310058116912842,80.0,954365.0,1.0
473303.3039033,263614.59375,263430.96875,283431.65625,273487.5625,278029.875,256362.265625,243637.953125,237081.921875,0.052001953125,0.943359375,-0.281005859375,4.394530773162842,-0.8544921278953552,5.126952648162842,80.0,954366.0,1.0
473303.303926,263768.125,263624.90625,284510.375,275388.875,279716.8125,256392.9375,244864.984375,237479.25,0.051513671875,0.94921875,-0.282958984375,4.364013195037842,-0.1831054538488388,5.035399913787842,80.0,954367.0,1.0
473303.3062776,264624.5625,263633.84375,284342.1875,274890.78125,279316.09375,256326.15625,244184.765625,237201.734375,0.048828125,0.951904296875,-0.283203125,4.272460460662842,0.3662109076976776,4.791259288787842,80.0,954368.0,1.0
473303.3089578,264941.78125,263437.125,283164.25,272723.84375,277408.59375,256264.375,242577.59375,236656.609375,0.041748046875,0.9482421875,-0.28466796875,4.119872570037842,0.6408690810203552,4.577636241912842,80.0,954369.0,1.0
473303.3112872,264318.875,263309.5625,282586.6875,271836.65625,276596.5,256282.796875,242227.828125,236578.921875,0.03857421875,0.948974609375,-0.2890625,4.028319835662842,0.9765624403953552,4.241942882537842,80.0,954370.0,1.0
473303.3139524,263635.96875,263435.71875,283414.5,273453.59375,277987.6875,256363.4375,243602.640625,237078.609375,0.033447265625,0.951416015625,-0.29345703125,4.211425304412842,1.4038084745407104,3.906249761581421,80.0,954371.0,1.0
473303.3164788,263789.125,263632.65625,284500.0,275366.875,279685.25,256393.125,244834.3125,237485.234375,0.031494140625,0.95361328125,-0.2998046875,4.425048351287842,1.5869139432907104,3.509521245956421,80.0,954372.0,1.0
473303.3190391,264637.78125,263642.3125,284337.1875,274878.71875,279294.53125,256323.921875,244162.25,237219.609375,0.031005859375,0.95556640625,-0.30810546875,4.516601085662842,1.8615721464157104,3.051757574081421,80.0,954373.0,1.0
473303.319079,264936.59375,263424.34375,283141.90625,272693.71875,277369.78125,256240.671875,242544.78125,236671.90625,0.031494140625,0.95751953125,-0.310546875,4.791259288787842,2.014159917831421,2.685546636581421,80.0,954374.0,1.0
473303.3239884,264312.875,263290.875,282554.0625,271789.28125,276539.8125,256260.078125,242189.203125,236605.125,0.03125,0.9560546875,-0.319091796875,5.096435070037842,2.014159917831421,2.258300542831421,80.0,954375.0,1.0
473303.3265254,263634.1875,263419.6875,283377.5625,273396.1875,277924.46875,256345.546875,243556.234375,237112.5,0.031982421875,0.953125,-0.32421875,5.523681163787842,2.166747808456421,1.8615721464157104,80.0,954376.0,1.0
473303.326568,263786.0,263630.25,284479.875,275330.15625,279645.375,256389.09375,244807.046875,237522.703125,0.03173828125,0.949951171875,-0.326904296875,5.889892101287842,2.349853277206421,1.4648436307907104,80.0,954377.0,1.0
473303.3576682,264615.15625,263635.96875,284320.90625,274852.34375,279269.0625,256333.65625,244151.78125,237252.6875,0.032958984375,0.948974609375,-0.330810546875,6.225585460662842,2.532958745956421,1.3122557401657104,80.0,954378.0,1.0
473303.361472,264910.28125,263421.9375,283125.625,272666.96875,277344.21875,256262.859375,242545.046875,236709.90625,0.032958984375,0.947998046875,-0.335693359375,6.774901866912842,2.716064214706421,0.9765624403953552,80.0,954379.0,1.0
473303.3615135,264300.71875,263300.53125,282543.84375,271759.75,276516.5625,256294.40625,242198.953125,236651.25,0.030029296875,0.945556640625,-0.341552734375,7.324218273162842,2.990722417831421,0.7934569716453552,80.0,954380.0,1.0
473303.3615238,263644.5625,263443.3125,283393.65625,273397.0625,277924.8125,256390.609375,243589.59375,237171.78125,0.028564453125,0.939697265625,-0.349609375,7.934569835662842,3.295898199081421,0.4882812201976776,80.0,954381.0,1.0
473303.3729652,263774.5625,263633.75,284487.5625,275334.4375,279643.03125,256415.109375,244836.015625,237556.859375,0.02490234375,0.93212890625,-0.357666015625,8.728026390075684,3.479003667831421,0.2441406100988388,80.0,954382.0,1.0
473303.3730046,264582.71875,263624.90625,284318.9375,274858.34375,279262.34375,256335.453125,244174.484375,237273.25,0.019775390625,0.92138671875,-0.361572265625,9.674071311950684,3.540038824081421,0.0,80.0,954383.0,1.0
473303.3730134,264872.75,263403.25,283108.71875,272650.25,277319.625,256248.28125,242542.015625,236713.203125,0.015625,0.912109375,-0.36865234375,10.803221702575684,3.692626714706421,-0.3662109076976776,80.0,954384.0,1.0
473303.3730224,264264.78125,263273.78125,282506.46875,271705.84375,276454.25,256273.40625,242152.640625,236634.078125,0.0107421875,0.904541015625,-0.37060546875,12.084959983825684,3.662109136581421,-0.7019042372703552,80.0,954385.0,1.0
473303.3750934,263620.25,263420.15625,283356.125,273325.28125,277843.90625,256372.640625,243523.515625,237148.984375,0.01123046875,0.90087890625,-0.373291015625,13.702391624450684,3.723144292831421,-1.0681151151657104,80.0,954386.0,1.0
473303.3852414,263766.59375,263629.375,284474.15625,275289.1875,279579.03125,256410.546875,244781.46875,237558.375,0.011962890625,0.900146484375,-0.375732421875,15.136717796325684,3.845214605331421,-1.3427733182907104,80.0,954387.0,1.0
473303.3876915,264566.15625,263635.1875,284313.9375,274831.96875,279218.28125,256364.5,244129.609375,237290.59375,0.011962890625,0.896240234375,-0.378662109375,16.601560592651367,3.936767339706421,-1.7089842557907104,80.0,954388.0,1.0
473303.390116,264837.96875,263406.375,283080.46875,272604.3125,277260.4375,256294.40625,242468.515625,236711.0625,0.014892578125,0.8935546875,-0.37939453125,18.157957077026367,4.180907726287842,-1.9226073026657104,80.0,954389.0,1.0
473303.3926328,264249.5,263283.34375,282476.1875,271649.78125,276389.15625,256319.625,242064.3125,236613.25,0.01513671875,0.894775390625,-0.380859375,19.592283248901367,4.394530773162842,-2.166747808456421,80.0,954390.0,1.0
473303.3952249,263627.9375,263440.4375,283342.09375,273278.15625,277781.9375,256419.3125,243437.15625,237124.65625,0.009521484375,0.89306640625,-0.385498046875,21.057126998901367,4.760741710662842,-2.380370855331421,80.0,954391.0,1.0
473303.3976571,263772.40625,263644.375,284468.96875,275255.40625,279525.125,256447.203125,244698.6875,237537.0,0.008056640625,0.893798828125,-0.389404296875,22.491453170776367,5.249022960662842,-2.624511480331421,80.0,954392.0,1.0
473303.4027208,264549.34375,263634.1875,284296.6875,274798.0,279159.71875,256376.046875,244042.53125,237278.171875,0.00048828125,0.890869140625,-0.394775390625,23.986814498901367,5.493163585662842,-2.624511480331421,80.0,954393.0,1.0
473303.4053097,264810.6875,263397.8125,283048.8125,272559.0625,277191.25,256303.984375,242376.78125,236707.75,-0.00537109375,0.889404296875,-0.4033203125,25.146482467651367,5.523681163787842,-2.624511480331421,80.0,954394.0,1.0
473303.407715,264214.25,263271.375,282438.28125,271591.3125,276303.4375,256342.78125,241960.859375,236617.71875,-0.00927734375,0.886962890625,-0.409423828125,26.794431686401367,5.401610851287842,-2.624511480331421,80.0,954395.0,1.0
473303.4102749,263603.625,263431.9375,283319.90625,273223.8125,277697.09375,256448.109375,243326.375,237133.609375,-0.01220703125,0.8876953125,-0.411376953125,28.228757858276367,4.821776866912842,-2.502441167831421,80.0,954396.0,1.0
473303.4103179,263763.84375,263649.46875,284479.25,275229.5625,279468.15625,256478.859375,244605.25,237548.1875,-0.009765625,0.889404296875,-0.4189453125,29.479978561401367,4.516601085662842,-2.471923589706421,80.0,954397.0,1.0
473303.4127675,264528.53125,263636.4375,284301.40625,274781.28125,279111.4375,256403.21875,243957.140625,237281.03125,-0.009033203125,0.8955078125,-0.423095703125,30.914304733276367,4.486083507537842,-2.258300542831421,80.0,954398.0,1.0
473303.4152491,264787.53125,263402.625,283037.65625,272536.09375,277137.78125,256334.203125,242292.75,236718.484375,-0.013427734375,0.897216796875,-0.425537109375,32.135005950927734,4.211425304412842,-2.044677495956421,80.0,954399.0,1.0
473303.4302477,264235.71875,263305.625,282447.75,271572.90625,276266.15625,256385.078125,241888.171875,236655.359375,-0.014404296875,0.9013671875,-0.424560546875,33.203121185302734,4.058837413787842,-1.9531248807907104,80.0,954400.0,1.0
473303.4326767,263646.71875,263470.03125,283341.625,273197.78125,277662.875,256477.609375,243242.515625,237158.8125,-0.017578125,0.904541015625,-0.4228515625,34.576412200927734,3.967284917831421,-1.7700194120407104,80.0,954401.0,1.0
473303.4327183,263777.15625,263652.4375,284483.90625,275190.5625,279421.5,256489.3125,244501.359375,237546.125,-0.021240234375,0.901611328125,-0.423095703125,35.766597747802734,3.784179449081421,-1.7089842557907104,80.0,954402.0,1.0
473303.4351244,264492.0625,263610.5,284273.875,274730.75,279051.53125,256408.3125,243849.40625,237252.25,-0.022216796875,0.902099609375,-0.423583984375,37.200923919677734,3.417968511581421,-1.7700194120407104,80.0,954403.0,1.0
473303.4377178,264704.03125,263357.5625,282970.78125,272457.40625,277050.25,256331.96875,242173.734375,236656.53125,-0.021728515625,0.906005859375,-0.42822265625,38.543697357177734,3.326415777206421,-1.8005369901657104,80.0,954404.0,1.0
473303.4415072,264130.84375,263246.6875,282360.46875,271466.875,276151.4375,256377.296875,241747.0,236559.78125,-0.021240234375,0.9091796875,-0.4365234375,39.642330169677734,3.021239995956421,-1.6479490995407104,80.0,954405.0,1.0
473303.4734955,263565.4375,263434.71875,283291.3125,273113.75,277566.9375,256490.390625,243111.171875,237067.625,-0.023681640625,0.9130859375,-0.438232421875,40.954586029052734,2.899169683456421,-1.5563963651657104,80.0,954406.0,1.0
473303.4735371,263723.6875,263652.25,284479.78125,275154.09375,279373.03125,256522.40625,244402.203125,237480.953125,-0.025634765625,0.9189453125,-0.446044921875,41.503902435302734,2.319335699081421,-0.8850097060203552,80.0,954407.0,1.0
473303.4824104,264447.4375,263617.65625,284276.46875,274718.0625,279032.125,256442.109375,243781.1875,237218.71875,-0.029296875,0.927978515625,-0.45263671875,41.442867279052734,1.4038084745407104,0.3356933295726776,80.0,954408.0,1.0
473303.4824496,264687.65625,263369.53125,282964.78125,272444.0,277029.59375,256353.875,242125.1875,236655.546875,-0.03076171875,0.92919921875,-0.45849609375,41.015621185302734,0.3051757514476776,1.6784666776657104,80.0,954409.0,1.0
473303.5027071,264136.5625,263244.8125,282331.96875,271421.34375,276083.5,256351.28125,241665.640625,236549.6875,-0.03076171875,0.92236328125,-0.45703125,40.801998138427734,-0.4272460639476776,2.624511480331421,80.0,954410.0,1.0
473303.5052181,263630.0,263440.96875,283284.9375,273076.09375,277495.3125,256445.59375,243014.875,237072.265625,-0.03515625,0.91259765625,-0.456787109375,41.046138763427734,-1.3427733182907104,3.570556402206421,80.0,954411.0,1.0
473303.5077439,263819.1875,263666.375,284497.84375,275138.09375,279317.59375,256477.875,244316.109375,237503.84375,-0.035888671875,0.908935546875,-0.461669921875,41.687007904052734,-2.075195074081421,4.180907726287842,80.0,954412.0,1.0
473303.5101859,264512.25,263616.5,284273.6875,274698.40625,278964.625,256390.078125,243698.484375,237242.234375,-0.0390625,0.912109375,-0.468505859375,42.205806732177734,-2.563476324081421,4.760741710662842,80.0,954413.0,1.0
473303.5125895,264704.03125,263344.78125,282914.0,272390.625,276929.0,256299.328125,242022.109375,236658.765625,-0.039794921875,0.916015625,-0.4775390625,42.755123138427734,-3.479003667831421,5.249022960662842,80.0,954414.0,1.0
473303.5151566,264159.375,263231.84375,282286.09375,271368.59375,275992.125,256331.34375,241568.640625,236559.34375,-0.039794921875,0.9150390625,-0.48681640625,43.243404388427734,-4.364013195037842,5.798339366912842,80.0,954415.0,1.0
473303.5176975,263657.0625,263433.1875,283256.34375,273025.78125,277406.53125,256439.96875,242912.15625,237073.15625,-0.042724609375,0.91357421875,-0.489501953125,43.762203216552734,-5.126952648162842,6.225585460662842,80.0,954416.0,1.0
473303.5201602,263837.3125,263659.03125,284484.4375,275102.0625,279235.8125,256475.640625,244216.875,237499.640625,-0.041748046875,0.909423828125,-0.49072265625,44.372554779052734,-5.950927257537842,6.683349132537842,80.0,954417.0,1.0
473303.5225886,264495.8125,263602.90625,284245.625,274663.25,278886.46875,256398.21875,243610.25,237236.421875,-0.0400390625,0.9130859375,-0.494140625,45.135494232177734,-6.835937023162842,7.171630382537842,80.0,954418.0,1.0
473303.5252479,264660.59375,263331.1875,282867.0625,272343.21875,276846.75,256315.328125,241940.125,236657.953125,-0.038330078125,0.914306640625,-0.5,45.745845794677734,-7.568358898162842,7.629394054412842,80.0,954419.0,1.0
473303.5276131,264119.5,263224.34375,282238.4375,271311.5625,275907.09375,256355.5625,241478.328125,236556.921875,-0.037109375,0.916015625,-0.50537109375,46.569820404052734,-8.331297874450684,8.270262718200684,80.0,954420.0,1.0
473303.5300821,263645.46875,263440.53125,283231.75,272984.1875,277332.21875,256480.109375,242816.75,237074.328125,-0.038330078125,0.91552734375,-0.506103515625,47.393795013427734,-8.880614280700684,8.544920921325684,80.0,954421.0,1.0
473303.5326959,263829.71875,263672.0,284477.625,275083.375,279182.40625,256535.09375,244125.859375,237510.453125,-0.038818359375,0.914794921875,-0.504638671875,48.126216888427734,-9.613036155700684,8.911131858825684,80.0,954422.0,1.0
473303.5351635,264450.9375,263605.40625,284223.375,274639.21875,278841.5,256462.671875,243527.8125,237233.65625,-0.039306640625,0.9169921875,-0.50390625,48.645015716552734,-10.131834983825684,9.033202171325684,80.0,954423.0,1.0
473303.5376523,264587.09375,263326.625,282822.96875,272294.6875,276795.34375,256380.515625,241862.0625,236640.703125,-0.038330078125,0.921630859375,-0.50341796875,48.706050872802734,-10.925292015075684,9.613036155700684,80.0,954424.0,1.0
473303.5376891,264057.0,263221.21875,282193.65625,271249.34375,275845.75,256409.03125,241394.734375,236531.171875,-0.034912109375,0.927490234375,-0.51025390625,48.309322357177734,-11.871336936950684,10.406493186950684,80.0,954425.0,1.0
473303.540262,263622.5625,263441.96875,283209.84375,272930.5625,277274.03125,256512.65625,242725.296875,237049.828125,-0.03173828125,0.933349609375,-0.511962890625,47.912593841552734,-12.695311546325684,11.138915061950684,80.0,954426.0,1.0
473303.540301,263829.8125,263676.21875,284473.4375,275046.0,279134.5,256550.109375,244039.578125,237492.03125,-0.027587890625,0.933837890625,-0.514404296875,47.302242279052734,-13.366698265075684,12.023924827575684,80.0,954427.0,1.0
473303.5427015,264451.71875,263612.28125,284215.40625,274609.0,278798.5,256466.4375,243463.078125,237228.640625,-0.021728515625,0.9306640625,-0.515869140625,46.661373138427734,-13.946532249450684,12.908934593200684,80.0,954428.0,1.0
473303.5452057,264593.09375,263334.59375,282801.625,272257.9375,276746.0,256374.34375,241812.265625,236643.5625,-0.01953125,0.926025390625,-0.51611328125,46.203609466552734,-14.526366233825684,13.549803733825684,80.0,954429.0,1.0
473303.5477853,264072.46875,263217.71875,282161.625,271194.96875,275777.09375,256390.796875,241331.171875,236524.65625,-0.01708984375,0.921630859375,-0.517822265625,45.623775482177734,-14.831542015075684,14.129637718200684,80.0,954430.0,1.0
473303.5478279,263653.0625,263434.90625,283187.125,272876.375,277194.625,256486.375,242640.625,237029.625,-0.014892578125,0.91748046875,-0.516845703125,45.288082122802734,-15.075682640075684,14.831542015075684,80.0,954431.0,1.0
473303.5501459,263856.71875,263663.78125,284457.0625,275004.0625,279053.3125,256517.03125,243946.421875,237464.765625,-0.009521484375,0.914794921875,-0.52001953125,44.769283294677734,-15.258788108825684,15.289305686950684,80.0,954432.0,1.0
473303.5526854,264450.03125,263587.15625,284189.9375,274569.1875,278723.21875,256437.203125,243384.671875,237204.40625,-0.0048828125,0.914794921875,-0.51953125,44.494625091552734,-15.411375999450684,15.838622093200684,80.0,954433.0,1.0
473303.5939065,264571.0,263301.9375,282761.90625,272211.90625,276675.8125,256359.859375,241752.90625,236609.046875,-0.000732421875,0.9140625,-0.522216796875,44.036861419677734,-15.411375999450684,16.387937545776367,80.0,954434.0,1.0
473303.5939465,264066.65625,263205.46875,282135.25,271160.1875,275721.5625,256399.015625,241288.515625,236499.4375,0.003662109375,0.9140625,-0.52392578125,43.487545013427734,-15.350340843200684,17.028806686401367,80.0,954435.0,1.0
473303.5964297,263664.3125,263430.34375,283171.84375,272852.9375,277139.65625,256511.3125,242587.875,237014.25,0.0048828125,0.912841796875,-0.522705078125,42.755123138427734,-15.319823265075684,17.578123092651367,80.0,954436.0,1.0
473303.5964716,263871.84375,263659.75,284453.59375,274999.6875,279007.90625,256548.859375,243893.578125,237451.796875,0.005126953125,0.9111328125,-0.51953125,42.083736419677734,-15.258788108825684,18.005369186401367,80.0,954437.0,1.0
473303.598946,264454.78125,263590.8125,284190.5625,274577.25,278699.1875,256465.53125,243357.9375,237195.734375,0.00732421875,0.908203125,-0.517822265625,41.290279388427734,-15.106200218200684,18.615720748901367,80.0,954438.0,1.0
473303.601304,264569.5625,263315.625,282760.40625,272216.8125,276664.90625,256383.546875,241753.4375,236610.296875,0.009521484375,0.907470703125,-0.516845703125,40.588375091552734,-14.892577171325684,19.073484420776367,80.0,954439.0,1.0
473303.6039801,264063.0625,263209.0625,282117.28125,271149.5625,275696.96875,256408.140625,241278.59375,236484.5,0.0107421875,0.907958984375,-0.519775390625,39.855953216552734,-14.709471702575684,19.500730514526367,80.0,954440.0,1.0
473303.6065131,263677.09375,263430.625,283155.21875,272842.3125,277105.40625,256512.203125,242562.9375,236984.203125,0.01220703125,0.906494140625,-0.51904296875,39.031978607177734,-14.526366233825684,19.897459030151367,80.0,954441.0,1.0
473303.6113651,263889.8125,263666.375,284446.875,275002.1875,278979.75,256550.921875,243873.375,237417.203125,0.014404296875,0.90771484375,-0.51806640625,38.116451263427734,-14.373778343200684,20.233152389526367,80.0,954442.0,1.0
473303.6140048,264453.59375,263597.8125,284181.0625,274584.65625,278682.8125,256472.328125,243353.640625,237165.25,0.01806640625,0.904296875,-0.518310546875,37.170406341552734,-14.129637718200684,20.507810592651367,80.0,954443.0,1.0
473303.6164624,264549.625,263316.0,282739.3125,272212.0625,276648.53125,256375.859375,241751.03125,236593.578125,0.020751953125,0.904052734375,-0.517822265625,36.132808685302734,-13.824461936950684,20.751951217651367,80.0,954444.0,1.0
473303.6190001,264041.96875,263204.78125,282090.75,271125.34375,275668.625,256392.671875,241258.125,236479.328125,0.023193359375,0.90185546875,-0.516357421875,35.003658294677734,-13.519286155700684,20.996091842651367,80.0,954445.0,1.0
473303.6213736,263663.96875,263425.4375,283130.28125,272814.6875,277061.59375,256496.65625,242521.171875,236987.25,0.023681640625,0.898681640625,-0.51416015625,33.843990325927734,-13.153075218200684,21.179197311401367,80.0,954446.0,1.0
473303.6238719,263885.25,263668.25,284438.3125,274998.0,278942.90625,256545.828125,243835.8125,237437.140625,0.019287109375,0.89501953125,-0.51416015625,32.745357513427734,-12.847899436950684,21.362302780151367,80.0,954447.0,1.0
473303.6239071,264442.4375,263597.71875,284183.5,274594.9375,278663.9375,256470.359375,243335.234375,237202.359375,0.015625,0.892333984375,-0.512451171875,32.104488372802734,-12.786864280700684,21.575925827026367,80.0,954448.0,1.0
473303.62649,264541.5,263319.21875,282743.0625,272216.09375,276643.625,256388.640625,241748.703125,236636.046875,0.015380859375,0.88818359375,-0.5126953125,31.616209030151367,-12.634276390075684,21.942136764526367,80.0,954449.0,1.0
473303.6290212,264045.71875,263210.21875,282091.90625,271120.78125,275658.8125,256405.1875,241253.5625,236522.859375,0.011962890625,0.88720703125,-0.51318359375,30.914304733276367,-12.512206077575684,21.881101608276367,80.0,954450.0,1.0
473303.6290621,263681.21875,263433.75,283136.09375,272815.03125,277043.71875,256504.15625,242509.546875,237042.578125,0.00732421875,0.88671875,-0.520263671875,29.907224655151367,-12.451170921325684,21.606443405151367,80.0,954451.0,1.0
473303.631378,263891.5,263669.5,284436.78125,275001.40625,278919.125,256540.1875,243817.125,237500.890625,0.00390625,0.88720703125,-0.521728515625,28.381345748901367,-12.084959983825684,20.935056686401367,80.0,954452.0,1.0
473303.6339878,264446.09375,263614.96875,284194.21875,274615.15625,278665.46875,256473.21875,243346.3125,237277.015625,-0.0009765625,0.8876953125,-0.51708984375,26.306150436401367,-11.901854515075684,20.080564498901367,80.0,954453.0,1.0
473303.6340302,264535.15625,263337.4375,282754.125,272229.875,276651.65625,256394.90625,241771.40625,236703.015625,-0.002685546875,0.885009765625,-0.514892578125,24.932859420776367,-11.901854515075684,19.470212936401367,80.0,954454.0,1.0
473303.6551851,264049.5625,263233.65625,282106.84375,271132.84375,275670.34375,256426.734375,241284.59375,236593.578125,0.002197265625,0.88037109375,-0.514404296875,23.834226608276367,-12.023924827575684,18.890378952026367,80.0,954455.0,1.0
473303.6577587,263683.71875,263448.21875,283134.3125,272815.9375,277039.5,256520.34375,242525.296875,237102.125,0.00390625,0.879638671875,-0.515625,22.827146530151367,-12.145995140075684,18.310544967651367,80.0,954456.0,1.0
473303.6578012,263895.25,263680.3125,284438.375,275012.125,278916.0625,256553.609375,243838.59375,237556.234375,0.005615234375,0.8828125,-0.52001953125,21.636960983276367,-12.084959983825684,17.700193405151367,80.0,954457.0,1.0
473303.6602203,264444.84375,263620.15625,284204.15625,274638.9375,278671.28125,256477.703125,243381.8125,237328.859375,0.005615234375,0.881591796875,-0.522216796875,20.629880905151367,-11.962889671325684,17.272947311401367,80.0,954458.0,1.0
473303.6651012,264540.40625,263345.40625,282767.09375,272259.09375,276672.21875,256394.90625,241822.1875,236754.25,0.00830078125,0.8759765625,-0.5224609375,19.592283248901367,-12.084959983825684,16.540525436401367,80.0,954459.0,1.0
473303.6668215,264039.1875,263220.25,282091.09375,271129.28125,275666.03125,256408.40625,241307.203125,236618.078125,0.009521484375,0.86962890625,-0.51953125,18.676755905151367,-12.207030296325684,15.747069358825684,80.0,954460.0,1.0
473303.6738453,263667.4375,263426.75,283105.78125,272792.59375,277014.3125,256502.8125,242530.46875,237109.375,0.0107421875,0.868408203125,-0.5185546875,18.096921920776367,-12.359618186950684,15.045165061950684,80.0,954461.0,1.0
473303.6762832,263870.5,263658.5,284409.34375,274989.5,278888.1875,256543.671875,243845.03125,237556.234375,0.01220703125,0.86962890625,-0.5166015625,17.120359420776367,-12.451170921325684,14.038084983825684,80.0,954462.0,1.0
473303.67629,264412.3125,263600.9375,284179.65625,274622.9375,278661.09375,256478.859375,243402.8125,237328.0625,0.019775390625,0.873779296875,-0.5185546875,15.991209983825684,-12.512206077575684,13.244627952575684,80.0,954463.0,1.0
473303.6787006,264502.0625,263320.375,282738.9375,272231.03125,276663.125,256382.03125,241842.046875,236742.453125,0.0234375,0.87646484375,-0.5185546875,14.923094749450684,-12.451170921325684,12.451170921325684,80.0,954464.0,1.0
473303.6812319,264021.84375,263210.65625,282069.90625,271098.875,275655.5,256389.90625,241327.859375,236606.1875,0.0283203125,0.87841796875,-0.514404296875,13.671874046325684,-12.298583030700684,11.810301780700684,80.0,954465.0,1.0
473303.6849613,263659.125,263421.84375,283082.0,272753.4375,276988.09375,256487.265625,242541.390625,237095.515625,0.033447265625,0.8759765625,-0.513916015625,12.786864280700684,-12.207030296325684,11.260985374450684,80.0,954466.0,1.0
473303.7049903,263849.3125,263640.1875,284378.03125,274944.25,278848.40625,256513.453125,243841.1875,237534.328125,0.0341796875,0.8779296875,-0.513671875,11.779784202575684,-12.084959983825684,10.498045921325684,80.0,954467.0,1.0
473303.7049995,264400.6875,263596.375,284175.71875,274608.90625,278651.4375,256447.921875,243421.59375,237322.703125,0.036865234375,0.8779296875,-0.51416015625,10.986327171325684,-12.115477561950684,9.979247093200684,80.0,954468.0,1.0
473303.710011,264501.34375,263324.3125,282751.90625,272231.65625,276676.53125,256355.296875,241877.453125,236739.859375,0.04052734375,0.877197265625,-0.5126953125,10.192870140075684,-12.115477561950684,9.399413108825684,80.0,954469.0,1.0
473303.710018,264022.03125,263205.46875,282072.78125,271082.6875,275657.71875,256367.453125,241354.59375,236600.296875,0.0439453125,0.873779296875,-0.514892578125,9.948729515075684,-12.084959983825684,9.002684593200684,80.0,954470.0,1.0
473303.7124875,263645.625,263400.46875,283060.90625,272716.59375,276962.90625,256450.875,242541.109375,237086.9375,0.047119140625,0.87255859375,-0.51953125,9.796141624450684,-12.023924827575684,8.789061546325684,80.0,954471.0,1.0
473303.714959,263840.8125,263634.90625,284371.78125,274928.15625,278836.6875,256490.84375,243854.5,237545.5,0.051513671875,0.87255859375,-0.524169921875,9.124754905700684,-11.993407249450684,8.148192405700684,80.0,954472.0,1.0
473303.717484,264387.625,263592.15625,284183.3125,274609.625,278661.09375,256429.328125,243452.4375,237336.203125,0.05078125,0.88134765625,-0.525390625,7.812499523162842,-11.383055686950684,7.202147960662842,80.0,954473.0,1.0
473303.7199413,264511.1875,263338.53125,282786.5,272258.65625,276717.5625,256362.984375,241933.953125,236769.625,0.0478515625,0.886962890625,-0.516845703125,5.615233898162842,-10.772704124450684,6.134032726287842,80.0,954474.0,1.0
473303.754981,264043.6875,263230.25,282112.09375,271109.96875,275704.65625,256396.25,241413.0625,236639.09375,0.04833984375,0.885009765625,-0.510498046875,3.601073980331421,-10.498045921325684,5.187987804412842,80.0,954475.0,1.0
473303.757461,263654.9375,263420.59375,283081.71875,272721.4375,276987.375,256488.25,242578.9375,237115.28125,0.05419921875,0.8857421875,-0.503662109375,1.8920897245407104,-10.284422874450684,4.272460460662842,80.0,954476.0,1.0
473303.7636938,263840.09375,263650.0,284382.0625,274930.125,278856.09375,256530.796875,243885.4375,237561.421875,0.057373046875,0.889892578125,-0.5048828125,0.4882812201976776,-10.162352561950684,3.662109136581421,80.0,954477.0,1.0
473303.7636991,264396.125,263617.46875,284207.90625,274636.34375,278705.15625,256470.453125,243504.75,237349.25,0.0625,0.89599609375,-0.505859375,-1.0070799589157104,-10.192870140075684,3.295898199081421,80.0,954478.0,1.0
473303.7637006,264531.9375,263364.34375,282818.5,272293.0,276776.125,256389.546875,242003.0625,236780.796875,0.065185546875,0.8994140625,-0.504638671875,-2.563476324081421,-9.765624046325684,3.051757574081421,80.0,954479.0,1.0
473303.763702,264044.5625,263227.46875,282106.375,271100.3125,275727.375,256386.234375,241454.640625,236613.34375,0.06396484375,0.899658203125,-0.50634765625,-4.058837413787842,-9.460448265075684,2.777099370956421,80.0,954480.0,1.0
473303.7637034,263654.84375,263415.78125,283060.53125,272693.34375,276991.5,256470.453125,242614.875,237074.328125,0.061767578125,0.896240234375,-0.50634765625,-5.493163585662842,-9.246825218200684,2.502441167831421,80.0,954481.0,1.0
473303.763705,263849.46875,263661.375,284379.375,274923.53125,278872.71875,256520.078125,243940.15625,237527.0,0.058837890625,0.897705078125,-0.504638671875,-6.652831554412842,-9.155272483825684,2.197265386581421,80.0,954482.0,1.0
473303.7675512,264407.65625,263634.625,284229.71875,274655.375,278743.34375,256455.53125,243578.5,237317.0625,0.05615234375,0.902099609375,-0.508544921875,-7.781981945037842,-9.063719749450684,1.8615721464157104,80.0,954483.0,1.0
473303.7675563,264536.84375,263372.75,282841.75,272309.15625,276820.125,256365.9375,242069.671875,236733.6875,0.05419921875,0.906494140625,-0.505126953125,-8.850096702575684,-9.063719749450684,1.4953612089157104,80.0,954484.0,1.0
473303.7675582,264068.71875,263255.625,282139.5625,271121.65625,275781.5625,256389.90625,241528.9375,236576.5,0.052490234375,0.911376953125,-0.5,-9.826659202575684,-9.094237327575684,1.0986326932907104,80.0,954485.0,1.0
473303.7700005,263645.625,263416.75,283056.96875,272670.09375,277005.4375,256461.0625,242657.078125,237012.015625,0.053955078125,0.91552734375,-0.4951171875,-10.894774436950684,-9.216307640075684,0.5187987685203552,80.0,954486.0,1.0
473303.7700057,263818.8125,263650.375,284366.78125,274894.1875,278879.15625,256505.234375,243982.0,237458.59375,0.054931640625,0.91650390625,-0.492919921875,-11.962889671325684,-9.307860374450684,0.1831054538488388,80.0,954487.0,1.0
473303.772453,264391.75,263633.375,284244.46875,274659.6875,278782.25,256446.9375,243642.15625,237254.65625,0.05517578125,0.919677734375,-0.490234375,-13.336180686950684,-9.368895530700684,-0.0915527269244194,80.0,954488.0,1.0
473303.7741045,264553.5625,263386.1875,282885.65625,272342.53125,276885.90625,256365.765625,242146.390625,236679.234375,0.056396484375,0.91943359375,-0.4892578125,-14.617918968200684,-9.399413108825684,-0.3051757514476776,80.0,954489.0,1.0
473303.7812175,264076.84375,263249.125,282162.53125,271130.25,275820.0,256370.3125,241579.359375,236504.171875,0.057373046875,0.920654296875,-0.48193359375,-15.960692405700684,-9.460448265075684,-0.5798339247703552,80.0,954490.0,1.0
473303.8050186,263656.625,263417.75,283069.125,272673.3125,277038.09375,256458.203125,242711.609375,236948.34375,0.05517578125,0.917236328125,-0.482177734375,-17.211912155151367,-9.460448265075684,-0.7324218153953552,80.0,954491.0,1.0
473303.8050279,263815.6875,263648.125,284372.40625,274901.78125,278911.875,256502.640625,244038.5,237396.1875,0.058349609375,0.914794921875,-0.48095703125,-18.493650436401367,-9.490965843200684,-0.8544921278953552,80.0,954492.0,1.0
473303.8075059,264397.09375,263640.71875,284273.15625,274701.0625,278842.84375,256453.5625,243714.84375,237204.59375,0.060302734375,0.91259765625,-0.483154296875,-19.592283248901367,-9.521483421325684,-1.1291502714157104,80.0,954493.0,1.0
473303.8075114,264574.40625,263397.875,282925.8125,272394.65625,276959.0625,256377.734375,242223.09375,236629.796875,0.062744140625,0.912841796875,-0.484375,-20.690916061401367,-9.552000999450684,-1.3122557401657104,80.0,954494.0,1.0
473303.8099821,264094.28125,263254.03125,282182.21875,271159.125,275874.4375,256382.03125,241636.9375,236455.546875,0.068115234375,0.91162109375,-0.480224609375,-21.545408248901367,-9.552000999450684,-1.4953612089157104,80.0,954495.0,1.0
473303.8124523,263646.09375,263407.53125,283057.21875,272671.71875,277058.125,256462.9375,242745.59375,236904.71875,0.072509765625,0.906494140625,-0.47998046875,-22.460935592651367,-9.552000999450684,-1.5563963651657104,80.0,954496.0,1.0
473303.8149373,263796.03125,263638.21875,284356.75,274903.5,278926.53125,256503.09375,244075.609375,237368.921875,0.0771484375,0.902587890625,-0.4794921875,-23.162839889526367,-9.399413108825684,-1.4953612089157104,80.0,954497.0,1.0
473303.8174612,264378.15625,263627.5625,284272.71875,274718.875,278870.21875,256443.453125,243760.53125,237182.5,0.07958984375,0.9033203125,-0.476318359375,-23.956296920776367,-9.246825218200684,-1.6174315214157104,80.0,954498.0,1.0
473303.821543,264574.5625,263390.90625,282945.21875,272424.0625,276999.90625,256370.3125,242271.828125,236611.90625,0.079345703125,0.902587890625,-0.477294921875,-24.597166061401367,-8.941649436950684,-1.5869139432907104,80.0,954499.0,1.0
473303.8637319,264101.6875,263248.9375,282194.09375,271174.78125,275903.34375,256385.78125,241678.0625,236435.25,0.08251953125,0.900390625,-0.47314453125,-25.024412155151367,-8.636473655700684,-1.4953612089157104,80.0,954500.0,1.0
473303.8662574,263646.71875,263405.5625,283048.75,272671.4375,277068.5625,256485.125,242781.984375,236892.296875,0.082763671875,0.896484375,-0.47216796875,-25.665281295776367,-8.331297874450684,-1.5258787870407104,80.0,954501.0,1.0
473303.8662633,263769.71875,263625.59375,284332.09375,274893.65625,278925.03125,256520.875,244107.34375,237353.625,0.07958984375,0.89697265625,-0.471435546875,-26.000974655151367,-8.117674827575684,-1.5563963651657104,80.0,954502.0,1.0
473303.8687113,264365.90625,263632.84375,284277.90625,274741.75,278897.40625,256460.625,243812.484375,237186.4375,0.07958984375,0.897216796875,-0.47216796875,-26.458738327026367,-7.873534679412842,-1.6479490995407104,80.0,954503.0,1.0
473303.8712326,264587.34375,263410.21875,282974.96875,272465.28125,277044.0,256378.015625,242329.484375,236632.203125,0.078369140625,0.8955078125,-0.466796875,-26.885984420776367,-7.690429210662842,-1.6174315214157104,80.0,954504.0,1.0
473303.8736944,264116.1875,263265.65625,282212.875,271198.46875,275937.9375,256378.90625,241722.859375,236463.140625,0.07666015625,0.89453125,-0.465576171875,-27.160642623901367,-7.385253429412842,-1.7089842557907104,80.0,954505.0,1.0
473303.8752855,263635.09375,263402.53125,283032.375,272659.46875,277069.1875,256461.515625,242804.59375,236906.0625,0.074462890625,0.89599609375,-0.4599609375,-27.496335983276367,-7.263183116912842,-1.7700194120407104,80.0,954506.0,1.0
473303.8824583,263750.25,263621.75,284315.375,274889.625,278926.28125,256502.1875,244138.734375,237368.203125,0.0751953125,0.8974609375,-0.458740234375,-27.709959030151367,-7.080077648162842,-1.7089842557907104,80.0,954507.0,1.0
473303.8849837,264371.4375,263647.25,284295.96875,274776.96875,278933.34375,256460.703125,243865.140625,237219.609375,0.073486328125,0.8974609375,-0.457275390625,-27.984617233276367,-6.927489757537842,-1.6479490995407104,80.0,954508.0,1.0
473303.8874417,264605.875,263417.46875,283000.8125,272499.34375,277087.34375,256374.875,242365.609375,236653.75,0.069091796875,0.8974609375,-0.45361328125,-28.228757858276367,-6.683349132537842,-1.7089842557907104,80.0,954509.0,1.0
473303.8899612,264138.96875,263268.6875,282224.59375,271206.59375,275958.59375,256378.640625,241738.328125,236470.65625,0.065673828125,0.89697265625,-0.452880859375,-28.411863327026367,-6.591796398162842,-1.6479490995407104,80.0,954510.0,1.0
473303.892458,263635.09375,263393.25,283008.59375,272633.09375,277056.0625,256449.4375,242803.796875,236900.515625,0.06689453125,0.896240234375,-0.448974609375,-28.533933639526367,-6.439208507537842,-1.7395018339157104,80.0,954511.0,1.0
473303.894984,263739.25,263610.5,284285.25,274869.34375,278908.5625,256482.34375,244144.453125,237371.328125,0.062744140625,0.894287109375,-0.44775390625,-28.656003952026367,-6.286620616912842,-1.9226073026657104,80.0,954512.0,1.0
473303.8974413,264363.125,263634.0,284283.71875,274777.96875,278929.40625,256433.171875,243874.984375,237208.875,0.06103515625,0.8935546875,-0.443115234375,-28.930662155151367,-6.225585460662842,-2.197265386581421,80.0,954513.0,1.0
473303.8999788,264628.84375,263425.875,283020.84375,272524.46875,277108.8125,256359.234375,242384.828125,236644.28125,0.0595703125,0.8935546875,-0.4384765625,-28.991697311401367,-6.134032726287842,-2.319335699081421,80.0,954514.0,1.0
473303.8999855,264158.125,263276.125,282233.15625,271211.53125,275969.5,256368.625,241743.15625,236446.234375,0.0576171875,0.892822265625,-0.437744140625,-28.961179733276367,-6.072997570037842,-2.349853277206421,80.0,954515.0,1.0
473303.9025053,263632.9375,263391.4375,282995.09375,272618.25,277045.59375,256441.3125,242803.078125,236872.265625,0.05859375,0.892578125,-0.44140625,-28.747556686401367,-5.950927257537842,-2.410888433456421,80.0,954516.0,1.0
473303.9025111,263726.46875,263612.65625,284271.375,274867.90625,278907.21875,256489.5,244162.515625,237351.75,0.060546875,0.893798828125,-0.4375,-28.533933639526367,-5.859374523162842,-2.471923589706421,80.0,954517.0,1.0
473303.907443,264359.0,263640.1875,284293.46875,274805.15625,278954.0,256442.296875,243907.875,237200.203125,0.058349609375,0.8916015625,-0.4345703125,-28.198240280151367,-5.767821788787842,-2.380370855331421,80.0,954518.0,1.0
473303.9124701,264649.125,263436.40625,283053.375,272562.1875,277146.96875,256364.59375,242411.5625,236638.828125,0.057373046875,0.890869140625,-0.43212890625,-27.954099655151367,-5.615233898162842,-2.258300542831421,80.0,954519.0,1.0
473303.9149899,264182.0625,263278.4375,282252.125,271227.625,275984.25,256360.75,241748.078125,236445.078125,0.053466796875,0.888427734375,-0.42724609375,-27.648923873901367,-5.584716320037842,-2.197265386581421,80.0,954520.0,1.0
473303.9149964,263631.96875,263377.21875,282976.9375,272596.6875,277026.09375,256417.890625,242785.203125,236862.875,0.052734375,0.8876953125,-0.426513671875,-27.282712936401367,-5.493163585662842,-2.136230230331421,80.0,954521.0,1.0
473303.9174598,263707.875,263593.6875,284246.34375,274844.3125,278883.4375,256463.21875,244148.46875,237340.578125,0.052001953125,0.88818359375,-0.42578125,-26.794431686401367,-5.432128429412842,-2.136230230331421,80.0,954522.0,1.0
473303.9200993,264352.5625,263632.125,284296.59375,274810.40625,278959.09375,256425.75,243915.03125,237195.03125,0.049072265625,0.890869140625,-0.43115234375,-26.153562545776367,-5.310058116912842,-2.075195074081421,80.0,954523.0,1.0
473303.920105,264658.25,263435.09375,283073.59375,272580.6875,277164.875,256356.453125,242416.65625,236629.703125,0.0498046875,0.889404296875,-0.429931640625,-25.573728561401367,-5.279540538787842,-2.136230230331421,80.0,954524.0,1.0
473303.9249602,264185.375,263269.5,282253.28125,271217.78125,275982.1875,256358.0625,241730.8125,236422.734375,0.05078125,0.8896484375,-0.426025390625,-24.932859420776367,-5.035399913787842,-2.105712652206421,80.0,954525.0,1.0
473303.9274662,263629.8125,263373.65625,282965.0625,272574.25,277013.84375,256432.546875,242772.046875,236841.515625,0.05029296875,0.889892578125,-0.4248046875,-24.078367233276367,-4.821776866912842,-1.9531248807907104,80.0,954526.0,1.0
473303.9300074,263686.75,263588.15625,284228.1875,274821.3125,278866.0,256476.71875,244138.90625,237313.9375,0.048583984375,0.889404296875,-0.4248046875,-23.223875045776367,-4.638671398162842,-1.7700194120407104,80.0,954527.0,1.0
473303.9300133,264335.6875,263631.0625,284293.09375,274811.59375,278956.84375,256429.859375,243908.140625,237166.140625,0.0478515625,0.887939453125,-0.419921875,-22.521970748901367,-4.333495616912842,-1.7089842557907104,80.0,954528.0,1.0
473303.9549997,264677.21875,263452.25,283098.1875,272605.90625,277188.5625,256370.40625,242418.53125,236613.25,0.048095703125,0.88818359375,-0.41357421875,-21.881101608276367,-4.333495616912842,-1.5869139432907104,80.0,954529.0,1.0
473303.9575323,264207.5625,263277.1875,282260.875,271215.8125,275982.53125,256365.671875,241710.96875,236392.328125,0.044921875,0.8876953125,-0.412841796875,-21.118162155151367,-4.058837413787842,-1.4038084745407104,80.0,954530.0,1.0
473303.9575438,263632.65625,263365.6875,282942.34375,272544.125,276986.21875,256434.0625,242738.171875,236804.140625,0.043701171875,0.886474609375,-0.416015625,-20.416257858276367,-3.845214605331421,-1.3732908964157104,80.0,954531.0,1.0
473303.9600324,263685.15625,263581.34375,284207.90625,274806.84375,278849.28125,256482.796875,244125.578125,237294.53125,0.041015625,0.890380859375,-0.416015625,-19.805906295776367,-3.540038824081421,-1.2512205839157104,80.0,954532.0,1.0
473303.9600441,264345.78125,263634.0,284297.84375,274827.125,278965.0625,256432.453125,243913.421875,237164.0,0.039794921875,0.888671875,-0.416748046875,-19.042966842651367,-3.265380620956421,-0.9765624403953552,80.0,954533.0,1.0
473303.9625129,264700.8125,263456.28125,283112.9375,272622.09375,277196.59375,256369.609375,242414.6875,236615.484375,0.03564453125,0.885986328125,-0.415283203125,-18.157957077026367,-2.960204839706421,-0.8544921278953552,80.0,954534.0,1.0
473303.9649951,264234.5625,263280.40625,282263.75,271210.8125,275970.9375,256369.25,241690.234375,236411.546875,0.0322265625,0.88525390625,-0.414306640625,-17.120359420776367,-2.899169683456421,-0.7629393935203552,80.0,954535.0,1.0
473303.9675905,263646.875,263367.40625,282925.25,272517.21875,276950.03125,256446.40625,242704.90625,236840.96875,0.030029296875,0.882568359375,-0.4150390625,-16.235349655151367,-2.746581792831421,-0.8239745497703552,80.0,954536.0,1.0
473303.9701859,263684.15625,263579.75,284186.8125,274788.59375,278816.75,256505.765625,244098.140625,237344.78125,0.0283203125,0.88037109375,-0.413818359375,-15.106200218200684,-2.593993902206421,-0.8544921278953552,80.0,954537.0,1.0
473303.9751471,264340.78125,263629.71875,284292.3125,274831.34375,278956.125,256471.078125,243898.046875,237225.875,0.02880859375,0.8818359375,-0.41552734375,-13.977049827575684,-2.685546636581421,-0.8239745497703552,80.0,954538.0,1.0
473303.977722,264702.4375,263450.8125,283117.125,272624.59375,277196.4375,256399.28125,242393.421875,236679.140625,0.031494140625,0.88232421875,-0.416748046875,-13.000487327575684,-2.471923589706421,-0.8850097060203552,80.0,954539.0,1.0
473303.977738,264243.9375,263279.25,282263.28125,271196.78125,275961.625,256384.4375,241657.78125,236462.515625,0.032470703125,0.889892578125,-0.417724609375,-11.901854515075684,-2.319335699081421,-0.9460448622703552,80.0,954540.0,1.0
473303.9864182,263641.25,263357.65625,282902.09375,272476.8125,276917.03125,256443.71875,242660.46875,236866.90625,0.029541015625,0.896484375,-0.417236328125,-11.169432640075684,-2.075195074081421,-1.0375975370407104,80.0,954541.0,1.0
473304.0065163,263660.65625,263563.125,284158.53125,274747.9375,278779.375,256487.171875,244063.09375,237355.59375,0.030517578125,0.900390625,-0.41259765625,-10.437010765075684,-2.014159917831421,-0.9765624403953552,80.0,954542.0,1.0
473304.0065438,264327.4375,263627.125,284290.15625,274825.34375,278945.40625,256443.984375,243886.6875,237239.90625,0.033935546875,0.90185546875,-0.407958984375,-9.704588890075684,-1.7089842557907104,-0.7324218153953552,80.0,954543.0,1.0
473304.0065497,264707.53125,263456.28125,283126.96875,272630.84375,277193.65625,256368.984375,242380.359375,236688.265625,0.033203125,0.895751953125,-0.406982421875,-8.972167015075684,-1.2207030057907104,-0.4577636420726776,80.0,954544.0,1.0
473304.0103649,264259.59375,263285.59375,282266.875,271190.25,275949.71875,256361.734375,241634.625,236473.515625,0.031982421875,0.892333984375,-0.41064453125,-8.178709983825684,-0.7019042372703552,-0.3356933295726776,80.0,954545.0,1.0
473304.0103997,263652.34375,263360.59375,282889.78125,272455.625,276889.65625,256422.796875,242626.765625,236883.265625,0.03271484375,0.89013671875,-0.411376953125,-7.354735851287842,-0.4272460639476776,-0.1831054538488388,80.0,954546.0,1.0
473304.0104077,263668.875,263567.9375,284146.46875,274737.1875,278753.8125,256467.234375,244028.671875,237372.859375,0.03076171875,0.886474609375,-0.411865234375,-6.561278820037842,-0.0915527269244194,-0.03051757626235485,80.0,954547.0,1.0
473304.0126107,264335.9375,263633.375,284293.1875,274834.75,278937.625,256427.0,243867.203125,237256.453125,0.028564453125,0.885986328125,-0.41162109375,-5.798339366912842,0.3051757514476776,-0.1220703050494194,80.0,954548.0,1.0
473304.0150828,264723.625,263464.59375,283139.5625,272648.90625,277196.15625,256356.546875,242367.671875,236701.9375,0.028564453125,0.8876953125,-0.4140625,-4.943847179412842,0.6408690810203552,-0.0610351525247097,80.0,954549.0,1.0
473304.0188467,264272.28125,263287.375,282263.84375,271182.90625,275932.75,256354.84375,241602.96875,236476.1875,0.027587890625,0.887451171875,-0.4150390625,-3.906249761581421,1.0070799589157104,0.0915527269244194,80.0,954550.0,1.0
473304.0678664,263662.34375,263360.59375,282877.25,272429.4375,276858.8125,256432.1875,242589.65625,236880.484375,0.025146484375,0.884521484375,-0.416748046875,-2.868652105331421,1.0986326932907104,0.1220703050494194,80.0,954551.0,1.0
473304.0679084,263677.65625,263572.3125,284144.25,274723.78125,278730.65625,256487.625,244007.296875,237367.140625,0.026123046875,0.88330078125,-0.41552734375,-1.8615721464157104,1.4343260526657104,0.2136230319738388,80.0,954552.0,1.0
473304.0679172,264342.28125,263641.875,284306.875,274848.875,278934.84375,256460.0,243860.859375,237246.609375,0.0234375,0.884765625,-0.41552734375,-0.9460448622703552,1.5869139432907104,0.0915527269244194,80.0,954553.0,1.0
473304.0679268,264716.46875,263459.03125,283141.8125,272654.375,277187.46875,256391.234375,242347.375,236670.65625,0.01904296875,0.885498046875,-0.41552734375,-0.1525878757238388,1.8615721464157104,-0.0915527269244194,80.0,954554.0,1.0
473304.0790222,264263.15625,263275.9375,282251.9375,271167.1875,275907.8125,256393.390625,241567.734375,236423.171875,0.01953125,0.887451171875,-0.41357421875,0.4882812201976776,2.197265386581421,-0.2441406100988388,80.0,954555.0,1.0
473304.0790618,263648.40625,263351.03125,282854.0,272390.09375,276816.34375,256467.6875,242543.796875,236814.6875,0.0185546875,0.889404296875,-0.409912109375,1.0070799589157104,2.563476324081421,-0.2746581733226776,80.0,954556.0,1.0
473304.0790704,263652.0625,263566.15625,284121.4375,274688.8125,278689.4375,256519.890625,243963.9375,237310.625,0.018798828125,0.891357421875,-0.412353515625,1.7089842557907104,2.777099370956421,-0.3051757514476776,80.0,954557.0,1.0
473304.0790797,264310.03125,263631.96875,284288.90625,274831.53125,278903.125,256475.46875,243823.65625,237200.296875,0.018310546875,0.8896484375,-0.41162109375,2.197265386581421,3.021239995956421,-0.2136230319738388,80.0,954558.0,1.0
473304.0812991,264713.15625,263467.1875,283147.53125,272659.03125,277175.6875,256399.46875,242326.984375,236653.84375,0.019287109375,0.891357421875,-0.4130859375,2.716064214706421,3.326415777206421,-0.3967284858226776,80.0,954559.0,1.0
473304.082852,264272.5625,263286.3125,282254.0,271156.4375,275886.0625,256382.390625,241535.28125,236411.640625,0.019287109375,0.8916015625,-0.41357421875,3.234863042831421,3.540038824081421,-0.5187987685203552,80.0,954560.0,1.0
473304.0900998,263665.84375,263359.53125,282849.8125,272368.625,276782.5625,256453.734375,242504.28125,236804.765625,0.018310546875,0.89208984375,-0.415283203125,3.845214605331421,3.906249761581421,-0.6713866591453552,80.0,954561.0,1.0
473304.0927562,263655.1875,263554.875,284106.34375,274663.34375,278649.71875,256487.0,243919.328125,237290.25,0.016357421875,0.890869140625,-0.417724609375,4.364013195037842,4.119872570037842,-0.7324218153953552,80.0,954562.0,1.0
473304.0950786,264310.8125,263623.09375,284286.5,274833.03125,278887.75,256450.875,243801.3125,237194.84375,0.01708984375,0.8916015625,-0.419189453125,4.821776866912842,4.394530773162842,-0.8544921278953552,80.0,954563.0,1.0
473304.0977086,264709.125,263450.5625,283135.90625,272657.21875,277157.53125,256379.34375,242299.0,236623.984375,0.019775390625,0.89013671875,-0.416259765625,5.340575695037842,4.669188976287842,-0.9155272841453552,80.0,954564.0,1.0
473304.1002375,264276.5,263276.46875,282233.53125,271134.71875,275853.875,256377.296875,241497.109375,236376.859375,0.019287109375,0.88916015625,-0.416259765625,5.828856945037842,5.004882335662842,-0.9155272841453552,80.0,954565.0,1.0
473304.1027227,263672.0,263358.46875,282825.3125,272331.0625,276738.65625,256448.8125,242460.015625,236773.5625,0.019287109375,0.890869140625,-0.4189453125,6.286620616912842,5.371093273162842,-1.0986326932907104,80.0,954566.0,1.0
473304.1052276,263677.375,263577.5,284107.0625,274653.59375,278631.84375,256498.703125,243900.09375,237275.765625,0.01953125,0.892333984375,-0.41748046875,6.835937023162842,5.737304210662842,-1.1596678495407104,80.0,954567.0,1.0
473304.1076579,264329.96875,263642.3125,284296.21875,274845.03125,278886.84375,256457.578125,243795.671875,237178.125,0.019775390625,0.890869140625,-0.419189453125,7.141112804412842,6.164550304412842,-1.0681151151657104,80.0,954568.0,1.0
473304.1126019,264716.71875,263457.0,283132.875,272661.25,277146.53125,256379.796875,242284.25,236614.328125,0.01904296875,0.889892578125,-0.419189453125,7.476806163787842,6.469726085662842,-1.0375975370407104,80.0,954569.0,1.0
473304.1152365,264281.6875,263273.625,282213.59375,271115.75,275818.5625,256371.296875,241462.859375,236365.328125,0.020263671875,0.889404296875,-0.4189453125,7.812499523162842,6.835937023162842,-1.0070799589157104,80.0,954570.0,1.0
473304.1178512,263687.21875,263357.28125,282808.0625,272304.53125,276699.5,256446.84375,242420.6875,236772.125,0.01953125,0.890869140625,-0.420166015625,8.056639671325684,7.232665538787842,-1.0375975370407104,80.0,954571.0,1.0
473304.1178916,263679.53125,263565.15625,284088.71875,274625.4375,278589.5625,256488.34375,243859.875,237276.109375,0.01953125,0.893310546875,-0.4248046875,8.270262718200684,7.568358898162842,-0.8850097060203552,80.0,954572.0,1.0
473304.1203014,264319.75,263627.125,284284.4375,274837.34375,278857.53125,256443.984375,243764.734375,237177.859375,0.018798828125,0.89404296875,-0.425537109375,8.575438499450684,7.812499523162842,-0.8850097060203552,80.0,954573.0,1.0
473304.1203421,264712.875,263453.5,283132.6875,272673.15625,277134.65625,256374.15625,242269.765625,236628.8125,0.0166015625,0.896240234375,-0.425537109375,8.789061546325684,8.239745140075684,-0.7629393935203552,80.0,954574.0,1.0
473304.1225988,264280.78125,263269.84375,282207.5,271110.9375,275799.0,256374.15625,241443.734375,236391.25,0.0146484375,0.895263671875,-0.4287109375,8.941649436950684,8.453368186950684,-0.7629393935203552,80.0,954575.0,1.0
473304.1252091,263683.28125,263349.53125,282791.6875,272274.5625,276659.90625,256449.53125,242386.265625,236796.0,0.012451171875,0.897216796875,-0.42578125,9.063719749450684,8.575438499450684,-0.7019042372703552,80.0,954576.0,1.0
473304.1290342,263688.625,263575.53125,284093.90625,274618.8125,278572.21875,256503.53125,243846.1875,237323.765625,0.011962890625,0.89794921875,-0.42529296875,9.216307640075684,8.941649436950684,-0.6713866591453552,80.0,954577.0,1.0
473304.1290741,264336.03125,263649.5625,284312.0625,274863.96875,278872.4375,256463.65625,243780.390625,237256.09375,0.011962890625,0.899658203125,-0.424560546875,9.246825218200684,9.063719749450684,-0.6103515028953552,80.0,954578.0,1.0
473304.155201,264722.0,263464.84375,283150.84375,272695.9375,277146.34375,256383.734375,242282.8125,236695.6875,0.009033203125,0.8994140625,-0.427490234375,9.307860374450684,9.368895530700684,-0.4882812201976776,80.0,954579.0,1.0
473304.1579414,264297.15625,263279.34375,282214.125,271117.375,275798.0,256372.46875,241443.90625,236432.46875,0.0078125,0.900390625,-0.427734375,9.216307640075684,9.582518577575684,-0.5187987685203552,80.0,954580.0,1.0
473304.1579839,263700.875,263356.21875,282788.75,272258.84375,276643.8125,256437.46875,242369.8125,236823.625,0.009033203125,0.90087890625,-0.426025390625,9.277342796325684,9.826659202575684,-0.3967284858226776,80.0,954581.0,1.0
473304.1601248,263701.78125,263581.53125,284096.75,274607.1875,278564.09375,256495.484375,243832.59375,237362.125,0.010009765625,0.903076171875,-0.426025390625,9.033202171325684,10.009764671325684,-0.3051757514476776,80.0,954582.0,1.0
473304.1626924,264329.78125,263644.1875,284308.46875,274862.8125,278870.46875,256451.234375,243770.546875,237287.828125,0.009033203125,0.904052734375,-0.42919921875,9.094237327575684,10.009764671325684,-0.2441406100988388,80.0,954583.0,1.0
473304.1652094,264705.5625,263450.375,283137.4375,272693.8125,277140.375,256362.09375,242266.90625,236724.03125,0.00732421875,0.904052734375,-0.431640625,9.063719749450684,10.131834983825684,-0.2746581733226776,80.0,954584.0,1.0
473304.1676391,264289.90625,263273.6875,282200.1875,271103.6875,275785.3125,256364.59375,241421.46875,236481.28125,0.0048828125,0.906494140625,-0.430419921875,9.002684593200684,10.223387718200684,-0.3051757514476776,80.0,954585.0,1.0
473304.1701156,263702.125,263362.84375,282779.34375,272235.21875,276630.75,256447.03125,242349.609375,236889.4375,0.00634765625,0.90625,-0.43115234375,9.002684593200684,10.253905296325684,-0.3051757514476776,80.0,954586.0,1.0
473304.1726965,263684.34375,263578.65625,284079.40625,274575.8125,278545.9375,256491.90625,243809.0,237418.1875,0.00439453125,0.90576171875,-0.431396484375,8.880614280700684,10.314940452575684,-0.2136230319738388,80.0,954587.0,1.0
473304.1751499,264303.75,263641.625,284303.84375,274857.0,278874.6875,256444.34375,243769.828125,237358.109375,0.0048828125,0.907470703125,-0.43310546875,8.758543968200684,10.253905296325684,-0.1220703050494194,80.0,954588.0,1.0
473304.1751858,264700.8125,263468.15625,283151.5625,272717.5,277169.0625,256378.359375,242290.953125,236817.90625,0.00341796875,0.908447265625,-0.430908203125,8.453368186950684,10.253905296325684,-0.0610351525247097,80.0,954589.0,1.0
473304.1789689,264280.25,263276.90625,282189.34375,271094.75,275782.375,256363.25,241419.765625,236543.34375,0.00390625,0.911376953125,-0.429443359375,8.117674827575684,10.375975608825684,0.0610351525247097,80.0,954590.0,1.0
473304.2553097,263690.59375,263354.4375,282752.8125,272198.5625,276598.65625,256426.203125,242324.125,236919.203125,0.004150390625,0.912109375,-0.431640625,7.965087413787842,10.345458030700684,0.0610351525247097,80.0,954591.0,1.0
473304.2553487,263687.84375,263583.6875,284073.96875,274557.5,278530.375,256471.4375,243797.90625,237439.015625,0.002197265625,0.912841796875,-0.434326171875,7.629394054412842,10.437010765075684,0.1220703050494194,80.0,954592.0,1.0
473304.2628293,264312.15625,263653.40625,284314.46875,274870.9375,278880.125,256422.078125,243774.21875,237370.171875,0.001953125,0.9140625,-0.43212890625,7.354735851287842,10.375975608825684,0.1831054538488388,80.0,954593.0,1.0
473304.2628873,264698.40625,263464.125,283149.3125,272726.6875,277165.03125,256334.640625,242286.9375,236809.234375,0.000732421875,0.91259765625,-0.433349609375,7.049560070037842,10.131834983825684,0.0915527269244194,80.0,954594.0,1.0
473304.2628978,264289.4375,263281.75,282187.9375,271095.375,275772.53125,256335.09375,241414.046875,236542.265625,0.000244140625,0.913330078125,-0.4345703125,6.713866710662842,10.162352561950684,0.1831054538488388,80.0,954595.0,1.0
473304.2651834,263701.6875,263364.0,282750.03125,272181.59375,276581.5625,256416.546875,242310.4375,236921.796875,-0.0009765625,0.9130859375,-0.433837890625,6.408690929412842,10.040282249450684,0.2136230319738388,80.0,954596.0,1.0
473304.2675902,263687.46875,263588.15625,284072.34375,274541.84375,278515.4375,256479.9375,243787.0,237448.21875,0.000244140625,0.914794921875,-0.4345703125,6.103515148162842,9.826659202575684,0.1525878757238388,80.0,954597.0,1.0
473304.2725429,264314.75,263665.46875,284333.875,274889.1875,278893.46875,256455.796875,243791.203125,237395.203125,-0.00048828125,0.914306640625,-0.4345703125,5.737304210662842,9.735106468200684,0.2136230319738388,80.0,954598.0,1.0
473304.2777362,264703.125,263480.84375,283175.96875,272759.59375,277191.0625,256384.09375,242315.453125,236840.53125,-0.001708984375,0.913330078125,-0.4365234375,5.523681163787842,9.613036155700684,0.2746581733226776,80.0,954599.0,1.0
473304.2802475,264280.59375,263277.28125,282188.8125,271096.375,275773.0625,256365.578125,241415.390625,236550.484375,-0.001220703125,0.9140625,-0.43603515625,5.096435070037842,9.460448265075684,0.3051757514476776,80.0,954600.0,1.0
473304.2826002,263692.21875,263356.40625,282737.40625,272155.46875,276564.75,256438.8125,242298.015625,236921.703125,-0.001953125,0.914306640625,-0.43603515625,4.791259288787842,9.246825218200684,0.2441406100988388,80.0,954601.0,1.0
473304.2851197,263671.375,263581.53125,284062.0,274515.03125,278502.75,256499.78125,243777.96875,237444.203125,-0.0029296875,0.915283203125,-0.437744140625,4.516601085662842,9.033202171325684,0.2441406100988388,80.0,954602.0,1.0
473304.2875504,264290.4375,263656.625,284330.125,274882.9375,278898.28125,256473.859375,243794.25,237391.71875,-0.00390625,0.914794921875,-0.436279296875,4.089354991912842,8.850096702575684,0.2136230319738388,80.0,954603.0,1.0
473304.2900569,264688.46875,263470.21875,283174.25,272768.0,277200.71875,256397.5,242320.28125,236835.96875,-0.00244140625,0.91455078125,-0.43701171875,3.631591558456421,8.697508811950684,0.2441406100988388,80.0,954604.0,1.0
473304.2927062,264290.09375,263281.3125,282193.28125,271105.75,275778.4375,256389.09375,241420.84375,236548.515625,-0.00341796875,0.9140625,-0.4375,3.265380620956421,8.361815452575684,0.2441406100988388,80.0,954605.0,1.0
473304.2943063,263708.65625,263363.28125,282739.5625,272149.3125,276558.15625,256462.765625,242293.8125,236918.046875,-0.00146484375,0.9140625,-0.438232421875,3.112792730331421,8.026122093200684,0.2136230319738388,80.0,954606.0,1.0
473304.301287,263689.625,263590.03125,284073.15625,274518.40625,278504.53125,256512.390625,243778.0625,237453.671875,-0.001708984375,0.9140625,-0.44091796875,2.929687261581421,7.873534679412842,0.2136230319738388,80.0,954607.0,1.0
473304.3039724,264295.0,263656.09375,284342.09375,274902.25,278907.21875,256475.90625,243803.359375,237406.46875,-0.00341796875,0.912109375,-0.443603515625,2.532958745956421,7.629394054412842,0.1831054538488388,80.0,954608.0,1.0
473304.3039854,264689.28125,263468.15625,283183.84375,272793.21875,277210.625,256393.03125,242332.265625,236845.71875,-0.001953125,0.909423828125,-0.44384765625,2.197265386581421,7.324218273162842,0.1220703050494194,80.0,954609.0,1.0
473304.3064532,264294.09375,263282.0,282195.34375,271112.46875,275775.75,256382.828125,241423.96875,236561.390625,-0.00146484375,0.906005859375,-0.4443359375,1.9531248807907104,7.110595226287842,0.1220703050494194,80.0,954610.0,1.0
473304.3064674,263711.625,263366.875,282731.25,272133.03125,276539.1875,256460.359375,242287.015625,236925.90625,-0.000244140625,0.9052734375,-0.44140625,1.8005369901657104,6.896972179412842,-0.03051757626235485,80.0,954611.0,1.0
473304.3089302,263690.34375,263598.6875,284069.6875,274506.625,278492.5625,256519.546875,243783.875,237457.875,-0.001220703125,0.9033203125,-0.441162109375,1.6479490995407104,6.683349132537842,-0.0915527269244194,80.0,954612.0,1.0
473304.3112549,264285.78125,263660.125,284348.4375,274910.03125,278914.5625,256482.078125,243820.078125,237407.984375,-0.00048828125,0.90478515625,-0.4404296875,1.4648436307907104,6.408690929412842,-0.03051757626235485,80.0,954613.0,1.0
473304.3162985,264680.4375,263469.59375,283196.25,272807.0625,277226.71875,256410.109375,242353.0,236858.40625,-0.000244140625,0.900390625,-0.445556640625,1.2207030057907104,6.164550304412842,-0.03051757626235485,80.0,954614.0,1.0
473304.3189018,264301.25,263286.9375,282206.6875,271116.65625,275787.5625,256406.796875,241438.375,236580.796875,0.001220703125,0.89892578125,-0.4423828125,1.1291502714157104,5.920409679412842,-0.0610351525247097,80.0,954615.0,1.0
473304.3214343,263732.34375,263381.625,282745.65625,272126.0625,276548.5,256491.5625,242300.15625,236961.21875,0.001953125,0.896728515625,-0.4423828125,1.0375975370407104,5.645751476287842,-0.1525878757238388,80.0,954616.0,1.0
473304.3239197,263698.21875,263607.90625,284079.875,274494.71875,278497.03125,256548.78125,243794.25,237492.578125,0.000732421875,0.896240234375,-0.4453125,0.9155272841453552,5.523681163787842,-0.1220703050494194,80.0,954617.0,1.0
473304.3239381,264285.0625,263667.53125,284361.84375,274918.25,278930.90625,256501.125,243839.9375,237447.0625,0.0,0.894775390625,-0.44287109375,0.8544921278953552,5.249022960662842,-0.2441406100988388,80.0,954618.0,1.0
473304.3277628,264690.1875,263479.15625,283213.875,272832.03125,277255.625,256428.515625,242377.234375,236899.359375,0.001220703125,0.893798828125,-0.442138671875,0.8544921278953552,5.096435070037842,-0.1525878757238388,80.0,954619.0,1.0
473304.3277853,264303.65625,263284.78125,282202.6875,271115.84375,275792.375,256418.59375,241437.296875,236604.046875,0.0029296875,0.892822265625,-0.443115234375,0.8544921278953552,4.760741710662842,-0.2136230319738388,80.0,954620.0,1.0
473304.3277892,263725.125,263371.96875,282723.75,272099.59375,276528.65625,256491.109375,242282.109375,236966.953125,0.005615234375,0.893798828125,-0.4443359375,0.9460448622703552,4.577636241912842,-0.3356933295726776,80.0,954621.0,1.0
473304.3314883,263689.71875,263605.125,284063.5,274475.5,278484.15625,256543.40625,243785.921875,237503.921875,0.00732421875,0.893798828125,-0.443603515625,0.8850097060203552,4.333495616912842,-0.4882812201976776,80.0,954622.0,1.0
473304.3315089,264283.09375,263675.125,284368.84375,274930.75,278949.15625,256502.90625,243858.796875,237479.078125,0.0068359375,0.89208984375,-0.445556640625,0.8544921278953552,4.150390148162842,-0.5187987685203552,80.0,954623.0,1.0
473304.3315136,264691.96875,263489.34375,283227.71875,272856.15625,277282.625,256427.359375,242400.125,236928.765625,0.0078125,0.893310546875,-0.444091796875,0.9460448622703552,3.997802495956421,-0.7019042372703552,80.0,954624.0,1.0
473304.3362874,264313.9375,263297.65625,282213.75,271130.25,275814.625,256420.46875,241456.15625,236625.953125,0.0107421875,0.892578125,-0.443603515625,0.9765624403953552,3.723144292831421,-0.7629393935203552,80.0,954625.0,1.0
473304.3363127,263730.9375,263380.625,282723.21875,272093.0625,276536.25,256501.65625,242286.9375,236980.0,0.012451171875,0.894775390625,-0.444091796875,1.0681151151657104,3.417968511581421,-0.8239745497703552,80.0,954626.0,1.0
473304.3389204,263676.9375,263601.09375,284053.59375,274457.1875,278479.59375,256557.71875,243777.171875,237502.40625,0.0126953125,0.89501953125,-0.444091796875,1.1901854276657104,3.234863042831421,-1.0375975370407104,80.0,954627.0,1.0
473304.3414911,264262.8125,263669.9375,284365.25,274930.75,278954.78125,256525.078125,243859.421875,237469.140625,0.013427734375,0.896728515625,-0.4443359375,1.2207030057907104,3.021239995956421,-1.0986326932907104,80.0,954628.0,1.0
473304.3438288,264671.125,263482.09375,283224.5,272861.875,277291.46875,256449.625,242403.421875,236917.234375,0.0126953125,0.899169921875,-0.44580078125,1.0986326932907104,2.838134527206421,-1.1901854276657104,80.0,954629.0,1.0
473304.3464751,264295.0,263287.75,282199.1875,271119.15625,275805.15625,256443.1875,241445.4375,236611.640625,0.013427734375,0.900634765625,-0.447265625,1.0986326932907104,2.746581792831421,-1.1901854276657104,80.0,954630.0,1.0
473304.3489759,263714.375,263369.375,282698.34375,272061.34375,276507.71875,256512.390625,242265.390625,236956.125,0.015869140625,0.898681640625,-0.44873046875,1.1596678495407104,2.471923589706421,-1.3122557401657104,80.0,954631.0,1.0
473304.3514283,263673.71875,263604.5,284045.625,274443.03125,278469.21875,256566.5625,243778.5,237499.71875,0.014404296875,0.897705078125,-0.451171875,1.2207030057907104,2.319335699081421,-1.4953612089157104,80.0,954632.0,1.0
473304.3514681,264255.3125,263674.96875,284373.9375,274940.40625,278964.28125,256519.71875,243877.484375,237491.5,0.013916015625,0.893798828125,-0.451416015625,1.2817381620407104,2.075195074081421,-1.6174315214157104,80.0,954633.0,1.0
473304.3826398,264666.84375,263493.0,283243.8125,272886.84375,277312.21875,256434.78125,242430.15625,236958.359375,0.013916015625,0.896484375,-0.4541015625,1.4038084745407104,1.8005369901657104,-1.8310545682907104,80.0,954634.0,1.0
473304.3866074,264292.75,263296.5,282208.3125,271123.28125,275811.6875,256411.53125,241454.640625,236648.5625,0.014892578125,0.896484375,-0.4541015625,1.3732908964157104,1.6784666776657104,-1.9226073026657104,80.0,954635.0,1.0
473304.3866478,263714.03125,263374.1875,282694.9375,272038.53125,276494.3125,256478.046875,242250.8125,236991.625,0.01513671875,0.89697265625,-0.454833984375,1.2512205839157104,1.4038084745407104,-2.014159917831421,80.0,954636.0,1.0
473304.3866577,263665.84375,263602.28125,284039.8125,274414.71875,278447.21875,256539.921875,243755.984375,237530.484375,0.01513671875,0.8974609375,-0.4560546875,1.3427733182907104,1.1596678495407104,-2.105712652206421,80.0,954637.0,1.0
473304.3888901,264252.25,263673.875,284379.8125,274936.21875,278960.25,256509.34375,243871.484375,237509.46875,0.015380859375,0.89501953125,-0.45166015625,1.4648436307907104,1.0375975370407104,-2.136230230331421,80.0,954638.0,1.0
473304.3889245,264674.09375,263487.65625,283255.0,272894.96875,277318.5625,256427.8125,242429.796875,236951.484375,0.01416015625,0.89404296875,-0.452880859375,1.4953612089157104,0.7934569716453552,-2.288818120956421,80.0,954639.0,1.0
473304.3915887,264311.4375,263290.5,282216.53125,271123.09375,275810.4375,256405.453125,241446.953125,236632.46875,0.015625,0.893798828125,-0.451904296875,1.5258787870407104,0.7019042372703552,-2.410888433456421,80.0,954640.0,1.0
473304.39392,263729.21875,263368.03125,282693.96875,272022.96875,276479.8125,256476.0,242236.859375,236971.421875,0.015625,0.893310546875,-0.4501953125,1.6174315214157104,0.4272460639476776,-2.380370855331421,80.0,954641.0,1.0
473304.3964261,263675.125,263603.0625,284044.90625,274406.375,278443.125,256527.234375,243753.03125,237517.0625,0.017822265625,0.89208984375,-0.451171875,1.6784666776657104,0.2746581733226776,-2.502441167831421,80.0,954642.0,1.0
473304.4014638,264250.46875,263676.9375,284394.125,274945.15625,278973.84375,256485.03125,243882.671875,237501.421875,0.016845703125,0.892822265625,-0.45263671875,1.6174315214157104,0.0610351525247097,-2.624511480331421,80.0,954643.0,1.0
473304.4029401,264678.46875,263496.875,283276.53125,272918.9375,277348.25,256419.3125,242454.125,236959.703125,0.015625,0.89306640625,-0.452392578125,1.5563963651657104,-0.1525878757238388,-2.655029058456421,80.0,954644.0,1.0
473304.4126382,264307.0625,263286.5625,282213.3125,271120.0625,275815.71875,256395.4375,241455.265625,236633.109375,0.014404296875,0.892822265625,-0.451904296875,1.6784666776657104,-0.3967284858226776,-2.746581792831421,80.0,954645.0,1.0
473304.4126778,263725.21875,263362.21875,282675.0,271997.0625,276464.09375,256467.5,242229.984375,236974.1875,0.017333984375,0.892333984375,-0.45166015625,1.7700194120407104,-0.6103515028953552,-2.746581792831421,80.0,954646.0,1.0
473304.4176974,263671.28125,263601.03125,284026.21875,274381.0,278425.21875,256531.34375,243746.671875,237528.15625,0.0185546875,0.89453125,-0.448974609375,1.9531248807907104,-0.7629393935203552,-2.929687261581421,80.0,954647.0,1.0
473304.4202238,264243.3125,263678.0,284388.5,274945.96875,278975.71875,256500.40625,243890.984375,237527.96875,0.02001953125,0.896240234375,-0.44970703125,2.197265386581421,-0.7629393935203552,-3.112792730331421,80.0,954648.0,1.0
473304.4225849,264661.5625,263493.28125,283269.46875,272924.125,277350.21875,256427.359375,242455.734375,236986.53125,0.0185546875,0.896240234375,-0.450927734375,2.563476324081421,-0.6713866591453552,-3.479003667831421,80.0,954649.0,1.0
473304.4250336,264289.90625,263286.40625,282200.0,271112.28125,275809.28125,256410.640625,241443.828125,236657.6875,0.018798828125,0.897705078125,-0.44921875,2.929687261581421,-0.7324218153953552,-3.601073980331421,80.0,954650.0,1.0
473304.4276912,263696.78125,263360.4375,282652.84375,271966.75,276443.78125,256489.234375,242209.140625,236988.9375,0.017333984375,0.9033203125,-0.45068359375,3.021239995956421,-0.7629393935203552,-3.692626714706421,80.0,954651.0,1.0
473304.4302749,263643.5625,263603.96875,284018.96875,274363.125,278415.5625,256560.21875,243737.65625,237534.59375,0.018310546875,0.90673828125,-0.452392578125,2.929687261581421,-0.9155272841453552,-3.570556402206421,80.0,954652.0,1.0
473304.4303163,264220.96875,263681.84375,284396.71875,274951.25,278983.59375,256517.390625,243897.15625,237517.515625,0.01953125,0.908935546875,-0.452880859375,2.838134527206421,-1.0681151151657104,-3.540038824081421,80.0,954653.0,1.0
473304.4551859,264636.0,263489.34375,283274.75,272931.1875,277363.09375,256426.203125,242461.8125,236952.640625,0.021484375,0.90966796875,-0.450439453125,2.807616949081421,-1.0375975370407104,-3.601073980331421,80.0,954654.0,1.0
473304.4577429,264268.34375,263279.0625,282195.09375,271107.4375,275812.59375,256408.046875,241439.4375,236618.625,0.0224609375,0.91064453125,-0.450927734375,2.593993902206421,-1.1291502714157104,-3.417968511581421,80.0,954655.0,1.0
473304.4577838,263689.4375,263349.53125,282637.8125,271946.34375,276427.625,256480.375,242188.671875,236949.875,0.02392578125,0.91162109375,-0.45166015625,2.136230230331421,-1.2817381620407104,-2.960204839706421,80.0,954656.0,1.0
473304.4601229,263632.84375,263581.875,283991.96875,274334.0625,278388.3125,256539.125,243705.640625,237492.84375,0.02490234375,0.91064453125,-0.45654296875,1.8310545682907104,-1.3732908964157104,-2.685546636581421,80.0,954657.0,1.0
473304.4626952,264209.0625,263665.5625,284382.34375,274943.53125,278975.71875,256510.421875,243883.296875,237497.21875,0.026611328125,0.90576171875,-0.455810546875,1.5869139432907104,-1.2817381620407104,-2.502441167831421,80.0,954658.0,1.0
473304.4652122,264640.65625,263483.1875,283275.75,272942.15625,277372.09375,256426.375,242464.84375,236959.609375,0.025146484375,0.903076171875,-0.454345703125,1.5563963651657104,-1.1291502714157104,-2.136230230331421,80.0,954659.0,1.0
473304.4701658,264290.625,263272.8125,282192.125,271103.34375,275808.5625,256394.375,241434.703125,236627.46875,0.02587890625,0.900390625,-0.453857421875,1.3732908964157104,-1.1901854276657104,-1.8920897245407104,80.0,954660.0,1.0
473304.4752148,263709.8125,263340.5625,282622.90625,271919.4375,276400.625,256462.859375,242169.625,236962.5625,0.02392578125,0.898681640625,-0.452880859375,1.4648436307907104,-1.0681151151657104,-1.7089842557907104,80.0,954661.0,1.0
473304.4777523,263650.90625,263580.28125,283986.96875,274314.75,278366.03125,256527.40625,243694.46875,237516.53125,0.019287109375,0.89599609375,-0.453369140625,1.4953612089157104,-1.0070799589157104,-1.5563963651657104,80.0,954662.0,1.0
473304.4777929,264211.59375,263654.9375,284381.96875,274942.125,278964.09375,256489.3125,243879.359375,237525.109375,0.017578125,0.893798828125,-0.453125,1.5258787870407104,-1.0681151151657104,-1.4343260526657104,80.0,954663.0,1.0
473304.4802202,264650.75,263473.0,283283.15625,272959.59375,277375.5,256407.875,242469.046875,236996.71875,0.015625,0.890625,-0.456787109375,1.6784666776657104,-1.0986326932907104,-1.1901854276657104,80.0,954664.0,1.0
473304.4826379,264311.53125,263271.46875,282198.125,271117.1875,275807.40625,256383.8125,241433.90625,236673.78125,0.014892578125,0.888671875,-0.45556640625,1.7395018339157104,-1.0681151151657104,-1.0681151151657104,80.0,954665.0,1.0
473304.485115,263725.03125,263335.9375,282613.59375,271908.625,276380.125,256447.921875,242151.390625,236989.75,0.01708984375,0.886474609375,-0.455078125,2.014159917831421,-0.9765624403953552,-0.9765624403953552,80.0,954666.0,1.0
473304.49139,263673.53125,263587.96875,283990.8125,274315.71875,278358.0,256520.875,243688.203125,237549.4375,0.0166015625,0.8876953125,-0.458740234375,2.075195074081421,-0.9765624403953552,-0.8544921278953552,80.0,954667.0,1.0
473304.4914312,264237.34375,263672.71875,284406.375,274966.34375,278979.5625,256484.765625,243890.265625,237552.203125,0.017578125,0.88671875,-0.460205078125,2.410888433456421,-1.0070799589157104,-0.6713866591453552,80.0,954668.0,1.0
473304.4951776,264663.71875,263484.25,283303.28125,272976.9375,277388.1875,256389.265625,242472.0,237007.453125,0.0185546875,0.885498046875,-0.45654296875,2.655029058456421,-1.0070799589157104,-0.4882812201976776,80.0,954669.0,1.0
473304.5052373,264325.75,263282.65625,282209.46875,271118.0,275810.25,256367.1875,241423.703125,236677.53125,0.019775390625,0.885009765625,-0.45556640625,2.838134527206421,-0.8544921278953552,-0.3662109076976776,80.0,954670.0,1.0
473304.5052778,263744.53125,263349.0625,282618.40625,271892.71875,276370.40625,256444.171875,242131.0,236978.578125,0.01953125,0.885986328125,-0.455810546875,3.021239995956421,-0.7934569716453552,-0.2746581733226776,80.0,954671.0,1.0
473304.5073243,263678.53125,263591.375,283987.5,274291.78125,278337.0625,256513.375,243661.109375,237526.71875,0.016357421875,0.885986328125,-0.457275390625,3.143310308456421,-0.7934569716453552,-0.03051757626235485,80.0,954672.0,1.0
473304.5073596,264241.34375,263679.53125,284415.78125,274974.3125,278984.03125,256475.015625,243882.40625,237545.59375,0.01611328125,0.885009765625,-0.4560546875,3.479003667831421,-0.6408690810203552,0.1831054538488388,80.0,954673.0,1.0
473304.5163987,264681.0625,263500.625,283326.0625,273008.5,277414.21875,256388.296875,242486.75,237010.578125,0.016845703125,0.885986328125,-0.458251953125,3.631591558456421,-0.5493163466453552,0.2441406100988388,80.0,954674.0,1.0
473304.5187887,264343.09375,263293.375,282216.8125,271127.75,275816.34375,256364.5,241428.359375,236660.8125,0.017822265625,0.885986328125,-0.4599609375,3.845214605331421,-0.5798339247703552,0.3967284858226776,80.0,954675.0,1.0
473304.5237907,263759.1875,263358.28125,282613.59375,271879.65625,276352.15625,256431.390625,242122.515625,236963.015625,0.015869140625,0.88525390625,-0.459228515625,3.936767339706421,-0.5798339247703552,0.4882812201976776,80.0,954676.0,1.0
473304.5262113,263686.75,263598.53125,283977.5,274276.5625,278315.09375,256488.875,243653.515625,237514.390625,0.014892578125,0.884765625,-0.45703125,4.028319835662842,-0.4577636420726776,0.7629393935203552,80.0,954677.0,1.0
473304.5551634,264232.59375,263674.96875,284405.9375,274966.625,278964.28125,256441.390625,243878.546875,237528.6875,0.014892578125,0.886474609375,-0.461181640625,4.211425304412842,-0.3662109076976776,0.8850097060203552,80.0,954678.0,1.0
473304.5573546,264673.625,263496.9375,283322.40625,273012.1875,277403.65625,256352.53125,242484.609375,236986.96875,0.01513671875,0.888427734375,-0.461181640625,4.394530773162842,-0.2746581733226776,1.0070799589157104,80.0,954679.0,1.0
473304.5573689,264344.71875,263292.21875,282211.71875,271128.28125,275809.0,256334.90625,241422.90625,236640.25,0.0126953125,0.89013671875,-0.4609375,4.608153820037842,-0.2441406100988388,1.1596678495407104,80.0,954680.0,1.0
473304.5989564,263760.0625,263352.375,282594.5625,271861.96875,276333.5625,256406.796875,242104.546875,236945.40625,0.010009765625,0.89208984375,-0.4580078125,4.577636241912842,-0.2136230319738388,1.3122557401657104,80.0,954681.0,1.0
473304.60394,263675.40625,263588.15625,283956.40625,274256.53125,278293.34375,256473.671875,243630.265625,237503.84375,0.0087890625,0.891357421875,-0.450927734375,4.608153820037842,-0.1525878757238388,1.3732908964157104,80.0,954682.0,1.0
473304.6064642,264225.15625,263676.75,284404.78125,274973.84375,278968.375,256440.140625,243875.78125,237539.15625,0.0078125,0.890380859375,-0.456298828125,4.669188976287842,-0.2136230319738388,1.5563963651657104,80.0,954683.0,1.0
473304.608824,264672.03125,263505.09375,283328.75,273033.8125,277419.9375,256352.890625,242494.0,237011.5625,0.0068359375,0.891357421875,-0.45556640625,4.638671398162842,-0.2136230319738388,1.6479490995407104,80.0,954684.0,1.0
473304.6104257,264343.90625,263295.78125,282208.75,271132.40625,275809.09375,256324.28125,241420.21875,236659.828125,0.005859375,0.892578125,-0.4560546875,4.608153820037842,-0.1831054538488388,1.6174315214157104,80.0,954685.0,1.0
473304.6176517,263760.53125,263359.96875,282584.71875,271846.9375,276319.15625,256389.09375,242092.5625,236962.125,0.005126953125,0.89599609375,-0.458251953125,4.669188976287842,-0.2746581733226776,1.5869139432907104,80.0,954686.0,1.0
473304.6201016,263679.59375,263605.59375,283955.0625,274251.34375,278282.375,256453.015625,243624.734375,237525.03125,0.00390625,0.89501953125,-0.45849609375,4.577636241912842,-0.1831054538488388,1.7089842557907104,80.0,954687.0,1.0
473304.622658,264222.21875,263695.625,284410.84375,274988.6875,278971.15625,256417.25,243883.203125,237562.671875,0.0029296875,0.8935546875,-0.458251953125,4.547118663787842,-0.2746581733226776,1.8005369901657104,80.0,954688.0,1.0
473304.6251801,264665.0625,263520.46875,283336.8125,273052.59375,277427.4375,256340.1875,242505.078125,237027.03125,0.00439453125,0.896240234375,-0.4580078125,4.516601085662842,-0.1831054538488388,1.9226073026657104,80.0,954689.0,1.0
473304.6277774,264340.3125,263309.09375,282203.40625,271130.6875,275799.71875,256317.390625,241417.984375,236660.109375,0.00390625,0.894775390625,-0.454833984375,4.516601085662842,-0.2136230319738388,2.075195074081421,80.0,954690.0,1.0
473304.6300864,263751.40625,263364.625,282560.5625,271817.78125,276283.5,256383.546875,242066.984375,236953.71875,0.0048828125,0.897216796875,-0.45751953125,4.364013195037842,-0.1831054538488388,2.136230230331421,80.0,954691.0,1.0
473304.6352104,263665.5625,263610.5,283931.8125,274218.0,278244.625,256454.625,243594.6875,237519.65625,0.0078125,0.89794921875,-0.462890625,4.364013195037842,-0.1220703050494194,2.349853277206421,80.0,954692.0,1.0
473304.6375923,264210.0625,263707.3125,284406.125,274981.53125,278956.40625,256427.71875,243872.828125,237568.390625,0.01220703125,0.898681640625,-0.462646484375,4.272460460662842,-0.0610351525247097,2.532958745956421,80.0,954693.0,1.0
473304.640231,264663.4375,263534.0625,283344.9375,273064.46875,277434.875,256351.640625,242509.640625,237037.046875,0.012939453125,0.898681640625,-0.458740234375,4.150390148162842,-0.0915527269244194,2.807616949081421,80.0,954694.0,1.0
473304.6452307,264345.40625,263320.0,282210.90625,271135.4375,275811.96875,256325.703125,241417.53125,236661.0,0.01171875,0.89892578125,-0.458251953125,4.058837413787842,0.0,3.112792730331421,80.0,954695.0,1.0
473304.6475777,263762.3125,263375.4375,282564.78125,271807.59375,276288.21875,256391.421875,242058.578125,236939.671875,0.0126953125,0.899658203125,-0.455810546875,3.845214605331421,0.0610351525247097,3.448486089706421,80.0,954696.0,1.0
473304.6500759,263670.40625,263611.21875,283930.375,274204.78125,278238.65625,256460.359375,243576.265625,237493.015625,0.0146484375,0.9013671875,-0.45654296875,3.570556402206421,0.2441406100988388,3.845214605331421,80.0,954697.0,1.0
473304.652737,264212.90625,263708.84375,284414.25,274993.34375,278967.03125,256430.484375,243865.59375,237540.140625,0.01513671875,0.900634765625,-0.45654296875,3.387450933456421,0.1525878757238388,4.211425304412842,80.0,954698.0,1.0
473304.6565264,264664.4375,263538.0,283359.4375,273093.09375,277463.75,256345.546875,242514.734375,237010.484375,0.017822265625,0.90380859375,-0.454833984375,3.112792730331421,0.2746581733226776,4.577636241912842,80.0,954699.0,1.0
473304.6565658,264351.15625,263324.21875,282218.78125,271152.4375,275825.375,256317.21875,241417.53125,236642.40625,0.018310546875,0.904296875,-0.453125,2.716064214706421,0.4577636420726776,4.852294445037842,80.0,954700.0,1.0
473304.6565758,263772.875,263382.6875,282560.3125,271810.28125,276279.28125,256382.484375,242053.671875,236929.125,0.018310546875,0.9033203125,-0.453857421875,2.410888433456421,0.5493163466453552,5.126952648162842,80.0,954701.0,1.0
473304.6588616,263669.9375,263616.5625,283918.5,274201.46875,278223.09375,256441.21875,243575.375,237468.15625,0.0185546875,0.90283203125,-0.455322265625,2.136230230331421,0.6408690810203552,5.493163585662842,80.0,954702.0,1.0
473304.6588971,264204.0625,263710.46875,284413.53125,275005.0625,278968.125,256412.34375,243879.984375,237512.6875,0.02099609375,0.90185546875,-0.449951171875,1.8920897245407104,0.7324218153953552,5.920409679412842,80.0,954703.0,1.0
473304.6614934,264654.78125,263538.15625,283365.40625,273111.78125,277474.21875,256338.671875,242532.890625,236984.828125,0.021484375,0.903076171875,-0.45263671875,1.6479490995407104,0.7629393935203552,6.317138195037842,80.0,954704.0,1.0
473304.6615352,264349.53125,263333.6875,282223.0625,271165.65625,275837.4375,256328.296875,241433.71875,236615.3125,0.017822265625,0.905029296875,-0.453125,1.4343260526657104,0.9460448622703552,6.561278820037842,80.0,954705.0,1.0
473304.6640254,263767.0625,263390.8125,282551.28125,271799.375,276277.84375,256403.046875,242051.609375,236899.265625,0.017822265625,0.9072265625,-0.4541015625,1.0681151151657104,0.9765624403953552,6.835937023162842,80.0,954706.0,1.0
473304.6662616,263657.53125,263619.15625,283905.15625,274187.0,278216.90625,256466.96875,243569.109375,237454.75,0.01806640625,0.907470703125,-0.45458984375,0.7629393935203552,1.0375975370407104,7.019042491912842,80.0,954707.0,1.0
473304.6689998,264187.0,263711.53125,284404.59375,275007.75,278971.5,256436.5625,243885.078125,237506.609375,0.01611328125,0.908447265625,-0.45263671875,0.4882812201976776,1.0986326932907104,7.263183116912842,80.0,954708.0,1.0
473304.6690401,264659.25,263559.53125,283380.09375,273141.375,277501.3125,256368.984375,242562.9375,236995.828125,0.016357421875,0.908203125,-0.451416015625,0.0610351525247097,1.0375975370407104,7.354735851287842,80.0,954709.0,1.0
473304.6713129,264349.71875,263337.28125,282222.78125,271168.34375,275845.21875,256342.875,241442.484375,236605.125,0.016845703125,0.90966796875,-0.450439453125,-0.2136230319738388,1.0681151151657104,7.507323741912842,80.0,954710.0,1.0
473304.67402,263770.71875,263386.4375,282540.09375,271780.59375,276265.6875,256415.5625,242042.5,236878.96875,0.018798828125,0.912109375,-0.45068359375,-0.5493163466453552,1.1291502714157104,7.537841320037842,80.0,954711.0,1.0
473304.6762599,263666.03125,263623.1875,283899.09375,274175.53125,278209.6875,256484.578125,243565.8125,237443.390625,0.01904296875,0.911865234375,-0.45068359375,-0.9765624403953552,1.1291502714157104,7.568358898162842,80.0,954712.0,1.0
473304.6814925,264195.5,263721.90625,284412.46875,275019.375,278982.96875,256455.53125,243896.703125,237512.421875,0.017578125,0.91064453125,-0.45166015625,-1.4038084745407104,1.0681151151657104,7.507323741912842,80.0,954713.0,1.0
473304.6815333,264670.875,263564.90625,283394.46875,273163.0,277519.09375,256375.765625,242572.859375,237004.40625,0.01806640625,0.9111328125,-0.45166015625,-1.7700194120407104,1.0681151151657104,7.537841320037842,80.0,954714.0,1.0
473304.6840071,264389.40625,263362.03125,282256.3125,271204.09375,275876.40625,256361.375,241461.34375,236647.765625,0.01953125,0.911376953125,-0.450927734375,-2.075195074081421,1.1596678495407104,7.476806163787842,80.0,954715.0,1.0
473304.6840509,263793.25,263392.875,282548.0625,271786.125,276267.84375,256416.0,242037.390625,236908.828125,0.02099609375,0.912109375,-0.449462890625,-2.502441167831421,1.1596678495407104,7.415771007537842,80.0,954716.0,1.0
473304.6863399,263670.75,263619.25,283895.15625,274168.375,278199.75,256480.203125,243551.234375,237465.5625,0.0205078125,0.91259765625,-0.448486328125,-2.838134527206421,1.2207030057907104,7.324218273162842,80.0,954717.0,1.0
473304.7051012,264203.8125,263730.84375,284428.03125,275038.125,278997.4375,256463.578125,243903.59375,237545.953125,0.021728515625,0.912109375,-0.4501953125,-3.234863042831421,1.3122557401657104,7.171630382537842,80.0,954718.0,1.0
473304.7089533,264675.34375,263572.15625,283415.03125,273188.65625,277546.0,256382.203125,242584.125,237034.71875,0.023193359375,0.9091796875,-0.448486328125,-3.601073980331421,1.2817381620407104,7.019042491912842,80.0,954719.0,1.0
473304.7089932,264385.65625,263360.15625,282260.25,271207.84375,275890.0,256357.171875,241456.15625,236663.234375,0.02294921875,0.906982421875,-0.44970703125,-3.875732183456421,1.2817381620407104,6.927489757537842,80.0,954720.0,1.0
473304.7090039,263811.84375,263417.375,282562.53125,271794.625,276292.6875,256444.890625,242050.71875,236953.71875,0.022216796875,0.904541015625,-0.44921875,-4.180907726287842,1.2817381620407104,6.866454601287842,80.0,954721.0,1.0
473304.7201463,263691.0625,263651.4375,283910.625,274188.0625,278229.25,256521.421875,243579.75,237517.96875,0.024169921875,0.901123046875,-0.44970703125,-4.425048351287842,1.3427733182907104,6.622313976287842,80.0,954722.0,1.0
473304.7201872,264211.3125,263749.625,284443.65625,275069.15625,279029.71875,256489.671875,243934.703125,237585.734375,0.024658203125,0.900390625,-0.45068359375,-4.638671398162842,1.3732908964157104,6.500243663787842,80.0,954723.0,1.0
473304.7226059,264693.21875,263589.65625,283440.875,273227.125,277586.6875,256412.703125,242617.46875,237058.953125,0.0244140625,0.8994140625,-0.452392578125,-4.699706554412842,1.3732908964157104,6.195067882537842,80.0,954724.0,1.0
473304.7275815,264406.03125,263370.25,282275.46875,271226.625,275914.6875,256390.796875,241469.9375,236665.828125,0.025634765625,0.896484375,-0.450439453125,-4.730224132537842,1.4343260526657104,5.950927257537842,80.0,954725.0,1.0
473304.7302552,263809.0625,263404.25,282540.1875,271769.875,276273.125,256455.25,242025.5,236909.1875,0.026123046875,0.895751953125,-0.44921875,-4.852294445037842,1.5258787870407104,5.676269054412842,80.0,954726.0,1.0
473304.7302967,263681.40625,263640.96875,283887.65625,274163.90625,278203.3125,256521.0625,243554.1875,237476.828125,0.0283203125,0.893310546875,-0.449951171875,-4.852294445037842,1.5258787870407104,5.523681163787842,80.0,954727.0,1.0
473304.7327106,264206.84375,263753.28125,284444.125,275077.84375,279033.28125,256496.296875,243935.15625,237580.546875,0.029296875,0.892333984375,-0.447998046875,-4.821776866912842,1.5258787870407104,5.279540538787842,80.0,954728.0,1.0
473304.7440173,264693.65625,263594.03125,283454.90625,273253.03125,277605.28125,256416.453125,242625.609375,237077.1875,0.029052734375,0.888916015625,-0.449462890625,-4.852294445037842,1.5869139432907104,4.974364757537842,80.0,954729.0,1.0
473304.7440574,264419.1875,263372.5,282288.96875,271243.625,275925.15625,256387.84375,241472.25,236684.875,0.031494140625,0.89013671875,-0.451416015625,-4.638671398162842,1.5563963651657104,4.638671398162842,80.0,954730.0,1.0
473304.7464248,263826.40625,263404.40625,282545.375,271765.21875,276270.34375,256451.234375,242021.484375,236934.671875,0.0302734375,0.89111328125,-0.45068359375,-4.547118663787842,1.7089842557907104,4.333495616912842,80.0,954731.0,1.0
473304.7464649,263689.0,263632.75,283885.9375,274151.84375,278199.46875,256527.140625,243553.375,237508.75,0.031005859375,0.892822265625,-0.451904296875,-4.272460460662842,1.7395018339157104,3.997802495956421,80.0,954732.0,1.0
473304.74881,264208.90625,263738.4375,284450.375,275082.125,279044.03125,256507.203125,243945.515625,237602.90625,0.030517578125,0.892578125,-0.44873046875,-4.180907726287842,1.8920897245407104,3.753661870956421,80.0,954733.0,1.0
473304.7802038,264700.1875,263578.65625,283467.34375,273266.28125,277625.5625,256421.1875,242636.15625,237093.375,0.02880859375,0.891357421875,-0.451416015625,-4.150390148162842,1.9226073026657104,3.601073980331421,80.0,954734.0,1.0
473304.7878557,264431.78125,263361.59375,282296.09375,271241.84375,275937.75,256391.859375,241472.078125,236700.875,0.029052734375,0.892333984375,-0.452392578125,-4.058837413787842,1.8920897245407104,3.265380620956421,80.0,954735.0,1.0
473304.787897,263834.90625,263398.4375,282539.28125,271746.34375,276270.15625,256462.9375,242014.953125,236959.703125,0.02783203125,0.89111328125,-0.4501953125,-3.967284917831421,1.9531248807907104,2.777099370956421,80.0,954736.0,1.0
473304.7879057,263686.5,263625.34375,283869.9375,274128.59375,278187.78125,256535.1875,243548.28125,237534.765625,0.027099609375,0.891845703125,-0.449462890625,-3.906249761581421,1.9531248807907104,2.532958745956421,80.0,954737.0,1.0
473304.7879149,264205.40625,263738.71875,284448.40625,275084.28125,279046.15625,256518.828125,243959.109375,237640.09375,0.026611328125,0.889404296875,-0.44921875,-3.753661870956421,2.075195074081421,2.288818120956421,80.0,954738.0,1.0
473304.7915597,264700.90625,263584.65625,283478.96875,273283.09375,277639.34375,256432.71875,242654.390625,237131.015625,0.02490234375,0.88623046875,-0.4482421875,-3.784179449081421,2.014159917831421,1.9836424589157104,80.0,954739.0,1.0
473304.7916005,264438.21875,263367.125,282303.34375,271244.5,275945.0,256398.75,241481.015625,236735.921875,0.02587890625,0.8837890625,-0.449951171875,-3.692626714706421,2.166747808456421,1.6784666776657104,80.0,954740.0,1.0
473304.7916104,263840.1875,263399.40625,282531.53125,271721.125,276256.03125,256460.4375,242007.890625,236988.140625,0.02734375,0.8828125,-0.4521484375,-3.356933355331421,2.044677495956421,1.2512205839157104,80.0,954741.0,1.0
473304.7939791,263684.625,263627.3125,283862.875,274104.375,278176.78125,256527.234375,243545.78125,237563.296875,0.02685546875,0.880859375,-0.45458984375,-3.021239995956421,2.105712652206421,1.0375975370407104,80.0,954742.0,1.0
473304.7963172,264192.96875,263740.59375,284448.125,275076.5,279053.3125,256500.765625,243970.109375,237659.3125,0.027587890625,0.881103515625,-0.458740234375,-2.593993902206421,2.136230230331421,0.7934569716453552,80.0,954743.0,1.0
473304.7990212,264697.875,263601.8125,283494.15625,273297.375,277668.65625,256418.78125,242685.78125,237161.671875,0.027587890625,0.882568359375,-0.45654296875,-2.227782964706421,2.105712652206421,0.4272460639476776,80.0,954744.0,1.0
473304.8038299,264439.3125,263386.34375,282313.53125,271250.3125,275965.1875,256379.96875,241499.53125,236766.671875,0.02783203125,0.884765625,-0.4580078125,-1.8615721464157104,2.075195074081421,0.1220703050494194,80.0,954745.0,1.0
473304.8063988,263832.9375,263408.09375,282528.375,271703.25,276257.375,256431.109375,242008.15625,237009.421875,0.029541015625,0.88330078125,-0.456298828125,-1.6479490995407104,2.075195074081421,-0.1831054538488388,80.0,954746.0,1.0
473304.8090515,263673.53125,263637.59375,283860.71875,274086.3125,278181.15625,256501.75,243550.96875,237583.765625,0.03076171875,0.88134765625,-0.44921875,-1.3427733182907104,2.136230230331421,-0.5187987685203552,80.0,954747.0,1.0
473304.8125675,264183.6875,263759.1875,284462.96875,275085.15625,279078.25,256479.9375,243988.875,237694.1875,0.0322265625,0.881103515625,-0.452880859375,-1.0681151151657104,2.258300542831421,-0.6408690810203552,80.0,954748.0,1.0
473304.8327443,264688.65625,263610.5,283504.25,273308.75,277684.5,256390.4375,242690.25,237184.828125,0.03173828125,0.87841796875,-0.451416015625,-0.7629393935203552,2.288818120956421,-0.8239745497703552,80.0,954749.0,1.0
473304.8327857,264431.15625,263383.5,282307.71875,271241.03125,275959.65625,256354.40625,241480.484375,236779.734375,0.030517578125,0.877685546875,-0.4501953125,-0.4577636420726776,2.471923589706421,-0.9765624403953552,80.0,954750.0,1.0
473304.8377676,263837.6875,263412.28125,282514.8125,271680.625,276240.40625,256415.203125,241980.796875,237028.28125,0.03076171875,0.878662109375,-0.451171875,-0.03051757626235485,2.563476324081421,-1.2512205839157104,80.0,954751.0,1.0
473304.8378093,263676.46875,263640.34375,283844.1875,274064.6875,278159.875,256477.15625,243521.015625,237598.421875,0.026123046875,0.881591796875,-0.45068359375,0.2441406100988388,2.502441167831421,-1.5563963651657104,80.0,954752.0,1.0
473304.8400747,264181.375,263757.9375,284459.65625,275089.1875,279076.03125,256465.8125,243971.0,237707.5,0.0244140625,0.88232421875,-0.450439453125,0.6713866591453552,2.563476324081421,-1.7700194120407104,80.0,954753.0,1.0
473304.8450988,264690.09375,263610.6875,283513.375,273328.6875,277706.5,256397.859375,242683.453125,237203.703125,0.020751953125,0.88330078125,-0.451416015625,0.9460448622703552,2.624511480331421,-2.075195074081421,80.0,954754.0,1.0
473304.8475637,264439.84375,263385.46875,282312.75,271249.4375,275972.625,256379.796875,241467.515625,236796.8125,0.0205078125,0.8818359375,-0.454345703125,1.0986326932907104,2.532958745956421,-2.258300542831421,80.0,954755.0,1.0
473304.8494947,263839.90625,263406.75,282503.8125,271662.125,276222.25,256450.0625,241948.53125,237035.171875,0.020263671875,0.8837890625,-0.45166015625,1.4038084745407104,2.471923589706421,-2.380370855331421,80.0,954756.0,1.0
473304.8751336,263669.59375,263625.25,283828.09375,274037.75,278128.3125,256516.5,243482.21875,237600.3125,0.017822265625,0.881591796875,-0.450927734375,1.7700194120407104,2.502441167831421,-2.502441167831421,80.0,954757.0,1.0
473304.8751742,264175.46875,263742.46875,284451.875,275080.15625,279056.1875,256490.65625,243949.359375,237707.953125,0.015380859375,0.880615234375,-0.455322265625,2.014159917831421,2.410888433456421,-2.716064214706421,80.0,954758.0,1.0
473304.8802052,264691.875,263596.90625,283515.34375,273340.21875,277704.0,256412.34375,242679.0625,237201.734375,0.01318359375,0.88037109375,-0.456298828125,2.349853277206421,2.319335699081421,-2.838134527206421,80.0,954759.0,1.0
473304.8826917,264444.21875,263368.75,282306.65625,271249.53125,275960.46875,256379.96875,241456.15625,236778.828125,0.01318359375,0.881103515625,-0.454833984375,2.655029058456421,2.014159917831421,-3.082275152206421,80.0,954760.0,1.0
473304.8851997,263844.03125,263388.84375,282484.3125,271636.375,276194.625,256442.296875,241925.375,236996.71875,0.0126953125,0.88330078125,-0.4560546875,3.021239995956421,1.9531248807907104,-3.143310308456421,80.0,954761.0,1.0
473304.8900781,263673.25,263614.96875,283813.25,274009.875,278110.15625,256511.671875,243468.53125,237559.890625,0.010498046875,0.8837890625,-0.457763671875,3.295898199081421,1.9531248807907104,-3.295898199081421,80.0,954762.0,1.0
473304.8926269,264168.84375,263734.15625,284445.53125,275070.40625,279055.1875,256492.984375,243949.71875,237674.875,0.013427734375,0.88427734375,-0.45703125,3.570556402206421,1.8310545682907104,-3.387450933456421,80.0,954763.0,1.0
473304.8951824,264686.34375,263596.0,283517.21875,273346.46875,277709.71875,256420.828125,242683.546875,237176.515625,0.0126953125,0.886474609375,-0.45751953125,3.875732183456421,1.7700194120407104,-3.448486089706421,80.0,954764.0,1.0
473304.8976953,264454.9375,263377.6875,282311.75,271256.21875,275967.78125,256388.734375,241459.375,236764.53125,0.012939453125,0.886474609375,-0.45458984375,4.119872570037842,1.7395018339157104,-3.540038824081421,80.0,954765.0,1.0
473304.9001914,263856.90625,263398.875,282480.8125,271618.21875,276179.6875,256433.265625,241910.796875,236985.640625,0.013427734375,0.885498046875,-0.453369140625,4.333495616912842,1.5869139432907104,-3.326415777206421,80.0,954766.0,1.0
473304.9026219,263684.875,263631.59375,283813.15625,273990.65625,278087.0,256504.703125,243449.484375,237552.921875,0.0126953125,0.8837890625,-0.454833984375,4.394530773162842,1.5258787870407104,-3.204345464706421,80.0,954767.0,1.0
473304.9051396,264182.6875,263760.625,284467.4375,275084.09375,279062.78125,256508.09375,243956.96875,237684.53125,0.0126953125,0.8857421875,-0.4560546875,4.699706554412842,1.4953612089157104,-3.051757574081421,80.0,954768.0,1.0
473304.9051798,264692.3125,263615.78125,283535.65625,273368.65625,277726.78125,256440.859375,242698.734375,237190.640625,0.012939453125,0.883544921875,-0.458984375,4.882812023162842,1.4648436307907104,-2.929687261581421,80.0,954769.0,1.0
473304.9075634,264454.59375,263390.8125,282313.8125,271259.8125,275971.71875,256414.671875,241459.921875,236768.734375,0.01220703125,0.883544921875,-0.459228515625,5.218505382537842,1.3427733182907104,-2.777099370956421,80.0,954770.0,1.0
473304.9100717,263859.84375,263413.1875,282471.96875,271605.625,276172.625,256476.09375,241899.4375,236983.75,0.009765625,0.88427734375,-0.4599609375,5.340575695037842,1.3122557401657104,-2.532958745956421,80.0,954771.0,1.0
473304.9127661,263689.625,263646.09375,283806.1875,273974.1875,278079.9375,256537.953125,243436.34375,237552.109375,0.008544921875,0.882568359375,-0.458984375,5.615233898162842,1.3122557401657104,-2.349853277206421,80.0,954772.0,1.0
473304.9128059,264181.375,263771.4375,284465.21875,275073.625,279053.3125,256515.609375,243942.84375,237682.203125,0.00732421875,0.884521484375,-0.459716796875,5.828856945037842,1.3427733182907104,-2.044677495956421,80.0,954773.0,1.0
473304.920236,264696.875,263630.4375,283543.4375,273375.625,277733.40625,256443.625,242696.5,237194.578125,0.00634765625,0.88330078125,-0.459228515625,6.011962413787842,1.2512205839157104,-1.8615721464157104,80.0,954774.0,1.0
473304.9225762,264465.75,263406.28125,282316.9375,271257.75,275972.625,256415.921875,241455.265625,236778.65625,0.0068359375,0.88525390625,-0.4599609375,6.164550304412842,1.0681151151657104,-1.5563963651657104,80.0,954775.0,1.0
473304.9699121,263865.5,263417.09375,282463.3125,271580.0625,276152.875,256470.28125,241878.609375,236994.3125,0.005126953125,0.8876953125,-0.460205078125,6.439208507537842,1.0070799589157104,-1.2512205839157104,80.0,954776.0,1.0
473304.9699531,263690.4375,263641.875,283799.84375,273948.8125,278061.09375,256547.96875,243415.78125,237564.71875,0.003662109375,0.88916015625,-0.459716796875,6.530761241912842,0.9155272841453552,-1.1291502714157104,80.0,954777.0,1.0
473304.9751928,264178.9375,263768.375,284469.15625,275076.21875,279059.65625,256541.71875,243939.984375,237694.546875,0.006103515625,0.88916015625,-0.458984375,6.713866710662842,0.7629393935203552,-0.9155272841453552,80.0,954778.0,1.0
473304.9802171,264688.9375,263622.5625,283547.90625,273387.6875,277742.6875,256466.15625,242694.890625,237202.359375,0.00537109375,0.89013671875,-0.45947265625,6.744384288787842,0.6408690810203552,-0.7019042372703552,80.0,954779.0,1.0
473304.9825428,264454.6875,263381.4375,282305.75,271253.71875,275962.875,256431.921875,241437.03125,236775.796875,0.003662109375,0.889892578125,-0.4609375,6.774901866912842,0.7019042372703552,-0.4577636420726776,80.0,954780.0,1.0
473304.9851823,263866.75,263394.84375,282446.84375,271562.625,276129.875,256497.546875,241852.140625,236993.6875,0.001708984375,0.8896484375,-0.46240234375,6.774901866912842,0.6103515028953552,-0.2441406100988388,80.0,954781.0,1.0
473304.9877042,263697.03125,263628.375,283789.125,273934.40625,278039.96875,256579.625,243394.234375,237574.375,0.001708984375,0.890869140625,-0.46337890625,6.927489757537842,0.3662109076976776,-0.0915527269244194,80.0,954782.0,1.0
473304.990176,264176.0,263755.34375,284470.03125,275081.84375,279052.25,256564.0625,243932.109375,237724.84375,0.00244140625,0.8896484375,-0.46337890625,6.927489757537842,0.3356933295726776,0.0,80.0,954783.0,1.0
473304.9951666,264674.96875,263605.84375,283547.09375,273402.25,277743.59375,256474.125,242694.0,237230.96875,0.0009765625,0.88916015625,-0.463134765625,6.988524913787842,0.3051757514476776,0.1220703050494194,80.0,954784.0,1.0
473304.9975637,264446.90625,263377.5,282303.25,271259.96875,275961.96875,256435.59375,241437.03125,236803.59375,0.00048828125,0.888671875,-0.464599609375,6.988524913787842,0.1525878757238388,0.4272460639476776,80.0,954785.0,1.0
473305.0050743,263853.6875,263391.625,282429.0625,271541.4375,276111.375,256491.734375,241837.21875,237006.640625,0.003173828125,0.89111328125,-0.468994140625,7.110595226287842,-0.1220703050494194,0.4577636420726776,80.0,954786.0,1.0
473305.0075466,263673.53125,263619.4375,283763.1875,273900.875,278008.34375,256558.25,243370.546875,237562.3125,0.00390625,0.89111328125,-0.465576171875,7.202147960662842,-0.0915527269244194,0.6103515028953552,80.0,954787.0,1.0
473305.0100043,264151.40625,263744.6875,284455.09375,275067.09375,279034.1875,256541.890625,243919.5,237691.5,0.005126953125,0.890380859375,-0.466552734375,7.202147960662842,-0.1220703050494194,0.7629393935203552,80.0,954788.0,1.0
473305.0125413,264663.8125,263602.28125,283550.65625,273415.03125,277750.9375,256480.734375,242705.171875,237201.90625,0.00390625,0.891357421875,-0.4697265625,7.232665538787842,-0.1525878757238388,0.9155272841453552,80.0,954789.0,1.0
473305.0150632,264434.375,263362.46875,282292.25,271255.96875,275953.9375,256446.765625,241434.96875,236755.765625,0.004150390625,0.890380859375,-0.46728515625,7.141112804412842,-0.2136230319738388,1.0375975370407104,80.0,954790.0,1.0
473305.0176036,263846.34375,263375.90625,282409.375,271519.875,276086.78125,256509.171875,241821.65625,236959.609375,0.00537109375,0.889404296875,-0.466552734375,7.110595226287842,-0.2136230319738388,1.1596678495407104,80.0,954791.0,1.0
473305.0176342,263673.53125,263613.90625,283754.4375,273886.75,277992.3125,256594.734375,243360.078125,237538.890625,0.005859375,0.8916015625,-0.4697265625,7.110595226287842,-0.1831054538488388,1.2512205839157104,80.0,954792.0,1.0
473305.0200984,264148.8125,263749.0625,284465.46875,275076.3125,279041.5,256591.0625,243929.0625,237688.546875,0.0068359375,0.889892578125,-0.47119140625,6.988524913787842,-0.2746581733226776,1.3122557401657104,80.0,954793.0,1.0
473305.0201285,264659.34375,263613.625,283567.03125,273432.375,277768.0,256519.09375,242722.4375,237200.203125,0.004150390625,0.8896484375,-0.47265625,6.958007335662842,-0.2746581733226776,1.3427733182907104,80.0,954794.0,1.0
473305.0242148,264444.75,263388.3125,282310.6875,271270.0,275975.3125,256482.609375,241453.296875,236753.171875,0.00732421875,0.890380859375,-0.471435546875,7.019042491912842,-0.3051757514476776,1.3732908964157104,80.0,954795.0,1.0
473305.0312376,263854.21875,263396.28125,282411.0,271506.125,276087.6875,256527.859375,241821.75,236934.578125,0.009521484375,0.8896484375,-0.470458984375,6.958007335662842,-0.3662109076976776,1.4343260526657104,80.0,954796.0,1.0
473305.0312462,263683.09375,263632.125,283757.1875,273871.28125,277988.75,256599.203125,243355.515625,237498.65625,0.0087890625,0.890380859375,-0.471435546875,6.927489757537842,-0.2441406100988388,1.6174315214157104,80.0,954797.0,1.0
473305.0336844,264159.8125,263766.5,284478.8125,275087.75,279057.25,256587.9375,243938.28125,237657.34375,0.009521484375,0.890380859375,-0.474365234375,6.896972179412842,-0.1831054538488388,1.6784666776657104,80.0,954798.0,1.0
473305.036203,264666.65625,263621.9375,283582.59375,273455.71875,277793.40625,256512.125,242734.40625,237168.46875,0.010498046875,0.890869140625,-0.4716796875,6.805419445037842,-0.2441406100988388,1.7700194120407104,80.0,954799.0,1.0
473305.0362091,264453.875,263388.6875,282319.4375,271283.21875,275988.53125,256480.640625,241455.09375,236723.21875,0.01220703125,0.892333984375,-0.47216796875,6.713866710662842,-0.1525878757238388,1.7089842557907104,80.0,954800.0,1.0
473305.0386896,263863.59375,263387.5,282404.75,271495.46875,276076.5,256523.203125,241801.0,236900.421875,0.013916015625,0.89111328125,-0.47216796875,6.713866710662842,0.03051757626235485,1.8310545682907104,80.0,954801.0,1.0
473305.04121,263686.9375,263617.90625,283743.15625,273850.8125,277969.34375,256590.96875,243324.671875,237472.71875,0.0146484375,0.891845703125,-0.4716796875,6.469726085662842,0.1525878757238388,1.7700194120407104,80.0,954802.0,1.0
473305.0436929,264154.53125,263749.96875,284469.5,275082.65625,279048.65625,256579.171875,243916.1875,237638.484375,0.015625,0.891845703125,-0.47314453125,6.439208507537842,0.3051757514476776,1.9226073026657104,80.0,954803.0,1.0
473305.0512726,264657.8125,263600.21875,283574.28125,273459.125,277785.96875,256492.359375,242721.0,237159.0,0.01513671875,0.890869140625,-0.4755859375,6.286620616912842,0.3967284858226776,1.8615721464157104,80.0,954804.0,1.0
473305.0512801,264450.9375,263364.28125,282304.6875,271276.34375,275973.34375,256455.171875,241439.359375,236723.140625,0.017333984375,0.890869140625,-0.474853515625,6.195067882537842,0.5493163466453552,1.9226073026657104,80.0,954805.0,1.0
473305.051282,263879.78125,263380.28125,282398.9375,271485.46875,276059.25,256510.328125,241790.1875,236920.28125,0.016357421875,0.8896484375,-0.476318359375,6.164550304412842,0.6408690810203552,1.9836424589157104,80.0,954806.0,1.0
473305.0538855,263715.375,263628.90625,283753.0,273852.96875,277956.21875,256586.5,243325.484375,237510.359375,0.017822265625,0.889892578125,-0.474853515625,6.042479991912842,0.7019042372703552,2.105712652206421,80.0,954807.0,1.0
473305.0564315,264183.0625,263772.15625,284500.53125,275108.0625,279055.8125,256576.84375,243939.0,237681.046875,0.019287109375,0.88818359375,-0.471923828125,5.920409679412842,0.9460448622703552,2.105712652206421,80.0,954808.0,1.0
473305.0564451,264689.09375,263629.0,283618.96875,273505.625,277821.75,256496.375,242763.46875,237199.3125,0.0185546875,0.8876953125,-0.474609375,5.798339366912842,1.1596678495407104,2.044677495956421,80.0,954809.0,1.0
473305.0587147,264474.625,263382.59375,282331.6875,271302.0,275994.96875,256449.796875,241463.3125,236733.0625,0.0205078125,0.88671875,-0.478271484375,5.798339366912842,1.3427733182907104,1.9836424589157104,80.0,954810.0,1.0
473305.0613557,263894.4375,263385.71875,282405.09375,271479.03125,276059.78125,256509.796875,241791.4375,236904.1875,0.021484375,0.887451171875,-0.476806640625,5.828856945037842,1.5869139432907104,2.166747808456421,80.0,954811.0,1.0
473305.0801593,263708.75,263617.28125,283737.96875,273821.3125,277937.875,256584.359375,243308.3125,237464.765625,0.02294921875,0.8876953125,-0.4794921875,5.767821788787842,1.7700194120407104,2.044677495956421,80.0,954812.0,1.0
473305.0827164,264164.8125,263756.40625,284485.25,275091.25,279045.625,256572.921875,243929.78125,237628.109375,0.0244140625,0.88818359375,-0.476806640625,5.676269054412842,2.105712652206421,2.075195074081421,80.0,954813.0,1.0
473305.0827318,264668.1875,263616.3125,283609.3125,273508.125,277826.5625,256492.09375,242763.46875,237145.3125,0.025146484375,0.8876953125,-0.478759765625,5.584716320037842,2.380370855331421,2.075195074081421,80.0,954814.0,1.0
473305.0903011,264464.15625,263381.0,282325.78125,271304.6875,276002.125,256452.125,241464.03125,236686.828125,0.025146484375,0.885986328125,-0.479248046875,5.615233898162842,2.624511480331421,2.044677495956421,80.0,954815.0,1.0
473305.0903201,263892.21875,263391.90625,282392.21875,271465.4375,276054.6875,256519.71875,241785.265625,236863.765625,0.025390625,0.885498046875,-0.480712890625,5.523681163787842,2.807616949081421,2.075195074081421,80.0,954816.0,1.0
473305.0903237,263707.25,263628.375,283725.5625,273801.8125,277929.46875,256598.21875,243303.3125,237436.875,0.02685546875,0.88427734375,-0.480224609375,5.462646007537842,2.990722417831421,2.014159917831421,80.0,954817.0,1.0
473305.0926759,264159.53125,263765.78125,284481.75,275083.90625,279049.28125,256577.03125,243933.359375,237611.921875,0.027587890625,0.88525390625,-0.479736328125,5.371093273162842,3.356933355331421,2.105712652206421,80.0,954818.0,1.0
473305.0926949,264668.375,263627.5625,283618.875,273520.0,277847.3125,256495.484375,242785.28125,237139.234375,0.02783203125,0.8837890625,-0.47705078125,5.157470226287842,3.692626714706421,2.105712652206421,80.0,954819.0,1.0
473305.1000133,264474.53125,263393.9375,282334.5625,271314.6875,276019.90625,256456.6875,241488.078125,236681.5625,0.02587890625,0.884521484375,-0.478759765625,5.126952648162842,3.906249761581421,2.105712652206421,80.0,954820.0,1.0
473305.1025271,263906.53125,263399.75,282389.8125,271453.375,276053.90625,256509.890625,241793.859375,236849.109375,0.025634765625,0.8828125,-0.480224609375,5.157470226287842,4.089354991912842,2.014159917831421,80.0,954821.0,1.0
473305.1062537,263710.90625,263622.65625,283713.65625,273773.9375,277912.3125,256560.3125,243295.078125,237402.71875,0.02783203125,0.8828125,-0.4814453125,5.065917491912842,4.364013195037842,1.9531248807907104,80.0,954822.0,1.0
473305.1301616,264156.875,263760.34375,284484.25,275077.65625,279046.25,256537.328125,243936.578125,237578.3125,0.02783203125,0.8837890625,-0.48193359375,4.943847179412842,4.547118663787842,1.8920897245407104,80.0,954823.0,1.0
473305.1335034,264664.15625,263621.9375,283625.6875,273529.03125,277852.65625,256458.828125,242789.390625,237107.578125,0.02734375,0.885009765625,-0.482177734375,4.760741710662842,4.791259288787842,1.8005369901657104,80.0,954824.0,1.0
473305.133517,264468.0,263382.34375,282331.15625,271313.34375,276017.0625,256420.390625,241476.90625,236645.34375,0.027587890625,0.88330078125,-0.481689453125,4.760741710662842,5.004882335662842,1.8310545682907104,80.0,954825.0,1.0
473305.1335189,263897.5,263387.875,282373.71875,271429.9375,276032.53125,256475.109375,241766.21875,236806.8125,0.027587890625,0.884765625,-0.483154296875,4.669188976287842,5.187987804412842,1.7395018339157104,80.0,954826.0,1.0
473305.1335209,263708.5625,263622.75,283706.59375,273758.90625,277899.96875,256550.5625,243278.546875,237378.3125,0.028076171875,0.885498046875,-0.481201171875,4.608153820037842,5.432128429412842,1.6479490995407104,80.0,954827.0,1.0
473305.1451657,264147.03125,263761.3125,284484.15625,275081.9375,279048.9375,256537.328125,243934.34375,237570.71875,0.028076171875,0.884765625,-0.4814453125,4.608153820037842,5.737304210662842,1.5258787870407104,80.0,954828.0,1.0
473305.1451796,264658.34375,263629.625,283637.75,273554.34375,277872.15625,256447.828125,242807.28125,237123.046875,0.030029296875,0.884521484375,-0.48291015625,4.486083507537842,5.981444835662842,1.4953612089157104,80.0,954829.0,1.0
473305.1451822,264461.65625,263384.84375,282333.5625,271324.09375,276019.75,256383.734375,241483.078125,236659.203125,0.0322265625,0.882568359375,-0.4833984375,4.302978038787842,6.225585460662842,1.4343260526657104,80.0,954830.0,1.0
473305.1474683,263887.3125,263387.5,282360.9375,271410.8125,276012.3125,256434.953125,241755.671875,236816.75,0.031982421875,0.88427734375,-0.4814453125,4.150390148162842,6.500243663787842,1.3732908964157104,80.0,954831.0,1.0
