Time,FZ,C3,CZ,C4,PZ,PO7,OZ,PO8,AccX,AccY,AccZ,Gyro1,Gyro2,Gyro3,Battery,Counter,Validation
1136626.8984586,289783.125,282752.09375,319864.5625,291295.46875,296008.90625,275980.84375,276186.84375,275340.96875,-0.062255859375,0.9638671875,-0.349609375,19.622800827026367,-10.742186546325684,-4.821776866912842,60.0,2949218.0,1.0
1136626.9017305,289770.8125,282796.96875,319967.125,291372.0,296110.125,276010.875,276224.84375,275458.25,-0.060546875,0.971923828125,-0.348876953125,18.676755905151367,-9.582518577575684,-3.875732183456421,60.0,2949219.0,1.0
1136626.901774,289238.65625,282877.34375,319506.5,290475.5,295928.78125,276124.875,276216.875,275458.96875,-0.056640625,0.978271484375,-0.3505859375,17.669675827026367,-8.392333030700684,-2.990722417831421,60.0,2949220.0,1.0
1136626.9034694,288896.65625,282881.28125,319074.65625,289765.34375,295674.34375,276154.46875,276147.15625,275281.3125,-0.054443359375,0.9853515625,-0.350341796875,16.540525436401367,-7.110595226287842,-2.136230230331421,60.0,2949221.0,1.0
1136626.9071306,289255.1875,282825.125,319316.5,290292.65625,295735.125,276080.96875,276143.65625,275216.875,-0.05712890625,0.99072265625,-0.346923828125,15.350340843200684,-5.828856945037842,-1.1901854276657104,60.0,2949222.0,1.0
1136626.9159678,289815.6875,282791.25,319896.46875,291318.78125,296031.0,276008.84375,276213.21875,275361.53125,-0.057861328125,0.98974609375,-0.347900390625,13.977049827575684,-4.608153820037842,-0.3662109076976776,60.0,2949223.0,1.0
1136626.9202585,289797.1875,282825.9375,319990.09375,291391.40625,296127.5625,276030.28125,276245.75,275471.5,-0.0576171875,0.98486328125,-0.34765625,12.786864280700684,-3.326415777206421,0.3967284858226776,60.0,2949224.0,1.0
1136626.9202937,289237.21875,282879.125,319500.15625,290468.71875,295920.40625,276117.46875,276211.0625,275441.53125,-0.0595703125,0.98095703125,-0.348876953125,11.444090843200684,-2.166747808456421,1.1291502714157104,60.0,2949225.0,1.0
1136626.9221293,288884.78125,282864.75,319057.9375,289753.1875,295652.53125,276130.875,276125.6875,275252.0,-0.06103515625,0.9755859375,-0.349853515625,10.375975608825684,-1.0375975370407104,1.7700194120407104,60.0,2949226.0,1.0
1136626.9365101,289250.90625,282821.03125,319308.90625,290294.53125,295722.34375,276066.9375,276131.9375,275206.125,-0.062255859375,0.964599609375,-0.352783203125,9.185790061950684,-0.03051757626235485,2.349853277206421,60.0,2949227.0,1.0
1136626.9365417,289806.90625,282786.78125,319885.84375,291307.0,296018.28125,276000.25,276204.8125,275344.71875,-0.06201171875,0.95458984375,-0.35400390625,8.239745140075684,1.0375975370407104,2.593993902206421,60.0,2949228.0,1.0
1136626.9389497,289787.4375,282822.53125,319973.28125,291373.59375,296105.46875,276015.09375,276229.9375,275438.25,-0.064208984375,0.941650390625,-0.3544921875,7.324218273162842,1.9531248807907104,2.899169683456421,60.0,2949229.0,1.0
1136626.9389791,289250.625,282893.53125,319508.625,290486.9375,295912.78125,276113.71875,276205.34375,275419.71875,-0.06689453125,0.9306640625,-0.35888671875,6.683349132537842,2.838134527206421,3.112792730331421,60.0,2949230.0,1.0
1136626.9409673,288887.71875,282881.71875,319058.65625,289756.3125,295642.34375,276127.5625,276118.53125,275225.625,-0.069580078125,0.92138671875,-0.361083984375,6.225585460662842,3.662109136581421,3.265380620956421,60.0,2949231.0,1.0
1136626.9446908,289239.28125,282817.71875,319298.96875,290276.03125,295710.46875,276062.28125,276124.625,275177.625,-0.069580078125,0.910888671875,-0.3583984375,5.859374523162842,4.333495616912842,3.387450933456421,60.0,2949232.0,1.0
1136626.9534414,289800.46875,282778.8125,319874.5,291298.84375,296001.40625,275989.6875,276193.46875,275318.875,-0.07470703125,0.900146484375,-0.359619140625,5.615233898162842,5.035399913787842,3.356933355331421,60.0,2949233.0,1.0
1136626.9602591,289780.90625,282814.65625,319962.46875,291363.59375,296088.46875,276005.15625,276219.46875,275410.4375,-0.0791015625,0.890625,-0.363525390625,5.554198741912842,5.615233898162842,3.234863042831421,60.0,2949234.0,1.0
1136626.9602902,289250.09375,282884.5,319502.375,290488.125,295899.8125,276104.0625,276196.40625,275399.15625,-0.084228515625,0.88525390625,-0.3642578125,5.615233898162842,6.134032726287842,3.112792730331421,60.0,2949235.0,1.0
1136626.9621895,288902.9375,282874.9375,319063.03125,289771.25,295643.5,276128.28125,276119.25,275215.53125,-0.08642578125,0.88037109375,-0.365234375,5.859374523162842,6.622313976287842,2.960204839706421,60.0,2949236.0,1.0
1136626.979011,289238.1875,282808.9375,319287.09375,290259.21875,295695.09375,276049.34375,276111.90625,275148.46875,-0.092041015625,0.87548828125,-0.365478515625,6.072997570037842,6.866454601287842,2.563476324081421,60.0,2949237.0,1.0
1136626.9790426,289807.09375,282783.1875,319877.4375,291298.78125,296001.3125,275990.0625,276195.0625,275310.03125,-0.095703125,0.871826171875,-0.363525390625,6.195067882537842,7.019042491912842,2.349853277206421,60.0,2949238.0,1.0
1136626.9809657,289794.125,282820.5625,319975.96875,291385.75,296100.8125,276013.5625,276229.9375,275423.84375,-0.103271484375,0.86767578125,-0.363037109375,6.469726085662842,7.080077648162842,2.044677495956421,60.0,2949239.0,1.0
1136626.9834414,289284.25,282911.6875,319534.21875,290520.84375,295930.5,276132.03125,276225.03125,275427.6875,-0.10986328125,0.866455078125,-0.3642578125,6.896972179412842,7.110595226287842,1.6784666776657104,60.0,2949240.0,1.0
1136626.9859019,288925.46875,282888.59375,319086.90625,289795.5625,295660.40625,276141.59375,276134.53125,275232.34375,-0.117431640625,0.86865234375,-0.36181640625,7.263183116912842,6.958007335662842,1.3427733182907104,60.0,2949241.0,1.0
1136626.9889688,289250.1875,282814.3125,319304.53125,290290.96875,295707.4375,276055.78125,276121.21875,275167.15625,-0.12255859375,0.866943359375,-0.363525390625,7.476806163787842,6.713866710662842,0.9765624403953552,60.0,2949242.0,1.0
1136626.9889878,289835.8125,282808.40625,319911.5,291354.8125,296033.5,276013.84375,276220.625,275345.4375,-0.12646484375,0.86474609375,-0.362060546875,7.629394054412842,6.317138195037842,0.5187987685203552,60.0,2949243.0,1.0
1136626.9971023,289826.5,282845.34375,320013.78125,291455.9375,296134.0625,276036.28125,276253.0,275452.4375,-0.129638671875,0.86328125,-0.361572265625,8.026122093200684,5.859374523162842,0.03051757626235485,60.0,2949244.0,1.0
1136627.0014756,289279.59375,282890.9375,319522.5,290504.03125,295916.46875,276110.65625,276203.46875,275415.78125,-0.135498046875,0.863037109375,-0.362060546875,8.300780296325684,5.249022960662842,-0.3967284858226776,60.0,2949245.0,1.0
1136627.0015044,288934.75,282877.6875,319082.25,289775.71875,295655.375,276125.78125,276118.1875,275231.25,-0.142333984375,0.86083984375,-0.3623046875,8.483885765075684,4.608153820037842,-0.7629393935203552,60.0,2949246.0,1.0
1136627.0034231,289273.4375,282817.25,319310.15625,290282.9375,295715.125,276052.625,276116.125,275175.1875,-0.141357421875,0.855712890625,-0.367431640625,8.575438499450684,4.089354991912842,-1.4953612089157104,60.0,2949247.0,1.0
1136627.0146922,289849.3125,282803.75,319906.40625,291326.9375,296031.625,276005.53125,276208.21875,275337.375,-0.137451171875,0.850341796875,-0.3701171875,8.911131858825684,3.417968511581421,-2.227782964706421,60.0,2949248.0,1.0
1136627.0177568,289843.9375,282841.3125,320009.40625,291425.53125,296133.09375,276029.125,276243.0,275449.5,-0.13134765625,0.85009765625,-0.37158203125,9.521483421325684,2.807616949081421,-2.838134527206421,60.0,2949249.0,1.0
1136627.017788,289315.0,282908.1875,319546.46875,290537.46875,295941.03125,276125.78125,276217.59375,275436.96875,-0.127197265625,0.853271484375,-0.37353515625,10.040282249450684,2.227782964706421,-3.234863042831421,60.0,2949250.0,1.0
1136627.0259662,288967.65625,282899.6875,319112.5625,289818.0,295686.5,276149.125,276141.59375,275263.71875,-0.119140625,0.8583984375,-0.373046875,10.437010765075684,1.7395018339157104,-3.417968511581421,60.0,2949251.0,1.0
1136627.0284437,289310.90625,282843.8125,319345.125,290327.0,295744.78125,276081.25,276142.6875,275203.625,-0.115966796875,0.861328125,-0.371337890625,10.864256858825684,1.3427733182907104,-3.295898199081421,60.0,2949252.0,1.0
1136627.0327255,289855.90625,282804.46875,319910.6875,291331.65625,296030.0,276009.28125,276210.0,275336.03125,-0.109375,0.8671875,-0.3740234375,11.138915061950684,0.9155272841453552,-3.112792730331421,60.0,2949253.0,1.0
1136627.032757,289857.53125,282852.5,320021.46875,291429.21875,296134.875,276041.03125,276251.75,275453.0,-0.104736328125,0.871337890625,-0.37890625,11.352538108825684,0.7019042372703552,-2.746581792831421,60.0,2949254.0,1.0
1136627.0458974,289340.21875,282924.0,319572.125,290578.875,295950.15625,276138.125,276226.8125,275448.53125,-0.0986328125,0.876953125,-0.37890625,11.627196311950684,0.5493163466453552,-2.593993902206421,60.0,2949255.0,1.0
1136627.0507343,288994.375,282912.03125,319139.65625,289873.09375,295698.5625,276158.78125,276150.09375,275276.6875,-0.093505859375,0.878173828125,-0.38037109375,11.596678733825684,0.3051757514476776,-2.319335699081421,60.0,2949256.0,1.0
1136627.0507533,289310.0,282839.25,319345.03125,290329.78125,295746.125,276079.1875,276138.1875,275206.21875,-0.087890625,0.8837890625,-0.38232421875,11.688231468200684,0.2746581733226776,-1.8920897245407104,60.0,2949257.0,1.0
1136627.0507599,289867.09375,282811.0,319917.75,291341.40625,296038.21875,276015.4375,276212.5,275348.75,-0.08544921875,0.88818359375,-0.38671875,11.779784202575684,0.3967284858226776,-1.4038084745407104,60.0,2949258.0,1.0
1136627.05344,289855.8125,282842.375,320011.375,291425.8125,296122.8125,276027.875,276236.71875,275443.40625,-0.08349609375,0.895751953125,-0.387939453125,11.810301780700684,0.5493163466453552,-0.7934569716453552,60.0,2949259.0,1.0
1136627.0646714,289326.8125,282909.0,319557.53125,290555.96875,295935.84375,276124.6875,276214.90625,275438.25,-0.082763671875,0.9013671875,-0.391357421875,11.749266624450684,0.7324218153953552,-0.2746581733226776,60.0,2949260.0,1.0
1136627.0720445,288978.21875,282897.71875,319125.625,289846.78125,295683.90625,276146.6875,276138.125,275265.40625,-0.079345703125,0.90478515625,-0.392822265625,11.596678733825684,1.0070799589157104,0.3662109076976776,60.0,2949261.0,1.0
1136627.0720741,289316.4375,282845.34375,319348.96875,290330.125,295743.625,276083.9375,276143.125,275207.125,-0.07373046875,0.90869140625,-0.393310546875,11.444090843200684,1.3732908964157104,0.8544921278953552,60.0,2949262.0,1.0
1136627.0720808,289866.03125,282819.59375,319914.53125,291329.53125,296034.46875,276024.46875,276222.34375,275348.5625,-0.069091796875,0.913330078125,-0.391845703125,11.352538108825684,1.6784666776657104,1.4648436307907104,60.0,2949263.0,1.0
1136627.0764411,289847.96875,282854.1875,320007.53125,291410.34375,296127.8125,276042.34375,276250.59375,275446.5625,-0.068359375,0.914306640625,-0.39208984375,11.016844749450684,2.105712652206421,2.136230230331421,60.0,2949264.0,1.0
1136627.0764726,289335.65625,282930.28125,319571.03125,290569.21875,295957.3125,276145.8125,276233.59375,275458.53125,-0.06591796875,0.917724609375,-0.392333984375,10.711668968200684,2.502441167831421,2.807616949081421,60.0,2949265.0,1.0
1136627.0846906,288991.34375,282913.03125,319147.0625,289867.09375,295707.6875,276166.375,276157.78125,275292.3125,-0.0673828125,0.919189453125,-0.3916015625,10.192870140075684,2.960204839706421,3.540038824081421,60.0,2949266.0,1.0
1136627.088969,289301.25,282831.3125,319347.53125,290324.0625,295741.21875,276079.0,276139.46875,275208.1875,-0.07080078125,0.919677734375,-0.388916015625,9.765624046325684,3.265380620956421,4.058837413787842,60.0,2949267.0,1.0
1136627.088997,289829.375,282780.78125,319887.53125,291295.375,296005.875,275990.6875,276194.09375,275325.03125,-0.075439453125,0.9208984375,-0.38818359375,9.277342796325684,3.570556402206421,4.669188976287842,60.0,2949268.0,1.0
1136627.0921266,289817.46875,282820.46875,319983.21875,291381.03125,296097.25,276007.59375,276226.34375,275434.21875,-0.079345703125,0.92236328125,-0.386474609375,8.758543968200684,3.784179449081421,5.187987804412842,60.0,2949269.0,1.0
1136627.1065101,289313.46875,282904.4375,319557.8125,290559.625,295935.84375,276122.1875,276222.25,275458.09375,-0.08544921875,0.9208984375,-0.385009765625,8.117674827575684,3.906249761581421,5.584716320037842,60.0,2949270.0,1.0
1136627.1065422,288995.03125,282925.90625,319164.25,289907.875,295718.78125,276172.0,276171.1875,275325.6875,-0.08642578125,0.924072265625,-0.385986328125,7.446288585662842,4.058837413787842,5.981444835662842,60.0,2949271.0,1.0
1136627.1090331,289305.875,282854.8125,319370.3125,290364.71875,295767.0625,276093.78125,276162.96875,275259.34375,-0.08642578125,0.923583984375,-0.3857421875,6.958007335662842,4.180907726287842,6.225585460662842,60.0,2949272.0,1.0
1136627.1090673,289826.3125,282783.1875,319906.59375,291323.09375,296034.375,276008.90625,276221.625,275377.625,-0.088134765625,0.921875,-0.38427734375,6.378173351287842,4.150390148162842,6.439208507537842,60.0,2949273.0,1.0
1136627.1197213,289816.21875,282824.5,320004.5,291404.625,296127.28125,276032.625,276258.09375,275485.71875,-0.088134765625,0.920654296875,-0.38623046875,5.828856945037842,4.180907726287842,6.683349132537842,60.0,2949274.0,1.0
1136627.124033,289315.71875,282911.3125,319581.5,290583.0625,295968.59375,276143.9375,276253.09375,275514.40625,-0.087890625,0.91796875,-0.3837890625,5.218505382537842,4.089354991912842,6.774901866912842,60.0,2949275.0,1.0
1136627.1240651,288965.25,282892.09375,319158.0625,289891.3125,295722.90625,276159.65625,276173.6875,275356.53125,-0.08740234375,0.915771484375,-0.3818359375,4.577636241912842,4.028319835662842,6.927489757537842,60.0,2949276.0,1.0
1136627.137702,289281.9375,282826.84375,319365.84375,290355.25,295767.9375,276082.6875,276164.84375,275289.8125,-0.0869140625,0.90771484375,-0.3857421875,4.028319835662842,3.997802495956421,6.927489757537842,60.0,2949277.0,1.0
1136627.1377355,289805.21875,282781.6875,319901.03125,291311.5625,296030.8125,275999.4375,276220.8125,275400.6875,-0.085205078125,0.9013671875,-0.38623046875,3.479003667831421,3.906249761581421,6.896972179412842,60.0,2949278.0,1.0
1136627.1448291,289803.0625,282823.625,320007.34375,291407.9375,296133.09375,276024.75,276259.4375,275512.96875,-0.08203125,0.894775390625,-0.388427734375,3.234863042831421,3.784179449081421,6.683349132537842,60.0,2949279.0,1.0
1136627.1448735,289302.5,282901.84375,319588.375,290594.0625,295978.59375,276136.0625,276255.78125,275545.34375,-0.079833984375,0.8876953125,-0.39111328125,3.143310308456421,3.723144292831421,6.561278820037842,60.0,2949280.0,1.0
1136627.1448862,288960.5,282886.1875,319168.96875,289910.46875,295737.09375,276157.5,276181.84375,275393.4375,-0.0791015625,0.883056640625,-0.39453125,2.929687261581421,3.662109136581421,6.439208507537842,60.0,2949281.0,1.0
1136627.147815,289278.15625,282825.125,319373.4375,290362.6875,295777.59375,276082.78125,276172.28125,275320.125,-0.07763671875,0.88037109375,-0.39599609375,2.807616949081421,3.601073980331421,6.195067882537842,60.0,2949282.0,1.0
1136627.1478574,289803.25,282782.9375,319906.5,291307.875,296036.0,276005.0625,276229.21875,275416.6875,-0.077392578125,0.87548828125,-0.3974609375,2.868652105331421,3.417968511581421,6.011962413787842,60.0,2949283.0,1.0
1136627.1610381,289786.0,282810.8125,319991.53125,291381.90625,296116.0,276014.8125,276249.0625,275499.03125,-0.075927734375,0.87060546875,-0.398681640625,2.929687261581421,3.479003667831421,5.706786632537842,60.0,2949284.0,1.0
1136627.1641091,289273.96875,282877.0625,319554.21875,290553.1875,295944.8125,276113.09375,276228.3125,275512.1875,-0.072998046875,0.867431640625,-0.399658203125,3.112792730331421,3.479003667831421,5.523681163787842,60.0,2949285.0,1.0
1136627.1641559,288943.4375,282873.21875,319149.21875,289887.03125,295715.1875,276145.8125,276165.65625,275371.34375,-0.06787109375,0.8642578125,-0.400146484375,3.417968511581421,3.356933355331421,5.249022960662842,60.0,2949286.0,1.0
1136627.166148,289262.96875,282809.84375,319357.90625,290345.5,295761.25,276073.21875,276156.34375,275295.1875,-0.064208984375,0.861328125,-0.400634765625,3.662109136581421,3.387450933456421,5.096435070037842,60.0,2949287.0,1.0
1136627.1685043,289778.84375,282758.4375,319877.8125,291282.75,296011.125,275988.4375,276200.875,275381.65625,-0.059326171875,0.86083984375,-0.400390625,3.967284917831421,3.448486089706421,4.943847179412842,60.0,2949288.0,1.0
1136627.1721783,289773.03125,282796.78125,319970.0625,291364.5625,296097.96875,276001.40625,276225.71875,275476.59375,-0.056640625,0.860595703125,-0.397705078125,4.180907726287842,3.479003667831421,4.821776866912842,60.0,2949289.0,1.0
1136627.1860685,289286.75,282892.46875,319559.0625,290561.875,295945.4375,276115.21875,276224.5625,275511.8125,-0.051513671875,0.85791015625,-0.400146484375,4.425048351287842,3.570556402206421,4.699706554412842,60.0,2949290.0,1.0
1136627.188995,288961.3125,282892.1875,319157.96875,289896.15625,295718.96875,276151.625,276167.53125,275371.4375,-0.046630859375,0.854248046875,-0.40087890625,4.516601085662842,3.692626714706421,4.669188976287842,60.0,2949291.0,1.0
1136627.1890398,289269.21875,282823.875,319357.0,290343.09375,295758.21875,276077.5,276156.96875,275292.9375,-0.044189453125,0.847900390625,-0.40087890625,4.791259288787842,3.936767339706421,4.608153820037842,60.0,2949292.0,1.0
1136627.1909864,289782.15625,282768.90625,319879.9375,291280.53125,296015.0625,275996.75,276212.5,275385.9375,-0.039794921875,0.841796875,-0.401123046875,4.974364757537842,4.058837413787842,4.516601085662842,60.0,2949293.0,1.0
1136627.2060013,289790.5625,282826.75,319992.6875,291382.625,296116.46875,276029.65625,276258.90625,275493.21875,-0.041748046875,0.8388671875,-0.400146484375,5.493163585662842,4.211425304412842,4.455565929412842,60.0,2949294.0,1.0
1136627.2060426,289290.25,282901.40625,319577.03125,290579.5,295958.03125,276131.21875,276247.71875,275523.71875,-0.043212890625,0.838134765625,-0.400634765625,5.889892101287842,4.364013195037842,4.364013195037842,60.0,2949295.0,1.0
1136627.2060539,288946.375,282879.9375,319161.1875,289903.40625,295719.75,276153.21875,276172.8125,275377.4375,-0.047119140625,0.841552734375,-0.399169921875,6.378173351287842,4.425048351287842,4.211425304412842,60.0,2949296.0,1.0
1136627.2085463,289263.15625,282834.875,319362.8125,290347.84375,295758.375,276086.09375,276158.84375,275294.28125,-0.05419921875,0.845458984375,-0.397705078125,6.744384288787842,4.425048351287842,3.936767339706421,60.0,2949297.0,1.0
1136627.2111726,289780.09375,282786.0625,319886.90625,291277.3125,296016.5,276003.46875,276214.03125,275381.71875,-0.0654296875,0.853759765625,-0.393310546875,6.927489757537842,4.394530773162842,3.662109136581421,60.0,2949298.0,1.0
1136627.2135414,289765.875,282789.53125,319972.75,291357.3125,296096.4375,275999.875,276233.5,275464.96875,-0.07177734375,0.8623046875,-0.3935546875,6.896972179412842,4.058837413787842,3.265380620956421,60.0,2949299.0,1.0
1136627.2222425,289280.125,282880.21875,319569.0,290569.03125,295950.0,276115.6875,276234.3125,275509.3125,-0.079833984375,0.86962890625,-0.39111328125,6.835937023162842,3.570556402206421,2.716064214706421,60.0,2949300.0,1.0
1136627.2266147,288955.59375,282884.21875,319175.15625,289913.21875,295733.71875,276160.90625,276181.5625,275384.15625,-0.087158203125,0.87890625,-0.388916015625,6.622313976287842,3.112792730331421,2.319335699081421,60.0,2949301.0,1.0
1136627.2266581,289262.6875,282825.75,319367.375,290347.375,295765.53125,276085.71875,276165.21875,275293.5625,-0.095947265625,0.886962890625,-0.388427734375,6.256103038787842,2.380370855331421,1.7089842557907104,60.0,2949302.0,1.0
1136627.2323988,289765.875,282775.59375,319875.84375,291266.84375,296008.53125,275998.28125,276209.46875,275368.21875,-0.10302734375,0.89208984375,-0.390625,6.042479991912842,1.6479490995407104,1.0986326932907104,60.0,2949303.0,1.0
1136627.239063,289773.03125,282818.6875,319980.25,291367.875,296102.34375,276021.625,276245.5,275469.71875,-0.109130859375,0.900390625,-0.39013671875,5.615233898162842,0.8239745497703552,0.5493163466453552,60.0,2949304.0,1.0
1136627.2391044,289296.21875,282916.3125,319585.15625,290586.375,295962.5,276145.09375,276253.0,275511.625,-0.11328125,0.9091796875,-0.3896484375,4.974364757537842,-0.03051757626235485,-0.2746581733226776,60.0,2949305.0,1.0
1136627.2472954,288961.65625,282908.625,319179.15625,289914.03125,295734.15625,276178.4375,276187.03125,275369.5625,-0.115966796875,0.916015625,-0.391357421875,4.272460460662842,-0.9765624403953552,-1.0375975370407104,60.0,2949306.0,1.0
1136627.2515727,289264.3125,282838.0,319365.9375,290344.53125,295765.375,276102.875,276169.6875,275276.21875,-0.120361328125,0.92431640625,-0.391845703125,3.601073980331421,-2.014159917831421,-1.8920897245407104,60.0,2949307.0,1.0
1136627.2516229,289776.0625,282782.65625,319873.0625,291260.3125,295999.0625,276004.1875,276207.59375,275339.0,-0.123779296875,0.928955078125,-0.387451171875,2.777099370956421,-2.960204839706421,-2.502441167831421,60.0,2949308.0,1.0
1136627.2629738,289764.4375,282788.5625,319960.59375,291349.0,296080.53125,276005.96875,276231.375,275427.40625,-0.13037109375,0.9345703125,-0.38330078125,1.7700194120407104,-4.119872570037842,-3.112792730331421,60.0,2949309.0,1.0
1136627.2630177,289278.09375,282875.03125,319557.1875,290561.78125,295934.53125,276121.75,276232.09375,275476.0625,-0.1357421875,0.9375,-0.38623046875,0.7324218153953552,-5.157470226287842,-3.784179449081421,60.0,2949310.0,1.0
1136627.2672572,288942.1875,282873.21875,319154.40625,289889.96875,295708.59375,276155.71875,276167.71875,275345.25,-0.135498046875,0.939453125,-0.38671875,-0.2746581733226776,-6.256103038787842,-4.425048351287842,60.0,2949311.0,1.0
1136627.2697306,289256.09375,282816.71875,319354.21875,290341.03125,295751.59375,276086.625,276162.15625,275268.8125,-0.135498046875,0.93994140625,-0.3876953125,-1.3122557401657104,-7.415771007537842,-5.065917491912842,60.0,2949312.0,1.0
1136627.2722396,289759.1875,282764.34375,319862.5,291258.8125,295993.34375,275999.1875,276207.125,275344.8125,-0.13427734375,0.940185546875,-0.386962890625,-2.349853277206421,-8.514403343200684,-5.645751476287842,60.0,2949313.0,1.0
1136627.2759916,289751.3125,282794.09375,319955.03125,291337.375,296077.46875,276010.8125,276231.1875,275437.96875,-0.131103515625,0.937744140625,-0.385986328125,-3.234863042831421,-9.460448265075684,-6.134032726287842,60.0,2949314.0,1.0
1136627.2828945,289268.34375,282883.0625,319552.09375,290550.34375,295935.40625,276128.625,276232.96875,275490.90625,-0.124755859375,0.9365234375,-0.3857421875,-4.211425304412842,-10.314940452575684,-6.530761241912842,60.0,2949315.0,1.0
1136627.2829382,288937.34375,282883.78125,319149.21875,289884.15625,295712.78125,276165.75,276175.84375,275360.0,-0.117431640625,0.931640625,-0.384765625,-5.065917491912842,-11.169432640075684,-6.774901866912842,60.0,2949316.0,1.0
1136627.2953526,289233.28125,282808.0625,319332.59375,290314.21875,295740.6875,276081.875,276155.1875,275263.28125,-0.110595703125,0.92822265625,-0.385498046875,-5.950927257537842,-11.840819358825684,-6.744384288787842,60.0,2949317.0,1.0
1136627.2953948,289754.34375,282764.15625,319852.3125,291248.4375,295987.09375,275996.125,276201.3125,275334.78125,-0.105712890625,0.923828125,-0.38671875,-6.622313976287842,-12.390135765075684,-6.652831554412842,60.0,2949318.0,1.0
1136627.2973013,289759.625,282803.03125,319955.59375,291352.5,296078.28125,276010.625,276230.28125,275425.09375,-0.101806640625,0.91845703125,-0.387939453125,-7.202147960662842,-12.756346702575684,-6.591796398162842,60.0,2949319.0,1.0
1136627.2999003,289266.53125,282882.71875,319542.34375,290547.65625,295927.90625,276121.3125,276228.9375,275467.125,-0.09765625,0.91162109375,-0.389404296875,-7.690429210662842,-13.244627952575684,-6.439208507537842,60.0,2949320.0,1.0
1136627.3034998,288927.875,282875.375,319132.21875,289872.625,295698.125,276153.03125,276166.90625,275338.375,-0.09619140625,0.90283203125,-0.39013671875,-8.117674827575684,-13.702391624450684,-6.225585460662842,60.0,2949321.0,1.0
1136627.3078745,289228.90625,282797.5,319317.75,290307.15625,295723.78125,276066.84375,276140.34375,275245.46875,-0.09375,0.894775390625,-0.386962890625,-8.300780296325684,-13.916014671325684,-5.920409679412842,60.0,2949322.0,1.0
1136627.3079183,289743.1875,282744.75,319829.34375,291233.5,295963.40625,275974.59375,276176.28125,275310.75,-0.09326171875,0.885498046875,-0.38720703125,-8.422850608825684,-14.160155296325684,-5.737304210662842,60.0,2949323.0,1.0
1136627.3210711,289758.71875,282795.28125,319941.1875,291336.0625,296062.5625,276002.40625,276214.75,275406.40625,-0.093505859375,0.878173828125,-0.3876953125,-8.483885765075684,-14.251708030700684,-5.340575695037842,60.0,2949324.0,1.0
1136627.3242445,289265.21875,282880.65625,319535.28125,290540.5,295916.90625,276121.40625,276222.15625,275463.4375,-0.093505859375,0.87109375,-0.3857421875,-8.331297874450684,-14.465331077575684,-5.157470226287842,60.0,2949325.0,1.0
1136627.3242882,288949.15625,282897.71875,319151.90625,289905.71875,295710.28125,276176.125,276181.125,275366.34375,-0.091552734375,0.86669921875,-0.387939453125,-8.148192405700684,-14.495848655700684,-4.882812023162842,60.0,2949326.0,1.0
1136627.3503419,289239.71875,282811.4375,319323.84375,290327.28125,295725.75,276081.15625,276146.34375,275252.4375,-0.09130859375,0.864501953125,-0.385986328125,-7.690429210662842,-14.556883811950684,-4.547118663787842,60.0,2949327.0,1.0
1136627.350385,289755.78125,282759.0625,319839.1875,291254.5,295970.90625,275992.28125,276187.90625,275313.6875,-0.094482421875,0.86083984375,-0.387451171875,-7.202147960662842,-14.709471702575684,-4.333495616912842,60.0,2949328.0,1.0
1136627.3535287,289762.84375,282797.3125,319940.84375,291340.875,296062.625,276010.09375,276221.4375,275404.875,-0.09814453125,0.85888671875,-0.385498046875,-6.713866710662842,-14.709471702575684,-3.997802495956421,60.0,2949329.0,1.0
1136627.3535731,289285.6875,282891.65625,319545.84375,290568.40625,295930.21875,276136.0625,276240.84375,275471.0625,-0.102294921875,0.857421875,-0.384033203125,-6.317138195037842,-14.923094749450684,-3.814697027206421,60.0,2949330.0,1.0
1136627.353586,288930.1875,282879.5,319126.40625,289882.8125,295696.4375,276165.125,276176.8125,275338.46875,-0.10302734375,0.859375,-0.3828125,-5.828856945037842,-15.045165061950684,-3.570556402206421,60.0,2949331.0,1.0
1136627.3577485,289218.53125,282795.4375,319302.90625,290303.21875,295715.75,276071.5,276145.0,275233.84375,-0.109619140625,0.857177734375,-0.37841796875,-5.432128429412842,-15.228270530700684,-3.356933355331421,60.0,2949332.0,1.0
1136627.3577972,289729.9375,282734.75,319806.1875,291200.78125,295946.78125,275973.25,276173.78125,275282.84375,-0.111572265625,0.85400390625,-0.37939453125,-4.974364757537842,-15.411375999450684,-3.295898199081421,60.0,2949333.0,1.0
1136627.3578094,289744.25,282780.78125,319920.4375,291341.21875,296044.75,275994.09375,276209.28125,275383.4375,-0.11328125,0.857421875,-0.37890625,-4.486083507537842,-15.716551780700684,-3.112792730331421,60.0,2949334.0,1.0
1136627.3578212,289251.96875,282872.6875,319519.625,290558.75,295908.40625,276117.28125,276225.09375,275443.59375,-0.118408203125,0.856689453125,-0.38134765625,-4.028319835662842,-15.930174827575684,-3.143310308456421,60.0,2949335.0,1.0
1136627.3599134,288899.25,282864.03125,319092.09375,289824.28125,295670.6875,276149.1875,276161.1875,275300.09375,-0.1181640625,0.859619140625,-0.380126953125,-3.723144292831421,-16.204832077026367,-3.204345464706421,60.0,2949336.0,1.0
1136627.3710701,289210.03125,282795.09375,319281.28125,290252.34375,295700.53125,276069.34375,276139.53125,275206.65625,-0.116943359375,0.865234375,-0.37939453125,-3.021239995956421,-16.540525436401367,-3.265380620956421,60.0,2949337.0,1.0
1136627.3778874,289749.6875,282759.0625,319817.8125,291209.0,295958.5625,275991.75,276187.09375,275280.0625,-0.1220703125,0.8740234375,-0.374755859375,-2.471923589706421,-16.784666061401367,-3.204345464706421,60.0,2949338.0,1.0
1136627.3779308,289760.15625,282797.78125,319926.625,291319.96875,296051.90625,276006.59375,276217.0625,275371.625,-0.127197265625,0.88330078125,-0.368408203125,-2.380370855331421,-17.150876998901367,-2.929687261581421,60.0,2949339.0,1.0
1136627.3866432,289255.09375,282873.40625,319509.4375,290523.34375,295897.15625,276112.625,276217.59375,275420.53125,-0.130615234375,0.88720703125,-0.365234375,-2.593993902206421,-17.608640670776367,-2.777099370956421,60.0,2949340.0,1.0
1136627.3866858,288911.6875,282871.09375,319099.15625,289848.0625,295671.65625,276150.09375,276160.03125,275295.09375,-0.1318359375,0.88720703125,-0.366943359375,-2.716064214706421,-18.066404342651367,-2.593993902206421,60.0,2949341.0,1.0
1136627.3891749,289211.375,282796.15625,319278.9375,290275.25,295693.375,276062.375,276128.53125,275187.8125,-0.13232421875,0.887451171875,-0.368408203125,-2.807616949081421,-18.585203170776367,-2.441406011581421,60.0,2949342.0,1.0
1136627.3892118,289751.84375,282762.0,319813.78125,291229.28125,295953.21875,275984.15625,276177.09375,275264.6875,-0.13720703125,0.88623046875,-0.369140625,-2.899169683456421,-18.981931686401367,-2.197265386581421,60.0,2949343.0,1.0
1136627.3910252,289752.28125,282790.25,319913.90625,291322.8125,296042.4375,275993.4375,276202.84375,275352.84375,-0.137451171875,0.88671875,-0.37255859375,-2.990722417831421,-19.561765670776367,-2.227782964706421,60.0,2949344.0,1.0
1136627.4034276,289240.15625,282861.78125,319490.84375,290499.28125,295884.375,276099.03125,276201.3125,275399.25,-0.1396484375,0.887939453125,-0.37109375,-3.051757574081421,-20.050046920776367,-2.288818120956421,60.0,2949345.0,1.0
1136627.4065829,288898.625,282869.28125,319082.0625,289816.3125,295661.5625,276143.21875,276150.90625,275277.75,-0.139892578125,0.889892578125,-0.36962890625,-3.112792730331421,-20.477293014526367,-2.471923589706421,60.0,2949346.0,1.0
1136627.406628,289220.0625,282808.5,319282.4375,290263.875,295702.59375,276070.53125,276137.40625,275187.71875,-0.13720703125,0.890380859375,-0.36767578125,-3.204345464706421,-20.843503952026367,-2.593993902206421,60.0,2949347.0,1.0
1136627.4086558,289754.34375,282754.40625,319807.96875,291212.9375,295948.09375,275975.3125,276168.875,275248.34375,-0.13525390625,0.8916015625,-0.3681640625,-3.326415777206421,-21.209714889526367,-2.624511480331421,60.0,2949348.0,1.0
1136627.4147258,289762.3125,282798.125,319915.4375,291318.625,296039.9375,275990.78125,276195.875,275339.1875,-0.131591796875,0.893798828125,-0.369140625,-3.601073980331421,-21.453855514526367,-2.563476324081421,60.0,2949349.0,1.0
1136627.4210452,289256.875,282893.625,319504.25,290509.125,295891.15625,276113.71875,276207.3125,275399.34375,-0.129638671875,0.894775390625,-0.3681640625,-3.845214605331421,-21.697996139526367,-2.532958745956421,60.0,2949350.0,1.0
1136627.4278718,288888.8125,282857.40625,319069.125,289806.5625,295645.46875,276134.90625,276136.6875,275265.78125,-0.126220703125,0.894287109375,-0.36767578125,-4.028319835662842,-21.850584030151367,-2.441406011581421,60.0,2949351.0,1.0
1136627.4279148,289203.34375,282778.46875,319260.8125,290250.5625,295678.53125,276053.71875,276115.5,275172.59375,-0.125,0.893310546875,-0.365478515625,-4.333495616912842,-21.911619186401367,-2.410888433456421,60.0,2949352.0,1.0
1136627.4298342,289753.28125,282740.5625,319801.1875,291214.375,295934.875,275967.96875,276160.375,275246.1875,-0.124267578125,0.894775390625,-0.3681640625,-4.608153820037842,-21.911619186401367,-2.319335699081421,60.0,2949353.0,1.0
1136627.4372348,289759.09375,282781.40625,319908.375,291316.8125,296024.8125,275982.8125,276191.9375,275338.375,-0.1220703125,0.894287109375,-0.3671875,-4.852294445037842,-21.881101608276367,-2.319335699081421,60.0,2949354.0,1.0
1136627.4515265,289237.5,282860.53125,319485.03125,290495.0,295870.3125,276097.4375,276202.21875,275392.46875,-0.1201171875,0.8955078125,-0.368408203125,-5.065917491912842,-21.759031295776367,-2.197265386581421,60.0,2949355.0,1.0
1136627.4515764,288879.78125,282850.0,319063.9375,289799.78125,295640.625,276130.6875,276151.875,275274.8125,-0.11767578125,0.897705078125,-0.368408203125,-5.340575695037842,-21.606443405151367,-1.9836424589157104,60.0,2949356.0,1.0
1136627.4541412,289204.75,282787.03125,319260.1875,290248.0625,295681.3125,276053.34375,276134.34375,275186.71875,-0.11865234375,0.8984375,-0.365234375,-5.554198741912842,-21.423337936401367,-1.9226073026657104,60.0,2949357.0,1.0
1136627.4541848,289757.125,282732.15625,319800.09375,291213.84375,295937.8125,275963.15625,276168.5,275251.8125,-0.11669921875,0.90234375,-0.363525390625,-5.920409679412842,-21.179197311401367,-1.6174315214157104,60.0,2949358.0,1.0
1136627.4561063,289772.15625,282777.375,319923.125,291336.40625,296048.78125,275990.78125,276208.65625,275356.6875,-0.11767578125,0.90478515625,-0.364013671875,-6.225585460662842,-20.843503952026367,-1.4343260526657104,60.0,2949359.0,1.0
1136627.4585619,289246.78125,282849.71875,319496.9375,290508.6875,295887.40625,276098.40625,276213.40625,275406.0625,-0.1181640625,0.908203125,-0.36669921875,-6.500243663787842,-20.416257858276367,-1.1901854276657104,60.0,2949360.0,1.0
1136627.4678933,288874.40625,282835.9375,319061.875,289792.25,295640.28125,276122.5625,276148.03125,275270.5,-0.11474609375,0.9111328125,-0.367431640625,-6.774901866912842,-20.294187545776367,-0.9765624403953552,60.0,2949361.0,1.0
1136627.4679363,289196.71875,282779.4375,319256.59375,290239.125,295671.46875,276046.84375,276123.625,275179.9375,-0.115478515625,0.917236328125,-0.367431640625,-7.171630382537842,-19.989011764526367,-0.6408690810203552,60.0,2949362.0,1.0
1136627.4697862,289759.8125,282745.8125,319811.28125,291220.53125,295941.9375,275971.375,276171.375,275258.25,-0.120849609375,0.919677734375,-0.365234375,-7.720946788787842,-19.500730514526367,-0.4272460639476776,60.0,2949363.0,1.0
1136627.4786627,289766.34375,282779.0,319919.5625,291325.59375,296033.84375,275984.96875,276197.3125,275344.0,-0.11865234375,0.917724609375,-0.365478515625,-8.300780296325684,-19.104001998901367,-0.3051757514476776,60.0,2949364.0,1.0
1136627.4816382,289242.5,282852.5,319496.21875,290504.03125,295881.3125,276095.71875,276204.0,275398.375,-0.117431640625,0.919189453125,-0.361572265625,-8.789061546325684,-18.737791061401367,-0.3356933295726776,60.0,2949365.0,1.0
1136627.481681,288873.875,282839.53125,319065.625,289793.0625,295641.53125,276125.25,276141.6875,275270.15625,-0.11328125,0.9208984375,-0.364990234375,-9.216307640075684,-18.432615280151367,-0.2746581733226776,60.0,2949366.0,1.0
1136627.4835169,289212.1875,282801.15625,319273.3125,290248.78125,295682.65625,276057.8125,276127.46875,275180.84375,-0.109375,0.922119140625,-0.364501953125,-9.704588890075684,-17.822263717651367,0.0,60.0,2949367.0,1.0
1136627.4971516,289778.84375,282769.875,319823.625,291222.6875,295946.78125,275976.5625,276169.59375,275247.09375,-0.107666015625,0.9248046875,-0.361572265625,-10.009764671325684,-17.181394577026367,0.1831054538488388,60.0,2949368.0,1.0
1136627.5042098,289777.5,282792.6875,319927.15625,291324.34375,296036.1875,275983.34375,276189.0625,275326.3125,-0.10693359375,0.9267578125,-0.35595703125,-10.620116233825684,-16.540525436401367,0.4272460639476776,60.0,2949369.0,1.0
1136627.5042537,289232.21875,282850.625,319484.5,290486.78125,295867.71875,276085.09375,276184.4375,275364.84375,-0.10546875,0.92724609375,-0.3544921875,-11.230467796325684,-15.869139671325684,0.7629393935203552,60.0,2949370.0,1.0
1136627.5060256,288880.125,282852.40625,319067.6875,289803.96875,295642.96875,276135.0625,276140.71875,275252.4375,-0.101806640625,0.926025390625,-0.35302734375,-11.932372093200684,-15.106200218200684,1.1596678495407104,60.0,2949371.0,1.0
1136627.50856,289197.6875,282786.875,319256.40625,290247.96875,295669.78125,276051.21875,276108.96875,275146.15625,-0.095703125,0.922607421875,-0.352294921875,-12.512206077575684,-14.282225608825684,1.4343260526657104,60.0,2949372.0,1.0
1136627.5110716,289743.09375,282734.1875,319785.96875,291195.6875,295913.34375,275950.28125,276129.25,275192.28125,-0.095703125,0.91796875,-0.349853515625,-13.061522483825684,-13.427733421325684,1.8615721464157104,60.0,2949373.0,1.0
1136627.5149005,289758.0,282774.71875,319904.53125,291315.9375,296016.9375,275970.125,276164.03125,275291.34375,-0.0947265625,0.91455078125,-0.347412109375,-13.519286155700684,-12.542723655700684,2.227782964706421,60.0,2949374.0,1.0
1136627.5216607,289233.65625,282856.15625,319483.15625,290494.09375,295872.03125,276095.90625,276185.84375,275349.375,-0.0927734375,0.9111328125,-0.344482421875,-14.007567405700684,-11.718749046325684,2.655029058456421,60.0,2949375.0,1.0
1136627.5217115,288852.15625,282839.4375,319034.78125,289750.0625,295617.40625,276121.125,276121.9375,275208.5625,-0.0908203125,0.9111328125,-0.34375,-14.190672874450684,-10.864256858825684,2.868652105331421,60.0,2949376.0,1.0
1136627.5272961,289188.65625,282786.15625,319234.59375,290199.0625,295652.09375,276045.75,276102.875,275111.375,-0.0908203125,0.909423828125,-0.342041015625,-14.465331077575684,-9.948729515075684,3.234863042831421,60.0,2949377.0,1.0
1136627.5341483,289776.34375,282765.125,319806.375,291216.0625,295931.65625,275974.78125,276158.40625,275204.34375,-0.09326171875,0.91015625,-0.336669921875,-14.709471702575684,-9.124754905700684,3.509521245956421,60.0,2949378.0,1.0
1136627.5341913,289803.875,282814.40625,319943.34375,291368.6875,296052.53125,276007.125,276207.5,275320.65625,-0.09912109375,0.907470703125,-0.329833984375,-14.892577171325684,-8.209227561950684,3.753661870956421,60.0,2949379.0,1.0
1136627.5361161,289259.5625,282875.09375,319502.1875,290521.71875,295885.25,276108.78125,276206.40625,275353.46875,-0.1015625,0.90625,-0.32421875,-15.380858421325684,-7.446288585662842,3.997802495956421,60.0,2949380.0,1.0
1136627.5472547,288856.4375,282842.90625,319035.03125,289757.75,295617.75,276119.78125,276127.46875,275193.53125,-0.10986328125,0.901123046875,-0.324462890625,-15.655516624450684,-6.713866710662842,4.119872570037842,60.0,2949381.0,1.0
1136627.5503512,289173.375,282779.34375,319221.0,290169.8125,295646.1875,276036.8125,276102.0,275095.28125,-0.114501953125,0.897705078125,-0.323974609375,-15.991209983825684,-6.164550304412842,4.211425304412842,60.0,2949382.0,1.0
1136627.5504004,289774.09375,282767.09375,319809.9375,291211.9375,295942.84375,275976.5625,276166.09375,275201.21875,-0.1181640625,0.89599609375,-0.326416015625,-16.082761764526367,-5.615233898162842,4.211425304412842,60.0,2949383.0,1.0
1136627.5586369,289791.625,282805.5625,319934.03125,291340.875,296050.03125,275998.28125,276202.9375,275299.84375,-0.1220703125,0.896484375,-0.326416015625,-16.082761764526367,-5.218505382537842,4.089354991912842,60.0,2949384.0,1.0
1136627.5617516,289237.65625,282859.375,319480.5625,290481.125,295874.4375,276094.84375,276195.0625,275334.6875,-0.126220703125,0.900634765625,-0.322509765625,-16.174314498901367,-4.943847179412842,3.997802495956421,60.0,2949385.0,1.0
1136627.561795,288852.15625,282845.6875,319028.96875,289731.625,295621.6875,276123.0,276128.28125,275190.5,-0.12890625,0.900634765625,-0.321044921875,-16.265867233276367,-4.608153820037842,3.753661870956421,60.0,2949386.0,1.0
1136627.5673286,289178.21875,282785.53125,319226.5625,290187.4375,295657.34375,276042.71875,276107.34375,275100.8125,-0.13232421875,0.901611328125,-0.317626953125,-16.510007858276367,-4.364013195037842,3.601073980331421,60.0,2949387.0,1.0
1136627.5735681,289783.84375,282772.1875,319818.4375,291223.3125,295955.25,275980.03125,276170.375,275207.75,-0.13232421875,0.900634765625,-0.3154296875,-16.632078170776367,-4.180907726287842,3.356933355331421,60.0,2949388.0,1.0
1136627.5778909,289790.125,282795.4375,319932.59375,291341.5,296056.65625,275989.875,276192.28125,275301.875,-0.134033203125,0.90478515625,-0.313720703125,-16.815183639526367,-4.028319835662842,3.143310308456421,60.0,2949389.0,1.0
1136627.5779339,289241.5,282858.9375,319483.6875,290472.90625,295884.375,276094.9375,276192.125,275337.90625,-0.13623046875,0.906982421875,-0.317626953125,-16.845701217651367,-3.936767339706421,3.021239995956421,60.0,2949390.0,1.0
1136627.5836675,288852.84375,282843.1875,319029.15625,289730.375,295625.78125,276118.53125,276125.96875,275190.125,-0.138916015625,0.907958984375,-0.315673828125,-16.906736373901367,-3.814697027206421,3.021239995956421,60.0,2949391.0,1.0
1136627.5878861,289196.1875,282796.6875,319242.03125,290210.875,295674.53125,276048.25,276112.71875,275109.65625,-0.14404296875,0.90966796875,-0.314208984375,-16.967771530151367,-3.814697027206421,2.990722417831421,60.0,2949392.0,1.0
1136627.5879291,289787.0625,282768.96875,319828.09375,291245.84375,295966.4375,275973.96875,276164.21875,275214.625,-0.14794921875,0.91259765625,-0.311279296875,-17.120359420776367,-3.845214605331421,3.234863042831421,60.0,2949393.0,1.0
1136627.5960712,289800.46875,282801.4375,319948.59375,291365.5625,296072.03125,275991.40625,276195.875,275316.375,-0.1552734375,0.912841796875,-0.310546875,-17.303464889526367,-3.967284917831421,3.448486089706421,60.0,2949394.0,1.0
1136627.6003888,289248.3125,282862.3125,319492.1875,290495.34375,295889.09375,276091.09375,276185.6875,275338.71875,-0.1630859375,0.912353515625,-0.310791015625,-17.517087936401367,-4.180907726287842,3.723144292831421,60.0,2949395.0,1.0
1136627.6004321,288853.5,282851.25,319033.71875,289743.25,295625.875,276114.6875,276115.9375,275186.65625,-0.17236328125,0.911376953125,-0.307373046875,-17.669675827026367,-4.364013195037842,3.845214605331421,60.0,2949396.0,1.0
1136627.6099046,289199.65625,282809.84375,319252.03125,290219.28125,295679.875,276051.9375,276109.9375,275117.625,-0.1826171875,0.908935546875,-0.3056640625,-17.791746139526367,-4.791259288787842,3.906249761581421,60.0,2949397.0,1.0
1136627.6123124,289793.5,282771.125,319839.53125,291256.3125,295979.5,275981.84375,276169.6875,275234.3125,-0.190185546875,0.907470703125,-0.30322265625,-17.761228561401367,-5.310058116912842,4.089354991912842,60.0,2949398.0,1.0
1136627.614781,289807.46875,282796.875,319958.1875,291373.875,296082.65625,275994.78125,276199.96875,275338.09375,-0.19482421875,0.903076171875,-0.302978515625,-17.639158248901367,-6.072997570037842,4.211425304412842,60.0,2949399.0,1.0
1136627.6210783,289244.8125,282858.03125,319488.96875,290481.3125,295893.84375,276089.9375,276186.46875,275351.25,-0.197265625,0.906494140625,-0.299560546875,-17.578123092651367,-6.744384288787842,4.608153820037842,60.0,2949400.0,1.0
1136627.6235673,288844.1875,282838.90625,319022.34375,289725.375,295623.28125,276108.78125,276113.0,275196.21875,-0.19921875,0.908447265625,-0.300048828125,-17.517087936401367,-7.324218273162842,5.004882335662842,60.0,2949401.0,1.0
1136627.6272683,289197.0,282802.34375,319248.625,290218.71875,295681.21875,276050.59375,276111.46875,275134.15625,-0.199462890625,0.90966796875,-0.297119140625,-17.425535202026367,-8.026122093200684,5.554198741912842,60.0,2949402.0,1.0
1136627.6366126,289817.03125,282781.84375,319861.34375,291288.03125,296001.84375,275992.125,276188.90625,275266.75,-0.20166015625,0.910888671875,-0.296875,-17.425535202026367,-8.605956077575684,6.164550304412842,60.0,2949403.0,1.0
1136627.6366579,289824.90625,282801.78125,319978.03125,291411.25,296103.21875,276001.84375,276214.1875,275367.34375,-0.200927734375,0.91357421875,-0.294189453125,-17.547605514526367,-9.277342796325684,6.835937023162842,60.0,2949404.0,1.0
1136627.639091,289253.3125,282853.75,319504.53125,290518.0625,295911.28125,276093.9375,276196.3125,275377.4375,-0.202392578125,0.909912109375,-0.293212890625,-17.578123092651367,-9.765624046325684,7.537841320037842,60.0,2949405.0,1.0
1136627.6391279,288852.15625,282837.1875,319039.78125,289756.3125,295646.4375,276119.25,276127.46875,275225.1875,-0.2060546875,0.906494140625,-0.294921875,-17.669675827026367,-10.467528343200684,8.361815452575684,60.0,2949406.0,1.0
1136627.6473973,289197.875,282804.3125,319259.375,290230.34375,295702.6875,276057.8125,276121.84375,275165.90625,-0.2060546875,0.902099609375,-0.29443359375,-17.700193405151367,-11.108397483825684,9.033202171325684,60.0,2949407.0,1.0
1136627.6510664,289807.46875,282764.34375,319864.03125,291297.6875,296016.25,275988.09375,276187.71875,275300.28125,-0.209716796875,0.902099609375,-0.295654296875,-17.761228561401367,-11.688231468200684,9.704588890075684,60.0,2949408.0,1.0
1136627.6552417,289807.46875,282776.03125,319974.0,291410.25,296111.375,275993.4375,276208.375,275393.96875,-0.2109375,0.900634765625,-0.298828125,-17.700193405151367,-12.390135765075684,10.467528343200684,60.0,2949409.0,1.0
1136627.6552852,289231.59375,282782.3125,319496.9375,290512.6875,295914.40625,276087.0625,276191.59375,275403.1875,-0.210205078125,0.898193359375,-0.29638671875,-17.547605514526367,-12.878417015075684,11.169432640075684,60.0,2949410.0,1.0
1136627.6634089,288837.84375,282724.8125,319036.84375,289764.625,295652.71875,276114.5,276123.71875,275253.15625,-0.20849609375,0.9013671875,-0.30029296875,-17.456052780151367,-13.336180686950684,11.779784202575684,60.0,2949411.0,1.0
1136627.6672369,289203.96875,282740.5625,319277.59375,290276.65625,295727.1875,276064.4375,276134.34375,275210.15625,-0.205810546875,0.904052734375,-0.30029296875,-17.364500045776367,-13.824461936950684,12.420653343200684,60.0,2949412.0,1.0
1136627.6846385,289807.53125,282741.4375,319881.71875,291326.03125,296040.28125,276002.03125,276203.125,275343.90625,-0.20263671875,0.907470703125,-0.2998046875,-17.456052780151367,-14.343260765075684,13.000487327575684,60.0,2949413.0,1.0
1136627.6846896,289808.53125,282764.78125,319994.46875,291430.8125,296139.25,276009.71875,276227.53125,275442.0,-0.195556640625,0.910888671875,-0.30224609375,-17.608640670776367,-14.556883811950684,13.580321311950684,60.0,2949414.0,1.0
1136627.684702,289226.40625,282812.34375,319513.09375,290516.90625,295938.71875,276095.28125,276205.25,275442.53125,-0.189208984375,0.91162109375,-0.30615234375,-17.730710983276367,-14.892577171325684,14.099120140075684,60.0,2949415.0,1.0
1136627.6878195,288828.0,282801.25,319045.96875,289757.21875,295668.875,276115.6875,276129.0,275286.25,-0.183837890625,0.908935546875,-0.306396484375,-18.005369186401367,-14.984129905700684,14.801024436950684,60.0,2949416.0,1.0
1136627.6878672,289188.9375,282753.4375,319279.125,290262.09375,295732.625,276056.65625,276123.53125,275233.9375,-0.17333984375,0.907470703125,-0.30419921875,-18.035886764526367,-14.892577171325684,15.380858421325684,60.0,2949417.0,1.0
1136627.6897969,289797.90625,282711.6875,319883.25,291319.59375,296038.6875,275987.375,276182.8125,275353.75,-0.1669921875,0.90673828125,-0.308349609375,-18.127439498901367,-14.739989280700684,15.930174827575684,60.0,2949418.0,1.0
1136627.6936538,289809.875,282756.71875,320003.15625,291436.0,296144.90625,276002.40625,276216.4375,275450.3125,-0.158447265625,0.90771484375,-0.31103515625,-18.096921920776367,-14.495848655700684,16.418455123901367,60.0,2949419.0,1.0
1136627.6997207,289231.3125,282820.21875,319528.65625,290540.25,295950.96875,276095.28125,276202.5625,275457.625,-0.153076171875,0.91064453125,-0.308349609375,-18.005369186401367,-14.099120140075684,16.845701217651367,60.0,2949420.0,1.0
1136627.7083985,288824.96875,282814.5,319061.4375,289775.1875,295686.25,276124.78125,276138.03125,275313.5,-0.14453125,0.9111328125,-0.306640625,-18.035886764526367,-13.641356468200684,17.333982467651367,60.0,2949421.0,1.0
1136627.7172299,289223.375,282813.59375,319330.90625,290322.1875,295787.625,276100.375,276170.03125,275296.25,-0.140625,0.910400390625,-0.308349609375,-17.974851608276367,-13.122557640075684,17.852781295776367,60.0,2949422.0,1.0
1136627.7172729,289841.0,282779.34375,319938.6875,291392.90625,296096.15625,276028.84375,276228.40625,275415.15625,-0.13720703125,0.907958984375,-0.309814453125,-17.913816452026367,-12.573241233825684,18.188474655151367,60.0,2949423.0,1.0
1136627.7172853,289832.40625,282786.59375,320035.875,291472.21875,296178.875,276021.625,276237.09375,275486.5,-0.13330078125,0.90673828125,-0.3115234375,-17.669675827026367,-11.993407249450684,18.707273483276367,60.0,2949424.0,1.0
1136627.7202978,289261.0,282847.125,319562.5625,290568.5,295988.6875,276118.34375,276223.3125,275503.5,-0.1279296875,0.906494140625,-0.312255859375,-17.272947311401367,-11.352538108825684,19.012449264526367,60.0,2949425.0,1.0
1136627.7203504,288850.90625,282829.96875,319092.53125,289804.40625,295721.28125,276139.625,276146.875,275353.84375,-0.126220703125,0.904541015625,-0.313232421875,-17.028806686401367,-11.047362327575684,19.134519577026367,60.0,2949426.0,1.0
1136627.722283,289186.0,282775.34375,319299.78125,290260.5625,295768.65625,276066.15625,276132.46875,275277.40625,-0.125,0.90478515625,-0.30810546875,-16.754148483276367,-10.437010765075684,19.195554733276367,60.0,2949427.0,1.0
1136627.7309859,289820.875,282767.46875,319918.65625,291328.375,296085.09375,276012.0625,276204.09375,275397.09375,-0.12353515625,0.90380859375,-0.302490234375,-16.387937545776367,-9.735106468200684,19.165037155151367,60.0,2949428.0,1.0
1136627.7335674,289848.6875,282805.8125,320046.78125,291462.1875,296192.90625,276033.5,276235.75,275490.71875,-0.121337890625,0.90087890625,-0.302490234375,-15.838622093200684,-9.094237327575684,19.073484420776367,60.0,2949429.0,1.0
1136627.7398999,289251.53125,282844.25,319554.40625,290547.46875,295981.46875,276114.34375,276212.15625,275486.5,-0.12060546875,0.8994140625,-0.302490234375,-15.380858421325684,-8.636473655700684,18.920896530151367,60.0,2949430.0,1.0
1136627.7441562,288852.84375,282832.90625,319097.1875,289801.03125,295730.125,276150.09375,276164.125,275359.125,-0.1181640625,0.89892578125,-0.29833984375,-14.831542015075684,-7.995604991912842,18.432615280151367,60.0,2949431.0,1.0
1136627.7441997,289212.71875,282793.21875,319327.84375,290301.875,295794.40625,276089.75,276165.75,275309.40625,-0.1201171875,0.8994140625,-0.29736328125,-14.190672874450684,-7.324218273162842,18.157957077026367,60.0,2949432.0,1.0
1136627.7572963,289831.5,282775.40625,319929.03125,291353.9375,296092.15625,276015.34375,276214.75,275416.34375,-0.12060546875,0.897705078125,-0.2958984375,-13.244627952575684,-6.652831554412842,17.364500045776367,60.0,2949433.0,1.0
1136627.7603892,289838.75,282790.34375,320038.8125,291459.6875,296184.0625,276014.46875,276226.8125,275491.34375,-0.122314453125,0.90185546875,-0.295654296875,-12.634276390075684,-6.378173351287842,16.754148483276367,60.0,2949434.0,1.0
1136627.7604327,289259.84375,282846.3125,319564.96875,290564.1875,295991.1875,276108.34375,276213.40625,275497.4375,-0.123291015625,0.903564453125,-0.292236328125,-11.932372093200684,-5.981444835662842,16.113279342651367,60.0,2949435.0,1.0
1136627.7624042,288864.21875,282850.53125,319115.25,289837.78125,295738.34375,276143.3125,276157.875,275367.4375,-0.121826171875,0.90673828125,-0.288818359375,-11.352538108825684,-5.615233898162842,15.563963890075684,60.0,2949436.0,1.0
1136627.7735063,289229.0,282815.03125,319353.0625,290342.65625,295812.3125,276093.5,276167.09375,275322.375,-0.120361328125,0.90771484375,-0.2900390625,-10.711668968200684,-5.401610851287842,14.709471702575684,60.0,2949437.0,1.0
1136627.7810096,289846.96875,282792.6875,319947.0,291362.96875,296104.5625,276021.15625,276218.84375,275418.65625,-0.11572265625,0.90673828125,-0.2900390625,-10.131834983825684,-5.218505382537842,13.977049827575684,60.0,2949438.0,1.0
1136627.7810517,289839.1875,282796.78125,320034.15625,291433.6875,296168.125,276004.625,276217.0625,275464.625,-0.111572265625,0.90478515625,-0.287353515625,-9.460448265075684,-4.882812023162842,13.305663108825684,60.0,2949439.0,1.0
1136627.7810644,289255.625,282847.3125,319556.28125,290532.28125,295975.65625,276100.65625,276208.21875,275472.65625,-0.11083984375,0.899658203125,-0.288330078125,-9.033202171325684,-4.516601085662842,12.573241233825684,60.0,2949440.0,1.0
1136627.7840641,288859.5625,282829.25,319100.5,289801.90625,295722.8125,276131.6875,276151.625,275346.3125,-0.10888671875,0.894287109375,-0.290283203125,-8.422850608825684,-4.211425304412842,12.023924827575684,60.0,2949441.0,1.0
1136627.7841132,289222.90625,282801.53125,319332.5,290302.78125,295786.625,276078.75,276155.28125,275291.0625,-0.105712890625,0.89453125,-0.2919921875,-7.507323741912842,-3.814697027206421,11.138915061950684,60.0,2949442.0,1.0
1136627.797397,289841.0,282782.3125,319926.34375,291339.28125,296079.09375,276005.53125,276203.5625,275376.09375,-0.097900390625,0.905517578125,-0.2900390625,-6.408690929412842,-3.479003667831421,10.253905296325684,60.0,2949443.0,1.0
1136627.800308,289847.5,282812.4375,320032.5625,291438.875,296164.75,276009.90625,276216.53125,275437.4375,-0.091796875,0.915283203125,-0.282470703125,-5.493163585662842,-3.234863042831421,9.765624046325684,60.0,2949444.0,1.0
1136627.8003504,289253.59375,282855.875,319548.25,290532.90625,295959.28125,276092.53125,276192.375,275432.6875,-0.089111328125,0.922607421875,-0.278564453125,-4.913329601287842,-2.777099370956421,9.338377952575684,60.0,2949445.0,1.0
1136627.8023195,288849.46875,282840.40625,319088.0625,289787.6875,295698.9375,276116.375,276125.25,275292.0625,-0.08642578125,0.919189453125,-0.279052734375,-4.913329601287842,-2.288818120956421,8.972167015075684,60.0,2949446.0,1.0
1136627.8166411,289206.65625,282799.65625,319312.84375,290280.40625,295760.09375,276059.71875,276127.84375,275235.0,-0.083984375,0.917236328125,-0.283203125,-4.577636241912842,-1.9226073026657104,8.605956077575684,60.0,2949447.0,1.0
1136627.8166845,289836.59375,282795.09375,319917.5,291323.09375,296060.65625,276001.78125,276192.125,275334.6875,-0.078857421875,0.91552734375,-0.291015625,-4.028319835662842,-1.3427733182907104,8.239745140075684,60.0,2949448.0,1.0
1136627.8211556,289816.84375,282783.375,319998.75,291394.15625,296128.09375,275986.03125,276193.53125,275379.40625,-0.07861328125,0.910888671875,-0.29296875,-3.234863042831421,-0.7324218153953552,7.965087413787842,60.0,2949449.0,1.0
1136627.8211991,289206.28125,282808.40625,319495.3125,290457.625,295918.6875,276065.15625,276168.78125,275371.53125,-0.07568359375,0.908203125,-0.291259765625,-2.319335699081421,-0.1525878757238388,7.568358898162842,60.0,2949450.0,1.0
1136627.8212118,288812.90625,282817.625,319044.78125,289719.46875,295671.40625,276110.5625,276121.5625,275249.3125,-0.07275390625,0.91357421875,-0.2841796875,-1.5258787870407104,0.4577636420726776,7.141112804412842,60.0,2949451.0,1.0
1136627.824744,289180.4375,282784.28125,319273.59375,290209.78125,295728.15625,276051.03125,276116.5625,275182.875,-0.068359375,0.91796875,-0.281982421875,-0.7324218153953552,1.0986326932907104,6.744384288787842,60.0,2949452.0,1.0
1136627.8335036,289805.40625,282763.53125,319870.8125,291253.4375,296019.28125,275975.9375,276166.625,275275.5,-0.0654296875,0.923583984375,-0.28466796875,-0.3051757514476776,1.6479490995407104,6.500243663787842,60.0,2949453.0,1.0
1136627.8403692,289819.25,282786.0625,319976.59375,291356.6875,296101.875,275975.46875,276180.5,275337.5625,-0.064697265625,0.92529296875,-0.287353515625,0.1220703050494194,2.319335699081421,6.225585460662842,60.0,2949454.0,1.0
1136627.8404171,289234.1875,282833.4375,319496.84375,290459.9375,295905.28125,276066.78125,276166.71875,275338.90625,-0.064208984375,0.92626953125,-0.288330078125,0.5187987685203552,2.838134527206421,5.981444835662842,60.0,2949455.0,1.0
1136627.8492475,288825.3125,282821.8125,319030.21875,289707.3125,295640.625,276094.9375,276097.15625,275189.0625,-0.069091796875,0.92578125,-0.287841796875,1.0375975370407104,3.479003667831421,5.767821788787842,60.0,2949456.0,1.0
1136627.8492919,289192.53125,282801.15625,319263.84375,290200.3125,295701.4375,276045.5625,276096.4375,275132.90625,-0.069580078125,0.9267578125,-0.28369140625,1.6174315214157104,4.058837413787842,5.554198741912842,60.0,2949457.0,1.0
1136627.8603572,289822.84375,282784.09375,319872.15625,291256.3125,296001.75,275982.1875,276156.25,275239.46875,-0.069091796875,0.92919921875,-0.2841796875,1.9531248807907104,4.547118663787842,5.157470226287842,60.0,2949458.0,1.0
1136627.8604003,289827.5,282786.40625,319975.0625,291369.3125,296088.5625,275979.15625,276172.53125,275303.15625,-0.069091796875,0.927734375,-0.28271484375,2.410888433456421,5.035399913787842,4.943847179412842,60.0,2949459.0,1.0
1136627.8628849,289235.0,282835.9375,319485.375,290462.09375,295881.15625,276062.125,276146.25,275293.40625,-0.07080078125,0.92626953125,-0.28125,2.807616949081421,5.462646007537842,4.760741710662842,60.0,2949460.0,1.0
1136627.8629281,288816.125,282823.15625,319010.625,289686.125,295612.84375,276087.96875,276077.84375,275142.46875,-0.070556640625,0.9267578125,-0.281005859375,2.990722417831421,5.798339366912842,4.547118663787842,60.0,2949461.0,1.0
1136627.8766386,289182.15625,282787.40625,319243.8125,290187.4375,295680.34375,276036.375,276084.03125,275095.4375,-0.068603515625,0.928955078125,-0.27734375,3.204345464706421,6.195067882537842,4.089354991912842,60.0,2949462.0,1.0
1136627.8766897,289791.1875,282748.25,319833.09375,291216.0625,295967.15625,275956.71875,276136.0625,275193.875,-0.069580078125,0.9287109375,-0.277099609375,3.387450933456421,6.622313976287842,3.936767339706421,60.0,2949463.0,1.0
1136627.8792059,289830.875,282802.59375,319970.875,291356.625,296075.0625,275982.1875,276175.5625,275286.5,-0.06982421875,0.929931640625,-0.275634765625,3.540038824081421,6.927489757537842,3.723144292831421,60.0,2949464.0,1.0
1136627.879249,289233.71875,282839.34375,319478.0625,290448.59375,295868.0,276061.9375,276149.5625,275274.53125,-0.0732421875,0.9287109375,-0.277587890625,3.631591558456421,7.110595226287842,3.479003667831421,60.0,2949465.0,1.0
1136627.8847986,288812.90625,282815.75,319002.875,289683.1875,295605.78125,276086.71875,276084.5625,275125.84375,-0.073974609375,0.929931640625,-0.275634765625,3.723144292831421,7.446288585662842,3.173827886581421,60.0,2949466.0,1.0
1136627.8916434,289179.65625,282786.5,319237.03125,290186.46875,295671.40625,276034.5,276091.34375,275077.375,-0.07373046875,0.929443359375,-0.279052734375,3.753661870956421,7.598876476287842,3.112792730331421,60.0,2949467.0,1.0
1136627.8916866,289802.8125,282769.6875,319844.8125,291239.03125,295973.21875,275966.1875,276151.25,275192.1875,-0.07275390625,0.932373046875,-0.28076171875,3.845214605331421,7.751464366912842,2.746581792831421,60.0,2949468.0,1.0
1136627.8953927,289801.65625,282784.28125,319948.15625,291328.28125,296058.4375,275964.84375,276164.5,275258.71875,-0.074951171875,0.93310546875,-0.277587890625,3.875732183456421,7.781981945037842,2.593993902206421,60.0,2949469.0,1.0
1136627.8954372,289235.34375,282851.59375,319486.5625,290449.75,295877.03125,276070.78125,276160.09375,275269.625,-0.07763671875,0.93310546875,-0.275634765625,3.845214605331421,8.026122093200684,2.319335699081421,60.0,2949470.0,1.0
1136627.9035039,288827.03125,282837.46875,319018.25,289701.6875,295610.78125,276097.15625,276091.34375,275124.3125,-0.077880859375,0.93310546875,-0.2763671875,3.814697027206421,8.026122093200684,1.9836424589157104,60.0,2949471.0,1.0
1136627.9078715,289190.5625,282817.1875,319249.1875,290185.65625,295674.875,276047.1875,276097.625,275077.5625,-0.077880859375,0.931640625,-0.272705078125,3.692626714706421,8.087157249450684,1.7089842557907104,60.0,2949472.0,1.0
1136627.9079143,289813.0,282784.375,319855.1875,291243.78125,295980.5625,275975.84375,276162.78125,275202.125,-0.079345703125,0.93212890625,-0.269775390625,3.601073980331421,8.087157249450684,1.4038084745407104,60.0,2949473.0,1.0
1136627.9110736,289813.71875,282780.6875,319954.59375,291343.28125,296062.0,275967.4375,276172.0,275264.34375,-0.0830078125,0.931396484375,-0.270263671875,3.448486089706421,8.117674827575684,1.0375975370407104,60.0,2949474.0,1.0
1136627.92107,289247.15625,282850.4375,319487.09375,290457.96875,295866.125,276065.34375,276155.625,275259.78125,-0.084228515625,0.931640625,-0.26904296875,3.326415777206421,8.026122093200684,0.7019042372703552,60.0,2949475.0,1.0
1136627.9242443,288839.90625,282845.34375,319024.3125,289707.40625,295605.84375,276096.90625,276091.34375,275115.03125,-0.087890625,0.9326171875,-0.2685546875,3.204345464706421,7.843017101287842,0.3662109076976776,60.0,2949476.0,1.0
1136627.9242887,289177.40625,282778.90625,319238.28125,290187.4375,295659.59375,276030.65625,276086.53125,275060.5,-0.088134765625,0.934326171875,-0.269775390625,3.112792730331421,7.751464366912842,0.1831054538488388,60.0,2949477.0,1.0
1136627.9260606,289792.53125,282749.03125,319837.46875,291219.65625,295959.1875,275963.59375,276148.84375,275181.8125,-0.087890625,0.935791015625,-0.27099609375,2.716064214706421,7.476806163787842,-0.0610351525247097,60.0,2949478.0,1.0
1136627.9347093,289819.25,282783.65625,319962.09375,291350.34375,296060.75,275973.5,276170.375,275262.1875,-0.089111328125,0.937744140625,-0.266845703125,2.441406011581421,7.446288585662842,-0.3356933295726776,60.0,2949479.0,1.0
1136627.9385078,289242.59375,282840.875,319483.59375,290461.1875,295860.3125,276061.75,276143.5625,275246.1875,-0.088134765625,0.9375,-0.267578125,2.105712652206421,7.171630382537842,-0.6408690810203552,60.0,2949480.0,1.0
1136627.9479583,288841.875,282836.40625,319022.25,289714.90625,295602.1875,276096.71875,276080.90625,275103.3125,-0.087646484375,0.93603515625,-0.26611328125,1.7395018339157104,6.927489757537842,-0.9155272841453552,60.0,2949481.0,1.0
1136627.9480024,289178.3125,282789.0,319233.53125,290174.5625,295653.0625,276034.03125,276077.21875,275048.78125,-0.088623046875,0.937255859375,-0.267578125,1.2817381620407104,6.652831554412842,-1.1596678495407104,60.0,2949482.0,1.0
1136627.9498162,289801.90625,282764.59375,319841.59375,291229.03125,295962.0625,275971.28125,276144.28125,275178.59375,-0.09228515625,0.938232421875,-0.267333984375,0.9460448622703552,6.500243663787842,-1.3122557401657104,60.0,2949483.0,1.0
1136627.9535486,289817.90625,282780.59375,319956.21875,291347.9375,296056.1875,275975.3125,276162.96875,275257.71875,-0.091064453125,0.939208984375,-0.269287109375,0.4272460639476776,6.225585460662842,-1.6784666776657104,60.0,2949484.0,1.0
1136627.9878944,289245.71875,282829.6875,319475.1875,290453.96875,295851.625,276058.28125,276135.4375,275242.4375,-0.0908203125,0.939208984375,-0.26904296875,0.03051757626235485,5.981444835662842,-2.044677495956421,60.0,2949485.0,1.0
1136627.9879377,288837.125,282819.9375,319005.8125,289702.84375,295583.40625,276080.53125,276063.90625,275087.59375,-0.0908203125,0.942138671875,-0.26416015625,-0.2746581733226776,5.737304210662842,-2.227782964706421,60.0,2949486.0,1.0
1136627.9899099,289167.5625,282768.90625,319217.09375,290168.21875,295638.40625,276016.96875,276063.375,275035.28125,-0.0888671875,0.942626953125,-0.262451171875,-0.7324218153953552,5.401610851287842,-2.441406011581421,60.0,2949487.0,1.0
1136627.9923194,289810.3125,282766.46875,319846.59375,291250.75,295966.09375,275969.65625,276147.84375,275187.4375,-0.089111328125,0.94921875,-0.264404296875,-1.2207030057907104,5.218505382537842,-2.593993902206421,60.0,2949488.0,1.0
1136627.9953782,289838.125,282800.09375,319972.75,291370.90625,296069.6875,275980.84375,276173.6875,275273.1875,-0.089111328125,0.95263671875,-0.259033203125,-1.7089842557907104,5.035399913787842,-2.716064214706421,60.0,2949489.0,1.0
1136627.9954236,289260.90625,282852.21875,319493.96875,290473.28125,295872.5625,276070.78125,276152.15625,275263.96875,-0.0888671875,0.95361328125,-0.260986328125,-2.471923589706421,4.852294445037842,-2.807616949081421,60.0,2949490.0,1.0
1136627.9972478,288843.65625,282842.5625,319017.0625,289705.8125,295602.375,276095.90625,276078.375,275112.15625,-0.090576171875,0.9521484375,-0.260986328125,-3.173827886581421,4.577636241912842,-2.716064214706421,60.0,2949491.0,1.0
1136627.9999317,289199.9375,282818.34375,319242.65625,290176.875,295666.84375,276043.15625,276077.9375,275059.34375,-0.09033203125,0.94873046875,-0.26513671875,-3.784179449081421,4.364013195037842,-2.716064214706421,60.0,2949492.0,1.0
1136628.0022775,289838.21875,282813.875,319875.03125,291268.53125,295992.1875,275989.53125,276156.1875,275204.71875,-0.08935546875,0.945556640625,-0.264892578125,-4.241942882537842,4.150390148162842,-2.624511480331421,60.0,2949493.0,1.0
1136628.004876,289837.125,282800.0,319981.15625,291384.78125,296080.6875,275979.9375,276166.625,275281.3125,-0.088134765625,0.942138671875,-0.265869140625,-4.608153820037842,3.906249761581421,-2.685546636581421,60.0,2949494.0,1.0
1136628.0072768,289245.71875,282841.03125,319481.46875,290454.125,295864.5,276057.03125,276128.1875,275251.28125,-0.084716796875,0.939453125,-0.264404296875,-4.882812023162842,3.784179449081421,-2.716064214706421,60.0,2949495.0,1.0
1136628.0104371,288826.40625,282824.875,319002.25,289676.3125,295597.1875,276084.1875,276058.1875,275096.0,-0.0849609375,0.940185546875,-0.264892578125,-5.035399913787842,3.692626714706421,-2.593993902206421,60.0,2949496.0,1.0
1136628.0104815,289180.71875,282778.46875,319229.78125,290175.1875,295666.03125,276033.5,276070.6875,275060.3125,-0.085205078125,0.937744140625,-0.263916015625,-5.218505382537842,3.601073980331421,-2.593993902206421,60.0,2949497.0,1.0
1136628.0122894,289805.5,282754.125,319838.09375,291233.9375,295974.5625,275970.65625,276143.3125,275196.21875,-0.0830078125,0.935546875,-0.262939453125,-5.371093273162842,3.479003667831421,-2.593993902206421,60.0,2949498.0,1.0
1136628.0166448,289838.65625,282783.375,319966.03125,291366.0,296078.03125,275980.40625,276167.78125,275279.53125,-0.081787109375,0.934814453125,-0.263671875,-5.584716320037842,3.387450933456421,-2.655029058456421,60.0,2949499.0,1.0
1136628.0166881,289252.875,282835.3125,319475.71875,290444.65625,295866.375,276062.46875,276133.5625,275248.6875,-0.081787109375,0.9306640625,-0.261962890625,-5.645751476287842,3.417968511581421,-2.471923589706421,60.0,2949500.0,1.0
1136628.0261091,288846.15625,282836.40625,319008.9375,289685.78125,295603.625,276096.375,276069.1875,275096.0625,-0.0810546875,0.92529296875,-0.25927734375,-5.676269054412842,3.265380620956421,-2.441406011581421,60.0,2949501.0,1.0
1136628.0317604,289206.8125,282809.40625,319246.75,290192.96875,295677.90625,276050.3125,276086.09375,275066.21875,-0.079833984375,0.922119140625,-0.2587890625,-5.584716320037842,3.356933355331421,-2.227782964706421,60.0,2949502.0,1.0
1136628.0318072,289832.3125,282792.9375,319867.96875,291268.09375,295997.90625,275992.125,276166.625,275219.0,-0.078125,0.921142578125,-0.257080078125,-5.523681163787842,3.326415777206421,-2.166747808456421,60.0,2949503.0,1.0
1136628.0335139,289834.09375,282802.59375,319975.96875,291377.90625,296083.1875,275986.46875,276180.40625,275292.15625,-0.075927734375,0.91796875,-0.256591796875,-5.218505382537842,3.417968511581421,-2.197265386581421,60.0,2949504.0,1.0
1136628.0360266,289227.84375,282833.8125,319465.28125,290434.8125,295855.125,276053.0,276133.375,275249.40625,-0.074951171875,0.916259765625,-0.260009765625,-4.882812023162842,3.417968511581421,-2.075195074081421,60.0,2949505.0,1.0
1136628.0448187,288823.34375,282826.1875,318996.5,289679.0625,295591.65625,276084.28125,276068.90625,275104.9375,-0.07421875,0.912353515625,-0.261474609375,-4.577636241912842,3.479003667831421,-1.9531248807907104,60.0,2949506.0,1.0
1136628.0479945,289185.0,282796.78125,319235.125,290196.8125,295667.1875,276041.03125,276088.65625,275082.3125,-0.072021484375,0.912353515625,-0.263671875,-4.180907726287842,3.662109136581421,-1.9226073026657104,60.0,2949507.0,1.0
1136628.0480392,289803.625,282775.0625,319850.34375,291270.5,295978.59375,275975.75,276158.6875,275221.15625,-0.07080078125,0.911865234375,-0.263427734375,-3.784179449081421,3.845214605331421,-1.9531248807907104,60.0,2949508.0,1.0
1136628.0585309,289807.71875,282771.125,319959.25,291380.5625,296066.125,275966.375,276165.375,275294.75,-0.0712890625,0.912841796875,-0.26025390625,-3.356933355331421,3.997802495956421,-1.7700194120407104,60.0,2949509.0,1.0
1136628.0616341,289230.34375,282822.0,319471.4375,290465.3125,295854.59375,276048.625,276133.375,275268.8125,-0.06982421875,0.915283203125,-0.26025390625,-2.960204839706421,4.119872570037842,-1.6784666776657104,60.0,2949510.0,1.0
1136628.0616781,288837.84375,282827.8125,319008.125,289713.9375,295592.625,276084.5625,276069.625,275116.28125,-0.0712890625,0.91845703125,-0.25927734375,-2.410888433456421,4.272460460662842,-1.5869139432907104,60.0,2949511.0,1.0
1136628.0747107,289193.5,282786.875,319237.28125,290206.3125,295666.75,276034.9375,276081.6875,275085.0625,-0.07177734375,0.920166015625,-0.25634765625,-2.044677495956421,4.547118663787842,-1.4038084745407104,60.0,2949512.0,1.0
1136628.0779023,289838.03125,282774.0,319867.59375,291277.75,295993.15625,275978.875,276163.9375,275241.0,-0.07421875,0.919921875,-0.258056640625,-1.5869139432907104,4.730224132537842,-1.0986326932907104,60.0,2949513.0,1.0
1136628.0779349,289856.0,282778.46875,319992.25,291410.96875,296096.53125,275981.5625,276184.15625,275323.96875,-0.07373046875,0.92138671875,-0.257568359375,-1.1901854276657104,4.760741710662842,-0.9765624403953552,60.0,2949514.0,1.0
1136628.0797029,289262.4375,282828.53125,319493.53125,290478.28125,295881.0625,276062.21875,276146.96875,275287.5,-0.0732421875,0.92236328125,-0.258544921875,-0.7629393935203552,4.943847179412842,-0.7934569716453552,60.0,2949515.0,1.0
1136628.0834229,288853.3125,282833.90625,319018.875,289699.71875,295612.75,276093.5,276074.625,275123.0,-0.074462890625,0.92236328125,-0.25830078125,-0.3051757514476776,5.035399913787842,-0.6103515028953552,60.0,2949516.0,1.0
1136628.0922317,289214.6875,282812.0,319261.4375,290210.78125,295693.3125,276054.6875,276094.3125,275100.1875,-0.07470703125,0.92236328125,-0.25927734375,0.1220703050494194,5.187987804412842,-0.5187987685203552,60.0,2949517.0,1.0
1136628.0955399,289843.84375,282796.34375,319889.5,291296.34375,296021.0625,276000.6875,276175.75,275256.46875,-0.0712890625,0.924560546875,-0.259521484375,0.4577636420726776,5.279540538787842,-0.3356933295726776,60.0,2949518.0,1.0
1136628.0955875,289879.15625,282834.25,320029.78125,291442.09375,296134.34375,276015.96875,276208.3125,275354.46875,-0.072998046875,0.9267578125,-0.26025390625,0.7629393935203552,5.432128429412842,-0.1831054538488388,60.0,2949519.0,1.0
1136628.0973282,289291.125,282870.8125,319534.65625,290520.75,295922.34375,276093.84375,276174.21875,275325.125,-0.07568359375,0.9267578125,-0.26171875,1.1291502714157104,5.584716320037842,-0.0610351525247097,60.0,2949520.0,1.0
1136628.111517,288853.9375,282844.625,319036.375,289721.90625,295634.125,276108.25,276084.5625,275148.8125,-0.073974609375,0.9287109375,-0.25732421875,1.4648436307907104,5.737304210662842,0.03051757626235485,60.0,2949521.0,1.0
1136628.1115669,289198.96875,282808.0625,319261.6875,290217.375,295699.65625,276052.8125,276088.59375,275115.125,-0.074462890625,0.9306640625,-0.25634765625,1.6784666776657104,5.828856945037842,0.1220703050494194,60.0,2949522.0,1.0
1136628.113574,289826.6875,282780.78125,319890.65625,291315.65625,296025.53125,275995.59375,276170.46875,275281.3125,-0.074951171875,0.932373046875,-0.257568359375,1.8920897245407104,5.920409679412842,0.3051757514476776,60.0,2949523.0,1.0
1136628.1161545,289853.9375,282810.03125,320016.8125,291439.40625,296127.46875,276001.84375,276192.03125,275369.5625,-0.072509765625,0.93212890625,-0.260009765625,2.105712652206421,5.981444835662842,0.3967284858226776,60.0,2949524.0,1.0
1136628.1196694,289275.03125,282863.21875,319527.15625,290508.21875,295921.8125,276087.15625,276163.3125,275334.96875,-0.076416015625,0.9365234375,-0.259765625,2.349853277206421,5.981444835662842,0.4577636420726776,60.0,2949525.0,1.0
1136628.127919,288867.0625,282857.84375,319054.625,289743.4375,295650.5625,276118.8125,276092.875,275170.1875,-0.078369140625,0.935791015625,-0.2578125,2.471923589706421,6.042479991912842,0.4882812201976776,60.0,2949526.0,1.0
1136628.1279612,289201.375,282812.25,319273.75,290223.28125,295711.09375,276061.9375,276098.9375,275130.59375,-0.0791015625,0.93212890625,-0.25634765625,2.563476324081421,6.164550304412842,0.4882812201976776,60.0,2949527.0,1.0
1136628.1297434,289855.03125,282808.9375,319918.84375,291326.9375,296052.34375,276016.4375,276195.4375,275297.5,-0.0791015625,0.931396484375,-0.257080078125,2.685546636581421,6.195067882537842,0.4272460639476776,60.0,2949528.0,1.0
1136628.1360278,289912.34375,282843.71875,320073.0625,291501.0,296175.65625,276035.03125,276234.84375,275403.09375,-0.080322265625,0.93115234375,-0.2578125,2.746581792831421,6.134032726287842,0.3051757514476776,60.0,2949529.0,1.0
1136628.1404072,289295.15625,282860.4375,319544.40625,290531.125,295932.28125,276088.21875,276173.53125,275341.21875,-0.079833984375,0.931640625,-0.260986328125,2.899169683456421,6.164550304412842,0.2746581733226776,60.0,2949530.0,1.0
1136628.1404512,288869.84375,282844.8125,319049.8125,289722.625,295648.15625,276106.03125,276089.125,275160.90625,-0.082763671875,0.93115234375,-0.26171875,3.082275152206421,6.164550304412842,0.2136230319738388,60.0,2949531.0,1.0
1136628.1703136,289233.28125,282812.875,319285.84375,290227.3125,295720.03125,276058.09375,276102.0,275126.21875,-0.083984375,0.930419921875,-0.261962890625,3.326415777206421,6.042479991912842,0.2441406100988388,60.0,2949532.0,1.0
1136628.1703569,289855.03125,282781.21875,319900.40625,291305.75,296032.15625,275987.5625,276171.375,275267.8125,-0.08251953125,0.93115234375,-0.2587890625,3.570556402206421,5.828856945037842,0.1525878757238388,60.0,2949533.0,1.0
1136628.1703748,289879.875,282809.5625,320022.71875,291425.09375,296128.4375,275990.3125,276189.4375,275343.8125,-0.082275390625,0.932373046875,-0.258544921875,3.692626714706421,5.798339366912842,0.0,60.0,2949534.0,1.0
1136628.1703862,289293.8125,282844.0,319525.53125,290509.84375,295910.65625,276062.75,276146.96875,275301.53125,-0.08251953125,0.930419921875,-0.259765625,3.631591558456421,5.737304210662842,-0.0915527269244194,60.0,2949535.0,1.0
1136628.1722354,288884.78125,282846.0625,319048.625,289734.59375,295638.5,276096.28125,276076.0625,275134.0625,-0.082763671875,0.929443359375,-0.263427734375,3.845214605331421,5.706786632537842,-0.2746581733226776,60.0,2949536.0,1.0
1136628.1748856,289221.21875,282812.0625,319263.75,290207.375,295696.0625,276043.4375,276080.0,275086.59375,-0.08447265625,0.929443359375,-0.265625,4.028319835662842,5.584716320037842,-0.3662109076976776,60.0,2949537.0,1.0
1136628.1772745,289826.40625,282777.5625,319866.625,291271.21875,295999.15625,275971.90625,276149.125,275227.25,-0.086181640625,0.933349609375,-0.264404296875,4.241942882537842,5.432128429412842,-0.5493163466453552,60.0,2949538.0,1.0
1136628.1797315,289849.03125,282801.78125,319988.3125,291390.0625,296100.53125,275977.8125,276171.46875,275309.59375,-0.087890625,0.93115234375,-0.266357421875,4.394530773162842,5.218505382537842,-0.6408690810203552,60.0,2949539.0,1.0
1136628.1823188,289281.03125,282860.96875,319507.28125,290483.65625,295899.65625,276070.625,276144.625,275283.90625,-0.089599609375,0.932373046875,-0.266357421875,4.547118663787842,5.065917491912842,-0.6103515028953552,60.0,2949540.0,1.0
1136628.1848916,288871.625,282855.625,319034.875,289727.53125,295630.8125,276100.75,276074.8125,275127.09375,-0.091796875,0.933837890625,-0.2666015625,4.760741710662842,4.882812023162842,-0.8544921278953552,60.0,2949541.0,1.0
1136628.1891044,289214.875,282816.46875,319262.40625,290220.34375,295695.875,276049.25,276089.75,275099.21875,-0.092041015625,0.93212890625,-0.2685546875,4.882812023162842,4.669188976287842,-0.8850097060203552,60.0,2949542.0,1.0
1136628.1891456,289863.5,282815.21875,319911.875,291339.90625,296037.15625,276008.5625,276189.4375,275280.15625,-0.092041015625,0.931396484375,-0.26904296875,5.004882335662842,4.577636241912842,-0.9155272841453552,60.0,2949543.0,1.0
1136628.191023,289887.3125,282842.375,320043.90625,291472.65625,296144.90625,276017.78125,276214.375,275372.96875,-0.091552734375,0.93212890625,-0.26904296875,5.187987804412842,4.333495616912842,-1.0681151151657104,60.0,2949544.0,1.0
1136628.2048911,289288.375,282877.53125,319531.875,290522.0,295918.5,276082.59375,276162.0,275313.875,-0.09326171875,0.93017578125,-0.27099609375,5.401610851287842,4.119872570037842,-1.1596678495407104,60.0,2949545.0,1.0
1136628.2077655,288874.5,282859.09375,319049.53125,289743.71875,295644.125,276105.375,276084.125,275140.0625,-0.094970703125,0.9287109375,-0.2724609375,5.554198741912842,3.814697027206421,-1.2817381620407104,60.0,2949546.0,1.0
1136628.207819,289236.0625,282831.375,319284.9375,290247.15625,295718.59375,276064.0,276102.25,275116.1875,-0.0986328125,0.92919921875,-0.27197265625,5.828856945037842,3.631591558456421,-1.4343260526657104,60.0,2949547.0,1.0
1136628.2098177,289864.15625,282809.3125,319913.375,291344.90625,296045.375,276004.8125,276186.9375,275286.59375,-0.099853515625,0.927734375,-0.270263671875,5.920409679412842,3.356933355331421,-1.4648436307907104,60.0,2949548.0,1.0
1136628.2185767,289885.15625,282820.40625,320039.53125,291472.65625,296147.5,276004.4375,276204.625,275375.84375,-0.100341796875,0.925537109375,-0.269287109375,6.103515148162842,3.143310308456421,-1.5869139432907104,60.0,2949549.0,1.0
1136628.2228824,289322.15625,282878.59375,319559.25,290560.71875,295941.03125,276092.25,276170.9375,275340.6875,-0.0986328125,0.923095703125,-0.268798828125,6.286620616912842,2.990722417831421,-1.7395018339157104,60.0,2949550.0,1.0
1136628.2229269,288921.6875,282880.28125,319086.46875,289795.5625,295673.53125,276130.6875,276104.59375,275177.15625,-0.09814453125,0.9228515625,-0.27001953125,6.317138195037842,2.777099370956421,-1.7395018339157104,60.0,2949551.0,1.0
1136628.2247214,289251.0625,282829.5,319298.96875,290261.28125,295730.9375,276073.21875,276108.15625,275142.46875,-0.095703125,0.923828125,-0.26953125,6.500243663787842,2.471923589706421,-1.9531248807907104,60.0,2949552.0,1.0
1136628.2335594,289852.4375,282787.84375,319904.25,291324.34375,296039.5625,275996.5,276174.0625,275298.75,-0.095703125,0.925048828125,-0.272705078125,6.744384288787842,2.319335699081421,-2.075195074081421,60.0,2949553.0,1.0
1136628.2379855,289871.84375,282797.9375,320026.46875,291457.375,296137.03125,275992.75,276189.0,275380.03125,-0.0966796875,0.925537109375,-0.27392578125,6.896972179412842,2.166747808456421,-2.075195074081421,60.0,2949554.0,1.0
1136628.2380589,289288.0,282842.90625,319522.3125,290522.625,295911.28125,276067.75,276142.6875,275316.375,-0.094970703125,0.931396484375,-0.2724609375,6.958007335662842,1.9836424589157104,-2.166747808456421,60.0,2949555.0,1.0
1136628.2460294,288873.15625,282841.3125,319028.78125,289719.40625,295621.875,276096.28125,276064.1875,275121.65625,-0.09716796875,0.931396484375,-0.271484375,6.958007335662842,1.8615721464157104,-2.288818120956421,60.0,2949556.0,1.0
1136628.2491266,289220.6875,282816.46875,319256.15625,290209.34375,295690.25,276055.21875,276087.25,275093.03125,-0.0986328125,0.9326171875,-0.27099609375,6.713866710662842,1.6784666776657104,-2.258300542831421,60.0,2949557.0,1.0
1136628.2491591,289874.78125,282819.125,319928.125,291363.21875,296059.0625,276025.90625,276204.8125,275318.4375,-0.10107421875,0.934326171875,-0.272216796875,6.713866710662842,1.4648436307907104,-2.258300542831421,60.0,2949558.0,1.0
1136628.2547785,289907.0625,282834.59375,320074.21875,291524.0625,296176.625,276032.0625,276231.46875,275432.96875,-0.103271484375,0.932861328125,-0.2705078125,6.652831554412842,1.1596678495407104,-2.288818120956421,60.0,2949559.0,1.0
1136628.2640269,289294.625,282850.0,319540.46875,290547.125,295923.34375,276078.375,276156.4375,275342.9375,-0.104248046875,0.93115234375,-0.272216796875,6.530761241912842,1.0681151151657104,-2.288818120956421,60.0,2949560.0,1.0
1136628.2640584,288867.6875,282838.8125,319029.875,289724.125,295619.4375,276094.75,276063.09375,275124.59375,-0.10595703125,0.930908203125,-0.272216796875,6.347655773162842,0.7324218153953552,-2.349853277206421,60.0,2949561.0,1.0
1136628.2660701,289218.09375,282823.25,319265.90625,290223.46875,295696.96875,276059.96875,276089.9375,275103.75,-0.108642578125,0.93115234375,-0.272705078125,6.256103038787842,0.3967284858226776,-2.410888433456421,60.0,2949562.0,1.0
1136628.2723622,289864.9375,282814.5,319932.96875,291371.53125,296063.4375,276024.3125,276203.90625,275331.40625,-0.109130859375,0.93505859375,-0.271728515625,6.072997570037842,0.0610351525247097,-2.471923589706421,60.0,2949563.0,1.0
1136628.2766021,289888.625,282817.8125,320065.09375,291519.4375,296172.15625,276020.0,276224.125,275433.21875,-0.108642578125,0.93896484375,-0.267333984375,5.767821788787842,-0.2441406100988388,-2.471923589706421,60.0,2949564.0,1.0
1136628.2766439,289287.28125,282844.4375,319536.71875,290542.5625,295926.03125,276079.8125,276162.15625,275338.46875,-0.109619140625,0.943115234375,-0.270751953125,5.401610851287842,-0.6713866591453552,-2.502441167831421,60.0,2949565.0,1.0
1136628.2847788,288876.5625,282849.625,319035.125,289723.3125,295627.125,276106.03125,276078.375,275120.84375,-0.10888671875,0.941650390625,-0.27001953125,5.065917491912842,-1.0375975370407104,-2.380370855331421,60.0,2949566.0,1.0
1136628.289113,289221.21875,282822.71875,319270.0,290229.1875,295700.4375,276060.15625,276095.90625,275107.53125,-0.10888671875,0.943603515625,-0.27001953125,4.516601085662842,-1.3122557401657104,-2.471923589706421,60.0,2949567.0,1.0
1136628.2891537,289870.5,282817.71875,319952.1875,291399.53125,296081.59375,276028.0625,276212.21875,275360.09375,-0.11279296875,0.943115234375,-0.267333984375,4.028319835662842,-1.6174315214157104,-2.471923589706421,60.0,2949568.0,1.0
1136628.2949248,289897.65625,282825.9375,320091.65625,291550.90625,296202.75,276033.25,276234.5,275473.71875,-0.113525390625,0.94287109375,-0.26806640625,3.540038824081421,-1.9531248807907104,-2.471923589706421,60.0,2949569.0,1.0
1136628.2985163,289298.71875,282855.34375,319555.03125,290555.78125,295946.84375,276090.375,276166.1875,275363.5,-0.112548828125,0.944091796875,-0.26611328125,3.082275152206421,-2.319335699081421,-2.410888433456421,60.0,2949570.0,1.0
1136628.302896,288870.46875,282847.84375,319029.9375,289707.5,295624.46875,276102.96875,276069.1875,275119.40625,-0.11474609375,0.944580078125,-0.265625,2.685546636581421,-2.593993902206421,-2.502441167831421,60.0,2949571.0,1.0
1136628.3029396,289242.125,282842.65625,319294.9375,290260.125,295724.59375,276082.78125,276118.625,275143.5625,-0.117431640625,0.94482421875,-0.2646484375,2.105712652206421,-2.960204839706421,-2.624511480331421,60.0,2949572.0,1.0
1136628.3165612,289908.21875,282847.125,320002.4375,291467.3125,296130.40625,276067.84375,276256.75,275433.59375,-0.120361328125,0.942626953125,-0.267578125,1.7089842557907104,-3.356933355331421,-2.716064214706421,60.0,2949573.0,1.0
1136628.3166036,289926.5625,282845.96875,320134.5,291602.21875,296240.8125,276062.46875,276267.5625,275537.375,-0.1181640625,0.941162109375,-0.270263671875,1.1596678495407104,-3.662109136581421,-2.746581792831421,60.0,2949574.0,1.0
1136628.3186894,289302.03125,282852.03125,319566.3125,290567.59375,295951.6875,276096.71875,276173.0625,275387.28125,-0.11767578125,0.940185546875,-0.2666015625,0.6103515028953552,-4.028319835662842,-2.777099370956421,60.0,2949575.0,1.0
1136628.3210875,288857.34375,282830.40625,319024.125,289699.625,295607.46875,276089.46875,276056.5,275115.3125,-0.11865234375,0.939697265625,-0.263671875,0.2136230319738388,-4.272460460662842,-2.716064214706421,60.0,2949576.0,1.0
1136628.3247263,289248.9375,282841.75,319323.5625,290294.28125,295740.78125,276087.25,276128.28125,275183.0625,-0.11865234375,0.9404296875,-0.2646484375,-0.0610351525247097,-4.486083507537842,-2.807616949081421,60.0,2949577.0,1.0
1136628.339115,289927.625,282850.25,320052.5,291532.125,296173.5,276083.3125,276277.6875,275508.6875,-0.120361328125,0.939453125,-0.261962890625,-0.4882812201976776,-4.760741710662842,-2.746581792831421,60.0,2949578.0,1.0
1136628.3391558,289938.09375,282844.875,320171.15625,291639.59375,296280.4375,276077.5,276287.5,275602.5625,-0.12109375,0.937744140625,-0.26025390625,-1.0375975370407104,-5.126952648162842,-2.746581792831421,60.0,2949579.0,1.0
1136628.3409595,289297.375,282846.3125,319569.96875,290554.4375,295959.375,276095.09375,276171.71875,275397.46875,-0.119140625,0.93798828125,-0.26171875,-1.4343260526657104,-5.462646007537842,-2.685546636581421,60.0,2949580.0,1.0
1136628.3435654,288866.53125,282846.40625,319037.28125,289698.90625,295628.5625,276108.34375,276068.8125,275127.71875,-0.120361328125,0.9375,-0.263916015625,-1.9836424589157104,-5.706786632537842,-2.624511480331421,60.0,2949581.0,1.0
1136628.3460628,289259.125,282856.59375,319334.75,290295.1875,295761.25,276106.90625,276137.75,275190.5625,-0.118896484375,0.93408203125,-0.262451171875,-2.288818120956421,-5.920409679412842,-2.655029058456421,60.0,2949582.0,1.0
1136628.3485754,289935.9375,282861.4375,320059.46875,291528.28125,296184.21875,276091.71875,276277.9375,275505.1875,-0.118896484375,0.931884765625,-0.26513671875,-2.838134527206421,-6.317138195037842,-2.563476324081421,60.0,2949583.0,1.0
1136628.3622806,289946.65625,282854.1875,320182.40625,291646.125,296286.6875,276081.59375,276284.90625,275592.65625,-0.117919921875,0.927978515625,-0.264892578125,-3.112792730331421,-6.561278820037842,-2.410888433456421,60.0,2949584.0,1.0
1136628.365341,289293.8125,282846.6875,319571.65625,290554.28125,295957.125,276091.09375,276163.25,275385.40625,-0.116455078125,0.923828125,-0.260986328125,-3.265380620956421,-6.744384288787842,-2.410888433456421,60.0,2949585.0,1.0
1136628.3653887,288846.59375,282832.375,319012.6875,289669.0625,295601.21875,276086.875,276048.25,275098.3125,-0.117919921875,0.925048828125,-0.258544921875,-3.356933355331421,-6.988524913787842,-2.349853277206421,60.0,2949586.0,1.0
1136628.3673172,289232.40625,282843.09375,319295.125,290249.40625,295717.71875,276077.0625,276110.3125,275145.34375,-0.11962890625,0.92626953125,-0.256103515625,-3.448486089706421,-7.141112804412842,-2.471923589706421,60.0,2949587.0,1.0
1136628.3698236,289912.25,282853.90625,320022.28125,291484.65625,296142.125,276069.28125,276257.90625,275457.90625,-0.11572265625,0.922119140625,-0.258056640625,-3.723144292831421,-7.293700695037842,-2.410888433456421,60.0,2949588.0,1.0
1136628.3792657,289921.625,282845.59375,320137.4375,291594.875,296240.125,276057.125,276261.84375,275536.40625,-0.114990234375,0.91845703125,-0.256591796875,-3.936767339706421,-7.476806163787842,-2.197265386581421,60.0,2949589.0,1.0
1136628.3793107,289271.46875,282839.25,319523.65625,290498.46875,295908.59375,276070.15625,276139.71875,275322.46875,-0.11572265625,0.914306640625,-0.25732421875,-3.967284917831421,-7.476806163787842,-2.166747808456421,60.0,2949590.0,1.0
1136628.3810626,288819.5,282822.53125,318962.90625,289608.78125,295545.40625,276061.3125,276020.1875,275030.71875,-0.11767578125,0.9130859375,-0.259765625,-3.692626714706421,-7.598876476287842,-2.166747808456421,60.0,2949591.0,1.0
1136628.3897591,289218.53125,282841.9375,319259.28125,290208.53125,295674.15625,276061.84375,276091.09375,275095.09375,-0.11474609375,0.913818359375,-0.257568359375,-3.540038824081421,-7.629394054412842,-2.075195074081421,60.0,2949592.0,1.0
1136628.3941292,289911.625,282860.8125,320004.5,291466.125,296113.5,276066.0625,276251.40625,275426.53125,-0.11376953125,0.912841796875,-0.255859375,-3.295898199081421,-7.690429210662842,-2.197265386581421,60.0,2949593.0,1.0
1136628.3941745,289916.8125,282840.25,320116.4375,291572.875,296209.1875,276053.09375,276252.1875,275499.375,-0.111083984375,0.91162109375,-0.25341796875,-3.326415777206421,-7.690429210662842,-2.166747808456421,60.0,2949594.0,1.0
1136628.4029922,289263.875,282825.5,319496.65625,290464.96875,295873.625,276064.09375,276131.125,275277.84375,-0.111328125,0.908935546875,-0.253173828125,-3.204345464706421,-7.690429210662842,-2.166747808456421,60.0,2949595.0,1.0
1136628.4030364,288815.5,282804.9375,318935.71875,289576.78125,295514.75,276054.0625,276015.8125,274983.5,-0.11279296875,0.907470703125,-0.253662109375,-3.051757574081421,-7.629394054412842,-2.136230230331421,60.0,2949596.0,1.0
1136628.4047796,289205.65625,282816.28125,319225.65625,290167.9375,295637.15625,276046.5625,276079.71875,275038.5,-0.113525390625,0.904541015625,-0.25439453125,-2.868652105331421,-7.476806163787842,-2.105712652206421,60.0,2949597.0,1.0
1136628.4185658,289894.4375,282830.59375,319969.96875,291433.15625,296076.6875,276043.875,276233.59375,275373.40625,-0.1103515625,0.900390625,-0.253173828125,-2.563476324081421,-7.476806163787842,-1.9836424589157104,60.0,2949598.0,1.0
1136628.4216268,289921.8125,282828.78125,320108.75,291577.1875,296197.8125,276045.5,276250.84375,275481.34375,-0.110595703125,0.89599609375,-0.251953125,-2.410888433456421,-7.385253429412842,-1.8920897245407104,60.0,2949599.0,1.0
1136628.4216695,289287.375,282834.78125,319519.28125,290510.65625,295893.9375,276078.03125,276150.28125,275302.15625,-0.1083984375,0.8876953125,-0.248291015625,-2.105712652206421,-7.293700695037842,-1.8615721464157104,60.0,2949600.0,1.0
1136628.4236869,288838.90625,282825.03125,318969.15625,289635.78125,295546.75,276079.65625,276038.78125,275033.125,-0.107666015625,0.88427734375,-0.249267578125,-1.8005369901657104,-7.141112804412842,-1.7700194120407104,60.0,2949601.0,1.0
1136628.4260606,289235.53125,282843.28125,319275.0,290249.9375,295686.15625,276076.78125,276106.8125,275116.5625,-0.109375,0.885498046875,-0.250732421875,-1.3732908964157104,-7.049560070037842,-1.6479490995407104,60.0,2949602.0,1.0
1136628.4354409,289931.90625,282861.15625,320035.6875,291533.625,296145.96875,276082.78125,276273.03125,275479.09375,-0.10888671875,0.887939453125,-0.250732421875,-0.8239745497703552,-6.958007335662842,-1.6784666776657104,60.0,2949603.0,1.0
1136628.435485,289949.0,282851.6875,320169.1875,291662.65625,296261.65625,276080.1875,276286.09375,275582.375,-0.110595703125,0.88818359375,-0.250732421875,-0.3051757514476776,-6.652831554412842,-1.5869139432907104,60.0,2949604.0,1.0
1136628.4441613,289300.34375,282844.4375,319561.125,290563.125,295939.71875,276096.71875,276169.0625,275375.375,-0.110595703125,0.8935546875,-0.251953125,0.1831054538488388,-6.530761241912842,-1.6174315214157104,60.0,2949605.0,1.0
1136628.4442049,288841.3125,282823.0625,318990.25,289653.6875,295571.25,276083.3125,276043.625,275068.09375,-0.111328125,0.8955078125,-0.247314453125,0.5798339247703552,-6.256103038787842,-1.6479490995407104,60.0,2949606.0,1.0
1136628.4461484,289223.28125,282832.375,319268.9375,290224.4375,295682.21875,276070.53125,276098.15625,275100.28125,-0.115234375,0.8994140625,-0.2490234375,1.0070799589157104,-6.195067882537842,-1.6784666776657104,60.0,2949607.0,1.0
1136628.4485068,289908.3125,282842.375,319997.34375,291459.875,296105.46875,276062.84375,276242.28125,275406.75,-0.11572265625,0.90087890625,-0.2509765625,1.1901854276657104,-6.042479991912842,-1.6174315214157104,60.0,2949608.0,1.0
1136628.4547715,289882.8125,282803.59375,320047.65625,291472.40625,296139.25,276017.15625,276204.46875,275385.5,-0.114990234375,0.902587890625,-0.25244140625,1.4343260526657104,-5.920409679412842,-1.4953612089157104,60.0,2949609.0,1.0
1136628.4641608,289152.375,282749.9375,319292.28125,290176.96875,295667.46875,275961.53125,276004.09375,274953.125,-0.114990234375,0.904052734375,-0.2548828125,1.8615721464157104,-5.737304210662842,-1.4038084745407104,60.0,2949610.0,1.0
1136628.4642043,288671.53125,282733.3125,318661.3125,289202.09375,295230.96875,275928.28125,275856.21875,274539.875,-0.115966796875,0.90673828125,-0.255126953125,2.288818120956421,-5.462646007537842,-1.3427733182907104,60.0,2949611.0,1.0
1136628.4659171,289072.96875,282767.65625,318956.625,289823.71875,295351.75,275928.625,275931.59375,274592.625,-0.115966796875,0.9140625,-0.25537109375,2.624511480331421,-5.279540538787842,-1.2817381620407104,60.0,2949612.0,1.0
1136628.4722546,289801.28125,282813.78125,319758.4375,291177.625,295845.28125,275962.78125,276128.8125,275001.9375,-0.116943359375,0.920166015625,-0.25732421875,2.807616949081421,-5.126952648162842,-1.2207030057907104,60.0,2949613.0,1.0
1136628.4816674,289804.875,282787.59375,319871.0,291281.96875,295941.40625,275943.75,276125.6875,275076.75,-0.119384765625,0.928466796875,-0.26123046875,3.021239995956421,-4.882812023162842,-1.1291502714157104,60.0,2949614.0,1.0
1136628.4817109,289083.09375,282730.625,319144.5625,290024.4375,295506.0,275900.375,275938.46875,274709.3125,-0.11865234375,0.93212890625,-0.263916015625,3.112792730331421,-4.791259288787842,-0.8239745497703552,60.0,2949615.0,1.0
1136628.484134,288600.90625,282709.25,318510.0625,289040.34375,295070.3125,275868.71875,275788.0,274298.9375,-0.118408203125,0.937255859375,-0.263427734375,3.143310308456421,-4.638671398162842,-0.6103515028953552,60.0,2949616.0,1.0
1136628.484178,289075.65625,282798.03125,318913.625,289802.90625,295290.78125,275934.09375,275939.28125,274491.6875,-0.1171875,0.940673828125,-0.2607421875,3.173827886581421,-4.455565929412842,-0.4882812201976776,60.0,2949617.0,1.0
1136628.4923521,289878.71875,282884.9375,319851.5,291341.5,295919.3125,276035.46875,276219.5625,275106.34375,-0.115966796875,0.941650390625,-0.260498046875,3.143310308456421,-4.394530773162842,-0.3051757514476776,60.0,2949618.0,1.0
1136628.4948154,289893.1875,282850.25,320014.0625,291504.9375,296076.40625,276036.5625,276237.96875,275279.8125,-0.116455078125,0.942138671875,-0.2587890625,2.990722417831421,-4.272460460662842,-0.0915527269244194,60.0,2949619.0,1.0
1136628.4991682,289159.25,282774.96875,319276.09375,290213.90625,295637.96875,275982.0,276033.25,274907.0625,-0.114990234375,0.9462890625,-0.26171875,2.868652105331421,-4.119872570037842,0.3051757514476776,60.0,2949620.0,1.0
1136628.4992116,288656.4375,282733.84375,318616.0,289186.4375,295177.875,275924.96875,275856.125,274466.75,-0.114501953125,0.945068359375,-0.262939453125,2.655029058456421,-3.906249761581421,0.5798339247703552,60.0,2949621.0,1.0
1136628.5073196,289116.53125,282808.3125,319006.4375,289935.3125,295386.28125,275973.6875,275986.03125,274646.53125,-0.111572265625,0.944580078125,-0.2646484375,2.593993902206421,-3.692626714706421,0.8850097060203552,60.0,2949622.0,1.0
1136628.5117242,289917.0625,282893.0,319945.21875,291469.09375,296019.0,276070.4375,276261.9375,275269.15625,-0.10986328125,0.943115234375,-0.265869140625,2.441406011581421,-3.417968511581421,1.0986326932907104,60.0,2949623.0,1.0
1136628.5117693,289953.625,282878.3125,320127.59375,291654.34375,296199.25,276087.15625,276299.40625,275467.75,-0.110595703125,0.944091796875,-0.2685546875,2.319335699081421,-3.112792730331421,1.4343260526657104,60.0,2949624.0,1.0
1136628.5172764,289229.96875,282809.65625,319407.59375,290392.0,295779.125,276040.3125,276105.65625,275118.78125,-0.11181640625,0.945556640625,-0.2724609375,2.227782964706421,-2.838134527206421,1.6479490995407104,60.0,2949625.0,1.0
1136628.524042,288737.0,282777.75,318775.9375,289401.375,295348.625,275997.65625,275945.625,274725.46875,-0.1123046875,0.945556640625,-0.2724609375,2.258300542831421,-2.716064214706421,1.9226073026657104,60.0,2949626.0,1.0
1136628.5240919,289194.5625,282853.65625,319171.3125,290144.625,295569.46875,276050.75,276083.3125,274917.8125,-0.11083984375,0.94873046875,-0.27490234375,2.288818120956421,-2.441406011581421,2.288818120956421,60.0,2949627.0,1.0
1136628.5323202,289974.46875,282923.5625,320073.78125,291625.71875,296171.28125,276132.5625,276336.0625,275490.4375,-0.108642578125,0.950927734375,-0.27685546875,2.349853277206421,-2.197265386581421,2.593993902206421,60.0,2949628.0,1.0
1136628.5391262,289991.625,282892.28125,320224.34375,291766.375,296316.71875,276125.78125,276345.0,275639.75,-0.1064453125,0.951904296875,-0.277099609375,2.319335699081421,-2.014159917831421,2.929687261581421,60.0,2949629.0,1.0
1136628.5391792,289278.34375,282830.125,319512.3125,290506.25,295900.28125,276080.625,276156.25,275295.625,-0.104736328125,0.951171875,-0.279052734375,2.441406011581421,-1.6479490995407104,2.990722417831421,60.0,2949630.0,1.0
1136628.5413987,288779.09375,282787.5,318869.375,289505.09375,295460.84375,276029.46875,275989.6875,274890.0,-0.103271484375,0.949951171875,-0.282958984375,2.410888433456421,-1.3427733182907104,3.356933355331421,60.0,2949631.0,1.0
1136628.5414476,289222.375,282849.71875,319237.1875,290214.09375,295652.53125,276065.78125,276104.6875,275047.4375,-0.103515625,0.94580078125,-0.2841796875,2.441406011581421,-1.0070799589157104,3.570556402206421,60.0,2949632.0,1.0
1136628.5497954,289984.75,282911.6875,320114.71875,291656.5625,296222.0625,276133.8125,276341.15625,275576.0,-0.102783203125,0.939208984375,-0.285888671875,2.410888433456421,-0.5493163466453552,3.875732183456421,60.0,2949633.0,1.0
1136628.5647643,289997.90625,282882.09375,320255.375,291790.40625,296356.96875,276127.46875,276350.625,275705.5625,-0.10400390625,0.931884765625,-0.2880859375,2.746581792831421,-0.2746581733226776,4.119872570037842,60.0,2949634.0,1.0
1136628.5648085,289290.6875,282825.5,319549.75,290553.03125,295947.46875,276088.03125,276166.8125,275369.40625,-0.10302734375,0.926513671875,-0.290283203125,2.990722417831421,0.0610351525247097,4.302978038787842,60.0,2949635.0,1.0
1136628.5648217,288806.53125,282801.25,318924.4375,289564.90625,295521.71875,276054.25,276014.90625,274981.0,-0.10009765625,0.921630859375,-0.294921875,3.234863042831421,0.3662109076976776,4.486083507537842,60.0,2949636.0,1.0
1136628.5679747,289233.90625,282861.4375,319265.71875,290227.03125,295689.28125,276086.71875,276117.1875,275098.21875,-0.09716796875,0.918701171875,-0.29541015625,3.662109136581421,0.7324218153953552,4.577636241912842,60.0,2949637.0,1.0
1136628.5680114,289969.03125,282907.90625,320089.5,291603.46875,296205.59375,276129.34375,276319.53125,275550.71875,-0.094970703125,0.914306640625,-0.2958984375,4.180907726287842,1.2817381620407104,4.699706554412842,60.0,2949638.0,1.0
1136628.5697821,289961.9375,282866.15625,320199.21875,291702.25,296300.1875,276105.375,276306.75,275625.8125,-0.092529296875,0.91455078125,-0.2998046875,4.577636241912842,1.6174315214157104,4.913329601287842,60.0,2949639.0,1.0
1136628.5785359,289258.9375,282820.84375,319501.3125,290471.75,295889.8125,276075.0,276132.40625,275285.09375,-0.092529296875,0.91943359375,-0.302490234375,4.974364757537842,1.9836424589157104,5.157470226287842,60.0,2949640.0,1.0
1136628.5879987,288770.5,282793.65625,318871.78125,289482.28125,295457.25,276037.71875,275976.375,274887.5,-0.091796875,0.91943359375,-0.29931640625,5.432128429412842,2.380370855331421,5.340575695037842,60.0,2949641.0,1.0
1136628.5880441,289178.03125,282835.6875,319184.90625,290109.65625,295596.90625,276050.6875,276063.625,274971.0,-0.092041015625,0.918212890625,-0.2978515625,5.645751476287842,2.868652105331421,5.432128429412842,60.0,2949642.0,1.0
1136628.5942313,289916.34375,282884.40625,320003.59375,291478.28125,296106.625,276091.0,276267.5,275406.9375,-0.0888671875,0.91552734375,-0.301513671875,5.920409679412842,3.234863042831421,5.584716320037842,60.0,2949643.0,1.0
1136628.5942793,289932.34375,282860.34375,320133.78125,291604.625,296220.4375,276079.46875,276273.375,275504.21875,-0.088623046875,0.912841796875,-0.29931640625,6.072997570037842,3.784179449081421,5.706786632537842,60.0,2949644.0,1.0
1136628.6003423,289220.9375,282802.34375,319422.34375,290366.25,295796.65625,276034.75,276089.9375,275157.6875,-0.089599609375,0.911865234375,-0.302490234375,6.378173351287842,4.211425304412842,5.828856945037842,60.0,2949645.0,1.0
1136628.6003849,288725.8125,282764.5,318785.0625,289377.6875,295355.875,275987.5625,275926.75,274751.0625,-0.0908203125,0.912109375,-0.305419921875,6.774901866912842,4.638671398162842,5.859374523162842,60.0,2949646.0,1.0
1136628.6023452,289151.21875,282818.5,319119.34375,290040.53125,295515.375,276015.53125,276027.96875,274856.46875,-0.09130859375,0.91357421875,-0.306884765625,7.110595226287842,5.096435070037842,5.981444835662842,60.0,2949647.0,1.0
1136628.6311011,289883.71875,282859.8125,319939.40625,291414.5625,296031.25,276054.59375,276229.65625,275306.53125,-0.09326171875,0.918701171875,-0.305419921875,7.263183116912842,5.371093273162842,6.072997570037842,60.0,2949648.0,1.0
1136628.6354184,289890.34375,282822.96875,320063.5,291536.78125,296141.75,276033.15625,276223.21875,275404.875,-0.0947265625,0.923095703125,-0.30615234375,7.324218273162842,5.584716320037842,6.195067882537842,60.0,2949649.0,1.0
1136628.6354625,289196.8125,282772.1875,319373.1875,290328.875,295736.75,275997.03125,276047.53125,275074.34375,-0.092041015625,0.925537109375,-0.3056640625,7.171630382537842,5.889892101287842,6.256103038787842,60.0,2949650.0,1.0
1136628.6354738,288725.1875,282753.5,318762.53125,289365.59375,295324.75,275968.40625,275902.53125,274693.375,-0.093994140625,0.9248046875,-0.30322265625,7.141112804412842,6.134032726287842,6.439208507537842,60.0,2949651.0,1.0
1136628.6354843,289142.28125,282804.21875,319103.25,290030.78125,295493.21875,275997.84375,276009.90625,274818.65625,-0.09423828125,0.9248046875,-0.304931640625,6.988524913787842,6.378173351287842,6.530761241912842,60.0,2949652.0,1.0
1136628.6371907,289902.9375,282872.875,319964.6875,291447.28125,296047.875,276068.5625,276250.5,275324.40625,-0.09375,0.924072265625,-0.306640625,6.866454601287842,6.469726085662842,6.774901866912842,60.0,2949653.0,1.0
1136628.6398583,289927.09375,282851.0625,320110.34375,291593.53125,296182.96875,276060.59375,276263.8125,275457.375,-0.098876953125,0.922607421875,-0.30517578125,6.866454601287842,6.591796398162842,6.774901866912842,60.0,2949654.0,1.0
1136628.6423189,289231.21875,282796.875,319420.5625,290383.78125,295779.21875,276018.75,276082.21875,275134.25,-0.099365234375,0.9228515625,-0.3076171875,6.774901866912842,6.805419445037842,6.958007335662842,60.0,2949655.0,1.0
1136628.6449391,288750.21875,282771.21875,318805.53125,289416.9375,295360.625,275981.125,275929.4375,274751.59375,-0.09912109375,0.923828125,-0.310546875,6.652831554412842,6.835937023162842,7.049560070037842,60.0,2949656.0,1.0
1136628.647337,289157.65625,282814.65625,319135.625,290073.4375,295525.03125,276003.03125,276031.625,274870.84375,-0.097900390625,0.925048828125,-0.310791015625,6.500243663787842,6.835937023162842,7.019042491912842,60.0,2949657.0,1.0
1136628.6509756,289908.9375,282879.65625,319987.9375,291480.4375,296077.84375,276069.90625,276265.53125,275372.875,-0.097412109375,0.925537109375,-0.31201171875,6.347655773162842,6.988524913787842,7.019042491912842,60.0,2949658.0,1.0
1136628.6578693,289933.96875,282859.5625,320132.25,291626.71875,296211.6875,276066.15625,276276.78125,275502.78125,-0.095703125,0.927001953125,-0.3095703125,6.286620616912842,6.958007335662842,6.958007335662842,60.0,2949659.0,1.0
1136628.6579116,289248.84375,282816.28125,319455.53125,290429.8125,295822.75,276041.28125,276108.25,275188.96875,-0.09375,0.927734375,-0.31103515625,6.164550304412842,6.866454601287842,6.958007335662842,60.0,2949660.0,1.0
1136628.6611697,288802.625,282818.34375,318877.875,289500.53125,295443.3125,276042.625,275989.15625,274846.71875,-0.09521484375,0.929443359375,-0.310791015625,5.889892101287842,6.835937023162842,6.927489757537842,60.0,2949661.0,1.0
1136628.6728256,289205.46875,282854.375,319199.75,290142.28125,295595.5,276058.28125,276077.3125,274959.09375,-0.0986328125,0.928466796875,-0.312744140625,5.645751476287842,6.561278820037842,6.927489757537842,60.0,2949662.0,1.0
1136628.6728665,289929.59375,282894.40625,320019.15625,291513.53125,296116.1875,276102.875,276284.28125,275429.125,-0.0986328125,0.9267578125,-0.313720703125,5.584716320037842,6.530761241912842,6.774901866912842,60.0,2949663.0,1.0
1136628.6752594,289949.78125,282874.21875,320162.8125,291656.125,296246.1875,276102.0,276295.5625,275550.8125,-0.098388671875,0.9248046875,-0.3125,5.432128429412842,6.317138195037842,6.622313976287842,60.0,2949664.0,1.0
1136628.6752875,289281.75,282842.28125,319505.875,290488.03125,295870.6875,276086.96875,276135.0625,275250.46875,-0.09619140625,0.924072265625,-0.3125,5.371093273162842,6.072997570037842,6.378173351287842,60.0,2949665.0,1.0
1136628.6834259,288809.9375,282816.09375,318907.375,289548.4375,295471.9375,276062.21875,275992.65625,274896.59375,-0.09814453125,0.923828125,-0.315185546875,5.249022960662842,5.767821788787842,6.225585460662842,60.0,2949666.0,1.0
1136628.6860229,289207.8125,282855.625,319228.4375,290182.59375,295627.84375,276081.34375,276088.59375,275012.375,-0.0986328125,0.92431640625,-0.3154296875,5.096435070037842,5.645751476287842,6.072997570037842,60.0,2949667.0,1.0
1136628.6928751,289927.25,282902.28125,320041.5,291530.40625,296143.71875,276128.0,276301.28125,275469.4375,-0.099609375,0.920654296875,-0.31591796875,4.943847179412842,5.279540538787842,5.828856945037842,60.0,2949668.0,1.0
1136628.6929172,289955.15625,282886.28125,320183.3125,291668.90625,296270.875,276122.5625,276310.59375,275588.96875,-0.098876953125,0.917236328125,-0.318359375,4.943847179412842,5.004882335662842,5.493163585662842,60.0,2949669.0,1.0
1136628.7010622,289268.25,282827.90625,319503.53125,290487.21875,295872.03125,276079.1875,276125.6875,275268.28125,-0.096923828125,0.915283203125,-0.322509765625,4.974364757537842,4.821776866912842,5.249022960662842,60.0,2949670.0,1.0
1136628.7079178,288785.0,282791.875,318887.875,289523.40625,295457.8125,276042.1875,275974.6875,274888.65625,-0.096435546875,0.915283203125,-0.323486328125,5.157470226287842,4.394530773162842,4.974364757537842,60.0,2949671.0,1.0
1136628.7079613,289196.53125,282840.78125,319210.71875,290161.78125,295612.90625,276065.5,276073.21875,274996.75,-0.094970703125,0.914794921875,-0.32861328125,5.279540538787842,4.150390148162842,4.791259288787842,60.0,2949672.0,1.0
1136628.7105164,289911.625,282881.71875,320008.78125,291493.5,296115.75,276101.625,276276.78125,275432.78125,-0.09619140625,0.914794921875,-0.326904296875,5.310058116912842,3.753661870956421,4.516601085662842,60.0,2949673.0,1.0
1136628.7105612,289927.09375,282851.3125,320136.375,291617.5,296226.4375,276083.5625,276279.28125,275527.90625,-0.094482421875,0.915771484375,-0.32568359375,5.371093273162842,3.509521245956421,4.211425304412842,60.0,2949674.0,1.0
1136628.7160396,289254.03125,282807.34375,319467.78125,290441.875,295834.84375,276049.0625,276109.5,275216.25,-0.092529296875,0.91455078125,-0.32666015625,5.554198741912842,3.295898199081421,4.089354991912842,60.0,2949675.0,1.0
1136628.7248193,288772.84375,282766.84375,318852.65625,289481.9375,295415.875,276004.90625,275954.5625,274839.65625,-0.091796875,0.91455078125,-0.329345703125,5.706786632537842,2.960204839706421,3.723144292831421,60.0,2949676.0,1.0
1136628.7291756,289152.8125,282784.90625,319142.875,290081.65625,295545.78125,276005.96875,276033.6875,274919.84375,-0.09130859375,0.91552734375,-0.328369140625,5.920409679412842,2.655029058456421,3.448486089706421,60.0,2949677.0,1.0
1136628.7292193,289857.53125,282819.75,319929.84375,291398.1875,296036.1875,276035.65625,276230.5625,275345.25,-0.08935546875,0.91650390625,-0.33056640625,6.103515148162842,2.471923589706421,3.234863042831421,60.0,2949678.0,1.0
1136628.7374276,289887.5625,282805.0,320072.53125,291547.0625,296159.5625,276027.875,276242.625,275459.4375,-0.09033203125,0.91943359375,-0.33349609375,6.317138195037842,2.166747808456421,3.021239995956421,60.0,2949679.0,1.0
1136628.7404109,289235.0,282781.15625,319427.53125,290404.0625,295787.96875,276010.875,276087.0625,275164.375,-0.090087890625,0.9228515625,-0.3330078125,6.286620616912842,2.044677495956421,2.777099370956421,60.0,2949680.0,1.0
1136628.7404567,288770.34375,282767.28125,318833.625,289469.0625,295389.125,275985.75,275946.6875,274798.96875,-0.08935546875,0.922607421875,-0.335693359375,6.408690929412842,1.7089842557907104,2.502441167831421,60.0,2949681.0,1.0
1136628.7423345,289174.1875,282824.78125,319157.28125,290099.09375,295551.40625,276017.59375,276046.84375,274908.15625,-0.087158203125,0.92138671875,-0.337158203125,6.500243663787842,1.4953612089157104,2.410888433456421,60.0,2949682.0,1.0
1136628.7564742,289906.875,282892.375,319978.46875,291464.15625,296075.15625,276075.78125,276265.25,275368.125,-0.0849609375,0.920654296875,-0.338134765625,6.622313976287842,1.2817381620407104,2.258300542831421,60.0,2949683.0,1.0
1136628.7565162,289913.3125,282863.40625,320106.5,291584.6875,296188.4375,276060.6875,276264.34375,275477.125,-0.083984375,0.92138671875,-0.343017578125,6.591796398162842,1.1901854276657104,2.014159917831421,60.0,2949684.0,1.0
1136628.7624281,289257.78125,282833.71875,319463.65625,290437.0625,295819.8125,276046.84375,276107.34375,275189.0625,-0.0830078125,0.92333984375,-0.341552734375,6.835937023162842,0.9460448622703552,1.8615721464157104,60.0,2949685.0,1.0
1136628.7648323,288807.625,282817.09375,318881.0,289520.1875,295428.375,276032.34375,275970.65625,274831.59375,-0.08447265625,0.924072265625,-0.34423828125,6.988524913787842,0.8544921278953552,1.7089842557907104,60.0,2949686.0,1.0
1136628.7673343,289183.65625,282843.28125,319175.875,290123.59375,295559.71875,276042.53125,276049.34375,274922.09375,-0.08349609375,0.92431640625,-0.34423828125,6.896972179412842,0.7019042372703552,1.7089842557907104,60.0,2949687.0,1.0
1136628.7698245,289884.09375,282876.8125,319965.6875,291448.625,296052.0,276079.46875,276245.03125,275362.59375,-0.082275390625,0.927734375,-0.34228515625,6.988524913787842,0.5493163466453552,1.5869139432907104,60.0,2949688.0,1.0
1136628.7761707,289906.875,282854.0,320103.0,291583.53125,296174.75,276072.40625,276253.625,275475.78125,-0.08203125,0.928955078125,-0.341552734375,6.988524913787842,0.4882812201976776,1.3732908964157104,60.0,2949689.0,1.0
1136628.779044,289246.78125,282812.0,319454.1875,290441.34375,295803.71875,276047.625,276090.625,275186.28125,-0.081298828125,0.928466796875,-0.342529296875,6.896972179412842,0.4272460639476776,1.2512205839157104,60.0,2949690.0,1.0
1136628.7790902,288782.75,282790.625,318865.25,289511.0625,295416.84375,276029.40625,275960.71875,274845.03125,-0.08251953125,0.927490234375,-0.344482421875,6.835937023162842,0.3051757514476776,1.0986326932907104,60.0,2949691.0,1.0
1136628.7922266,289168.03125,282826.28125,319171.5625,290119.21875,295569.375,276051.75,276058.625,274955.71875,-0.082275390625,0.924560546875,-0.34423828125,6.774901866912842,0.2746581733226776,1.0070799589157104,60.0,2949692.0,1.0
1136628.7952553,289868.0625,282866.78125,319964.0625,291444.40625,296071.3125,276094.65625,276261.59375,275400.6875,-0.083740234375,0.925048828125,-0.345947265625,6.622313976287842,0.0610351525247097,0.7934569716453552,60.0,2949693.0,1.0
1136628.795293,289892.21875,282846.21875,320106.78125,291597.125,296193.875,276087.875,276272.3125,275515.03125,-0.084716796875,0.925537109375,-0.345703125,6.622313976287842,-0.0610351525247097,0.5798339247703552,60.0,2949694.0,1.0
1136628.7971572,289241.34375,282805.5625,319464.03125,290464.78125,295827.5,276064.8125,276114.34375,275229.46875,-0.087158203125,0.923828125,-0.34619140625,6.591796398162842,-0.2136230319738388,0.5493163466453552,60.0,2949695.0,1.0
1136628.79968,288791.78125,282788.375,318884.21875,289533.6875,295442.15625,276047.1875,275982.90625,274888.46875,-0.086669921875,0.92529296875,-0.34716796875,6.561278820037842,-0.3662109076976776,0.3356933295726776,60.0,2949696.0,1.0
1136628.8084091,289178.125,282825.3125,319186.15625,290117.0625,295584.3125,276064.09375,276073.75,274983.5,-0.08642578125,0.927490234375,-0.343994140625,6.408690929412842,-0.4882812201976776,0.1220703050494194,60.0,2949697.0,1.0
1136628.8127814,289882.75,282868.59375,319973.09375,291428.59375,296075.6875,276097.78125,276270.0625,275407.84375,-0.08984375,0.926025390625,-0.34375,6.347655773162842,-0.7934569716453552,-0.03051757626235485,60.0,2949698.0,1.0
1136628.8128161,289921.375,282858.46875,320121.15625,291585.21875,296202.03125,276086.4375,276280.90625,275521.28125,-0.0908203125,0.927490234375,-0.344970703125,6.256103038787842,-0.9765624403953552,-0.2441406100988388,60.0,2949699.0,1.0
1136628.8209405,289276.28125,282821.8125,319480.46875,290459.875,295830.0,276054.59375,276114.59375,275224.65625,-0.09130859375,0.92529296875,-0.344970703125,6.195067882537842,-1.2512205839157104,-0.4272460639476776,60.0,2949700.0,1.0
1136628.8252364,288820.59375,282804.9375,318895.9375,289532.8125,295437.875,276027.4375,275972.875,274866.84375,-0.0927734375,0.921875,-0.345703125,6.042479991912842,-1.3427733182907104,-0.5493163466453552,60.0,2949701.0,1.0
1136628.825257,289202.4375,282844.625,319194.28125,290124.0625,295578.9375,276040.84375,276060.40625,274958.03125,-0.092529296875,0.920166015625,-0.3427734375,6.042479991912842,-1.5869139432907104,-0.8239745497703552,60.0,2949702.0,1.0
1136628.8333524,289908.75,282889.875,319984.71875,291443.96875,296074.875,276077.6875,276259.53125,275385.5,-0.092041015625,0.91552734375,-0.34326171875,6.103515148162842,-1.8615721464157104,-0.9460448622703552,60.0,2949703.0,1.0
1136628.8377462,289924.75,282859.8125,320115.71875,291587.625,296187.28125,276054.4375,276256.75,275485.25,-0.091796875,0.912841796875,-0.3447265625,6.134032726287842,-2.166747808456421,-1.3427733182907104,60.0,2949704.0,1.0
1136628.8377667,289281.46875,282831.125,319484.6875,290474.96875,295830.0,276039.84375,276104.21875,275204.78125,-0.091064453125,0.912109375,-0.347412109375,6.225585460662842,-2.319335699081421,-1.6174315214157104,60.0,2949705.0,1.0
1136628.8433775,288798.5,282795.1875,318877.6875,289506.34375,295426.6875,276009.90625,275956.96875,274838.5,-0.090576171875,0.911865234375,-0.348876953125,6.256103038787842,-2.593993902206421,-1.7089842557907104,60.0,2949706.0,1.0
1136628.8477411,289170.4375,282822.96875,319163.15625,290087.375,295554.28125,276020.71875,276035.46875,274917.53125,-0.092529296875,0.910400390625,-0.3486328125,6.378173351287842,-2.777099370956421,-1.8005369901657104,60.0,2949707.0,1.0
1136628.8477611,289877.09375,282871.34375,319952.53125,291411.25,296051.28125,276069.34375,276240.84375,275347.9375,-0.090576171875,0.9072265625,-0.34814453125,6.469726085662842,-2.960204839706421,-2.014159917831421,60.0,2949708.0,1.0
1136628.8558783,289890.875,282842.21875,320079.78125,291548.84375,296163.125,276055.78125,276241.125,275448.96875,-0.08984375,0.90966796875,-0.3447265625,6.500243663787842,-3.143310308456421,-2.136230230331421,60.0,2949709.0,1.0
1136628.8589406,289242.21875,282805.09375,319443.8125,290427.5,295800.6875,276040.5625,276088.65625,275170.0,-0.089599609375,0.907958984375,-0.341064453125,6.561278820037842,-3.295898199081421,-2.258300542831421,60.0,2949710.0,1.0
1136628.8589603,288784.375,282790.96875,318861.0625,289508.65625,295412.125,276025.625,275956.78125,274826.6875,-0.090087890625,0.907470703125,-0.346435546875,6.469726085662842,-3.387450933456421,-2.349853277206421,60.0,2949711.0,1.0
1136628.8696151,289151.75,282820.46875,319149.65625,290096.40625,295548.28125,276039.0625,276041.71875,274920.65625,-0.089599609375,0.90771484375,-0.34912109375,6.439208507537842,-3.448486089706421,-2.349853277206421,60.0,2949712.0,1.0
1136628.8727157,289845.46875,282853.84375,319927.59375,291407.40625,296036.875,276070.78125,276236.5625,275351.15625,-0.0888671875,0.909912109375,-0.3486328125,6.469726085662842,-3.540038824081421,-2.410888433456421,60.0,2949713.0,1.0
1136628.8727362,289866.375,282832.0,320061.4375,291535.875,296150.78125,276058.09375,276240.9375,275447.4375,-0.090087890625,0.910400390625,-0.349853515625,6.561278820037842,-3.631591558456421,-2.471923589706421,60.0,2949714.0,1.0
1136628.8746839,289213.78125,282790.8125,319420.40625,290404.875,295777.875,276031.625,276079.1875,275154.09375,-0.091064453125,0.910888671875,-0.348876953125,6.591796398162842,-3.601073980331421,-2.471923589706421,60.0,2949715.0,1.0
1136628.8889919,288764.0,282781.84375,318847.5625,289488.1875,295397.1875,276019.46875,275950.0,274817.5625,-0.090576171875,0.91357421875,-0.348388671875,6.561278820037842,-3.723144292831421,-2.471923589706421,60.0,2949716.0,1.0
1136628.8890201,289146.125,282817.09375,319147.25,290085.5,295540.40625,276038.34375,276040.5625,274916.53125,-0.088623046875,0.913330078125,-0.34814453125,6.408690929412842,-3.753661870956421,-2.410888433456421,60.0,2949717.0,1.0
1136628.9027376,289855.03125,282858.3125,319933.6875,291404.0,296033.9375,276076.78125,276245.75,275350.09375,-0.0888671875,0.91650390625,-0.345703125,6.195067882537842,-3.753661870956421,-2.258300542831421,60.0,2949718.0,1.0
1136628.9027581,289893.5625,282841.40625,320077.96875,291558.3125,296154.0,276063.5625,276253.0,275462.375,-0.088623046875,0.91552734375,-0.34814453125,6.011962413787842,-3.753661870956421,-2.197265386581421,60.0,2949719.0,1.0
1136628.9058314,289251.25,282813.3125,319451.15625,290436.4375,295794.6875,276046.75,276098.6875,275183.5,-0.090087890625,0.91259765625,-0.346923828125,5.981444835662842,-3.753661870956421,-2.197265386581421,60.0,2949720.0,1.0
1136628.9058521,288802.53125,282801.4375,318876.875,289521.34375,295409.96875,276028.40625,275966.53125,274841.8125,-0.0908203125,0.911376953125,-0.3486328125,5.889892101287842,-3.723144292831421,-2.258300542831421,60.0,2949721.0,1.0
1136628.9058591,289175.15625,282832.1875,319165.40625,290098.375,295538.4375,276036.0,276045.75,274928.09375,-0.09130859375,0.913818359375,-0.35009765625,5.706786632537842,-3.845214605331421,-2.227782964706421,60.0,2949722.0,1.0
1136628.9102158,289878.34375,282874.21875,319951.125,291410.96875,296031.53125,276069.8125,276241.5625,275353.9375,-0.09326171875,0.913818359375,-0.349853515625,5.676269054412842,-3.753661870956421,-2.166747808456421,60.0,2949723.0,1.0
1136628.9102351,289908.65625,282857.21875,320095.9375,291571.625,296158.65625,276060.0625,276251.40625,275463.1875,-0.08984375,0.913330078125,-0.35205078125,5.584716320037842,-3.814697027206421,-2.044677495956421,60.0,2949724.0,1.0
1136628.9234093,289263.25,282824.6875,319461.78125,290443.9375,295799.15625,276041.28125,276096.8125,275179.84375,-0.08935546875,0.9140625,-0.35009765625,5.340575695037842,-3.814697027206421,-2.044677495956421,60.0,2949725.0,1.0
1136628.926558,288828.28125,282828.71875,318899.5,289540.40625,295434.65625,276042.96875,275982.0,274853.34375,-0.089599609375,0.91357421875,-0.3486328125,5.126952648162842,-3.723144292831421,-1.9836424589157104,60.0,2949726.0,1.0
1136628.9265927,289182.6875,282844.625,319173.28125,290102.0625,295553.5625,276037.4375,276045.65625,274919.125,-0.091796875,0.912353515625,-0.34765625,5.004882335662842,-3.753661870956421,-1.9836424589157104,60.0,2949727.0,1.0
1136628.9328141,289871.375,282875.90625,319945.75,291394.625,296037.96875,276063.09375,276232.96875,275335.6875,-0.09228515625,0.912841796875,-0.34814453125,4.791259288787842,-3.540038824081421,-1.9531248807907104,60.0,2949728.0,1.0
1136628.9328463,289907.875,282863.5,320096.03125,291553.65625,296170.28125,276057.75,276249.6875,275455.65625,-0.0927734375,0.9150390625,-0.349365234375,4.608153820037842,-3.509521245956421,-1.8920897245407104,60.0,2949729.0,1.0
1136628.945966,289271.71875,282833.53125,319472.6875,290448.78125,295810.6875,276040.3125,276095.1875,275176.1875,-0.0908203125,0.913818359375,-0.350830078125,4.394530773162842,-3.479003667831421,-1.9531248807907104,60.0,2949730.0,1.0
1136628.9509072,288810.5625,282820.03125,318887.96875,289513.75,295422.46875,276024.5625,275961.1875,274821.3125,-0.08837890625,0.91357421875,-0.351318359375,4.272460460662842,-3.387450933456421,-1.9836424589157104,60.0,2949731.0,1.0
1136628.9509394,289177.75,282854.46875,319174.34375,290089.34375,295553.5625,276039.6875,276045.65625,274901.53125,-0.090087890625,0.9150390625,-0.34814453125,4.028319835662842,-3.417968511581421,-1.8615721464157104,60.0,2949732.0,1.0
1136628.9509494,289860.46875,282875.8125,319949.84375,291403.90625,296037.5,276068.375,276235.65625,275326.03125,-0.08935546875,0.914794921875,-0.350341796875,3.906249761581421,-3.204345464706421,-1.9226073026657104,60.0,2949733.0,1.0
1136628.9541593,289886.84375,282851.15625,320092.03125,291556.34375,296157.3125,276055.9375,276242.375,275438.15625,-0.08984375,0.9150390625,-0.346435546875,3.601073980331421,-3.143310308456421,-1.9226073026657104,60.0,2949734.0,1.0
