Time,FZ,C3,CZ,C4,PZ,PO7,OZ,PO8,AccX,AccY,AccZ,Gyro1,Gyro2,Gyro3,Battery,Counter,Validation
469964.8695762,262291.375,259953.84375,320719.28125,350655.15625,267847.75,256808.859375,233025.53125,242306.421875,-0.1083984375,0.84423828125,-0.53759765625,3.631591558456421,1.4038084745407104,-0.6713866591453552,100.0,119111.0,1.0
469964.8721692,261136.875,259553.203125,320285.3125,350854.1875,268197.96875,256789.015625,233199.15625,242438.125,-0.108642578125,0.843017578125,-0.536376953125,3.875732183456421,1.6784666776657104,-0.7324218153953552,100.0,119112.0,1.0
469964.8721815,260897.703125,259636.0,322669.625,351158.15625,269154.4375,256783.375,233363.125,242564.453125,-0.111083984375,0.843017578125,-0.535888671875,4.058837413787842,1.8310545682907104,-0.8544921278953552,100.0,119113.0,1.0
469964.8772712,261968.8125,260125.046875,324570.59375,351133.0625,269387.78125,256802.25,233282.578125,242503.296875,-0.11376953125,0.84326171875,-0.53076171875,4.211425304412842,2.105712652206421,-0.7934569716453552,100.0,119114.0,1.0
469964.8797388,262864.65625,260334.53125,323405.0,350829.15625,268586.96875,256821.90625,233075.328125,242347.734375,-0.11767578125,0.841064453125,-0.532470703125,4.241942882537842,2.227782964706421,-0.8850097060203552,100.0,119115.0,1.0
469964.8822142,262301.59375,259960.1875,320727.34375,350659.0,267848.21875,256813.59375,233027.5,242305.34375,-0.1220703125,0.841064453125,-0.531982421875,4.333495616912842,2.258300542831421,-0.8544921278953552,100.0,119116.0,1.0
469964.8847739,261149.390625,259565.71875,320295.875,350863.03125,268203.6875,256797.78125,233206.9375,242440.078125,-0.122802734375,0.83935546875,-0.5341796875,4.547118663787842,2.380370855331421,-0.9155272841453552,100.0,119117.0,1.0
469964.8871791,260912.015625,259653.34375,322690.625,351169.53125,269167.40625,256792.59375,233371.625,242574.375,-0.12353515625,0.83837890625,-0.531982421875,4.760741710662842,2.441406011581421,-1.1291502714157104,100.0,119118.0,1.0
469964.8896243,261983.015625,260140.4375,324597.59375,351149.84375,269402.90625,256809.84375,233290.4375,242514.109375,-0.12255859375,0.837646484375,-0.53173828125,4.882812023162842,2.471923589706421,-1.2207030057907104,100.0,119119.0,1.0
469964.8896365,262857.875,260333.375,323403.28125,350833.0,268589.84375,256820.84375,233072.921875,242344.78125,-0.124267578125,0.839111328125,-0.534423828125,5.126952648162842,2.655029058456421,-1.3732908964157104,100.0,119120.0,1.0
469964.8921445,262298.375,259960.09375,320719.46875,350669.75,267856.875,256820.390625,233031.34375,242313.390625,-0.125244140625,0.839599609375,-0.53515625,5.218505382537842,2.685546636581421,-1.3732908964157104,100.0,119121.0,1.0
469964.8960016,261143.9375,259558.21875,320293.4375,350862.6875,268206.09375,256794.828125,233201.125,242440.71875,-0.12353515625,0.843017578125,-0.5341796875,5.249022960662842,2.716064214706421,-1.3122557401657104,100.0,119122.0,1.0
469964.9022808,260898.609375,259638.859375,322688.46875,351157.8125,269157.75,256779.359375,233356.78125,242559.890625,-0.1240234375,0.84423828125,-0.53857421875,5.126952648162842,2.593993902206421,-1.1596678495407104,100.0,119123.0,1.0
469964.9022958,261973.984375,260126.21875,324597.0625,351141.90625,269394.0625,256800.453125,233280.96875,242508.484375,-0.1259765625,0.84423828125,-0.534423828125,5.126952648162842,2.716064214706421,-1.1596678495407104,100.0,119124.0,1.0
469964.9172658,262858.5,260324.4375,323405.96875,350835.78125,268589.21875,256821.015625,233075.78125,242356.671875,-0.126953125,0.845703125,-0.53466796875,5.157470226287842,2.655029058456421,-1.2207030057907104,100.0,119125.0,1.0
469964.917285,262292.71875,259953.578125,320708.46875,350665.625,267852.3125,256816.734375,233028.84375,242316.4375,-0.127685546875,0.844970703125,-0.53173828125,5.065917491912842,2.624511480331421,-1.2207030057907104,100.0,119126.0,1.0
469964.9196418,261135.0,259553.828125,320271.53125,350855.625,268197.15625,256787.84375,233194.234375,242435.96875,-0.126953125,0.845703125,-0.535888671875,4.913329601287842,2.655029058456421,-1.0375975370407104,100.0,119127.0,1.0
469964.9196604,260891.546875,259631.34375,322672.46875,351151.90625,269151.6875,256771.125,233353.125,242553.90625,-0.123779296875,0.847900390625,-0.538818359375,4.852294445037842,2.685546636581421,-0.9460448622703552,100.0,119128.0,1.0
469964.9220985,261959.59375,260111.375,324576.03125,351131.25,269384.65625,256794.375,233276.578125,242500.53125,-0.123046875,0.844482421875,-0.5380859375,4.913329601287842,2.807616949081421,-0.6713866591453552,100.0,119129.0,1.0
469964.9258318,262858.40625,260328.453125,323389.15625,350841.3125,268591.28125,256831.5625,233086.328125,242365.78125,-0.122314453125,0.8447265625,-0.537353515625,4.913329601287842,2.899169683456421,-0.5493163466453552,100.0,119130.0,1.0
469964.9422459,262275.84375,259939.265625,320672.8125,350655.0,267836.21875,256810.5625,233026.15625,242314.734375,-0.12255859375,0.845458984375,-0.532958984375,5.096435070037842,2.746581792831421,-0.3662109076976776,100.0,119131.0,1.0
469964.9422845,261122.390625,259540.59375,320248.46875,350848.5625,268187.6875,256786.421875,233197.546875,242438.65625,-0.12060546875,0.85009765625,-0.533203125,4.913329601287842,2.624511480331421,-0.2746581733226776,100.0,119132.0,1.0
469964.9456801,260893.6875,259633.046875,322669.875,351154.6875,269156.59375,256784.265625,233365.09375,242566.78125,-0.12255859375,0.852783203125,-0.532958984375,4.425048351287842,2.624511480331421,-0.2746581733226776,100.0,119133.0,1.0
469964.9457219,261963.625,260122.1875,324577.125,351132.40625,269392.0,256804.296875,233284.546875,242512.859375,-0.12353515625,0.85107421875,-0.53369140625,4.241942882537842,2.807616949081421,-0.1525878757238388,100.0,119134.0,1.0
469964.9457308,262841.6875,260316.296875,323366.5625,350820.3125,268579.03125,256819.59375,233071.484375,242348.890625,-0.125244140625,0.851318359375,-0.535400390625,4.058837413787842,2.838134527206421,0.0,100.0,119135.0,1.0
469964.94574,262270.28125,259931.84375,320661.625,350644.625,267836.59375,256809.671875,233017.03125,242300.796875,-0.125,0.849365234375,-0.535400390625,3.936767339706421,2.838134527206421,0.0610351525247097,100.0,119136.0,1.0
469964.9873373,261130.609375,259550.171875,320251.53125,350850.875,268198.15625,256790.703125,233196.828125,242433.296875,-0.127197265625,0.849609375,-0.538818359375,3.845214605331421,2.868652105331421,-0.03051757626235485,100.0,119137.0,1.0
469964.9894055,260898.609375,259640.375,322673.90625,351153.25,269162.5,256783.109375,233360.53125,242557.390625,-0.128662109375,0.8515625,-0.53662109375,3.845214605331421,2.838134527206421,-0.0915527269244194,100.0,119138.0,1.0
469964.9894433,261961.65625,260115.578125,324576.03125,351132.0625,269395.65625,256802.875,233282.578125,242502.40625,-0.127197265625,0.85546875,-0.53466796875,3.662109136581421,2.777099370956421,-0.1220703050494194,100.0,119139.0,1.0
469964.9985611,262845.25,260325.140625,323364.84375,350828.15625,268591.4375,256828.53125,233083.375,242356.3125,-0.12939453125,0.85693359375,-0.53125,3.173827886581421,2.777099370956421,0.03051757626235485,100.0,119140.0,1.0
469964.9986024,262274.125,259951.25,320652.25,350656.96875,267850.625,256826.734375,233046.09375,242325.90625,-0.128173828125,0.858154296875,-0.530517578125,2.716064214706421,2.716064214706421,0.0915527269244194,100.0,119141.0,1.0
469964.9986124,261126.234375,259558.484375,320228.0,350852.21875,268203.96875,256801.171875,233217.578125,242440.53125,-0.1279296875,0.85888671875,-0.53271484375,2.197265386581421,2.716064214706421,0.1525878757238388,100.0,119142.0,1.0
469965.0010635,260893.328125,259649.140625,322646.375,351152.28125,269163.75,256785.875,233360.8125,242552.46875,-0.12841796875,0.860595703125,-0.52734375,1.8615721464157104,2.655029058456421,0.2746581733226776,100.0,119143.0,1.0
469965.0011057,261968.53125,260137.296875,324556.8125,351143.0625,269404.15625,256816.015625,233289.28125,242512.859375,-0.12841796875,0.86083984375,-0.525390625,1.2817381620407104,2.655029058456421,0.3356933295726776,100.0,119144.0,1.0
469965.0035926,262829.53125,260314.78125,323322.75,350822.34375,268580.1875,256823.875,233070.765625,242349.421875,-0.129150390625,0.863525390625,-0.524658203125,0.5798339247703552,2.502441167831421,0.3356933295726776,100.0,119145.0,1.0
469965.0059668,262251.875,259932.109375,320595.46875,350639.875,267829.53125,256806.796875,233013.28125,242304.1875,-0.129638671875,0.860595703125,-0.529296875,0.0,2.532958745956421,0.5187987685203552,100.0,119146.0,1.0
469965.0084248,261110.40625,259542.296875,320168.5625,350844.71875,268189.46875,256788.828125,233197.640625,242450.546875,-0.129150390625,0.85693359375,-0.529541015625,-0.6408690810203552,2.441406011581421,0.6408690810203552,100.0,119147.0,1.0
469965.0110824,260880.71875,259633.140625,322586.375,351146.46875,269154.4375,256785.171875,233360.625,242558.546875,-0.128173828125,0.854736328125,-0.53173828125,-1.0070799589157104,2.319335699081421,0.8850097060203552,100.0,119148.0,1.0
469965.0133889,261944.671875,260108.0625,324496.28125,351123.46875,269386.8125,256805.1875,233283.015625,242488.8125,-0.130615234375,0.8505859375,-0.5322265625,-1.2207030057907104,2.288818120956421,0.9155272841453552,100.0,119149.0,1.0
469965.0161108,262820.3125,260305.390625,323287.40625,350814.40625,268574.46875,256819.40625,233073.359375,242338.875,-0.130859375,0.848876953125,-0.533203125,-1.4038084745407104,2.258300542831421,1.0681151151657104,100.0,119150.0,1.0
469965.0210556,262249.46875,259929.4375,320572.3125,350640.78125,267825.84375,256804.84375,233017.9375,242299.265625,-0.13134765625,0.846435546875,-0.534912109375,-1.6784666776657104,2.044677495956421,1.0986326932907104,100.0,119151.0,1.0
469965.0236186,261102.265625,259534.515625,320143.59375,350840.6875,268178.65625,256783.203125,233192.71875,242432.671875,-0.130126953125,0.845703125,-0.537841796875,-1.7395018339157104,1.9531248807907104,1.1901854276657104,100.0,119152.0,1.0
469965.0236633,260882.421875,259635.109375,322570.8125,351152.4375,269151.21875,256787.671875,233366.796875,242567.3125,-0.1279296875,0.844482421875,-0.533203125,-1.6784666776657104,1.8920897245407104,1.2207030057907104,100.0,119153.0,1.0
469965.0259967,261930.09375,260099.03125,324459.8125,351113.8125,269369.90625,256790.265625,233273.09375,242498.640625,-0.128173828125,0.843505859375,-0.534423828125,-1.5563963651657104,1.8310545682907104,1.2207030057907104,100.0,119154.0,1.0
469965.0260371,262806.8125,260295.546875,323250.75,350804.03125,268559.1875,256807.609375,233062.453125,242340.390625,-0.127197265625,0.840576171875,-0.531005859375,-1.6784666776657104,1.8615721464157104,1.2207030057907104,100.0,119155.0,1.0
469965.0285883,262245.0625,259921.828125,320539.78125,350635.0625,267818.71875,256804.65625,233013.453125,242302.578125,-0.12890625,0.841796875,-0.5341796875,-1.5258787870407104,1.8005369901657104,1.0681151151657104,100.0,119156.0,1.0
469965.04235,261097.53125,259526.46875,320106.21875,350834.875,268172.9375,256782.3125,233192.546875,242437.84375,-0.128173828125,0.841552734375,-0.5341796875,-1.3732908964157104,1.6784666776657104,0.9460448622703552,100.0,119157.0,1.0
469965.0423935,260859.71875,259611.5,322511.0,351134.125,269133.96875,256770.234375,233353.203125,242558.28125,-0.12744140625,0.84130859375,-0.53369140625,-1.3427733182907104,1.6174315214157104,1.0375975370407104,100.0,119158.0,1.0
469965.0448937,261927.953125,260093.578125,324422.8125,351116.96875,269367.40625,256786.78125,233270.59375,242496.40625,-0.125,0.841552734375,-0.53369140625,-1.4953612089157104,1.5258787870407104,1.0681151151657104,100.0,119159.0,1.0
469965.0449332,262812.0,260296.890625,323224.65625,350809.5625,268557.84375,256805.109375,233062.71875,242338.34375,-0.124755859375,0.84375,-0.53515625,-1.3122557401657104,1.4953612089157104,1.0986326932907104,100.0,119160.0,1.0
469965.0471787,262241.9375,259920.9375,320517.15625,350633.625,267813.15625,256794.640625,233009.34375,242299.1875,-0.125,0.847900390625,-0.534912109375,-1.2512205839157104,1.4648436307907104,1.0375975370407104,100.0,119161.0,1.0
469965.0508739,261087.25,259532.46875,320075.9375,350831.21875,268168.71875,256776.046875,233182.625,242427.296875,-0.1259765625,0.848876953125,-0.53076171875,-1.1291502714157104,1.5258787870407104,1.0681151151657104,100.0,119162.0,1.0
469965.0672037,260848.71875,259616.59375,322475.25,351130.53125,269132.8125,256770.6875,233344.4375,242546.5625,-0.124267578125,0.8486328125,-0.527099609375,-1.3427733182907104,1.4953612089157104,1.0375975370407104,100.0,119163.0,1.0
469965.0697229,261918.46875,260087.140625,324386.3125,351105.96875,269363.9375,256780.25,233260.21875,242490.59375,-0.1220703125,0.848876953125,-0.52880859375,-1.4343260526657104,1.4953612089157104,0.9765624403953552,100.0,119164.0,1.0
469965.0697632,262808.15625,260292.875,323198.09375,350795.8125,268556.03125,256796.515625,233051.546875,242332.625,-0.123291015625,0.846923828125,-0.52734375,-1.4038084745407104,1.5869139432907104,1.0375975370407104,100.0,119165.0,1.0
469965.0722898,262240.6875,259914.6875,320487.03125,350620.375,267812.71875,256787.9375,233002.90625,242287.640625,-0.121337890625,0.84814453125,-0.528076171875,-1.4343260526657104,1.6479490995407104,1.0375975370407104,100.0,119166.0,1.0
469965.0748471,261087.25,259521.296875,320034.875,350819.9375,268163.375,256769.515625,233179.484375,242420.421875,-0.12109375,0.84912109375,-0.52734375,-1.3427733182907104,1.6174315214157104,0.9460448622703552,100.0,119167.0,1.0
469965.0776371,260848.796875,259605.328125,322425.1875,351126.625,269125.21875,256763.984375,233346.5,242550.0625,-0.12158203125,0.850830078125,-0.526611328125,-1.3732908964157104,1.6174315214157104,0.9765624403953552,100.0,119168.0,1.0
469965.0848549,261919.359375,260086.4375,324333.40625,351108.1875,269362.5,256785.703125,233272.46875,242495.78125,-0.121826171875,0.850341796875,-0.5283203125,-1.2817381620407104,1.5869139432907104,0.8544921278953552,100.0,119169.0,1.0
469965.0848965,262819.5,260307.359375,323164.5,350813.15625,268575.0,256820.65625,233081.40625,242354.078125,-0.123046875,0.85205078125,-0.525634765625,-1.3427733182907104,1.6174315214157104,0.8544921278953552,100.0,119170.0,1.0
469965.0898196,262243.71875,259924.609375,320457.34375,350628.0,267825.21875,256804.65625,233018.28125,242301.0625,-0.12255859375,0.851806640625,-0.52490234375,-1.4648436307907104,1.6174315214157104,0.8850097060203552,100.0,119171.0,1.0
469965.093442,261076.96875,259516.375,320000.375,350810.03125,268162.03125,256771.125,233179.484375,242414.0625,-0.12060546875,0.8515625,-0.522705078125,-1.4648436307907104,1.7089842557907104,0.8239745497703552,100.0,119172.0,1.0
469965.1171837,260834.40625,259599.15625,322389.59375,351108.28125,269117.59375,256762.015625,233344.09375,242537.453125,-0.12109375,0.852783203125,-0.5205078125,-1.5258787870407104,1.6784666776657104,0.8850097060203552,100.0,119173.0,1.0
469965.119878,261930.984375,260108.875,324328.84375,351109.09375,269374.84375,256802.328125,233286.15625,242501.78125,-0.122802734375,0.85205078125,-0.51806640625,-1.6479490995407104,1.7395018339157104,0.7934569716453552,100.0,119174.0,1.0
469965.1199192,262830.875,260316.828125,323166.625,350802.40625,268575.71875,256820.84375,233077.828125,242347.28125,-0.12109375,0.851318359375,-0.517822265625,-1.8005369901657104,1.7089842557907104,0.8850097060203552,100.0,119175.0,1.0
469965.1221667,262246.15625,259922.28125,320459.03125,350611.28125,267813.59375,256792.3125,233005.234375,242287.46875,-0.1201171875,0.852294921875,-0.523193359375,-1.8920897245407104,1.6784666776657104,0.8544921278953552,100.0,119176.0,1.0
469965.1248377,261086.53125,259523.609375,320012.625,350809.84375,268162.46875,256773.546875,233181.453125,242416.390625,-0.118408203125,0.85107421875,-0.525390625,-2.014159917831421,1.6784666776657104,0.8544921278953552,100.0,119177.0,1.0
469965.1272915,260849.078125,259612.3125,322410.4375,351115.0,269126.0,256771.40625,233352.046875,242544.6875,-0.118408203125,0.850830078125,-0.51953125,-2.044677495956421,1.7395018339157104,0.8850097060203552,100.0,119178.0,1.0
469965.1297699,261933.21875,260111.828125,324349.75,351100.875,269371.71875,256795.71875,233280.515625,242495.875,-0.1181640625,0.85009765625,-0.521484375,-2.075195074081421,1.8005369901657104,0.9155272841453552,100.0,119179.0,1.0
469965.1321606,262830.59375,260315.21875,323199.71875,350794.09375,268573.9375,256813.78125,233070.234375,242335.75,-0.118408203125,0.852294921875,-0.51806640625,-2.166747808456421,1.8920897245407104,0.8544921278953552,100.0,119180.0,1.0
469965.1349011,262260.71875,259927.640625,320505.625,350616.0,267827.09375,256797.421875,233012.03125,242288.8125,-0.11669921875,0.851806640625,-0.519287109375,-2.166747808456421,1.8920897245407104,0.8850097060203552,100.0,119181.0,1.0
469965.1349417,261098.609375,259530.59375,320051.875,350814.75,268175.25,256778.734375,233188.078125,242419.96875,-0.115966796875,0.85400390625,-0.519287109375,-2.288818120956421,1.9836424589157104,0.9460448622703552,100.0,119182.0,1.0
469965.1371598,260848.453125,259612.3125,322432.34375,351113.125,269131.46875,256768.359375,233348.921875,242542.71875,-0.11962890625,0.85302734375,-0.516357421875,-2.349853277206421,2.044677495956421,1.0070799589157104,100.0,119183.0,1.0
469965.1670783,261926.515625,260098.859375,324365.3125,351093.0,269373.40625,256786.0625,233271.578125,242490.875,-0.120849609375,0.853271484375,-0.517578125,-2.471923589706421,1.9531248807907104,1.0070799589157104,100.0,119184.0,1.0
469965.1748143,262829.34375,260309.765625,323225.8125,350789.28125,268580.0,256807.421875,233068.0,242340.125,-0.119873046875,0.8515625,-0.520263671875,-2.349853277206421,2.136230230331421,1.0681151151657104,100.0,119185.0,1.0
469965.1748294,262263.59375,259936.859375,320536.375,350613.3125,267833.90625,256802.328125,233017.75,242294.984375,-0.12109375,0.8515625,-0.51904296875,-2.349853277206421,2.105712652206421,1.0986326932907104,100.0,119186.0,1.0
469965.1748321,261105.9375,259539.171875,320079.59375,350817.25,268182.40625,256787.484375,233199.609375,242431.59375,-0.1220703125,0.8505859375,-0.51904296875,-2.349853277206421,2.197265386581421,1.0986326932907104,100.0,119187.0,1.0
469965.1761921,260852.828125,259611.671875,322458.8125,351113.125,269132.28125,256772.828125,233355.171875,242548.984375,-0.121826171875,0.850830078125,-0.518798828125,-2.319335699081421,2.166747808456421,1.2207030057907104,100.0,119188.0,1.0
469965.1835092,261937.6875,260100.015625,324403.125,351097.375,269378.59375,256790.890625,233280.515625,242498.828125,-0.1201171875,0.85205078125,-0.517578125,-2.197265386581421,2.136230230331421,1.1291502714157104,100.0,119189.0,1.0
469965.1860136,262844.0,260314.953125,323265.59375,350793.5625,268589.125,256814.765625,233076.3125,242346.75,-0.11962890625,0.85205078125,-0.51806640625,-2.136230230331421,2.075195074081421,1.1901854276657104,100.0,119190.0,1.0
469965.1885275,262274.84375,259939.265625,320574.90625,350617.96875,267847.3125,256810.203125,233022.9375,242298.640625,-0.1201171875,0.855712890625,-0.521240234375,-2.105712652206421,2.105712652206421,1.1901854276657104,100.0,119191.0,1.0
469965.1908675,261098.25,259528.796875,320099.0,350810.28125,268184.5625,256781.328125,233194.953125,242426.765625,-0.120361328125,0.85498046875,-0.5224609375,-2.136230230331421,2.044677495956421,1.3122557401657104,100.0,119192.0,1.0
469965.1960272,260849.34375,259611.765625,322473.1875,351113.125,269143.90625,256774.96875,233363.75,242554.703125,-0.12158203125,0.85546875,-0.522705078125,-2.075195074081421,2.075195074081421,1.3732908964157104,100.0,119193.0,1.0
469965.1985423,261950.65625,260113.96875,324428.53125,351111.5,269405.78125,256813.328125,233301.96875,242513.578125,-0.12109375,0.8564453125,-0.51904296875,-2.044677495956421,2.044677495956421,1.2512205839157104,100.0,119194.0,1.0
469965.2008531,262836.3125,260308.34375,323283.5,350785.96875,268593.875,256814.578125,233077.65625,242343.53125,-0.120849609375,0.856689453125,-0.51806640625,-2.014159917831421,2.044677495956421,1.2207030057907104,100.0,119195.0,1.0
469965.2035387,262265.625,259932.65625,320601.375,350606.4375,267849.90625,256805.546875,233022.84375,242297.75,-0.1201171875,0.855712890625,-0.51904296875,-2.044677495956421,2.044677495956421,1.2512205839157104,100.0,119196.0,1.0
469965.2085381,261096.546875,259532.90625,320137.625,350806.25,268196.0,256789.546875,233200.953125,242429.890625,-0.12060546875,0.853759765625,-0.520263671875,-2.014159917831421,1.9226073026657104,1.2512205839157104,100.0,119197.0,1.0
469965.2110627,260844.25,259608.375,322512.1875,351107.3125,269151.84375,256778.90625,233363.046875,242554.796875,-0.119140625,0.85498046875,-0.517333984375,-1.9226073026657104,2.044677495956421,1.3122557401657104,100.0,119198.0,1.0
469965.2135815,261936.34375,260104.9375,324457.65625,351093.625,269400.9375,256802.15625,233288.921875,242500.171875,-0.118896484375,0.85302734375,-0.51806640625,-1.9836424589157104,2.075195074081421,1.5258787870407104,100.0,119199.0,1.0
469965.2136239,262850.8125,260316.125,323338.84375,350791.0625,268606.8125,256817.984375,233080.96875,242346.390625,-0.117919921875,0.8544921875,-0.520263671875,-1.9531248807907104,2.166747808456421,1.4953612089157104,100.0,119200.0,1.0
469965.2161018,262285.3125,259933.71875,320659.125,350615.1875,267858.65625,256805.109375,233024.453125,242303.03125,-0.115966796875,0.85546875,-0.518798828125,-1.8615721464157104,2.136230230331421,1.5258787870407104,100.0,119201.0,1.0
469965.2210693,261112.46875,259534.875,320178.90625,350810.75,268199.65625,256783.640625,233196.921875,242429.359375,-0.115478515625,0.855224609375,-0.516845703125,-1.8615721464157104,2.197265386581421,1.4953612089157104,100.0,119202.0,1.0
469965.2298932,260865.515625,259615.078125,322546.25,351119.625,269162.40625,256784.0,233368.578125,242563.28125,-0.11474609375,0.854736328125,-0.516845703125,-1.8310545682907104,2.319335699081421,1.5869139432907104,100.0,119203.0,1.0
469965.2299341,261951.90625,260104.671875,324482.53125,351102.125,269403.71875,256799.734375,233286.78125,242505.796875,-0.113525390625,0.851318359375,-0.519775390625,-1.7700194120407104,2.532958745956421,1.5563963651657104,100.0,119204.0,1.0
469965.2299441,262860.90625,260314.953125,323353.75,350789.1875,268604.59375,256814.765625,233075.78125,242342.0,-0.11474609375,0.85302734375,-0.52001953125,-1.7395018339157104,2.563476324081421,1.6784666776657104,100.0,119205.0,1.0
469965.2323208,262293.53125,259934.171875,320667.15625,350610.375,267856.96875,256802.953125,233017.9375,242295.421875,-0.11669921875,0.854248046875,-0.517578125,-1.6174315214157104,2.471923589706421,1.6174315214157104,100.0,119206.0,1.0
469965.2346939,261114.515625,259526.296875,320180.34375,350803.40625,268188.5,256773.640625,233183.515625,242418.453125,-0.11376953125,0.8525390625,-0.519287109375,-1.7395018339157104,2.593993902206421,1.6784666776657104,100.0,119207.0,1.0
469965.2371643,260858.546875,259608.1875,322537.65625,351106.5,269145.3125,256767.734375,233352.046875,242547.828125,-0.11376953125,0.8515625,-0.518798828125,-1.7395018339157104,2.624511480331421,1.6174315214157104,100.0,119208.0,1.0
469965.2396356,261953.25,260104.84375,324486.0,351098.625,269400.5,256795.09375,233280.875,242505.625,-0.11474609375,0.8505859375,-0.517822265625,-1.7089842557907104,2.685546636581421,1.5563963651657104,100.0,119209.0,1.0
469965.2672225,262871.1875,260322.546875,323369.3125,350794.65625,268608.875,256815.828125,233073.90625,242352.28125,-0.116943359375,0.85009765625,-0.518798828125,-1.6479490995407104,2.716064214706421,1.5563963651657104,100.0,119210.0,1.0
469965.2672399,262305.4375,259947.578125,320684.96875,350615.8125,267861.4375,256808.328125,233019.984375,242301.234375,-0.115234375,0.8505859375,-0.51904296875,-1.5563963651657104,2.777099370956421,1.5258787870407104,100.0,119211.0,1.0
469965.2710018,261124.890625,259540.15625,320191.34375,350810.46875,268199.125,256788.828125,233194.234375,242426.859375,-0.115234375,0.850341796875,-0.521240234375,-1.4648436307907104,2.807616949081421,1.4343260526657104,100.0,119212.0,1.0
469965.2710183,260848.984375,259595.046875,322523.25,351093.4375,269137.8125,256761.921875,233340.59375,242536.46875,-0.115966796875,0.8486328125,-0.517578125,-1.2512205839157104,2.868652105331421,1.3427733182907104,100.0,119213.0,1.0
469965.2710214,261950.75,260095.90625,324470.09375,351083.875,269391.375,256790.171875,233270.328125,242490.78125,-0.1162109375,0.84765625,-0.5234375,-1.1291502714157104,2.838134527206421,1.2207030057907104,100.0,119214.0,1.0
469965.2747336,262871.1875,260312.8125,323356.96875,350780.0625,268599.9375,256813.421875,233066.203125,242332.96875,-0.115234375,0.85009765625,-0.522705078125,-1.0681151151657104,2.899169683456421,1.1901854276657104,100.0,119215.0,1.0
469965.2747505,262303.53125,259930.140625,320674.0625,350603.5,267849.71875,256796.96875,233008.546875,242282.546875,-0.114990234375,0.851318359375,-0.525390625,-1.0070799589157104,2.960204839706421,1.0986326932907104,100.0,119216.0,1.0
469965.2747535,261121.046875,259521.46875,320176.0625,350794.65625,268181.875,256772.03125,233175.90625,242406.921875,-0.11572265625,0.851318359375,-0.525634765625,-0.8239745497703552,3.082275152206421,1.1291502714157104,100.0,119217.0,1.0
469965.277206,260863.46875,259607.125,322523.0,351100.5,269140.9375,256770.5,233344.265625,242538.96875,-0.114013671875,0.848876953125,-0.526611328125,-0.6713866591453552,3.021239995956421,1.0986326932907104,100.0,119218.0,1.0
469965.2788447,261955.578125,260106.09375,324460.0,351086.8125,269388.0625,256793.296875,233268.71875,242488.8125,-0.114990234375,0.84716796875,-0.522216796875,-0.5798339247703552,3.021239995956421,1.0375975370407104,100.0,119219.0,1.0
469965.2885155,262877.90625,260326.671875,323350.0,350786.59375,268595.84375,256813.78125,233063.890625,242336.109375,-0.117431640625,0.84521484375,-0.524169921875,-0.4577636420726776,3.021239995956421,0.9460448622703552,100.0,119220.0,1.0
469965.2923067,262314.0,259947.40625,320670.46875,350611.4375,267851.34375,256804.65625,233012.296875,242291.578125,-0.11572265625,0.84423828125,-0.523681640625,-0.2136230319738388,3.051757574081421,0.7629393935203552,100.0,119221.0,1.0
469965.2923321,261125.875,259536.75,320169.71875,350801.71875,268185.375,256781.6875,233185.296875,242419.796875,-0.115478515625,0.843505859375,-0.52197265625,-0.0610351525247097,2.990722417831421,0.6408690810203552,100.0,119222.0,1.0
469965.3394524,260854.34375,259609.265625,322504.03125,351096.65625,269131.90625,256769.609375,233347.3125,242545.578125,-0.114990234375,0.84423828125,-0.525146484375,0.1831054538488388,3.082275152206421,0.5798339247703552,100.0,119223.0,1.0
469965.3394934,261940.1875,260099.21875,324434.15625,351077.875,269374.65625,256789.1875,233270.234375,242492.65625,-0.114501953125,0.844970703125,-0.523681640625,0.3662109076976776,3.112792730331421,0.4882812201976776,100.0,119224.0,1.0
469965.3586814,262860.0,260313.796875,323312.28125,350774.15625,268581.15625,256808.6875,233064.421875,242338.421875,-0.11474609375,0.845703125,-0.52294921875,0.6713866591453552,3.143310308456421,0.3967284858226776,100.0,119225.0,1.0
469965.3587217,262294.5,259938.734375,320627.21875,350601.0625,267837.375,256800.71875,233014.171875,242297.21875,-0.114501953125,0.844970703125,-0.524169921875,0.7324218153953552,3.265380620956421,0.2441406100988388,100.0,119226.0,1.0
469965.3587317,261113.359375,259535.953125,320132.59375,350799.46875,268178.375,256780.96875,233190.03125,242429.09375,-0.114501953125,0.84814453125,-0.526123046875,1.0375975370407104,3.265380620956421,0.1220703050494194,100.0,119227.0,1.0
469965.3609492,260851.21875,259607.5625,322475.4375,351101.125,269137.375,256775.515625,233357.40625,242560.15625,-0.1142578125,0.847412109375,-0.529052734375,1.1596678495407104,3.356933355331421,0.03051757626235485,100.0,119228.0,1.0
469965.3635783,261935.8125,260091.53125,324402.0625,351075.5625,269375.0,256786.234375,233271.21875,242495.34375,-0.11376953125,0.84521484375,-0.529541015625,1.4343260526657104,3.540038824081421,-0.0915527269244194,100.0,119229.0,1.0
469965.3652052,262865.375,260314.0625,323301.90625,350774.4375,268585.1875,256804.921875,233064.421875,242336.546875,-0.113037109375,0.84716796875,-0.529052734375,1.5258787870407104,3.540038824081421,-0.0915527269244194,100.0,119230.0,1.0
469965.3947803,262305.96875,259942.84375,320629.25,350602.59375,267844.09375,256797.859375,233011.765625,242292.921875,-0.11279296875,0.84765625,-0.532470703125,1.7700194120407104,3.509521245956421,-0.1525878757238388,100.0,119231.0,1.0
469965.3973509,261122.296875,259528.0,320137.71875,350795.96875,268180.28125,256775.328125,233182.96875,242418.1875,-0.1142578125,0.8505859375,-0.527587890625,1.8310545682907104,3.601073980331421,-0.1220703050494194,100.0,119232.0,1.0
469965.3996855,260864.546875,259606.9375,322490.8125,351099.34375,269139.25,256769.515625,233352.140625,242548.0,-0.114501953125,0.85107421875,-0.529541015625,1.8615721464157104,3.723144292831421,-0.03051757626235485,100.0,119233.0,1.0
469965.4021769,261961.75,260104.765625,324440.9375,351088.0,269390.75,256796.171875,233279.171875,242499.90625,-0.112060546875,0.851806640625,-0.52978515625,1.9226073026657104,3.662109136581421,0.0,100.0,119234.0,1.0
469965.4048101,262894.09375,260327.734375,323346.0625,350794.90625,268607.90625,256822.984375,233080.78125,242351.84375,-0.110595703125,0.85107421875,-0.52734375,1.9531248807907104,3.662109136581421,0.0610351525247097,100.0,119235.0,1.0
469965.4071963,262308.0,259919.328125,320653.9375,350595.625,267838.90625,256785.171875,233002.375,242284.421875,-0.112060546875,0.85107421875,-0.529541015625,1.8310545682907104,3.723144292831421,0.0915527269244194,100.0,119236.0,1.0
469965.4097913,261113.1875,259499.734375,320158.1875,350778.09375,268164.96875,256750.5625,233161.25,242402.265625,-0.114501953125,0.8505859375,-0.5302734375,1.6784666776657104,3.784179449081421,0.0610351525247097,100.0,119237.0,1.0
469965.4123139,260854.609375,259582.359375,322512.625,351082.0,269122.875,256746.71875,233327.015625,242530.828125,-0.114501953125,0.8505859375,-0.530517578125,1.6784666776657104,3.662109136581421,0.1831054538488388,100.0,119238.0,1.0
469965.4146741,261951.015625,260077.765625,324459.625,351067.34375,269372.78125,256768.890625,233252.4375,242480.046875,-0.112548828125,0.849853515625,-0.53271484375,1.7700194120407104,3.692626714706421,0.2136230319738388,100.0,119239.0,1.0
469965.4171953,262871.90625,260290.8125,323352.5,350762.1875,268579.125,256788.390625,233048.953125,242326.625,-0.11181640625,0.84912109375,-0.533935546875,1.8615721464157104,3.723144292831421,0.2136230319738388,100.0,119240.0,1.0
469965.4198169,262307.375,259913.96875,320688.1875,350587.5,267837.75,256782.84375,233003.453125,242287.375,-0.11376953125,0.846435546875,-0.532958984375,1.8920897245407104,3.753661870956421,0.3662109076976776,100.0,119241.0,1.0
469965.4222416,261123.28125,259509.21875,320213.25,350782.3125,268185.09375,256763.53125,233181.09375,242419.078125,-0.114013671875,0.84619140625,-0.532470703125,1.8005369901657104,3.692626714706421,0.3662109076976776,100.0,119242.0,1.0
469965.422281,260862.03125,259590.40625,322571.53125,351084.15625,269146.84375,256758.4375,233348.734375,242547.015625,-0.11572265625,0.8486328125,-0.5302734375,1.7700194120407104,3.845214605331421,0.3662109076976776,100.0,119243.0,1.0
469965.424678,261954.046875,260081.609375,324510.34375,351068.21875,269389.6875,256777.390625,233271.671875,242490.15625,-0.11279296875,0.84765625,-0.5283203125,1.9226073026657104,3.845214605331421,0.4577636420726776,100.0,119244.0,1.0
469965.4273292,262872.53125,260294.75,323392.125,350758.4375,268588.40625,256792.234375,233060.21875,242328.78125,-0.115966796875,0.848388671875,-0.530029296875,2.014159917831421,3.875732183456421,0.3356933295726776,100.0,119245.0,1.0
469965.4296799,262307.75,259920.3125,320722.6875,350582.65625,267844.625,256785.703125,233009.265625,242284.703125,-0.1171875,0.84765625,-0.53271484375,2.075195074081421,3.845214605331421,0.3662109076976776,100.0,119246.0,1.0
469965.432186,261128.109375,259524.59375,320253.75,350778.09375,268195.09375,256766.75,233187.625,242415.046875,-0.11767578125,0.845703125,-0.533447265625,2.105712652206421,3.784179449081421,0.3356933295726776,100.0,119247.0,1.0
469965.4346738,260861.046875,259609.171875,322613.75,351078.59375,269155.875,256755.484375,233346.59375,242539.953125,-0.116455078125,0.84619140625,-0.533935546875,2.197265386581421,3.875732183456421,0.3051757514476776,100.0,119248.0,1.0
469965.4373424,261937.0625,260090.09375,324552.4375,351065.375,269403.0,256776.671875,233270.59375,242488.984375,-0.114990234375,0.850341796875,-0.530029296875,2.227782964706421,3.967284917831421,0.2746581733226776,100.0,119249.0,1.0
469965.4422035,262860.1875,260308.609375,323436.5625,350766.21875,268611.375,256803.40625,233068.265625,242333.421875,-0.11376953125,0.852783203125,-0.532470703125,2.197265386581421,3.936767339706421,0.3051757514476776,100.0,119250.0,1.0
469965.4422458,262308.09375,259942.484375,320776.4375,350595.0,267875.3125,256800.8125,233019.1875,242290.234375,-0.114501953125,0.850830078125,-0.53076171875,2.136230230331421,4.028319835662842,0.4272460639476776,100.0,119251.0,1.0
469965.4461449,261123.734375,259535.421875,320306.59375,350780.0625,268216.375,256774.171875,233186.546875,242411.921875,-0.1162109375,0.84814453125,-0.532958984375,2.105712652206421,3.997802495956421,0.3662109076976776,100.0,119252.0,1.0
469965.4461861,260860.609375,259615.171875,322668.28125,351075.1875,269173.5,256760.140625,233345.609375,242532.625,-0.114501953125,0.85009765625,-0.534423828125,2.075195074081421,4.028319835662842,0.3051757514476776,100.0,119253.0,1.0
469965.446196,261953.78125,260106.015625,324604.21875,351065.8125,269417.3125,256778.46875,233269.796875,242478.796875,-0.11474609375,0.849853515625,-0.533447265625,2.044677495956421,4.028319835662842,0.3356933295726776,100.0,119254.0,1.0
469965.448587,262881.125,260321.484375,323482.6875,350767.1875,268622.21875,256800.90625,233065.5,242326.53125,-0.11572265625,0.846923828125,-0.53369140625,2.044677495956421,3.967284917831421,0.3662109076976776,100.0,119255.0,1.0
469965.4486304,262321.78125,259937.296875,320819.875,350589.8125,267880.84375,256791.515625,233013.015625,242284.96875,-0.115478515625,0.844970703125,-0.537353515625,1.9531248807907104,3.967284917831421,0.3662109076976776,100.0,119256.0,1.0
469965.4512708,261159.40625,259554.453125,320380.09375,350798.40625,268242.21875,256783.375,233197.90625,242423.28125,-0.114501953125,0.8447265625,-0.53759765625,1.8615721464157104,3.967284917831421,0.5493163466453552,100.0,119257.0,1.0
469965.4513132,260890.640625,259628.125,322745.15625,351085.9375,269195.3125,256765.046875,233353.65625,242538.4375,-0.114013671875,0.84326171875,-0.535888671875,1.8005369901657104,4.028319835662842,0.6713866591453552,100.0,119258.0,1.0
469965.4560588,261974.796875,260109.671875,324673.6875,351066.4375,269432.0625,256777.390625,233273.90625,242483.359375,-0.114501953125,0.84326171875,-0.532470703125,1.8005369901657104,3.936767339706421,0.7019042372703552,100.0,119259.0,1.0
469965.458559,262892.75,260315.9375,323533.8125,350764.5,268626.9375,256796.078125,233065.578125,242327.25,-0.11279296875,0.841064453125,-0.533935546875,1.8005369901657104,3.875732183456421,0.7934569716453552,100.0,119260.0,1.0
469965.4609232,262329.21875,259939.53125,320860.46875,350590.4375,267885.3125,256789.640625,233015.609375,242285.140625,-0.11279296875,0.840087890625,-0.533203125,1.8310545682907104,3.936767339706421,0.5798339247703552,100.0,119261.0,1.0
469965.4634507,261143.671875,259534.96875,320395.1875,350774.53125,268227.65625,256761.296875,233182.078125,242404.328125,-0.11279296875,0.83837890625,-0.53662109375,1.8615721464157104,3.997802495956421,0.5798339247703552,100.0,119262.0,1.0
469965.4659988,260876.34375,259610.875,322761.25,351071.625,269188.59375,256752.796875,233344.4375,242527.4375,-0.11083984375,0.839111328125,-0.5380859375,1.8920897245407104,3.906249761581421,0.7324218153953552,100.0,119263.0,1.0
469965.4684805,261954.5,260094.203125,324679.125,351053.9375,269424.625,256769.609375,233264.421875,242472.890625,-0.111572265625,0.837646484375,-0.535888671875,1.8005369901657104,3.967284917831421,0.7629393935203552,100.0,119264.0,1.0
469965.468517,262866.4375,260295.546875,323522.03125,350748.78125,268614.6875,256784.8125,233052.4375,242318.9375,-0.1123046875,0.838134765625,-0.533203125,1.7700194120407104,4.089354991912842,0.6713866591453552,100.0,119265.0,1.0
469965.4710157,262295.0625,259912.0,320828.0,350571.75,267864.5625,256770.859375,233002.28125,242279.421875,-0.110107421875,0.83935546875,-0.53662109375,1.8920897245407104,4.119872570037842,0.7324218153953552,100.0,119266.0,1.0
469965.4748899,261108.890625,259510.46875,320356.40625,350758.78125,268207.34375,256744.046875,233174.65625,242406.109375,-0.10986328125,0.841796875,-0.53564453125,1.8310545682907104,4.119872570037842,0.7934569716453552,100.0,119267.0,1.0
469965.4749298,260842.71875,259587.453125,322723.71875,351058.84375,269169.46875,256737.515625,233342.390625,242535.75,-0.108154296875,0.8427734375,-0.531982421875,1.8310545682907104,4.211425304412842,0.8544921278953552,100.0,119268.0,1.0
469965.493557,261923.65625,260065.59375,324636.03125,351046.40625,269404.78125,256759.6875,233269.875,242486.84375,-0.109619140625,0.84228515625,-0.5361328125,1.5869139432907104,4.119872570037842,0.9765624403953552,100.0,119269.0,1.0
469965.4974254,262835.15625,260269.359375,323473.46875,350741.71875,268593.15625,256781.140625,233064.421875,242332.265625,-0.11083984375,0.839599609375,-0.53662109375,1.4038084745407104,4.211425304412842,1.0681151151657104,100.0,119270.0,1.0
469965.4974652,262276.375,259897.6875,320781.875,350573.0,267852.21875,256776.578125,233014.53125,242295.96875,-0.10888671875,0.8408203125,-0.53955078125,1.4038084745407104,4.364013195037842,1.2207030057907104,100.0,119271.0,1.0
469965.4974748,261102.1875,259502.328125,320321.625,350771.3125,268211.1875,256758.609375,233192.90625,242430.078125,-0.1083984375,0.84033203125,-0.541259765625,1.2817381620407104,4.394530773162842,1.3732908964157104,100.0,119272.0,1.0
469965.4996686,260843.4375,259587.453125,322685.53125,351071.34375,269178.5,256751.90625,233358.125,242555.6875,-0.1103515625,0.841064453125,-0.539306640625,1.2512205839157104,4.364013195037842,1.3427733182907104,100.0,119273.0,1.0
469965.5023187,261925.0,260069.265625,324589.90625,351054.8125,269416.125,256769.875,233280.515625,242496.765625,-0.11083984375,0.840576171875,-0.539306640625,1.3122557401657104,4.455565929412842,1.2817381620407104,100.0,119274.0,1.0
469965.5048288,262841.6875,260267.84375,323419.3125,350748.78125,268603.53125,256787.84375,233071.3125,242335.484375,-0.11083984375,0.841064453125,-0.5400390625,1.2817381620407104,4.516601085662842,1.3732908964157104,100.0,119275.0,1.0
469965.5084265,262284.15625,259896.0,320731.46875,350577.46875,267861.875,256785.703125,233022.40625,242296.40625,-0.110107421875,0.842529296875,-0.540283203125,1.1901854276657104,4.516601085662842,1.4038084745407104,100.0,119276.0,1.0
469965.5172428,261111.03125,259508.59375,320281.8125,350776.3125,268223.0,256772.921875,233201.65625,242430.078125,-0.109130859375,0.843994140625,-0.53759765625,1.1901854276657104,4.608153820037842,1.4038084745407104,100.0,119277.0,1.0
469965.5172846,260859.265625,259603.546875,322664.625,351081.90625,269197.0,256775.15625,233374.671875,242563.375,-0.109375,0.84423828125,-0.5380859375,1.1901854276657104,4.638671398162842,1.4648436307907104,100.0,119278.0,1.0
469965.5198734,261925.359375,260074.359375,324560.65625,351048.75,269417.65625,256782.03125,233284.8125,242495.875,-0.108154296875,0.844970703125,-0.540771484375,1.0986326932907104,4.638671398162842,1.4343260526657104,100.0,119279.0,1.0
469965.5199144,262849.1875,260289.03125,323405.71875,350753.34375,268612.28125,256811.09375,233085.703125,242343.796875,-0.10546875,0.845703125,-0.537841796875,1.0986326932907104,4.730224132537842,1.4038084745407104,100.0,119280.0,1.0
469965.5423202,262285.125,259908.6875,320714.46875,350573.53125,267860.71875,256798.21875,233028.21875,242294.4375,-0.1064453125,0.847900390625,-0.5400390625,0.8850097060203552,4.791259288787842,1.5258787870407104,100.0,119281.0,1.0
469965.5447415,261112.109375,259520.75,320261.875,350768.53125,268218.1875,256777.296875,233203.359375,242426.40625,-0.107421875,0.84814453125,-0.538818359375,0.6713866591453552,4.791259288787842,1.5258787870407104,100.0,119282.0,1.0
469965.5471645,260852.296875,259605.15625,322634.9375,351067.59375,269185.46875,256767.109375,233362.0625,242550.765625,-0.110107421875,0.8466796875,-0.5400390625,0.5493163466453552,4.852294445037842,1.5258787870407104,100.0,119283.0,1.0
469965.5497063,261942.15625,260091.078125,324551.0,351055.875,269426.5,256789.546875,233285.796875,242498.109375,-0.109619140625,0.846435546875,-0.540771484375,0.4272460639476776,4.791259288787842,1.5563963651657104,100.0,119284.0,1.0
469965.5522972,262860.90625,260294.125,323385.15625,350749.21875,268611.9375,256805.109375,233079.625,242344.515625,-0.107666015625,0.84521484375,-0.5400390625,0.3662109076976776,4.791259288787842,1.5563963651657104,100.0,119285.0,1.0
469965.5547993,262302.125,259921.203125,320699.0,350574.0625,267863.125,256795.984375,233029.015625,242308.390625,-0.109130859375,0.8447265625,-0.5380859375,0.3051757514476776,4.730224132537842,1.4953612089157104,100.0,119286.0,1.0
469965.5571757,261124.171875,259525.765625,320250.28125,350764.15625,268217.625,256774.078125,233201.03125,242431.328125,-0.110595703125,0.844482421875,-0.531982421875,0.1220703050494194,4.760741710662842,1.4343260526657104,100.0,119287.0,1.0
469965.5623334,260859.359375,259606.046875,322634.3125,351059.5625,269184.125,256766.125,233366.265625,242543.34375,-0.111083984375,0.844970703125,-0.5322265625,0.0610351525247097,4.699706554412842,1.4648436307907104,100.0,119288.0,1.0
469965.5623735,261943.0625,260081.78125,324543.6875,351044.71875,269418.1875,256786.953125,233290.0,242487.375,-0.113525390625,0.84619140625,-0.533447265625,0.03051757626235485,4.608153820037842,1.3732908964157104,100.0,119289.0,1.0
469965.564789,262863.3125,260279.453125,323369.3125,350738.59375,268601.46875,256800.90625,233076.671875,242332.34375,-0.114013671875,0.849609375,-0.533447265625,-0.2441406100988388,4.608153820037842,1.2512205839157104,100.0,119290.0,1.0
469965.5684234,262305.59375,259907.609375,320679.875,350563.53125,267853.03125,256790.53125,233021.421875,242289.25,-0.115234375,0.849365234375,-0.53076171875,-0.3967284858226776,4.547118663787842,1.2817381620407104,100.0,119291.0,1.0
469965.5948982,261135.265625,259529.0625,320239.625,350764.34375,268216.65625,256774.4375,233198.625,242425.328125,-0.115478515625,0.852783203125,-0.53125,-0.5493163466453552,4.516601085662842,1.1901854276657104,100.0,119292.0,1.0
469965.5949412,260887.609375,259621.0625,322638.875,351082.8125,269197.8125,256779.625,233378.234375,242563.734375,-0.11669921875,0.854736328125,-0.532470703125,-0.8239745497703552,4.394530773162842,1.0375975370407104,100.0,119293.0,1.0
469965.5973313,261966.84375,260099.9375,324549.5,351069.46875,269430.1875,256796.609375,233301.171875,242506.875,-0.115234375,0.853515625,-0.531982421875,-0.9765624403953552,4.211425304412842,0.9765624403953552,100.0,119294.0,1.0
469965.597371,262851.0625,260270.96875,323355.8125,350736.34375,268585.5625,256786.515625,233064.25,242321.53125,-0.11279296875,0.855224609375,-0.533203125,-1.0681151151657104,3.936767339706421,0.8544921278953552,100.0,119295.0,1.0
469965.6013833,262284.3125,259892.953125,320667.4375,350560.9375,267838.8125,256779.890625,233015.609375,242282.109375,-0.112060546875,0.854248046875,-0.53173828125,-1.1596678495407104,3.814697027206421,0.9155272841453552,100.0,119296.0,1.0
469965.6014228,261103.25,259513.59375,320225.9375,350755.3125,268201.53125,256761.921875,233193.25,242415.3125,-0.109130859375,0.85498046875,-0.53076171875,-1.2512205839157104,3.692626714706421,0.9155272841453552,100.0,119297.0,1.0
469965.6014317,260837.09375,259598.359375,322608.375,351052.3125,269169.46875,256753.25,233355.4375,242538.703125,-0.107177734375,0.853759765625,-0.531982421875,-1.4038084745407104,3.753661870956421,0.9155272841453552,100.0,119298.0,1.0
469965.601441,261921.15625,260075.703125,324520.34375,351036.5,269403.4375,256776.5,233274.53125,242483.453125,-0.10693359375,0.853515625,-0.529541015625,-1.5258787870407104,3.631591558456421,0.9460448622703552,100.0,119299.0,1.0
469965.6059922,262840.6875,260275.171875,323352.0625,350730.28125,268583.3125,256789.375,233061.46875,242321.359375,-0.105712890625,0.852783203125,-0.52783203125,-1.6784666776657104,3.509521245956421,0.9765624403953552,100.0,119300.0,1.0
469965.6060322,262286.8125,259904.125,320671.1875,350559.6875,267836.40625,256779.71875,233010.15625,242279.59375,-0.106201171875,0.852294921875,-0.526123046875,-1.7395018339157104,3.509521245956421,0.8850097060203552,100.0,119301.0,1.0
469965.6084228,261114.96875,259518.421875,320233.09375,350760.9375,268201.625,256766.921875,233191.015625,242416.65625,-0.10595703125,0.8525390625,-0.525146484375,-1.9531248807907104,3.479003667831421,1.0681151151657104,100.0,119302.0,1.0
469965.6421886,260845.578125,259604.703125,322614.625,351059.5625,269172.78125,256759.15625,233355.359375,242543.078125,-0.107666015625,0.853759765625,-0.526123046875,-2.197265386581421,3.417968511581421,1.0070799589157104,100.0,119303.0,1.0
469965.6461217,261934.109375,260091.078125,324536.0,351047.84375,269414.625,256783.375,233284.8125,242492.65625,-0.107177734375,0.854248046875,-0.52783203125,-2.380370855331421,3.601073980331421,0.9460448622703552,100.0,119304.0,1.0
469965.6461624,262861.09375,260293.234375,323375.125,350745.8125,268597.875,256802.875,233074.609375,242335.921875,-0.110107421875,0.854248046875,-0.52490234375,-2.380370855331421,3.479003667831421,1.0070799589157104,100.0,119305.0,1.0
469965.646173,262310.78125,259922.015625,320699.09375,350574.53125,267854.28125,256797.78125,233025.703125,242299.71875,-0.111572265625,0.851318359375,-0.5263671875,-2.563476324081421,3.448486089706421,0.9765624403953552,100.0,119306.0,1.0
469965.6536766,261140.890625,259540.328125,320262.875,350776.9375,268220.3125,256783.5625,233206.765625,242434.71875,-0.111328125,0.851806640625,-0.5244140625,-2.624511480331421,3.234863042831421,1.0070799589157104,100.0,119307.0,1.0
469965.6537177,260872.5,259630.453125,322646.28125,351073.59375,269188.59375,256773.1875,233368.578125,242556.84375,-0.110107421875,0.852783203125,-0.524658203125,-2.685546636581421,3.112792730331421,0.9155272841453552,100.0,119308.0,1.0
469965.6537284,261941.71875,260094.75,324546.375,351041.59375,269409.53125,256777.84375,233275.25,242490.515625,-0.1103515625,0.851318359375,-0.525146484375,-2.838134527206421,3.082275152206421,0.9155272841453552,100.0,119309.0,1.0
469965.6559253,262866.71875,260291.53125,323384.0625,350733.65625,268589.5625,256794.015625,233064.15625,242329.84375,-0.109619140625,0.849853515625,-0.5224609375,-2.929687261581421,2.990722417831421,0.8850097060203552,100.0,119310.0,1.0
469965.6609593,262324.375,259932.828125,320711.6875,350567.90625,267852.0625,256799.03125,233026.15625,242292.65625,-0.110595703125,0.850341796875,-0.521240234375,-3.021239995956421,2.929687261581421,0.8239745497703552,100.0,119311.0,1.0
469965.6634108,261128.46875,259531.390625,320250.96875,350747.0625,268199.75,256767.015625,233192.28125,242410.484375,-0.11181640625,0.84912109375,-0.521484375,-3.143310308456421,2.838134527206421,0.7629393935203552,100.0,119312.0,1.0
469965.6660756,260854.796875,259607.828125,322629.03125,351041.6875,269165.875,256752.625,233351.15625,242532.265625,-0.112548828125,0.8466796875,-0.522705078125,-3.326415777206421,2.746581792831421,0.7019042372703552,100.0,119313.0,1.0
469965.6684273,261938.578125,260086.96875,324546.53125,351026.46875,269399.6875,256770.5,233272.65625,242476.109375,-0.112548828125,0.84814453125,-0.521240234375,-3.234863042831421,2.563476324081421,0.6713866591453552,100.0,119314.0,1.0
469965.6711038,262864.40625,260290.015625,323391.125,350725.34375,268581.71875,256788.828125,233067.546875,242320.90625,-0.112060546875,0.849365234375,-0.52197265625,-3.173827886581421,2.319335699081421,0.5187987685203552,100.0,119315.0,1.0
469965.6734305,262317.65625,259920.9375,320723.6875,350560.5625,267838.28125,256785.703125,233020.078125,242286.390625,-0.10986328125,0.849853515625,-0.518798828125,-3.173827886581421,2.288818120956421,0.5187987685203552,100.0,119316.0,1.0
469965.6760821,261131.78125,259522.453125,320278.25,350749.03125,268194.5625,256759.421875,233190.671875,242413.171875,-0.109375,0.85107421875,-0.51953125,-3.295898199081421,2.166747808456421,0.4882812201976776,100.0,119317.0,1.0
469965.6807371,260858.8125,259606.859375,322660.40625,351041.75,269164.71875,256746.71875,233352.3125,242536.109375,-0.113037109375,0.847900390625,-0.52197265625,-3.234863042831421,2.044677495956421,0.3662109076976776,100.0,119318.0,1.0
469965.6807779,261950.296875,260093.671875,324591.875,351030.5,269405.5,256773.546875,233280.515625,242486.125,-0.110107421875,0.846923828125,-0.520751953125,-3.295898199081421,1.9836424589157104,0.2136230319738388,100.0,119319.0,1.0
469965.6889049,262880.9375,260296.453125,323448.09375,350729.65625,268590.46875,256793.03125,233073.359375,242331.1875,-0.112060546875,0.84814453125,-0.523193359375,-3.265380620956421,1.8615721464157104,0.1831054538488388,100.0,119320.0,1.0
469965.7276658,262324.375,259920.765625,320772.59375,350549.3125,267839.53125,256781.234375,233018.46875,242282.546875,-0.11181640625,0.846435546875,-0.524169921875,-3.204345464706421,1.6784666776657104,0.1220703050494194,100.0,119321.0,1.0
469965.7321787,261139.828125,259524.859375,320333.0625,350739.46875,268198.59375,256756.109375,233190.9375,242410.84375,-0.11279296875,0.847900390625,-0.52587890625,-3.173827886581421,1.5869139432907104,0.1220703050494194,100.0,119322.0,1.0
469965.7398892,260878.671875,259614.0,322731.84375,351042.65625,269176.15625,256752.171875,233359.90625,242542.8125,-0.111572265625,0.847900390625,-0.524658203125,-3.112792730331421,1.4648436307907104,0.03051757626235485,100.0,119323.0,1.0
469965.7399299,261965.5,260092.15625,324657.40625,351024.25,269405.84375,256766.75,233273.453125,242483.984375,-0.11083984375,0.847412109375,-0.523681640625,-3.021239995956421,1.4038084745407104,0.0610351525247097,100.0,119324.0,1.0
469965.742259,262880.5,260279.8125,323490.375,350713.28125,268577.9375,256781.765625,233056.375,242318.671875,-0.113525390625,0.84814453125,-0.52099609375,-2.868652105331421,1.3732908964157104,-0.0610351525247097,100.0,119325.0,1.0
469965.7447656,262321.15625,259911.1875,320803.0625,350537.15625,267830.25,256772.203125,233007.109375,242276.109375,-0.114013671875,0.846923828125,-0.523193359375,-2.868652105331421,1.1596678495407104,-0.1220703050494194,100.0,119326.0,1.0
469965.7498056,261144.921875,259532.734375,320360.40625,350743.9375,268202.625,256763.359375,233195.578125,242419.4375,-0.11181640625,0.8486328125,-0.52685546875,-2.807616949081421,1.1596678495407104,-0.1831054538488388,100.0,119327.0,1.0
469965.7521733,260861.046875,259603.90625,322722.8125,351033.0,269163.375,256745.46875,233348.203125,242534.953125,-0.113037109375,0.8466796875,-0.5244140625,-2.716064214706421,1.0070799589157104,-0.2746581733226776,100.0,119328.0,1.0
469965.7548206,261940.109375,260079.640625,324629.5,351015.65625,269392.4375,256761.65625,233265.3125,242475.84375,-0.11474609375,0.848876953125,-0.522705078125,-2.685546636581421,0.8544921278953552,-0.3051757514476776,100.0,119329.0,1.0
469965.7571663,262872.71875,260285.890625,323473.21875,350718.375,268578.5625,256789.90625,233060.21875,242322.34375,-0.1142578125,0.84765625,-0.525390625,-2.655029058456421,0.7629393935203552,-0.3662109076976776,100.0,119330.0,1.0
469965.75979,262323.125,259923.171875,320792.96875,350547.15625,267836.0625,256787.9375,233013.640625,242283.53125,-0.11376953125,0.845947265625,-0.52490234375,-2.471923589706421,0.7019042372703552,-0.3356933295726776,100.0,119331.0,1.0
469965.7622972,261120.515625,259517.53125,320327.59375,350723.21875,268182.15625,256746.71875,233174.390625,242399.3125,-0.114990234375,0.84716796875,-0.524658203125,-2.105712652206421,0.6103515028953552,-0.3967284858226776,100.0,119332.0,1.0
469965.767301,260855.59375,259610.609375,322714.59375,351029.78125,269162.3125,256745.734375,233346.5,242532.171875,-0.115234375,0.845703125,-0.524169921875,-1.9226073026657104,0.5798339247703552,-0.3967284858226776,100.0,119333.0,1.0
469965.7697843,261939.484375,260094.65625,324626.8125,351017.0,269398.78125,256770.0625,233271.3125,242480.59375,-0.113037109375,0.845458984375,-0.5244140625,-1.6784666776657104,0.6103515028953552,-0.3967284858226776,100.0,119334.0,1.0
469965.7723306,262851.4375,260285.890625,323440.75,350706.125,268566.875,256781.234375,233055.296875,242317.59375,-0.11279296875,0.84619140625,-0.524658203125,-1.4343260526657104,0.4577636420726776,-0.3051757514476776,100.0,119335.0,1.0
469965.7746802,262285.84375,259905.921875,320733.25,350525.71875,267811.09375,256769.078125,232999.609375,242271.28125,-0.1123046875,0.84619140625,-0.525146484375,-1.4038084745407104,0.3967284858226776,-0.3662109076976776,100.0,119336.0,1.0
469965.7773449,261103.703125,259519.046875,320279.875,350722.9375,268176.34375,256751.1875,233179.9375,242405.21875,-0.11279296875,0.846435546875,-0.5244140625,-1.2817381620407104,0.3356933295726776,-0.2746581733226776,100.0,119337.0,1.0
469965.7773865,260839.59375,259608.90625,322659.25,351029.25,269151.9375,256744.125,233348.46875,242536.28125,-0.113525390625,0.84716796875,-0.52490234375,-1.0375975370407104,0.3051757514476776,-0.2136230319738388,100.0,119338.0,1.0
469965.7798013,261920.609375,260086.609375,324563.53125,351012.0,269381.4375,256758.4375,233264.34375,242479.25,-0.113525390625,0.848388671875,-0.525390625,-0.7934569716453552,0.3051757514476776,-0.1525878757238388,100.0,119339.0,1.0
469965.7822414,262838.03125,260271.40625,323380.40625,350705.25,268555.875,256772.734375,233050.75,242320.453125,-0.114501953125,0.848388671875,-0.52392578125,-0.5798339247703552,0.2746581733226776,-0.2136230319738388,100.0,119340.0,1.0
469965.7822833,262273.5,259897.953125,320676.125,350530.0,267803.59375,256766.84375,232999.953125,242278.171875,-0.1162109375,0.849609375,-0.525146484375,-0.4577636420726776,0.2441406100988388,-0.1525878757238388,100.0,119341.0,1.0
469965.7846677,261093.515625,259513.515625,320229.875,350729.46875,268172.03125,256753.0625,233183.78125,242414.78125,-0.11572265625,0.8515625,-0.525634765625,-0.2746581733226776,0.1831054538488388,-0.1220703050494194,100.0,119342.0,1.0
469965.7873505,260832.4375,259599.15625,322613.90625,351033.53125,269152.75,256747.96875,233354.8125,242548.453125,-0.116455078125,0.8486328125,-0.525146484375,-0.1220703050494194,0.1525878757238388,-0.1525878757238388,100.0,119343.0,1.0
469965.7896901,261922.578125,260083.21875,324530.53125,351024.0625,269392.96875,256773.09375,233280.78125,242498.015625,-0.115234375,0.84716796875,-0.525390625,-0.1525878757238388,0.1220703050494194,-0.0610351525247097,100.0,119344.0,1.0
469965.7921807,262830.78125,260268.734375,323342.6875,350709.78125,268561.84375,256781.953125,233059.859375,242328.78125,-0.11279296875,0.84228515625,-0.521484375,-0.1220703050494194,0.0610351525247097,0.03051757626235485,100.0,119345.0,1.0
469965.7948447,262278.40625,259899.65625,320649.28125,350543.9375,267820.03125,256782.484375,233015.96875,242294.703125,-0.10986328125,0.83837890625,-0.52392578125,0.0915527269244194,0.03051757626235485,0.2136230319738388,100.0,119346.0,1.0
469965.7948867,261101.296875,259516.375,320203.40625,350742.0625,268185.53125,256766.578125,233194.421875,242427.5625,-0.108154296875,0.84033203125,-0.527587890625,0.2441406100988388,0.2136230319738388,0.1831054538488388,100.0,119347.0,1.0
469965.7962759,260818.140625,259588.25,322572.6875,351021.375,269140.3125,256741.8125,233339.53125,242532.984375,-0.106689453125,0.844482421875,-0.53076171875,0.4272460639476776,0.3356933295726776,0.3356933295726776,100.0,119348.0,1.0
469965.8061635,261910.875,260069.796875,324493.0625,351010.375,269378.40625,256767.734375,233267.375,242484.15625,-0.1083984375,0.84716796875,-0.529052734375,0.6713866591453552,0.5187987685203552,0.4882812201976776,100.0,119349.0,1.0
469965.8062053,262833.09375,260266.234375,323315.6875,350704.53125,268554.0625,256781.765625,233058.34375,242323.234375,-0.109130859375,0.845947265625,-0.529541015625,0.8544921278953552,0.5187987685203552,0.5187987685203552,100.0,119350.0,1.0
469965.8062154,262271.1875,259886.96875,320612.8125,350523.125,267800.65625,256770.5,233003.0,242275.671875,-0.110107421875,0.845947265625,-0.52880859375,0.9765624403953552,0.7019042372703552,0.5798339247703552,100.0,119351.0,1.0
469965.8098129,261098.609375,259509.125,320179.8125,350722.65625,268169.8125,256757.09375,233186.8125,242410.21875,-0.111572265625,0.84326171875,-0.52783203125,1.0375975370407104,0.7934569716453552,0.6408690810203552,100.0,119352.0,1.0
469965.8173284,260841.109375,259602.109375,322581.28125,351024.40625,269148.0,256752.796875,233352.578125,242540.75,-0.107666015625,0.841552734375,-0.528564453125,1.1596678495407104,0.9155272841453552,0.5798339247703552,100.0,119353.0,1.0
469965.8209856,261923.828125,260082.046875,324484.125,351005.46875,269377.6875,256770.421875,233268.359375,242483.890625,-0.10595703125,0.841552734375,-0.530517578125,1.3732908964157104,1.0070799589157104,0.7934569716453552,100.0,119354.0,1.0
469965.8210257,262838.125,260280.09375,323293.78125,350698.71875,268553.625,256790.796875,233057.8125,242323.140625,-0.106201171875,0.842529296875,-0.53125,1.5258787870407104,1.1596678495407104,0.7629393935203552,100.0,119355.0,1.0
469965.8421827,262274.84375,259903.234375,320594.21875,350523.125,267804.03125,256783.46875,233007.015625,242277.984375,-0.109130859375,0.84521484375,-0.531982421875,1.6479490995407104,1.2817381620407104,0.7629393935203552,100.0,119356.0,1.0
469965.8448483,261098.609375,259515.921875,320159.59375,350720.53125,268171.0625,256762.640625,233186.28125,242411.390625,-0.11328125,0.845703125,-0.530517578125,1.8005369901657104,1.4038084745407104,0.6408690810203552,100.0,119357.0,1.0
469965.8448905,260841.109375,259605.78125,322556.34375,351023.0,269149.53125,256754.234375,233353.03125,242540.671875,-0.11572265625,0.847412109375,-0.528076171875,1.7700194120407104,1.4343260526657104,0.6408690810203552,100.0,119358.0,1.0
469965.8471772,261928.296875,260082.140625,324464.375,351005.46875,269380.03125,256772.921875,233271.578125,242483.171875,-0.118896484375,0.84619140625,-0.528076171875,1.6784666776657104,1.4343260526657104,0.6103515028953552,100.0,119359.0,1.0
469965.8498131,262841.96875,260277.671875,323275.0,350698.53125,268553.1875,256790.890625,233060.84375,242325.203125,-0.119140625,0.845947265625,-0.5302734375,1.6479490995407104,1.4953612089157104,0.3967284858226776,100.0,119360.0,1.0
469965.8521365,262277.25,259899.75,320571.0625,350521.3125,267800.71875,256779.796875,233007.921875,242279.234375,-0.118896484375,0.846435546875,-0.5302734375,1.6174315214157104,1.5258787870407104,0.2441406100988388,100.0,119361.0,1.0
469965.8547312,261104.6875,259514.140625,320139.40625,350719.09375,268167.65625,256759.953125,233186.734375,242413.359375,-0.115478515625,0.8466796875,-0.530517578125,1.5869139432907104,1.5869139432907104,0.1831054538488388,100.0,119362.0,1.0
469965.8585616,260845.3125,259602.734375,322544.4375,351019.6875,269147.28125,256753.25,233352.9375,242542.015625,-0.11474609375,0.844482421875,-0.53173828125,1.7089842557907104,1.4648436307907104,0.0,100.0,119363.0,1.0
469965.8722391,261932.15625,260090.09375,324458.84375,351013.5,269386.71875,256782.3125,233284.359375,242495.609375,-0.114013671875,0.845703125,-0.53125,1.7700194120407104,1.4038084745407104,0.03051757626235485,100.0,119364.0,1.0
469965.8722792,262842.21875,260281.515625,323263.8125,350713.375,268561.9375,256804.65625,233078.453125,242341.296875,-0.114013671875,0.84716796875,-0.530517578125,1.7700194120407104,1.4343260526657104,-0.03051757626235485,100.0,119365.0,1.0
469965.8747249,262262.0625,259888.3125,320543.15625,350519.28125,267794.65625,256779.625,233008.1875,242281.828125,-0.110595703125,0.84912109375,-0.53271484375,1.7700194120407104,1.5258787870407104,-0.1831054538488388,100.0,119366.0,1.0
469965.8747601,261105.140625,259515.203125,320127.25,350727.40625,268173.84375,256769.078125,233192.8125,242422.46875,-0.1123046875,0.847900390625,-0.534423828125,1.7395018339157104,1.6784666776657104,-0.1831054538488388,100.0,119367.0,1.0
469965.8773007,260852.203125,259605.0625,322537.46875,351028.875,269152.5625,256757.8125,233357.9375,242548.453125,-0.112060546875,0.846923828125,-0.5361328125,1.6479490995407104,1.7700194120407104,-0.3662109076976776,100.0,119368.0,1.0
469965.8809276,261924.375,260071.140625,324428.78125,351002.96875,269370.8125,256766.921875,233269.609375,242482.546875,-0.10888671875,0.8466796875,-0.534912109375,1.6174315214157104,1.9226073026657104,-0.4272460639476776,100.0,119369.0,1.0
469965.8847784,262830.15625,260263.359375,323221.8125,350696.03125,268543.625,256786.6875,233058.875,242322.515625,-0.109619140625,0.848388671875,-0.53662109375,1.6174315214157104,1.9531248807907104,-0.2746581733226776,100.0,119370.0,1.0
469965.9172282,262268.78125,259889.015625,320520.90625,350524.625,267797.4375,256782.21875,233011.9375,242283.359375,-0.107666015625,0.8466796875,-0.5341796875,1.6479490995407104,2.166747808456421,-0.2441406100988388,100.0,119371.0,1.0
469965.9172679,261097.53125,259509.390625,320102.375,350722.125,268170.4375,256763.53125,233190.671875,242418.71875,-0.108154296875,0.84765625,-0.53515625,1.5869139432907104,2.197265386581421,-0.3356933295726776,100.0,119372.0,1.0
469965.919842,260843.171875,259602.109375,322517.1875,351025.5,269151.125,256761.75,233356.515625,242548.984375,-0.108642578125,0.845947265625,-0.53515625,1.6479490995407104,2.349853277206421,-0.2746581733226776,100.0,119373.0,1.0
469965.9198831,261917.484375,260071.671875,324416.8125,351005.1875,269375.71875,256775.59375,233273.1875,242492.296875,-0.108642578125,0.847412109375,-0.533447265625,1.7089842557907104,2.532958745956421,-0.2746581733226776,100.0,119374.0,1.0
469965.9221895,262818.15625,260264.078125,323206.34375,350697.1875,268545.03125,256790.078125,233061.828125,242334.5,-0.10986328125,0.8486328125,-0.535400390625,1.5869139432907104,2.655029058456421,-0.1525878757238388,100.0,119375.0,1.0
469965.9248218,262247.5,259878.015625,320494.78125,350516.75,267789.75,256774.53125,233005.859375,242285.59375,-0.11181640625,0.84765625,-0.534912109375,1.6174315214157104,2.746581792831421,-0.1220703050494194,100.0,119376.0,1.0
469965.9298193,261079.65625,259494.375,320070.5625,350711.03125,268158.4375,256752.890625,233180.390625,242414.25,-0.114013671875,0.8466796875,-0.53515625,1.6784666776657104,2.807616949081421,0.0,100.0,119377.0,1.0
469965.932171,260831.375,259589.0625,322487.9375,351013.5,269140.5,256748.59375,233346.6875,242541.828125,-0.113037109375,0.846435546875,-0.533935546875,1.5563963651657104,2.868652105331421,-0.0610351525247097,100.0,119378.0,1.0
469965.9346587,261908.09375,260062.109375,324385.78125,350993.9375,269365.90625,256762.71875,233262.734375,242481.21875,-0.11279296875,0.847900390625,-0.533447265625,1.5258787870407104,2.838134527206421,-0.0610351525247097,100.0,119379.0,1.0
469965.9373696,262806.5625,260248.609375,323166.375,350687.625,268531.8125,256776.234375,233049.84375,242322.421875,-0.11279296875,0.845947265625,-0.53466796875,1.3732908964157104,2.899169683456421,0.0915527269244194,100.0,119380.0,1.0
469965.9396906,262254.0,259888.390625,320468.6875,350525.25,267794.28125,256780.703125,233011.046875,242291.9375,-0.114501953125,0.845458984375,-0.53515625,1.3122557401657104,2.868652105331421,0.0915527269244194,100.0,119381.0,1.0
469965.9423434,261084.65625,259504.75,320049.90625,350718.90625,268164.875,256757.453125,233188.703125,242422.828125,-0.114990234375,0.846435546875,-0.5341796875,1.2512205839157104,2.868652105331421,0.1831054538488388,100.0,119382.0,1.0
469965.9423841,260821.53125,259586.015625,322453.78125,351005.09375,269130.125,256733.578125,233338.0,242537.09375,-0.1171875,0.843505859375,-0.53564453125,1.2817381620407104,2.807616949081421,0.0915527269244194,100.0,119383.0,1.0
469965.9448058,261905.0625,260065.0625,324359.21875,350990.1875,269359.1875,256755.578125,233261.390625,242481.03125,-0.11572265625,0.84228515625,-0.53759765625,1.2817381620407104,2.899169683456421,0.1220703050494194,100.0,119384.0,1.0
469965.9471913,262804.75,260256.65625,323140.09375,350683.25,268528.0625,256769.875,233051.90625,242322.96875,-0.1162109375,0.84375,-0.531982421875,1.1596678495407104,2.899169683456421,0.2746581733226776,100.0,119385.0,1.0
469965.9496728,262241.75,259879.90625,320425.875,350507.375,267780.625,256761.75,233000.3125,242281.65625,-0.114990234375,0.843017578125,-0.5322265625,1.1596678495407104,2.899169683456421,0.1220703050494194,100.0,119386.0,1.0
469965.9673844,261078.484375,259503.671875,320013.25,350706.5625,268156.65625,256745.46875,233180.46875,242414.25,-0.114501953125,0.84326171875,-0.53076171875,1.1596678495407104,2.899169683456421,0.1220703050494194,100.0,119387.0,1.0
469965.9674242,260829.9375,259593.984375,322439.21875,351010.75,269140.0625,256739.03125,233347.390625,242542.453125,-0.114990234375,0.84326171875,-0.53564453125,1.0681151151657104,2.838134527206421,0.1831054538488388,100.0,119388.0,1.0
469965.9697329,261906.84375,260068.1875,324343.40625,350994.90625,269365.0,256758.96875,233269.96875,242486.484375,-0.11767578125,0.84375,-0.5341796875,0.9765624403953552,2.777099370956421,0.2136230319738388,100.0,119389.0,1.0
469965.9697692,262800.90625,260252.28125,323124.0625,350688.875,268529.59375,256777.65625,233058.96875,242324.296875,-0.118408203125,0.8447265625,-0.53369140625,1.0681151151657104,2.777099370956421,0.1831054538488388,100.0,119390.0,1.0
469965.9723286,262239.25,259876.859375,320419.96875,350515.96875,267783.375,256772.375,233011.671875,242282.109375,-0.11767578125,0.842529296875,-0.53515625,0.9155272841453552,2.593993902206421,0.1220703050494194,100.0,119391.0,1.0
469965.9748029,261079.65625,259502.421875,320016.375,350710.78125,268161.5,256754.59375,233188.96875,242412.640625,-0.116943359375,0.843017578125,-0.537353515625,0.9765624403953552,2.563476324081421,0.2441406100988388,100.0,119392.0,1.0
469965.9922426,260833.609375,259595.3125,322445.84375,351010.125,269141.65625,256746.1875,233350.53125,242538.796875,-0.11865234375,0.84326171875,-0.5400390625,0.8544921278953552,2.532958745956421,0.1525878757238388,100.0,119393.0,1.0
469965.9922834,261923.203125,260077.765625,324355.75,351004.5625,269376.1875,256777.65625,233280.78125,242493.90625,-0.117431640625,0.843994140625,-0.536376953125,0.7324218153953552,2.380370855331421,0.1831054538488388,100.0,119394.0,1.0
469965.9947364,262803.59375,260249.0625,323114.59375,350683.34375,268530.28125,256785.96875,233059.5,242321.890625,-0.11669921875,0.846435546875,-0.5341796875,0.7629393935203552,2.258300542831421,0.1220703050494194,100.0,119395.0,1.0
469965.9947719,262229.78125,259866.84375,320394.125,350498.15625,267776.3125,256769.796875,233002.28125,242272.53125,-0.117431640625,0.84619140625,-0.533935546875,0.6713866591453552,2.197265386581421,0.1220703050494194,100.0,119396.0,1.0
469965.9973513,261077.0625,259504.921875,319998.59375,350703.71875,268160.78125,256757.8125,233190.75,242414.6875,-0.117431640625,0.8447265625,-0.533203125,0.6103515028953552,2.136230230331421,0.2136230319738388,100.0,119397.0,1.0
469965.9996733,260830.03125,259597.546875,322432.78125,351006.8125,269144.34375,256751.453125,233357.046875,242546.03125,-0.11767578125,0.8466796875,-0.53515625,0.5187987685203552,2.105712652206421,0.2136230319738388,100.0,119398.0,1.0
469966.0066131,261903.1875,260065.953125,324330.53125,350988.46875,269367.84375,256770.421875,233274.625,242491.40625,-0.117919921875,0.845703125,-0.534912109375,0.3662109076976776,1.9531248807907104,0.1525878757238388,100.0,119399.0,1.0
469966.0359912,262793.125,260247.0,323100.75,350679.75,268534.21875,256784.265625,233062.453125,242333.421875,-0.1162109375,0.847412109375,-0.533447265625,0.1831054538488388,1.9226073026657104,0.2136230319738388,100.0,119400.0,1.0
469966.036033,262228.34375,259868.1875,320389.84375,350504.4375,267786.34375,256775.421875,233012.03125,242288.984375,-0.1162109375,0.8466796875,-0.53564453125,0.0915527269244194,1.8005369901657104,0.2441406100988388,100.0,119401.0,1.0
469966.0385836,261077.234375,259499.828125,319991.53125,350703.4375,268163.375,256760.21875,233193.796875,242420.5,-0.116455078125,0.847412109375,-0.536376953125,0.0610351525247097,1.7089842557907104,0.2441406100988388,100.0,119402.0,1.0
469966.0409387,260833.515625,259592.8125,322429.65625,351004.5625,269146.84375,256752.625,233360.53125,242547.1875,-0.11572265625,0.8466796875,-0.535400390625,-0.03051757626235485,1.7089842557907104,0.2441406100988388,100.0,119403.0,1.0
469966.040978,261910.6875,260064.796875,324333.3125,350983.90625,269373.75,256772.03125,233275.421875,242485.328125,-0.11669921875,0.847900390625,-0.531982421875,-0.2136230319738388,1.5563963651657104,0.3662109076976776,100.0,119404.0,1.0
469966.0449032,262806.625,260253.265625,323107.90625,350677.59375,268540.5,256789.015625,233060.75,242323.40625,-0.116455078125,0.84765625,-0.532470703125,-0.2136230319738388,1.4953612089157104,0.4577636420726776,100.0,119405.0,1.0
469966.044944,262245.25,259882.671875,320401.1875,350504.96875,267793.40625,256781.328125,233009.890625,242279.875,-0.11865234375,0.84814453125,-0.531982421875,-0.4882812201976776,1.4648436307907104,0.5493163466453552,100.0,119406.0,1.0
469966.0449541,261090.921875,259509.046875,320002.875,350704.78125,268172.125,256767.828125,233192.0,242413.53125,-0.118896484375,0.8486328125,-0.5322265625,-0.8239745497703552,1.4343260526657104,0.4882812201976776,100.0,119407.0,1.0
469966.0474623,260851.3125,259611.59375,322443.96875,351010.28125,269161.40625,256768.1875,233363.40625,242545.859375,-0.117919921875,0.849853515625,-0.533935546875,-0.8239745497703552,1.3732908964157104,0.5187987685203552,100.0,119408.0,1.0
469966.0475029,261938.140625,260098.59375,324352.34375,351001.34375,269394.9375,256798.578125,233286.421875,242498.46875,-0.115966796875,0.848388671875,-0.53271484375,-0.9765624403953552,1.3122557401657104,0.5493163466453552,100.0,119409.0,1.0
469966.0475132,262811.71875,260262.921875,323105.84375,350674.03125,268542.28125,256796.796875,233059.59375,242323.859375,-0.116943359375,0.848876953125,-0.53466796875,-1.1596678495407104,1.2207030057907104,0.7019042372703552,100.0,119410.0,1.0
469966.0848768,262252.5,259888.03125,320400.125,350509.25,267801.4375,256797.953125,233020.25,242292.109375,-0.1162109375,0.84765625,-0.537841796875,-1.1901854276657104,1.1901854276657104,0.7629393935203552,100.0,119411.0,1.0
469966.0849187,261086.09375,259506.53125,319990.90625,350704.34375,268172.9375,256773.8125,233193.25,242421.9375,-0.114990234375,0.845703125,-0.533203125,-1.1596678495407104,1.1596678495407104,0.8544921278953552,100.0,119412.0,1.0
469966.0873283,260829.21875,259596.125,322417.9375,351000.28125,269147.5625,256758.34375,233352.21875,242542.09375,-0.11669921875,0.846923828125,-0.534423828125,-1.0986326932907104,1.0681151151657104,0.8239745497703552,100.0,119413.0,1.0
469966.0896659,261906.21875,260070.515625,324314.4375,350983.28125,269371.875,256778.28125,233272.828125,242486.21875,-0.1171875,0.84814453125,-0.5341796875,-1.1596678495407104,1.0070799589157104,0.8239745497703552,100.0,119414.0,1.0
469966.0919778,262804.125,260252.1875,323086.15625,350676.90625,268538.96875,256795.8125,233063.4375,242327.703125,-0.11669921875,0.84814453125,-0.533935546875,-1.2207030057907104,1.0070799589157104,0.8544921278953552,100.0,119415.0,1.0
469966.0920194,262237.21875,259877.84375,320371.9375,350501.125,267789.03125,256787.578125,233012.390625,242280.578125,-0.1171875,0.847412109375,-0.537109375,-1.1901854276657104,0.9155272841453552,0.9460448622703552,100.0,119416.0,1.0
469966.1010158,261074.015625,259501.703125,319965.9375,350697.71875,268162.21875,256768.1875,233190.125,242413.265625,-0.1171875,0.84716796875,-0.5341796875,-1.2512205839157104,0.8239745497703552,0.9460448622703552,100.0,119417.0,1.0
469966.1060593,260823.328125,259589.0625,322389.5,350994.1875,269140.3125,256758.4375,233352.140625,242538.875,-0.114990234375,0.845947265625,-0.533203125,-1.3732908964157104,0.8544921278953552,1.0070799589157104,100.0,119418.0,1.0
469966.1085569,261897.28125,260059.25,324275.71875,350971.9375,269361.6875,256775.328125,233269.703125,242480.765625,-0.113525390625,0.844970703125,-0.5322265625,-1.4038084745407104,0.7629393935203552,1.0070799589157104,100.0,119419.0,1.0
469966.1110248,262790.625,260245.125,323036.90625,350662.40625,268525.03125,256792.859375,233058.25,242319.125,-0.112548828125,0.845703125,-0.53271484375,-1.4648436307907104,0.7324218153953552,1.0681151151657104,100.0,119420.0,1.0
469966.1134478,262222.375,259863.546875,320316.6875,350483.6875,267772.84375,256784.0,233005.140625,242275.390625,-0.112548828125,0.846435546875,-0.533447265625,-1.4343260526657104,0.7629393935203552,1.0681151151657104,100.0,119421.0,1.0
469966.1151273,261065.4375,259484.625,319906.21875,350683.59375,268147.90625,256764.609375,233184.3125,242409.421875,-0.114013671875,0.84619140625,-0.533935546875,-1.5258787870407104,0.7934569716453552,1.0681151151657104,100.0,119422.0,1.0
469966.122167,260820.546875,259577.796875,322328.53125,350987.125,269127.1875,256755.21875,233350.96875,242536.28125,-0.11328125,0.846435546875,-0.533935546875,-1.3732908964157104,0.6713866591453552,1.0070799589157104,100.0,119423.0,1.0
469966.1246841,261909.078125,260060.859375,324232.46875,350981.5,269360.0,256779.4375,233278.46875,242490.6875,-0.112548828125,0.84814453125,-0.533203125,-1.3732908964157104,0.7019042372703552,1.0070799589157104,100.0,119424.0,1.0
469966.1273573,262802.875,260243.96875,323001.5,350673.75,268524.75,256790.359375,233064.328125,242331.28125,-0.11279296875,0.84765625,-0.53271484375,-1.5563963651657104,0.6408690810203552,1.0070799589157104,100.0,119425.0,1.0
469966.1322379,262214.3125,259847.453125,320262.25,350480.8125,267756.3125,256761.296875,232994.859375,242270.484375,-0.114013671875,0.845947265625,-0.5322265625,-1.5869139432907104,0.7324218153953552,0.9155272841453552,100.0,119426.0,1.0
469966.1322772,261061.765625,259481.5,319847.84375,350688.6875,268138.15625,256749.21875,233176.890625,242405.84375,-0.113525390625,0.845458984375,-0.535400390625,-1.5258787870407104,0.7324218153953552,0.9765624403953552,100.0,119427.0,1.0
469966.1346897,260815.09375,259583.15625,322262.71875,350992.6875,269119.84375,256744.75,233341.40625,242534.671875,-0.113525390625,0.84814453125,-0.53515625,-1.4343260526657104,0.7019042372703552,0.9155272841453552,100.0,119428.0,1.0
469966.1373195,261884.578125,260044.5,324144.375,350969.0625,269342.28125,256761.109375,233260.21875,242479.609375,-0.112548828125,0.849609375,-0.531982421875,-1.5258787870407104,0.7019042372703552,0.8850097060203552,100.0,119429.0,1.0
469966.1397825,262787.15625,260233.59375,322918.4375,350666.625,268516.78125,256780.078125,233056.640625,242328.78125,-0.112548828125,0.84765625,-0.5341796875,-1.6174315214157104,0.6713866591453552,0.7629393935203552,100.0,119430.0,1.0
469966.142331,262223.53125,259860.40625,320207.1875,350496.46875,267773.28125,256771.75,233007.015625,242287.46875,-0.112060546875,0.8486328125,-0.53076171875,-1.6479490995407104,0.6713866591453552,0.7019042372703552,100.0,119431.0,1.0
469966.1423834,261068.921875,259492.5,319800.46875,350698.1875,268153.625,256759.328125,233187.796875,242416.125,-0.11328125,0.846923828125,-0.5302734375,-1.6174315214157104,0.6408690810203552,0.6408690810203552,100.0,119432.0,1.0
469966.1448079,260826.1875,259584.765625,322231.625,351000.8125,269136.84375,256749.765625,233349.984375,242542.28125,-0.111572265625,0.847412109375,-0.530517578125,-1.7089842557907104,0.7934569716453552,0.6103515028953552,100.0,119433.0,1.0
469966.1497809,261907.46875,260057.90625,324137.9375,350980.15625,269362.5,256767.546875,233268.890625,242485.0625,-0.10986328125,0.847412109375,-0.53125,-1.7700194120407104,0.9155272841453552,0.6408690810203552,100.0,119434.0,1.0
469966.1525187,262813.0,260249.328125,322930.0625,350675.28125,268535.125,256788.921875,233059.6875,242327.609375,-0.109130859375,0.845458984375,-0.531982421875,-1.8005369901657104,0.9155272841453552,0.6103515028953552,100.0,119435.0,1.0
469966.1546933,262259.8125,259883.5625,320241.59375,350509.53125,267798.3125,256791.0625,233018.015625,242292.75,-0.10986328125,0.846435546875,-0.531982421875,-1.6784666776657104,0.8544921278953552,0.5187987685203552,100.0,119436.0,1.0
469966.1573244,261097.359375,259504.921875,319837.65625,350701.375,268168.28125,256769.078125,233192.28125,242419.34375,-0.109375,0.845947265625,-0.530517578125,-1.7089842557907104,0.8544921278953552,0.5493163466453552,100.0,119437.0,1.0
469966.1573655,260860.6875,259604.171875,322283.28125,351009.65625,269152.5625,256768.453125,233363.9375,242548.890625,-0.109619140625,0.84619140625,-0.52978515625,-1.6174315214157104,0.9765624403953552,0.5798339247703552,100.0,119438.0,1.0
469966.1597791,261942.703125,260073.734375,324194.90625,350985.0,269374.5625,256783.109375,233279.171875,242484.25,-0.110595703125,0.847412109375,-0.5322265625,-1.5869139432907104,1.0681151151657104,0.6103515028953552,100.0,119439.0,1.0
469966.1635783,262839.625,260259.171875,322982.53125,350667.59375,268534.84375,256795.0,233060.578125,242316.25,-0.109619140625,0.846435546875,-0.527099609375,-1.5563963651657104,1.1901854276657104,0.5493163466453552,100.0,119440.0,1.0
469966.1923321,262273.9375,259882.046875,320284.78125,350492.28125,267786.6875,256780.34375,233008.09375,242274.859375,-0.10986328125,0.8466796875,-0.52880859375,-1.4953612089157104,1.0986326932907104,0.4272460639476776,100.0,119441.0,1.0
469966.1923718,261113.984375,259502.15625,319886.1875,350693.15625,268160.96875,256755.484375,233185.390625,242410.9375,-0.1123046875,0.846923828125,-0.525634765625,-1.4038084745407104,1.2207030057907104,0.4577636420726776,100.0,119442.0,1.0
469966.1947376,260866.6875,259591.03125,322321.90625,350991.78125,269141.3125,256750.828125,233349.8125,242536.015625,-0.11181640625,0.847900390625,-0.531494140625,-1.3732908964157104,1.2817381620407104,0.4272460639476776,100.0,119443.0,1.0
469966.194772,261941.796875,260065.59375,324238.96875,350970.5,269365.34375,256769.078125,233270.140625,242478.703125,-0.113037109375,0.845947265625,-0.53173828125,-1.4038084745407104,1.3427733182907104,0.3662109076976776,100.0,119444.0,1.0
469966.1973383,262844.0,260254.515625,323044.3125,350666.6875,268537.53125,256787.484375,233060.484375,242322.96875,-0.111328125,0.84619140625,-0.530029296875,-1.3122557401657104,1.3427733182907104,0.3967284858226776,100.0,119445.0,1.0
469966.1997022,262278.34375,259873.375,320351.84375,350494.9375,267791.875,256779.171875,233007.65625,242283.796875,-0.111572265625,0.845947265625,-0.529052734375,-1.2817381620407104,1.4038084745407104,0.2746581733226776,100.0,119446.0,1.0
469966.202155,261111.296875,259488.921875,319944.0625,350688.0625,268158.625,256755.484375,233180.390625,242414.25,-0.112060546875,0.8447265625,-0.52783203125,-1.3427733182907104,1.3732908964157104,0.3051757514476776,100.0,119447.0,1.0
469966.2047951,260859.078125,259579.3125,322373.875,350985.78125,269135.65625,256745.03125,233341.5,242538.875,-0.111572265625,0.844482421875,-0.5302734375,-1.2817381620407104,1.3427733182907104,0.3967284858226776,100.0,119448.0,1.0
469966.2071634,261946.0,260060.59375,324288.5,350971.03125,269369.46875,256766.921875,233262.734375,242486.484375,-0.113525390625,0.8447265625,-0.52978515625,-1.1901854276657104,1.2817381620407104,0.3967284858226776,100.0,119449.0,1.0
469966.2098577,262844.53125,260246.921875,323075.15625,350663.21875,268541.28125,256782.484375,233050.921875,242328.328125,-0.112548828125,0.844970703125,-0.5263671875,-1.0986326932907104,1.4648436307907104,0.3051757514476776,100.0,119450.0,1.0
469966.2098994,262271.8125,259863.71875,320369.34375,350488.59375,267793.5,256774.796875,233001.65625,242286.578125,-0.111083984375,0.845458984375,-0.530517578125,-0.9765624403953552,1.4343260526657104,0.3051757514476776,100.0,119451.0,1.0
469966.2123267,261107.734375,259486.421875,319963.375,350688.0625,268167.5625,256757.890625,233182.0,242420.0625,-0.1123046875,0.845458984375,-0.52978515625,-0.9765624403953552,1.4648436307907104,0.2746581733226776,100.0,119452.0,1.0
469966.2123678,260862.03125,259581.375,322394.78125,350989.28125,269148.8125,256751.734375,233348.828125,242547.640625,-0.11181640625,0.843994140625,-0.529541015625,-1.0070799589157104,1.4953612089157104,0.3051757514476776,100.0,119453.0,1.0
469966.2422361,261946.1875,260060.859375,324306.3125,350973.53125,269377.0625,256768.71875,233273.09375,242491.21875,-0.111328125,0.8466796875,-0.526611328125,-0.9765624403953552,1.6174315214157104,0.1831054538488388,100.0,119454.0,1.0
469966.2422765,262863.84375,260269.0,323113.0,350681.4375,268563.46875,256801.796875,233078.015625,242344.15625,-0.112548828125,0.84716796875,-0.527587890625,-0.8850097060203552,1.4648436307907104,0.1525878757238388,100.0,119455.0,1.0
469966.2446736,262299.4375,259896.078125,320412.1875,350502.5625,267817.1875,256793.296875,233021.0625,242295.609375,-0.114013671875,0.84716796875,-0.528076171875,-0.8544921278953552,1.5563963651657104,0.1525878757238388,100.0,119456.0,1.0
469966.2473237,261129.359375,259504.65625,319993.75,350687.53125,268179.90625,256760.484375,233186.1875,242417.109375,-0.112548828125,0.847900390625,-0.527587890625,-0.7934569716453552,1.4953612089157104,0.2441406100988388,100.0,119457.0,1.0
469966.2496997,260880.453125,259595.9375,322419.46875,350984.0,269154.71875,256749.3125,233344.984375,242540.671875,-0.11181640625,0.847412109375,-0.52685546875,-0.7629393935203552,1.5258787870407104,0.2441406100988388,100.0,119458.0,1.0
469966.2521801,261962.09375,260075.171875,324333.65625,350965.21875,269379.03125,256767.734375,233263.984375,242485.328125,-0.114501953125,0.846923828125,-0.52685546875,-0.7629393935203552,1.4648436307907104,0.1525878757238388,100.0,119459.0,1.0
469966.2573026,262857.59375,260257.015625,323121.65625,350652.65625,268543.09375,256779.53125,233045.46875,242320.015625,-0.115234375,0.846435546875,-0.529052734375,-0.7324218153953552,1.4343260526657104,0.1525878757238388,100.0,119460.0,1.0
469966.2598287,262286.1875,259876.859375,320416.125,350478.78125,267794.9375,256770.6875,232993.875,242272.0,-0.113037109375,0.849365234375,-0.526123046875,-0.7934569716453552,1.4648436307907104,0.2136230319738388,100.0,119461.0,1.0
469966.2621677,261116.84375,259496.703125,320007.78125,350673.75,268164.96875,256749.578125,233172.609375,242400.125,-0.11328125,0.848876953125,-0.526611328125,-0.8544921278953552,1.4343260526657104,0.2441406100988388,100.0,119462.0,1.0
469966.2672512,260861.765625,259584.765625,322434.9375,350972.125,269139.78125,256738.234375,233337.296875,242525.921875,-0.11572265625,0.848876953125,-0.52587890625,-0.8544921278953552,1.4038084745407104,0.2136230319738388,100.0,119463.0,1.0
469966.2697472,261939.65625,260060.234375,324342.34375,350952.4375,269363.375,256753.875,233255.75,242469.671875,-0.1162109375,0.849609375,-0.52978515625,-0.7934569716453552,1.4648436307907104,0.2746581733226776,100.0,119464.0,1.0
469966.2697886,262843.90625,260250.578125,323138.65625,350647.3125,268534.9375,256773.984375,233047.96875,242312.59375,-0.115234375,0.851318359375,-0.526123046875,-0.8239745497703552,1.4343260526657104,0.3051757514476776,100.0,119465.0,1.0
469966.2723353,262274.3125,259872.03125,320434.1875,350472.59375,267788.40625,256768.625,232998.078125,242271.203125,-0.114990234375,0.8505859375,-0.527099609375,-0.8850097060203552,1.4038084745407104,0.3662109076976776,100.0,119466.0,1.0
469966.2747003,261113.359375,259496.875,320026.75,350671.96875,268165.59375,256751.734375,233178.953125,242405.84375,-0.1162109375,0.850830078125,-0.525634765625,-0.8239745497703552,1.4953612089157104,0.4272460639476776,100.0,119467.0,1.0
469966.2771574,260869.8125,259597.015625,322461.84375,350976.59375,269151.75,256750.484375,233351.15625,242536.46875,-0.116455078125,0.851318359375,-0.5263671875,-0.9155272841453552,1.4648436307907104,0.4882812201976776,100.0,119468.0,1.0
469966.281084,261962.90625,260081.953125,324382.75,350969.53125,269390.9375,256781.234375,233287.21875,242494.890625,-0.11767578125,0.852294921875,-0.529296875,-0.9460448622703552,1.4038084745407104,0.4272460639476776,100.0,119469.0,1.0
469966.2872321,262863.15625,260261.84375,323168.78125,350661.6875,268557.03125,256794.015625,233072.46875,242335.296875,-0.118896484375,0.84912109375,-0.530029296875,-0.9155272841453552,1.4953612089157104,0.4882812201976776,100.0,119470.0,1.0
469966.2872708,262274.9375,259863.0,320441.59375,350471.0,267792.5,256770.6875,233006.390625,242279.59375,-0.117919921875,0.8505859375,-0.52587890625,-0.8544921278953552,1.4038084745407104,0.5187987685203552,100.0,119471.0,1.0
469966.3172417,261112.109375,259488.484375,320030.3125,350674.75,268171.59375,256758.53125,233187.890625,242418.359375,-0.1171875,0.849853515625,-0.522705078125,-0.8850097060203552,1.3732908964157104,0.5493163466453552,100.0,119472.0,1.0
469966.3172576,260864.1875,259583.515625,322453.0625,350980.4375,269150.875,256751.109375,233351.6875,242548.0,-0.11572265625,0.8505859375,-0.525146484375,-0.8850097060203552,1.2512205839157104,0.6103515028953552,100.0,119473.0,1.0
469966.3196245,261949.765625,260066.5,324360.5625,350970.40625,269380.8125,256774.703125,233273.90625,242497.3125,-0.11572265625,0.84716796875,-0.523193359375,-0.9155272841453552,1.2207030057907104,0.6408690810203552,100.0,119474.0,1.0
469966.3196407,262850.1875,260253.890625,323139.46875,350663.84375,268550.3125,256790.703125,233060.578125,242335.484375,-0.115234375,0.84716796875,-0.5283203125,-0.8850097060203552,1.1901854276657104,0.6408690810203552,100.0,119475.0,1.0
469966.3222532,262280.9375,259875.15625,320422.1875,350486.375,267801.8125,256776.671875,233006.84375,242288.265625,-0.11474609375,0.84765625,-0.531005859375,-0.9155272841453552,1.2207030057907104,0.6103515028953552,100.0,119476.0,1.0
469966.323706,261117.5625,259496.53125,320004.65625,350687.8125,268174.71875,256758.34375,233182.265625,242421.75,-0.114013671875,0.847900390625,-0.527099609375,-0.7934569716453552,1.2817381620407104,0.6408690810203552,100.0,119477.0,1.0
469966.3335231,260880.0,259603.90625,322431.8125,351001.875,269166.34375,256762.28125,233358.03125,242562.125,-0.115966796875,0.8466796875,-0.527099609375,-0.8239745497703552,1.1901854276657104,0.7019042372703552,100.0,119478.0,1.0
469966.3361519,261956.5625,260079.453125,324328.5625,350976.59375,269391.28125,256780.515625,233275.59375,242499.265625,-0.115234375,0.844482421875,-0.527099609375,-0.7019042372703552,1.1291502714157104,0.7019042372703552,100.0,119479.0,1.0
469966.3383628,262849.1875,260260.0625,323102.0,350655.875,268552.375,256790.796875,233055.75,242331.640625,-0.113525390625,0.844970703125,-0.527587890625,-0.7324218153953552,1.1596678495407104,0.6103515028953552,100.0,119480.0,1.0
469966.3410398,262279.125,259876.140625,320385.4375,350478.78125,267800.28125,256780.609375,233003.890625,242282.28125,-0.113525390625,0.843994140625,-0.52734375,-0.6408690810203552,1.2207030057907104,0.6103515028953552,100.0,119481.0,1.0
469966.3433871,261116.484375,259498.125,319970.6875,350679.03125,268174.09375,256757.0,233182.265625,242414.609375,-0.11474609375,0.844482421875,-0.526611328125,-0.4882812201976776,1.1901854276657104,0.6408690810203552,100.0,119482.0,1.0
469966.346055,260870.796875,259592.09375,322398.34375,350983.28125,269153.46875,256747.703125,233346.140625,242543.171875,-0.11474609375,0.844482421875,-0.52978515625,-0.3662109076976776,1.1596678495407104,0.7019042372703552,100.0,119483.0,1.0
469966.3484288,261946.546875,260062.015625,324304.59375,350958.53125,269374.65625,256761.828125,233261.921875,242482.640625,-0.115234375,0.8447265625,-0.530029296875,-0.3662109076976776,1.0986326932907104,0.7019042372703552,100.0,119484.0,1.0
469966.3510803,262844.1875,260253.53125,323088.75,350646.84375,268542.53125,256779.796875,233049.046875,242319.828125,-0.116943359375,0.843505859375,-0.527587890625,-0.2136230319738388,1.1596678495407104,0.6713866591453552,100.0,119485.0,1.0
469966.3511188,262271.90625,259872.21875,320374.625,350471.96875,267792.34375,256773.546875,233002.109375,242277.71875,-0.11474609375,0.84326171875,-0.527587890625,-0.1831054538488388,1.1901854276657104,0.5493163466453552,100.0,119486.0,1.0
469966.3533606,261102.984375,259488.390625,319954.78125,350664.375,268156.75,256750.296875,233176.890625,242405.390625,-0.115234375,0.843017578125,-0.526123046875,-0.0610351525247097,1.2207030057907104,0.3967284858226776,100.0,119487.0,1.0
469966.3561167,260869.1875,259596.75,322395.3125,350978.28125,269147.125,256755.9375,233352.484375,242542.8125,-0.117431640625,0.842529296875,-0.527099609375,-0.0610351525247097,1.1291502714157104,0.4882812201976776,100.0,119488.0,1.0
469966.356157,261950.75,260076.5,324300.59375,350958.96875,269374.5625,256774.171875,233272.203125,242485.859375,-0.11669921875,0.84326171875,-0.52587890625,0.0,1.0986326932907104,0.4272460639476776,100.0,119489.0,1.0
469966.3671783,262830.96875,260246.203125,323066.21875,350631.28125,268522.53125,256770.5,233040.28125,242307.859375,-0.11669921875,0.845947265625,-0.527587890625,0.03051757626235485,1.1901854276657104,0.3051757514476776,100.0,119490.0,1.0
469966.3697685,262264.5625,259869.703125,320357.375,350460.09375,267775.625,256762.375,232991.109375,242266.71875,-0.115966796875,0.845458984375,-0.52587890625,0.0,1.0986326932907104,0.2746581733226776,100.0,119491.0,1.0
469966.3698078,261108.0,259489.453125,319947.4375,350665.0,268154.34375,256748.328125,233174.578125,242403.96875,-0.114013671875,0.845947265625,-0.52734375,0.03051757626235485,1.1291502714157104,0.1525878757238388,100.0,119492.0,1.0
469966.3722871,260868.390625,259582.796875,322377.78125,350969.875,269137.28125,256744.3125,233340.953125,242535.578125,-0.11328125,0.84423828125,-0.5283203125,0.0610351525247097,1.0986326932907104,0.0915527269244194,100.0,119493.0,1.0
469966.3948849,261949.9375,260061.046875,324285.75,350950.03125,269363.65625,256760.671875,233259.59375,242477.546875,-0.11376953125,0.845947265625,-0.5283203125,0.0915527269244194,1.2207030057907104,0.03051757626235485,100.0,119494.0,1.0
469966.3949257,262857.0625,260254.6875,323080.34375,350649.96875,268538.59375,256778.90625,233055.21875,242321.53125,-0.113037109375,0.848876953125,-0.527587890625,0.0915527269244194,1.3427733182907104,0.1525878757238388,100.0,119495.0,1.0
469966.3973026,262287.53125,259881.15625,320371.875,350476.34375,267790.71875,256770.5,233004.609375,242279.0625,-0.113037109375,0.849853515625,-0.527099609375,-0.03051757626235485,1.3122557401657104,0.03051757626235485,100.0,119496.0,1.0
469966.3996883,261118.453125,259493.84375,319957.09375,350669.90625,268160.40625,256749.046875,233179.75,242410.3125,-0.1162109375,0.84912109375,-0.526611328125,-0.0610351525247097,1.3427733182907104,0.0915527269244194,100.0,119497.0,1.0
469966.4021657,260880.71875,259594.328125,322400.3125,350979.53125,269150.34375,256750.828125,233353.125,242545.765625,-0.11767578125,0.84912109375,-0.527587890625,0.0,1.4343260526657104,0.03051757626235485,100.0,119498.0,1.0
469966.4046801,261956.203125,260066.140625,324302.46875,350954.84375,269373.9375,256760.140625,233264.6875,242482.640625,-0.1171875,0.8505859375,-0.528564453125,-0.03051757626235485,1.3122557401657104,0.03051757626235485,100.0,119499.0,1.0
469966.4073043,262849.90625,260257.734375,323077.75,350642.1875,268539.15625,256777.125,233050.296875,242322.0625,-0.117919921875,0.8515625,-0.52734375,-0.0610351525247097,1.2817381620407104,0.0,100.0,119500.0,1.0
469966.4134842,262285.3125,259888.125,320375.96875,350479.03125,267801.0,256781.40625,233010.0625,242291.578125,-0.1201171875,0.851806640625,-0.526611328125,-0.2136230319738388,1.2817381620407104,-0.0915527269244194,100.0,119501.0,1.0
469966.4135259,261123.46875,259509.578125,319974.71875,350681.8125,268181.96875,256768.0,233192.0,242428.375,-0.117919921875,0.851318359375,-0.52734375,-0.3051757514476776,1.2817381620407104,-0.03051757626235485,100.0,119502.0,1.0
469966.4156108,260886.890625,259608.734375,322419.90625,350987.125,269168.75,256764.25,233361.96875,242559.0,-0.11767578125,0.848876953125,-0.52734375,-0.4272460639476776,1.3122557401657104,-0.0610351525247097,100.0,119503.0,1.0
469966.4156509,261943.5,260061.484375,324300.40625,350938.3125,269367.6875,256757.359375,233256.203125,242477.015625,-0.11767578125,0.850341796875,-0.528076171875,-0.5798339247703552,1.1901854276657104,0.03051757626235485,100.0,119504.0,1.0
469966.4623104,262838.1875,260246.296875,323072.21875,350624.78125,268532.8125,256774.890625,233043.046875,242312.953125,-0.118408203125,0.850341796875,-0.5283203125,-0.5493163466453552,1.1596678495407104,0.0,100.0,119505.0,1.0
469966.4648151,262271.1875,259872.484375,320367.21875,350455.53125,267789.65625,256772.65625,232998.265625,242272.625,-0.118408203125,0.849853515625,-0.524658203125,-0.6103515028953552,1.1291502714157104,0.0915527269244194,100.0,119506.0,1.0
469966.46732,261111.484375,259497.953125,319964.25,350657.125,268164.09375,256754.59375,233179.578125,242406.375,-0.1171875,0.850341796875,-0.530029296875,-0.6713866591453552,1.1596678495407104,0.1525878757238388,100.0,119507.0,1.0
469966.4723161,260873.390625,259595.59375,322401.40625,350961.28125,269146.125,256750.75,233346.046875,242534.40625,-0.118896484375,0.85009765625,-0.531982421875,-0.6713866591453552,1.2207030057907104,0.1220703050494194,100.0,119508.0,1.0
469966.4747489,261954.234375,260070.609375,324307.375,350939.75,269371.0,256769.609375,233267.109375,242476.5625,-0.1162109375,0.84716796875,-0.530029296875,-0.5493163466453552,1.1596678495407104,0.2136230319738388,100.0,119509.0,1.0
469966.4771637,262847.3125,260258.0,323086.0625,350630.40625,268539.59375,256787.765625,233058.4375,242319.203125,-0.117431640625,0.84521484375,-0.529296875,-0.5493163466453552,1.0986326932907104,0.3662109076976776,100.0,119510.0,1.0
469966.4798451,262274.84375,259877.84375,320378.75,350458.65625,267794.28125,256782.3125,233010.59375,242279.78125,-0.119384765625,0.8466796875,-0.531982421875,-0.4577636420726776,1.0681151151657104,0.4272460639476776,100.0,119511.0,1.0
469966.4898106,261115.0625,259499.03125,319976.21875,350661.25,268168.5625,256763.890625,233189.328125,242413.4375,-0.119140625,0.846435546875,-0.5302734375,-0.3356933295726776,1.1291502714157104,0.4577636420726776,100.0,119512.0,1.0
469966.4898496,260878.3125,259595.3125,322411.9375,350964.34375,269147.75,256754.046875,233353.390625,242542.453125,-0.119384765625,0.846923828125,-0.52978515625,-0.3356933295726776,1.1901854276657104,0.5187987685203552,100.0,119513.0,1.0
469966.4898591,261968.359375,260077.046875,324324.8125,350946.0,269375.90625,256772.46875,233272.921875,242485.0625,-0.11962890625,0.847900390625,-0.530029296875,-0.3662109076976776,1.0986326932907104,0.4272460639476776,100.0,119514.0,1.0
469966.4898669,262881.21875,260280.796875,323121.9375,350652.40625,268560.59375,256804.5625,233073.8125,242339.5,-0.1220703125,0.8466796875,-0.529541015625,-0.3662109076976776,1.0070799589157104,0.4882812201976776,100.0,119515.0,1.0
469966.4898749,262299.96875,259896.171875,320406.625,350474.125,267807.15625,256785.53125,233018.5625,242290.953125,-0.123779296875,0.847900390625,-0.530517578125,-0.2441406100988388,0.9765624403953552,0.4272460639476776,100.0,119516.0,1.0
469966.4898838,261127.03125,259506.8125,319994.65625,350662.59375,268170.4375,256750.75,233184.671875,242409.234375,-0.123779296875,0.849609375,-0.5283203125,-0.1831054538488388,0.7934569716453552,0.4272460639476776,100.0,119517.0,1.0
469966.4922372,260889.125,259601.484375,322436.0,350963.875,269152.03125,256742.96875,233347.84375,242535.296875,-0.124267578125,0.8505859375,-0.525390625,-0.2441406100988388,0.8239745497703552,0.3662109076976776,100.0,119518.0,1.0
469966.4922727,261966.921875,260071.671875,324338.125,350937.96875,269374.03125,256759.421875,233263.359375,242473.609375,-0.123291015625,0.85009765625,-0.5263671875,-0.2746581733226776,0.7019042372703552,0.3662109076976776,100.0,119519.0,1.0
469966.4948104,262860.46875,260257.28125,323111.375,350628.0,268541.5625,256777.203125,233047.703125,242312.859375,-0.125,0.8505859375,-0.528564453125,-0.3662109076976776,0.5493163466453552,0.2136230319738388,100.0,119520.0,1.0
469966.4972571,262294.78125,259885.890625,320406.71875,350462.3125,267803.875,256776.5,233007.015625,242278.078125,-0.1240234375,0.85107421875,-0.522705078125,-0.3662109076976776,0.4882812201976776,0.2746581733226776,100.0,119521.0,1.0
469966.4972964,261142.0625,259518.15625,320019.25,350671.0,268191.09375,256768.453125,233197.453125,242419.078125,-0.122314453125,0.849609375,-0.524658203125,-0.4577636420726776,0.4272460639476776,0.1831054538488388,100.0,119522.0,1.0
469966.4996461,260878.9375,259585.75,322443.0625,350948.4375,269151.3125,256738.9375,233341.578125,242526.0,-0.120849609375,0.848876953125,-0.52734375,-0.5187987685203552,0.3356933295726776,0.1831054538488388,100.0,119523.0,1.0
469966.5023236,261964.421875,260068.734375,324353.15625,350933.125,269380.375,256764.421875,233267.015625,242475.3125,-0.119384765625,0.849853515625,-0.527099609375,-0.4882812201976776,0.2746581733226776,0.3051757514476776,100.0,119524.0,1.0
469966.5047856,262866.09375,260264.171875,323134.09375,350629.40625,268552.5625,256786.0625,233062.1875,242322.34375,-0.11669921875,0.850341796875,-0.525390625,-0.4577636420726776,0.3356933295726776,0.2746581733226776,100.0,119525.0,1.0
469966.5085551,262294.15625,259884.90625,320430.0625,350456.0625,267806.625,256776.5,233014.0,242282.015625,-0.1162109375,0.8486328125,-0.5283203125,-0.5493163466453552,0.3356933295726776,0.3356933295726776,100.0,119526.0,1.0
469966.5185453,261132.578125,259506.0,320034.78125,350655.34375,268184.46875,256757.0,233190.84375,242414.421875,-0.114501953125,0.848388671875,-0.529541015625,-0.5187987685203552,0.3356933295726776,0.3662109076976776,100.0,119527.0,1.0
469966.5436636,260897.4375,259606.9375,322478.90625,350956.375,269167.6875,256752.265625,233357.859375,242544.0625,-0.114501953125,0.847900390625,-0.527587890625,-0.6408690810203552,0.5798339247703552,0.2746581733226776,100.0,119528.0,1.0
469966.5437035,261989.640625,260096.53125,324393.65625,350942.4375,269402.28125,256781.40625,233285.53125,242495.96875,-0.112548828125,0.8486328125,-0.52587890625,-0.6408690810203552,0.6408690810203552,0.3051757514476776,100.0,119529.0,1.0
469966.5437368,262883.34375,260282.765625,323168.875,350633.4375,268568.90625,256796.34375,233073.09375,242333.875,-0.112060546875,0.8466796875,-0.5263671875,-0.6408690810203552,0.7324218153953552,0.4272460639476776,100.0,119530.0,1.0
469966.5509985,262306.3125,259903.5,320456.875,350454.09375,267816.90625,256782.75,233017.21875,242283.625,-0.115478515625,0.845703125,-0.526611328125,-0.4882812201976776,0.7019042372703552,0.4272460639476776,100.0,119531.0,1.0
469966.5510393,261155.015625,259531.84375,320073.78125,350659.0,268198.0625,256770.5,233199.0625,242417.90625,-0.115478515625,0.8447265625,-0.525390625,-0.4882812201976776,0.7934569716453552,0.5187987685203552,100.0,119532.0,1.0
469966.5510498,260922.921875,259628.9375,322525.9375,350963.0,269178.59375,256762.015625,233362.140625,242542.640625,-0.116455078125,0.845458984375,-0.523193359375,-0.3662109076976776,0.9765624403953552,0.5798339247703552,100.0,119533.0,1.0
469966.5535272,262011.28125,260109.3125,324440.3125,350947.34375,269404.6875,256784.90625,233283.203125,242489.890625,-0.118408203125,0.8447265625,-0.525390625,-0.3051757514476776,1.0681151151657104,0.5187987685203552,100.0,119534.0,1.0
469966.5535609,262910.71875,260306.546875,323228.875,350644.96875,268580.625,256808.0625,233080.15625,242337.453125,-0.119873046875,0.846923828125,-0.523193359375,-0.3356933295726776,1.0375975370407104,0.4882812201976776,100.0,119535.0,1.0
469966.5559765,262326.6875,259924.328125,320520.28125,350465.0,267826.21875,256787.21875,233022.765625,242286.75,-0.11962890625,0.84619140625,-0.524658203125,-0.2746581733226776,1.1596678495407104,0.4882812201976776,100.0,119536.0,1.0
469966.5584333,261166.640625,259547.21875,320137.71875,350669.5625,268207.96875,256770.859375,233203.71875,242424.625,-0.119384765625,0.846923828125,-0.524658203125,-0.2441406100988388,1.1596678495407104,0.6103515028953552,100.0,119537.0,1.0
469966.5609238,260939.015625,259651.375,322606.21875,350976.84375,269198.875,256772.921875,233377.796875,242563.203125,-0.121337890625,0.8466796875,-0.525634765625,-0.2136230319738388,1.0375975370407104,0.5798339247703552,100.0,119538.0,1.0
469966.5660041,262010.640625,260116.5625,324521.6875,350942.96875,269413.90625,256778.46875,233286.6875,242494.265625,-0.12158203125,0.84619140625,-0.524169921875,-0.2746581733226776,1.1291502714157104,0.5493163466453552,100.0,119539.0,1.0
469966.5685144,262902.21875,260303.78125,323297.25,350632.8125,268578.125,256792.3125,233069.078125,242333.25,-0.121826171875,0.84765625,-0.5263671875,-0.1831054538488388,1.1901854276657104,0.3967284858226776,100.0,119540.0,1.0
469966.5710255,262340.5625,259934.890625,320597.6875,350476.1875,267844.09375,256794.375,233030.984375,242304.09375,-0.12109375,0.84716796875,-0.524169921875,-0.2136230319738388,1.0986326932907104,0.3967284858226776,100.0,119541.0,1.0
469966.5735635,261164.671875,259538.1875,320191.09375,350668.3125,268208.78125,256764.421875,233202.640625,242428.8125,-0.121826171875,0.847412109375,-0.5234375,-0.2136230319738388,1.0986326932907104,0.3051757514476776,100.0,119542.0,1.0
469966.573605,260913.796875,259621.0625,322619.0,350957.1875,269172.59375,256743.859375,233353.203125,242541.921875,-0.123291015625,0.84716796875,-0.524658203125,-0.2136230319738388,1.0986326932907104,0.3356933295726776,100.0,119543.0,1.0
469966.5760403,261993.65625,260100.640625,324513.625,350938.78125,269394.5,256764.875,233272.46875,242486.390625,-0.120361328125,0.845947265625,-0.52587890625,-0.2136230319738388,1.1291502714157104,0.3662109076976776,100.0,119544.0,1.0
469966.5923228,262886.125,260291.34375,323274.375,350635.6875,268565.875,256786.953125,233067.90625,242331.71875,-0.118896484375,0.8447265625,-0.524169921875,-0.3051757514476776,1.0986326932907104,0.3356933295726776,100.0,119545.0,1.0
469966.5947355,262312.3125,259910.828125,320553.34375,350460.53125,267819.875,256776.40625,233018.375,242288.8125,-0.1181640625,0.843505859375,-0.525390625,-0.3051757514476776,1.1596678495407104,0.3051757514476776,100.0,119546.0,1.0
469966.5947752,261151.796875,259533.53125,320157.0,350659.0,268193.78125,256758.875,233194.15625,242421.125,-0.12060546875,0.844482421875,-0.52685546875,-0.2136230319738388,1.2207030057907104,0.3967284858226776,100.0,119547.0,1.0
469966.5971879,260920.0625,259630.984375,322602.84375,350959.96875,269171.875,256750.65625,233357.5,242546.296875,-0.119873046875,0.84423828125,-0.529052734375,-0.0915527269244194,1.2207030057907104,0.4272460639476776,100.0,119548.0,1.0
469966.5998057,262002.78125,260108.515625,324498.8125,350940.65625,269393.875,256769.96875,233277.390625,242490.328125,-0.118896484375,0.84521484375,-0.52685546875,-0.0610351525247097,1.3427733182907104,0.3356933295726776,100.0,119549.0,1.0
469966.603437,262883.34375,260287.859375,323247.46875,350628.625,268557.03125,256786.328125,233065.9375,242333.875,-0.12158203125,0.84423828125,-0.530029296875,-0.1220703050494194,1.3732908964157104,0.2746581733226776,100.0,119550.0,1.0
469966.6173428,262302.28125,259902.703125,320526.53125,350452.5625,267809.5,256774.265625,233013.734375,242287.203125,-0.12109375,0.844970703125,-0.5263671875,-0.0610351525247097,1.3122557401657104,0.2746581733226776,100.0,119551.0,1.0
469966.6173834,261146.703125,259530.859375,320142.1875,350655.53125,268192.78125,256756.375,233193.796875,242420.0625,-0.1201171875,0.84326171875,-0.52734375,-0.0610351525247097,1.3732908964157104,0.2746581733226776,100.0,119552.0,1.0
469966.6201774,260924.265625,259646.90625,322599.875,350963.96875,269180.375,256757.0,233362.140625,242552.375,-0.120361328125,0.84423828125,-0.525634765625,0.0,1.4343260526657104,0.3356933295726776,100.0,119553.0,1.0
469966.6202177,262001.890625,260112.984375,324492.28125,350939.46875,269399.59375,256772.921875,233276.9375,242492.296875,-0.122314453125,0.844482421875,-0.52685546875,0.1220703050494194,1.3427733182907104,0.2746581733226776,100.0,119554.0,1.0
469966.6222009,262874.3125,260283.9375,323234.9375,350620.125,268554.15625,256779.890625,233057.265625,242321.703125,-0.121826171875,0.84521484375,-0.528076171875,0.0915527269244194,1.4038084745407104,0.3051757514476776,100.0,119555.0,1.0
469966.6260669,262294.96875,259906.8125,320513.21875,350444.875,267807.53125,256774.890625,233010.59375,242280.9375,-0.121826171875,0.8466796875,-0.528076171875,0.2746581733226776,1.4953612089157104,0.3662109076976776,100.0,119556.0,1.0
469966.6456131,261153.234375,259543.375,320135.1875,350662.15625,268205.65625,256775.515625,233208.546875,242432.21875,-0.1220703125,0.844482421875,-0.529541015625,0.2746581733226776,1.4648436307907104,0.3356933295726776,100.0,119557.0,1.0
469966.6456528,260913.71875,259626.875,322572.625,350953.0625,269177.0625,256758.703125,233364.46875,242549.875,-0.12255859375,0.844970703125,-0.529541015625,0.3356933295726776,1.3427733182907104,0.3662109076976776,100.0,119558.0,1.0
469966.670935,261999.109375,260107.625,324463.75,350933.03125,269399.5,256781.59375,233286.421875,242490.875,-0.12255859375,0.845703125,-0.527099609375,0.3051757514476776,1.4038084745407104,0.3356933295726776,100.0,119559.0,1.0
469966.6735914,262879.875,260291.171875,323207.65625,350624.78125,268564.1875,256799.734375,233075.6875,242331.28125,-0.1220703125,0.84521484375,-0.529052734375,0.3967284858226776,1.4343260526657104,0.3662109076976776,100.0,119560.0,1.0
469966.6759157,262298.8125,259907.890625,320489.6875,350448.375,267816.375,256790.53125,233023.734375,242288.09375,-0.12158203125,0.845703125,-0.527099609375,0.4272460639476776,1.4343260526657104,0.3662109076976776,100.0,119561.0,1.0
469966.6784143,261145.015625,259532.90625,320107.65625,350650.59375,268199.125,256772.03125,233205.0625,242424.625,-0.118896484375,0.845703125,-0.530029296875,0.4577636420726776,1.5563963651657104,0.4272460639476776,100.0,119562.0,1.0
469966.6835335,260911.390625,259625.890625,322554.71875,350949.5,269176.34375,256759.0625,233363.21875,242547.546875,-0.117431640625,0.845458984375,-0.53076171875,0.6103515028953552,1.7089842557907104,0.5493163466453552,100.0,119563.0,1.0
469966.6860623,261993.03125,260100.375,324445.0625,350925.0,269395.40625,256779.171875,233280.15625,242483.171875,-0.119384765625,0.844482421875,-0.527587890625,0.6713866591453552,1.6174315214157104,0.5798339247703552,100.0,119564.0,1.0
469966.6885414,262875.125,260276.59375,323191.5625,350612.875,268556.9375,256791.34375,233068.265625,242321.078125,-0.119384765625,0.84521484375,-0.528564453125,0.7629393935203552,1.6784666776657104,0.5798339247703552,100.0,119565.0,1.0
469966.6958911,262297.8125,259894.109375,320469.3125,350439.6875,267807.4375,256779.0,233011.84375,242275.84375,-0.118896484375,0.847412109375,-0.52978515625,0.7019042372703552,1.8005369901657104,0.6408690810203552,100.0,119566.0,1.0
469966.7010829,261146.0,259522.90625,320092.28125,350646.9375,268190.71875,256763.265625,233195.40625,242415.953125,-0.119873046875,0.84619140625,-0.52978515625,0.7324218153953552,1.8615721464157104,0.6713866591453552,100.0,119567.0,1.0
469966.7058756,260921.140625,259628.75,322556.0625,350952.90625,269174.375,256759.5,233362.765625,242547.734375,-0.121337890625,0.84716796875,-0.529541015625,0.8239745497703552,1.8920897245407104,0.7934569716453552,100.0,119568.0,1.0
469966.7085314,262012.171875,260114.234375,324458.84375,350940.71875,269405.0625,256789.28125,233292.046875,242497.125,-0.121826171875,0.849365234375,-0.530517578125,0.7934569716453552,1.8920897245407104,0.8239745497703552,100.0,119569.0,1.0
469966.7110476,262865.1875,260269.09375,323173.875,350604.21875,268542.09375,256781.046875,233056.375,242312.234375,-0.123046875,0.84814453125,-0.53076171875,0.7629393935203552,1.9836424589157104,0.7934569716453552,100.0,119570.0,1.0
469966.7136086,262285.5625,259887.328125,320448.84375,350431.46875,267796.34375,256772.03125,233005.40625,242269.59375,-0.125244140625,0.847900390625,-0.530517578125,0.7629393935203552,1.9531248807907104,0.7629393935203552,100.0,119571.0,1.0
469966.7136504,261132.21875,259512.796875,320065.46875,350635.0625,268179.28125,256756.28125,233185.84375,242404.5,-0.1220703125,0.844482421875,-0.530517578125,0.6713866591453552,1.9531248807907104,0.7629393935203552,100.0,119572.0,1.0
469966.7159606,260904.859375,259617.671875,322521.46875,350939.75,269164.90625,256753.875,233351.515625,242536.28125,-0.12109375,0.840087890625,-0.529541015625,0.7629393935203552,1.9531248807907104,0.7629393935203552,100.0,119573.0,1.0
469966.718406,261985.078125,260090.640625,324414.21875,350917.21875,269383.5,256772.65625,233270.953125,242482.109375,-0.114990234375,0.83837890625,-0.53076171875,0.7629393935203552,2.075195074081421,0.8239745497703552,100.0,119574.0,1.0
469966.7209263,262865.75,260272.671875,323159.65625,350609.5625,268548.71875,256793.296875,233062.359375,242325.640625,-0.11279296875,0.8388671875,-0.531005859375,0.7324218153953552,2.227782964706421,0.8544921278953552,100.0,119575.0,1.0
469966.7235612,262283.96875,259888.9375,320433.09375,350434.25,267800.1875,256777.390625,233008.09375,242282.1875,-0.113525390625,0.84375,-0.531494140625,0.7934569716453552,2.319335699081421,0.8239745497703552,100.0,119576.0,1.0
469966.7260838,261126.859375,259509.390625,320046.6875,350633.875,268177.0625,256748.25,233181.09375,242414.15625,-0.11572265625,0.84521484375,-0.53369140625,0.9460448622703552,2.410888433456421,0.8544921278953552,100.0,119577.0,1.0
469966.7261237,260906.375,259620.984375,322512.53125,350943.78125,269167.21875,256750.390625,233352.578125,242550.0625,-0.1171875,0.8466796875,-0.53466796875,1.0070799589157104,2.410888433456421,0.8544921278953552,100.0,119578.0,1.0
469966.7284049,261992.3125,260098.140625,324408.21875,350926.0625,269388.78125,256774.4375,233277.03125,242498.375,-0.117431640625,0.84375,-0.535400390625,1.0070799589157104,2.380370855331421,0.9155272841453552,100.0,119579.0,1.0
469966.7310779,262857.78125,260268.46875,323139.375,350607.0625,268541.75,256785.875,233061.296875,242328.234375,-0.1181640625,0.843017578125,-0.534423828125,0.9460448622703552,2.471923589706421,0.8850097060203552,100.0,119580.0,1.0
469966.7334918,262277.0,259884.453125,320413.78125,350434.78125,267798.125,256778.90625,233013.015625,242285.59375,-0.116943359375,0.838623046875,-0.535888671875,1.0375975370407104,2.532958745956421,0.8544921278953552,100.0,119581.0,1.0
469966.733532,261121.234375,259507.96875,320029.875,350633.875,268178.46875,256757.71875,233191.375,242417.015625,-0.113525390625,0.837646484375,-0.536376953125,1.1291502714157104,2.655029058456421,0.8544921278953552,100.0,119582.0,1.0
469966.7360101,260894.484375,259613.5625,322489.28125,350935.71875,269162.5,256754.140625,233358.578125,242544.609375,-0.11572265625,0.841064453125,-0.53466796875,1.1596678495407104,2.868652105331421,0.7934569716453552,100.0,119583.0,1.0
469966.7360431,261978.375,260086.34375,324381.84375,350913.8125,269381.4375,256776.234375,233278.375,242488.0,-0.12109375,0.842529296875,-0.537841796875,1.3122557401657104,2.899169683456421,0.7934569716453552,100.0,119584.0,1.0
469966.7448405,262864.84375,260273.828125,323123.0,350612.15625,268551.5625,256801.0,233074.53125,242335.03125,-0.1240234375,0.84326171875,-0.535400390625,1.2817381620407104,2.868652105331421,0.7324218153953552,100.0,119585.0,1.0
469966.7523171,262296.3125,259903.765625,320409.15625,350448.90625,267815.5625,256799.5625,233032.859375,242297.03125,-0.1259765625,0.844970703125,-0.53125,1.2207030057907104,2.807616949081421,0.7934569716453552,100.0,119586.0,1.0
469966.7523573,261129.984375,259516.640625,320017.625,350635.0625,268182.40625,256762.453125,233194.234375,242413.53125,-0.128662109375,0.845458984375,-0.53076171875,1.0681151151657104,2.807616949081421,0.4882812201976776,100.0,119587.0,1.0
469966.7573172,260905.578125,259613.109375,322485.4375,350936.4375,269163.75,256750.5625,233352.40625,242540.84375,-0.12841796875,0.843017578125,-0.532958984375,0.9765624403953552,2.746581792831421,0.2441406100988388,100.0,119588.0,1.0
469966.7598472,261986.78125,260088.75,324379.15625,350914.4375,269380.65625,256769.796875,233270.59375,242482.28125,-0.1279296875,0.84423828125,-0.531982421875,0.9765624403953552,2.502441167831421,0.1220703050494194,100.0,119589.0,1.0
469966.7635424,262867.71875,260271.328125,323115.9375,350609.03125,268544.0625,256791.96875,233060.84375,242323.765625,-0.1279296875,0.845703125,-0.5341796875,0.8544921278953552,2.349853277206421,0.03051757626235485,100.0,119590.0,1.0
469966.8273292,262291.03125,259889.828125,320389.5625,350437.71875,267799.21875,256780.875,233007.921875,242282.640625,-0.126220703125,0.844970703125,-0.533203125,0.8239745497703552,2.288818120956421,-0.03051757626235485,100.0,119591.0,1.0
469966.8273697,261139.109375,259513.6875,320013.25,350635.84375,268182.21875,256756.375,233182.4375,242412.453125,-0.126220703125,0.844482421875,-0.535888671875,0.8544921278953552,2.044677495956421,-0.03051757626235485,100.0,119592.0,1.0
469966.829854,260915.328125,259610.703125,322478.65625,350935.90625,269165.34375,256743.421875,233343.015625,242537.265625,-0.126953125,0.84521484375,-0.537109375,0.7934569716453552,2.014159917831421,-0.1220703050494194,100.0,119593.0,1.0
469966.8298958,262001.796875,260088.9375,324373.09375,350920.96875,269388.59375,256765.9375,233269.96875,242487.03125,-0.12548828125,0.845458984375,-0.534423828125,0.6408690810203552,1.8615721464157104,-0.1831054538488388,100.0,119594.0,1.0
469966.832352,262885.0625,260276.15625,323111.90625,350623.6875,268558.28125,256794.5625,233072.921875,242339.0625,-0.123046875,0.84716796875,-0.534423828125,0.5798339247703552,1.9226073026657104,-0.2441406100988388,100.0,119595.0,1.0
469966.8346514,262287.53125,259880.703125,320371.875,350431.65625,267795.1875,256768.8125,233003.890625,242279.15625,-0.1220703125,0.845703125,-0.53564453125,0.5798339247703552,2.014159917831421,-0.2441406100988388,100.0,119596.0,1.0
469966.8373151,261141.34375,259507.4375,320007.15625,350634.78125,268177.5,256748.421875,233182.53125,242412.1875,-0.12158203125,0.844970703125,-0.533447265625,0.4882812201976776,1.9531248807907104,-0.0915527269244194,100.0,119597.0,1.0
469966.839666,260925.25,259605.78125,322481.40625,350940.8125,269163.125,256742.34375,233349.625,242540.671875,-0.121337890625,0.84423828125,-0.534912109375,0.5187987685203552,1.9531248807907104,-0.1525878757238388,100.0,119598.0,1.0
469966.8473145,261994.734375,260069.078125,324357.71875,350907.46875,269366.875,256749.5,233258.703125,242474.59375,-0.12158203125,0.8447265625,-0.536865234375,0.5798339247703552,1.9836424589157104,-0.0610351525247097,100.0,119599.0,1.0
469966.8487127,262861.53125,260246.46875,323081.78125,350593.9375,268522.96875,256765.765625,233045.640625,242314.015625,-0.11865234375,0.84228515625,-0.53857421875,0.5187987685203552,2.044677495956421,0.03051757626235485,100.0,119600.0,1.0
469966.8559041,262287.8125,259871.140625,320364.78125,350428.96875,267784.90625,256766.125,233003.265625,242277.546875,-0.1201171875,0.843505859375,-0.5341796875,0.5798339247703552,2.105712652206421,0.0610351525247097,100.0,119601.0,1.0
469966.8583646,261140.625,259495.0,319999.5625,350629.96875,268166.6875,256742.703125,233181.1875,242408.96875,-0.12109375,0.84375,-0.5341796875,0.5798339247703552,2.075195074081421,0.1525878757238388,100.0,119602.0,1.0
469966.860848,260908.4375,259591.203125,322463.96875,350923.65625,269141.3125,256728.03125,233336.125,242528.859375,-0.1220703125,0.844482421875,-0.533447265625,0.5493163466453552,2.105712652206421,0.3051757514476776,100.0,119603.0,1.0
469966.8635041,261984.90625,260065.859375,324350.90625,350900.59375,269360.71875,256749.9375,233254.59375,242471.109375,-0.12353515625,0.844482421875,-0.532470703125,0.6713866591453552,2.105712652206421,0.5187987685203552,100.0,119604.0,1.0
469966.8683243,262851.4375,260239.140625,323072.5,350592.9375,268521.0,256762.90625,233042.875,242313.390625,-0.122802734375,0.846435546875,-0.533447265625,0.6103515028953552,2.136230230331421,0.6103515028953552,100.0,119605.0,1.0
469966.8708418,262272.25,259859.78125,320346.90625,350423.78125,267779.1875,256756.375,232995.40625,242277.09375,-0.123291015625,0.8447265625,-0.531982421875,0.5493163466453552,2.136230230331421,0.6713866591453552,100.0,119606.0,1.0
469966.8734885,261131.234375,259493.75,319986.34375,350630.125,268170.15625,256743.6875,233179.3125,242418.625,-0.124267578125,0.844482421875,-0.532470703125,0.5187987685203552,2.075195074081421,0.7934569716453552,100.0,119607.0,1.0
469966.8757898,260905.046875,259595.671875,322455.5,350927.9375,269149.875,256735.1875,233337.65625,242542.8125,-0.125,0.843505859375,-0.53271484375,0.5187987685203552,2.044677495956421,0.9155272841453552,100.0,119608.0,1.0
469966.8833274,261983.015625,260066.046875,324344.75,350904.34375,269362.84375,256750.125,233252.890625,242481.21875,-0.125244140625,0.84423828125,-0.534423828125,0.3662109076976776,1.9531248807907104,0.9155272841453552,100.0,119609.0,1.0
469966.8873715,262853.5,260244.328125,323067.46875,350596.96875,268521.09375,256769.4375,233043.328125,242323.3125,-0.123046875,0.843505859375,-0.5361328125,0.4272460639476776,1.8310545682907104,0.8850097060203552,100.0,119610.0,1.0
469966.8873866,262287.8125,259878.375,320361.40625,350438.625,267791.25,256777.296875,233009.265625,242297.578125,-0.1240234375,0.84326171875,-0.535400390625,0.3662109076976776,1.8615721464157104,0.9460448622703552,100.0,119611.0,1.0
469966.8873893,261127.75,259489.1875,319988.75,350623.53125,268162.5625,256742.703125,233172.78125,242414.515625,-0.123291015625,0.842041015625,-0.534912109375,0.3051757514476776,1.8920897245407104,1.0070799589157104,100.0,119612.0,1.0
469966.8897739,260903.96875,259592.8125,322458.0,350923.125,269146.65625,256735.8125,233333.359375,242536.375,-0.121337890625,0.8408203125,-0.536865234375,0.2746581733226776,1.7700194120407104,1.0681151151657104,100.0,119613.0,1.0
469966.8921791,261985.796875,260066.3125,324340.28125,350905.0625,269367.15625,256760.21875,233257.359375,242481.484375,-0.12060546875,0.84130859375,-0.536376953125,0.2746581733226776,1.7395018339157104,1.0681151151657104,100.0,119614.0,1.0
469966.8948004,262852.15625,260242.625,323054.34375,350591.15625,268523.0625,256773.640625,233042.515625,242315.8125,-0.121337890625,0.841796875,-0.535888671875,0.1831054538488388,1.8005369901657104,1.0986326932907104,100.0,119615.0,1.0
469966.8948165,262274.40625,259874.453125,320329.21875,350419.125,267779.90625,256767.109375,232994.59375,242273.515625,-0.12158203125,0.842529296875,-0.534423828125,0.1220703050494194,1.8005369901657104,1.0986326932907104,100.0,119616.0,1.0
469966.8972751,261128.828125,259498.21875,319969.625,350623.53125,268170.96875,256752.171875,233178.140625,242409.78125,-0.122314453125,0.842529296875,-0.53466796875,0.1220703050494194,1.8005369901657104,1.0070799589157104,100.0,119617.0,1.0
469966.897293,260912.015625,259601.390625,322447.53125,350930.53125,269161.25,256748.0625,233351.6875,242543.96875,-0.120849609375,0.841552734375,-0.536376953125,0.2136230319738388,1.8310545682907104,1.0070799589157104,100.0,119618.0,1.0
