Time,FZ,C3,CZ,C4,PZ,PO7,OZ,PO8,AccX,AccY,AccZ,Gyro1,Gyro2,Gyro3,Battery,Counter,Validation
483977.6464588,286672.84375,305869.96875,319604.9375,327553.21875,323019.90625,271481.875,262798.3125,271754.84375,-0.018310546875,0.8798828125,-0.461669921875,-1.3732908964157104,13.244627952575684,4.516601085662842,60.0,1328701.0,1.0
483977.6464718,288654.1875,307116.90625,322741.40625,329186.5,324706.59375,271525.0625,263993.96875,272077.34375,-0.01513671875,0.87744140625,-0.45947265625,-0.9765624403953552,13.366698265075684,3.997802495956421,60.0,1328702.0,1.0
483977.6464758,288654.1875,307116.90625,322741.40625,329186.5,324706.59375,271525.0625,263993.96875,272077.34375,-0.01513671875,0.87744140625,-0.45947265625,-0.9765624403953552,13.366698265075684,3.997802495956421,60.0,1328703.0,0.0
483977.6464761,288654.1875,307116.90625,322741.40625,329186.5,324706.59375,271525.0625,263993.96875,272077.34375,-0.01513671875,0.87744140625,-0.45947265625,-0.9765624403953552,13.366698265075684,3.997802495956421,60.0,1328704.0,0.0
483977.6464764,288654.1875,307116.90625,322741.40625,329186.5,324706.59375,271525.0625,263993.96875,272077.34375,-0.01513671875,0.87744140625,-0.45947265625,-0.9765624403953552,13.366698265075684,3.997802495956421,60.0,1328705.0,0.0
483977.6464766,288654.1875,307116.90625,322741.40625,329186.5,324706.59375,271525.0625,263993.96875,272077.34375,-0.01513671875,0.87744140625,-0.45947265625,-0.9765624403953552,13.366698265075684,3.997802495956421,60.0,1328706.0,0.0
483977.6464769,288654.1875,307116.90625,322741.40625,329186.5,324706.59375,271525.0625,263993.96875,272077.34375,-0.01513671875,0.87744140625,-0.45947265625,-0.9765624403953552,13.366698265075684,3.997802495956421,60.0,1328707.0,0.0
483977.6464771,288654.1875,307116.90625,322741.40625,329186.5,324706.59375,271525.0625,263993.96875,272077.34375,-0.01513671875,0.87744140625,-0.45947265625,-0.9765624403953552,13.366698265075684,3.997802495956421,60.0,1328708.0,0.0
483977.6464774,288654.1875,307116.90625,322741.40625,329186.5,324706.59375,271525.0625,263993.96875,272077.34375,-0.01513671875,0.87744140625,-0.45947265625,-0.9765624403953552,13.366698265075684,3.997802495956421,60.0,1328709.0,0.0
483977.6464776,288654.1875,307116.90625,322741.40625,329186.5,324706.59375,271525.0625,263993.96875,272077.34375,-0.01513671875,0.87744140625,-0.45947265625,-0.9765624403953552,13.366698265075684,3.997802495956421,60.0,1328710.0,0.0
483977.6464779,288654.1875,307116.90625,322741.40625,329186.5,324706.59375,271525.0625,263993.96875,272077.34375,-0.01513671875,0.87744140625,-0.45947265625,-0.9765624403953552,13.366698265075684,3.997802495956421,60.0,1328711.0,0.0
483977.6464781,288654.1875,307116.90625,322741.40625,329186.5,324706.59375,271525.0625,263993.96875,272077.34375,-0.01513671875,0.87744140625,-0.45947265625,-0.9765624403953552,13.366698265075684,3.997802495956421,60.0,1328712.0,0.0
483977.6464783,288654.1875,307116.90625,322741.40625,329186.5,324706.59375,271525.0625,263993.96875,272077.34375,-0.01513671875,0.87744140625,-0.45947265625,-0.9765624403953552,13.366698265075684,3.997802495956421,60.0,1328713.0,0.0
483977.6464786,288654.1875,307116.90625,322741.40625,329186.5,324706.59375,271525.0625,263993.96875,272077.34375,-0.01513671875,0.87744140625,-0.45947265625,-0.9765624403953552,13.366698265075684,3.997802495956421,60.0,1328714.0,0.0
483977.6464788,288654.1875,307116.90625,322741.40625,329186.5,324706.59375,271525.0625,263993.96875,272077.34375,-0.01513671875,0.87744140625,-0.45947265625,-0.9765624403953552,13.366698265075684,3.997802495956421,60.0,1328715.0,0.0
483977.6464791,288654.1875,307116.90625,322741.40625,329186.5,324706.59375,271525.0625,263993.96875,272077.34375,-0.01513671875,0.87744140625,-0.45947265625,-0.9765624403953552,13.366698265075684,3.997802495956421,60.0,1328716.0,0.0
483977.6464793,288654.1875,307116.90625,322741.40625,329186.5,324706.59375,271525.0625,263993.96875,272077.34375,-0.01513671875,0.87744140625,-0.45947265625,-0.9765624403953552,13.366698265075684,3.997802495956421,60.0,1328717.0,0.0
483977.6464796,288654.1875,307116.90625,322741.40625,329186.5,324706.59375,271525.0625,263993.96875,272077.34375,-0.01513671875,0.87744140625,-0.45947265625,-0.9765624403953552,13.366698265075684,3.997802495956421,60.0,1328718.0,0.0
483977.6464798,288654.1875,307116.90625,322741.40625,329186.5,324706.59375,271525.0625,263993.96875,272077.34375,-0.01513671875,0.87744140625,-0.45947265625,-0.9765624403953552,13.366698265075684,3.997802495956421,60.0,1328719.0,0.0
483977.6464801,288654.1875,307116.90625,322741.40625,329186.5,324706.59375,271525.0625,263993.96875,272077.34375,-0.01513671875,0.87744140625,-0.45947265625,-0.9765624403953552,13.366698265075684,3.997802495956421,60.0,1328720.0,0.0
483977.6464803,288654.1875,307116.90625,322741.40625,329186.5,324706.59375,271525.0625,263993.96875,272077.34375,-0.01513671875,0.87744140625,-0.45947265625,-0.9765624403953552,13.366698265075684,3.997802495956421,60.0,1328721.0,0.0
483977.6464805,288654.1875,307116.90625,322741.40625,329186.5,324706.59375,271525.0625,263993.96875,272077.34375,-0.01513671875,0.87744140625,-0.45947265625,-0.9765624403953552,13.366698265075684,3.997802495956421,60.0,1328722.0,0.0
483977.6464808,288654.1875,307116.90625,322741.40625,329186.5,324706.59375,271525.0625,263993.96875,272077.34375,-0.01513671875,0.87744140625,-0.45947265625,-0.9765624403953552,13.366698265075684,3.997802495956421,60.0,1328723.0,0.0
483977.646481,288654.1875,307116.90625,322741.40625,329186.5,324706.59375,271525.0625,263993.96875,272077.34375,-0.01513671875,0.87744140625,-0.45947265625,-0.9765624403953552,13.366698265075684,3.997802495956421,60.0,1328724.0,0.0
483977.6464813,288654.1875,307116.90625,322741.40625,329186.5,324706.59375,271525.0625,263993.96875,272077.34375,-0.01513671875,0.87744140625,-0.45947265625,-0.9765624403953552,13.366698265075684,3.997802495956421,60.0,1328725.0,0.0
483977.6464815,288654.1875,307116.90625,322741.40625,329186.5,324706.59375,271525.0625,263993.96875,272077.34375,-0.01513671875,0.87744140625,-0.45947265625,-0.9765624403953552,13.366698265075684,3.997802495956421,60.0,1328726.0,0.0
483977.6464818,288654.1875,307116.90625,322741.40625,329186.5,324706.59375,271525.0625,263993.96875,272077.34375,-0.01513671875,0.87744140625,-0.45947265625,-0.9765624403953552,13.366698265075684,3.997802495956421,60.0,1328727.0,0.0
483977.646482,288654.1875,307116.90625,322741.40625,329186.5,324706.59375,271525.0625,263993.96875,272077.34375,-0.01513671875,0.87744140625,-0.45947265625,-0.9765624403953552,13.366698265075684,3.997802495956421,60.0,1328728.0,0.0
483977.6464822,288654.1875,307116.90625,322741.40625,329186.5,324706.59375,271525.0625,263993.96875,272077.34375,-0.01513671875,0.87744140625,-0.45947265625,-0.9765624403953552,13.366698265075684,3.997802495956421,60.0,1328729.0,0.0
483977.6464825,288654.1875,307116.90625,322741.40625,329186.5,324706.59375,271525.0625,263993.96875,272077.34375,-0.01513671875,0.87744140625,-0.45947265625,-0.9765624403953552,13.366698265075684,3.997802495956421,60.0,1328730.0,0.0
483977.6464827,286807.9375,306085.15625,319721.4375,327433.21875,322925.59375,271465.34375,262566.75,271776.75,-0.049560546875,0.8681640625,-0.485107421875,6.378173351287842,3.906249761581421,-0.8239745497703552,60.0,1328731.0,1.0
483977.6464843,288822.8125,307386.03125,322968.34375,329188.09375,324695.21875,271543.125,263884.09375,272135.0,-0.043212890625,0.868896484375,-0.4853515625,6.500243663787842,3.814697027206421,-1.0681151151657104,60.0,1328732.0,1.0
483977.6464861,292165.375,306759.46875,321449.5625,327655.5,322971.90625,271294.125,261754.59375,271490.125,-0.03515625,0.87109375,-0.48486328125,6.469726085662842,3.845214605331421,-1.4343260526657104,60.0,1328733.0,1.0
483977.6488147,292011.0625,305078.25,317349.625,324972.28125,320230.875,271057.21875,259243.046875,270751.25,-0.02880859375,0.873046875,-0.48583984375,6.347655773162842,3.906249761581421,-1.4953612089157104,60.0,1328734.0,1.0
483977.6513088,288882.4375,304755.15625,316398.96875,324875.5625,320255.0,271154.75,259834.921875,270942.0625,-0.023681640625,0.873779296875,-0.48486328125,6.195067882537842,4.211425304412842,-1.6174315214157104,60.0,1328735.0,1.0
483977.7127864,286958.875,306299.8125,320114.375,327631.53125,323181.03125,271452.28125,262923.84375,271853.46875,-0.018798828125,0.872802734375,-0.482666015625,6.042479991912842,4.730224132537842,-1.6479490995407104,60.0,1328736.0,1.0
483977.7153278,288971.59375,307593.90625,323397.40625,329404.1875,324981.0625,271520.78125,264270.40625,272211.34375,-0.01806640625,0.874755859375,-0.479736328125,5.889892101287842,5.340575695037842,-1.6174315214157104,60.0,1328737.0,1.0
483977.7169058,292255.96875,306907.71875,321834.8125,327829.75,323237.34375,271264.0,262113.46875,271544.28125,-0.015869140625,0.875732421875,-0.479736328125,5.615233898162842,5.889892101287842,-1.5258787870407104,60.0,1328738.0,1.0
483977.728951,292053.0,305165.34375,317673.8125,325117.59375,320470.03125,271031.09375,259590.3125,270788.09375,-0.020263671875,0.877197265625,-0.479248046875,5.432128429412842,6.561278820037842,-1.5869139432907104,60.0,1328739.0,1.0
483977.7315871,288913.125,304805.21875,316699.03125,325010.5625,320484.4375,271131.6875,260188.984375,270971.90625,-0.02294921875,0.875732421875,-0.4775390625,5.157470226287842,7.110595226287842,-1.6479490995407104,60.0,1328740.0,1.0
483977.7339623,286977.1875,306324.15625,320389.03125,327733.4375,323390.6875,271422.15625,263269.21875,271868.65625,-0.026611328125,0.87744140625,-0.475341796875,4.882812023162842,7.690429210662842,-1.7089842557907104,60.0,1328741.0,1.0
483977.7365969,288977.125,307623.84375,323643.53125,329493.53125,325183.5625,271503.625,264600.15625,272233.625,-0.0302734375,0.876953125,-0.47412109375,4.516601085662842,8.209227561950684,-1.8920897245407104,60.0,1328742.0,1.0
483977.800472,292193.71875,306892.5,321992.28125,327859.96875,323395.25,271240.5625,262395.71875,271549.375,-0.035400390625,0.88037109375,-0.475341796875,4.241942882537842,8.697508811950684,-1.8920897245407104,60.0,1328743.0,1.0
483977.8005125,291948.5625,305106.4375,317741.0625,325071.1875,320577.0625,271013.03125,259795.328125,270777.625,-0.0419921875,0.889404296875,-0.48095703125,3.814697027206421,9.094237327575684,-2.044677495956421,60.0,1328744.0,1.0
483977.8005218,288803.5,304708.90625,316676.59375,324873.59375,320515.625,271121.65625,260226.265625,270930.875,-0.051025390625,0.8994140625,-0.486328125,3.173827886581421,9.460448265075684,-2.075195074081421,60.0,1328745.0,1.0
483977.8005297,286876.6875,306196.5625,320297.65625,327525.5,323351.875,271425.84375,263122.875,271800.8125,-0.05712890625,0.912353515625,-0.48876953125,2.563476324081421,9.735106468200684,-2.075195074081421,60.0,1328746.0,1.0
483977.8028563,288827.03125,307422.15625,323445.9375,329205.71875,325057.0625,271503.0625,264306.34375,272138.59375,-0.0654296875,0.9228515625,-0.490966796875,1.8005369901657104,9.918211936950684,-2.288818120956421,60.0,1328747.0,1.0
483977.8028965,291962.625,306621.96875,321641.25,327492.0625,323163.59375,271237.4375,261945.015625,271435.65625,-0.073974609375,0.93408203125,-0.49267578125,1.0375975370407104,10.040282249450684,-2.563476324081421,60.0,1328748.0,1.0
483977.8053571,291652.375,304798.78125,317215.78125,324640.6875,320230.15625,271010.1875,259183.15625,270651.75,-0.084228515625,0.94140625,-0.495849609375,0.0915527269244194,9.918211936950684,-2.838134527206421,60.0,1328749.0,1.0
483977.820267,288498.71875,304427.46875,316053.9375,324438.1875,320111.3125,271131.5,259545.875,270822.96875,-0.097412109375,0.94580078125,-0.5009765625,-0.8239745497703552,9.643553733825684,-2.929687261581421,60.0,1328750.0,1.0
483977.8203073,286568.96875,305945.15625,319599.03125,327108.0625,322899.40625,271428.78125,262374.4375,271700.5,-0.107421875,0.95166015625,-0.5048828125,-1.7089842557907104,9.246825218200684,-3.204345464706421,60.0,1328751.0,1.0
483977.8203166,288467.0625,307159.125,322629.46875,328783.8125,324535.09375,271476.15625,263476.65625,272011.71875,-0.118896484375,0.952392578125,-0.50537109375,-2.655029058456421,8.636473655700684,-3.540038824081421,60.0,1328752.0,1.0
483977.8203246,291549.09375,306349.8125,320703.84375,327091.25,322589.6875,271199.4375,261095.296875,271317.1875,-0.131591796875,0.94921875,-0.504638671875,-3.540038824081421,7.843017101287842,-3.845214605331421,60.0,1328753.0,1.0
483977.8203325,291204.96875,304539.65625,316183.21875,324281.1875,319621.28125,270971.0,258346.484375,270549.90625,-0.139892578125,0.939697265625,-0.499267578125,-4.486083507537842,6.805419445037842,-4.028319835662842,60.0,1328754.0,1.0
483977.8203403,288056.875,304219.15625,314972.40625,324113.71875,319480.46875,271080.8125,258722.34375,270713.0625,-0.14990234375,0.926513671875,-0.49609375,-5.340575695037842,5.676269054412842,-4.119872570037842,60.0,1328755.0,1.0
483977.8203494,286175.46875,305825.78125,318554.21875,326856.8125,322296.4375,271383.375,261652.75,271610.09375,-0.15966796875,0.91357421875,-0.49462890625,-6.134032726287842,4.394530773162842,-4.364013195037842,60.0,1328756.0,1.0
483977.822731,288143.0625,307125.84375,321674.96875,328624.5625,323994.0,271417.0625,262891.9375,271962.71875,-0.166015625,0.8974609375,-0.490966796875,-6.652831554412842,3.051757574081421,-4.608153820037842,60.0,1328757.0,1.0
483977.887784,291298.40625,306370.8125,319844.0,327012.5625,322111.53125,271140.34375,260625.46875,271284.84375,-0.1708984375,0.8818359375,-0.493896484375,-6.958007335662842,1.5258787870407104,-4.669188976287842,60.0,1328758.0,1.0
483977.8902577,291039.3125,304599.40625,315433.375,324267.3125,319209.375,270914.15625,257981.96875,270525.21875,-0.175048828125,0.86669921875,-0.4931640625,-6.927489757537842,0.03051757626235485,-5.004882335662842,60.0,1328759.0,1.0
483977.8952495,287986.25,304325.53125,314370.59375,324172.375,319163.53125,271037.0,258504.734375,270724.78125,-0.176513671875,0.853515625,-0.493408203125,-6.683349132537842,-1.3732908964157104,-5.310058116912842,60.0,1328760.0,1.0
483977.9956937,286168.59375,305951.6875,318091.625,326955.625,322066.375,271349.5625,261561.375,271642.375,-0.174072265625,0.8427734375,-0.494384765625,-6.134032726287842,-2.868652105331421,-5.340575695037842,60.0,1328761.0,1.0
483977.9957345,288169.15625,307251.5625,321317.875,328738.375,323835.21875,271419.125,262881.90625,272006.71875,-0.16943359375,0.831298828125,-0.49462890625,-5.523681163787842,-4.516601085662842,-5.462646007537842,60.0,1328762.0,1.0
483977.9957433,291325.5,306468.0,319531.25,327103.125,321988.875,271153.59375,260648.53125,271330.15625,-0.164306640625,0.822021484375,-0.49755859375,-4.730224132537842,-5.889892101287842,-5.279540538787842,60.0,1328763.0,1.0
483977.9957516,291048.6875,304642.125,315106.59375,324312.90625,319082.53125,270926.65625,258007.1875,270556.625,-0.155517578125,0.8173828125,-0.501708984375,-3.875732183456421,-7.171630382537842,-5.096435070037842,60.0,1328764.0,1.0
483977.9957595,287975.78125,304312.75,314040.875,324204.75,319040.84375,271046.5625,258547.921875,270750.625,-0.144287109375,0.8115234375,-0.502197265625,-2.929687261581421,-8.209227561950684,-4.730224132537842,60.0,1328765.0,1.0
483977.9957673,286142.5625,305887.84375,317776.90625,326987.53125,321954.1875,271347.78125,261629.234375,271657.65625,-0.136474609375,0.80908203125,-0.5078125,-1.9531248807907104,-9.063719749450684,-4.333495616912842,60.0,1328766.0,1.0
483977.9957751,288143.9375,307157.78125,321017.46875,328771.28125,323730.96875,271432.96875,262969.34375,272024.5,-0.126953125,0.808837890625,-0.510986328125,-0.7934569716453552,-9.796141624450684,-3.936767339706421,60.0,1328767.0,1.0
483977.9957828,291276.40625,306337.75,319203.3125,327093.9375,321862.71875,271165.75,260708.875,271331.6875,-0.118408203125,0.811279296875,-0.50830078125,0.3356933295726776,-10.498045921325684,-3.540038824081421,60.0,1328768.0,1.0
483977.9957911,290968.125,304481.375,314748.96875,324262.0625,318935.28125,270925.6875,258032.390625,270542.3125,-0.113525390625,0.815673828125,-0.514892578125,1.4343260526657104,-10.894774436950684,-2.960204839706421,60.0,1328769.0,1.0
483977.9957991,287895.03125,304146.5625,313679.03125,324154.3125,318892.09375,271054.34375,258562.578125,270732.65625,-0.108154296875,0.817138671875,-0.51806640625,2.380370855331421,-11.199950218200684,-2.380370855331421,60.0,1328770.0,1.0
483977.995807,286073.65625,305736.90625,317437.4375,326968.3125,321815.34375,271366.71875,261646.21875,271638.34375,-0.10302734375,0.8203125,-0.520263671875,3.417968511581421,-11.444090843200684,-1.8310545682907104,60.0,1328771.0,1.0
483977.9958149,288087.71875,307033.15625,320710.0,328760.75,323612.875,271453.53125,262986.96875,272004.125,-0.099365234375,0.8232421875,-0.520751953125,4.302978038787842,-11.627196311950684,-1.3122557401657104,60.0,1328772.0,1.0
483977.9958227,291223.40625,306229.71875,318907.1875,327077.21875,321752.5625,271203.21875,260715.59375,271319.875,-0.09765625,0.826171875,-0.524169921875,5.187987804412842,-11.718749046325684,-0.7324218153953552,60.0,1328773.0,1.0
483977.995843,291223.40625,306229.71875,318907.1875,327077.21875,321752.5625,271203.21875,260715.59375,271319.875,-0.09765625,0.826171875,-0.524169921875,5.187987804412842,-11.718749046325684,-0.7324218153953552,60.0,1328774.0,0.0
483977.9958445,291223.40625,306229.71875,318907.1875,327077.21875,321752.5625,271203.21875,260715.59375,271319.875,-0.09765625,0.826171875,-0.524169921875,5.187987804412842,-11.718749046325684,-0.7324218153953552,60.0,1328775.0,0.0
483977.9958458,291223.40625,306229.71875,318907.1875,327077.21875,321752.5625,271203.21875,260715.59375,271319.875,-0.09765625,0.826171875,-0.524169921875,5.187987804412842,-11.718749046325684,-0.7324218153953552,60.0,1328776.0,0.0
483977.9958472,291223.40625,306229.71875,318907.1875,327077.21875,321752.5625,271203.21875,260715.59375,271319.875,-0.09765625,0.826171875,-0.524169921875,5.187987804412842,-11.718749046325684,-0.7324218153953552,60.0,1328777.0,0.0
483977.9958485,291223.40625,306229.71875,318907.1875,327077.21875,321752.5625,271203.21875,260715.59375,271319.875,-0.09765625,0.826171875,-0.524169921875,5.187987804412842,-11.718749046325684,-0.7324218153953552,60.0,1328778.0,0.0
483977.9958498,291223.40625,306229.71875,318907.1875,327077.21875,321752.5625,271203.21875,260715.59375,271319.875,-0.09765625,0.826171875,-0.524169921875,5.187987804412842,-11.718749046325684,-0.7324218153953552,60.0,1328779.0,0.0
483977.9958512,291223.40625,306229.71875,318907.1875,327077.21875,321752.5625,271203.21875,260715.59375,271319.875,-0.09765625,0.826171875,-0.524169921875,5.187987804412842,-11.718749046325684,-0.7324218153953552,60.0,1328780.0,0.0
483977.9958525,291223.40625,306229.71875,318907.1875,327077.21875,321752.5625,271203.21875,260715.59375,271319.875,-0.09765625,0.826171875,-0.524169921875,5.187987804412842,-11.718749046325684,-0.7324218153953552,60.0,1328781.0,0.0
483977.995854,291223.40625,306229.71875,318907.1875,327077.21875,321752.5625,271203.21875,260715.59375,271319.875,-0.09765625,0.826171875,-0.524169921875,5.187987804412842,-11.718749046325684,-0.7324218153953552,60.0,1328782.0,0.0
483977.9958553,291223.40625,306229.71875,318907.1875,327077.21875,321752.5625,271203.21875,260715.59375,271319.875,-0.09765625,0.826171875,-0.524169921875,5.187987804412842,-11.718749046325684,-0.7324218153953552,60.0,1328783.0,0.0
483977.9958566,291223.40625,306229.71875,318907.1875,327077.21875,321752.5625,271203.21875,260715.59375,271319.875,-0.09765625,0.826171875,-0.524169921875,5.187987804412842,-11.718749046325684,-0.7324218153953552,60.0,1328784.0,0.0
483977.9958579,291223.40625,306229.71875,318907.1875,327077.21875,321752.5625,271203.21875,260715.59375,271319.875,-0.09765625,0.826171875,-0.524169921875,5.187987804412842,-11.718749046325684,-0.7324218153953552,60.0,1328785.0,0.0
483977.9958592,291223.40625,306229.71875,318907.1875,327077.21875,321752.5625,271203.21875,260715.59375,271319.875,-0.09765625,0.826171875,-0.524169921875,5.187987804412842,-11.718749046325684,-0.7324218153953552,60.0,1328786.0,0.0
483977.9958605,291223.40625,306229.71875,318907.1875,327077.21875,321752.5625,271203.21875,260715.59375,271319.875,-0.09765625,0.826171875,-0.524169921875,5.187987804412842,-11.718749046325684,-0.7324218153953552,60.0,1328787.0,0.0
483977.9958618,291223.40625,306229.71875,318907.1875,327077.21875,321752.5625,271203.21875,260715.59375,271319.875,-0.09765625,0.826171875,-0.524169921875,5.187987804412842,-11.718749046325684,-0.7324218153953552,60.0,1328788.0,0.0
483977.9958632,291223.40625,306229.71875,318907.1875,327077.21875,321752.5625,271203.21875,260715.59375,271319.875,-0.09765625,0.826171875,-0.524169921875,5.187987804412842,-11.718749046325684,-0.7324218153953552,60.0,1328789.0,0.0
483977.9958645,291223.40625,306229.71875,318907.1875,327077.21875,321752.5625,271203.21875,260715.59375,271319.875,-0.09765625,0.826171875,-0.524169921875,5.187987804412842,-11.718749046325684,-0.7324218153953552,60.0,1328790.0,0.0
483977.9958658,291223.40625,306229.71875,318907.1875,327077.21875,321752.5625,271203.21875,260715.59375,271319.875,-0.09765625,0.826171875,-0.524169921875,5.187987804412842,-11.718749046325684,-0.7324218153953552,60.0,1328791.0,0.0
483977.9958671,291223.40625,306229.71875,318907.1875,327077.21875,321752.5625,271203.21875,260715.59375,271319.875,-0.09765625,0.826171875,-0.524169921875,5.187987804412842,-11.718749046325684,-0.7324218153953552,60.0,1328792.0,0.0
483977.9958684,291223.40625,306229.71875,318907.1875,327077.21875,321752.5625,271203.21875,260715.59375,271319.875,-0.09765625,0.826171875,-0.524169921875,5.187987804412842,-11.718749046325684,-0.7324218153953552,60.0,1328793.0,0.0
483977.9958697,291223.40625,306229.71875,318907.1875,327077.21875,321752.5625,271203.21875,260715.59375,271319.875,-0.09765625,0.826171875,-0.524169921875,5.187987804412842,-11.718749046325684,-0.7324218153953552,60.0,1328794.0,0.0
483977.995871,291223.40625,306229.71875,318907.1875,327077.21875,321752.5625,271203.21875,260715.59375,271319.875,-0.09765625,0.826171875,-0.524169921875,5.187987804412842,-11.718749046325684,-0.7324218153953552,60.0,1328795.0,0.0
483977.9958723,291223.40625,306229.71875,318907.1875,327077.21875,321752.5625,271203.21875,260715.59375,271319.875,-0.09765625,0.826171875,-0.524169921875,5.187987804412842,-11.718749046325684,-0.7324218153953552,60.0,1328796.0,0.0
483977.9958736,291223.40625,306229.71875,318907.1875,327077.21875,321752.5625,271203.21875,260715.59375,271319.875,-0.09765625,0.826171875,-0.524169921875,5.187987804412842,-11.718749046325684,-0.7324218153953552,60.0,1328797.0,0.0
483977.9958749,291223.40625,306229.71875,318907.1875,327077.21875,321752.5625,271203.21875,260715.59375,271319.875,-0.09765625,0.826171875,-0.524169921875,5.187987804412842,-11.718749046325684,-0.7324218153953552,60.0,1328798.0,0.0
483977.9958762,291223.40625,306229.71875,318907.1875,327077.21875,321752.5625,271203.21875,260715.59375,271319.875,-0.09765625,0.826171875,-0.524169921875,5.187987804412842,-11.718749046325684,-0.7324218153953552,60.0,1328799.0,0.0
483977.9958775,291223.40625,306229.71875,318907.1875,327077.21875,321752.5625,271203.21875,260715.59375,271319.875,-0.09765625,0.826171875,-0.524169921875,5.187987804412842,-11.718749046325684,-0.7324218153953552,60.0,1328800.0,0.0
483977.9958788,286434.75,305860.84375,317194.34375,327437.0625,321888.90625,271520.5,262124.546875,271781.21875,-0.09375,0.880615234375,-0.5478515625,9.735106468200684,-7.995604991912842,4.364013195037842,60.0,1328801.0,1.0
483977.9958871,288454.1875,307160.1875,320519.1875,329224.84375,323691.625,271597.75,263428.1875,272137.875,-0.0927734375,0.880615234375,-0.541015625,9.063719749450684,-8.178709983825684,4.119872570037842,60.0,1328802.0,1.0
483977.9958951,291514.0625,306397.1875,318724.96875,327471.75,321855.375,271338.46875,261177.203125,271445.78125,-0.091796875,0.882080078125,-0.53564453125,8.453368186950684,-8.331297874450684,3.723144292831421,60.0,1328803.0,1.0
483977.9959034,291159.65625,304589.46875,314307.46875,324609.75,318965.125,271087.875,258532.625,270657.8125,-0.089111328125,0.879638671875,-0.534423828125,7.781981945037842,-8.453368186950684,3.479003667831421,60.0,1328804.0,1.0
483977.9959116,288175.15625,304301.65625,313359.59375,324588.375,318976.21875,271202.59375,259081.859375,270865.34375,-0.08544921875,0.876953125,-0.532470703125,6.988524913787842,-8.453368186950684,3.204345464706421,60.0,1328805.0,1.0
483978.0558317,286498.78125,305933.625,317266.5625,327503.6875,321952.84375,271517.46875,262148.59375,271797.3125,-0.08544921875,0.87451171875,-0.531494140625,6.286620616912842,-8.514403343200684,2.807616949081421,60.0,1328806.0,1.0
483978.143184,288508.03125,307232.78125,320578.125,329263.90625,323748.84375,271589.0,263439.375,272154.75,-0.085693359375,0.8701171875,-0.530517578125,5.493163585662842,-8.575438499450684,2.593993902206421,60.0,1328807.0,1.0
483978.149018,291520.6875,306437.875,318733.375,327457.90625,321870.59375,271316.3125,261152.96875,271446.21875,-0.08447265625,0.8681640625,-0.530029296875,4.760741710662842,-8.697508811950684,2.349853277206421,60.0,1328808.0,1.0
483978.1490576,291171.0,304646.15625,314310.6875,324587.3125,318983.71875,271105.40625,258518.234375,270672.40625,-0.08154296875,0.867919921875,-0.527099609375,4.119872570037842,-8.697508811950684,2.166747808456421,60.0,1328809.0,1.0
483978.1515484,288201.71875,304372.125,313379.15625,324570.3125,319014.125,271221.96875,259079.53125,270889.84375,-0.076904296875,0.8662109375,-0.519775390625,3.479003667831421,-8.636473655700684,1.8310545682907104,60.0,1328810.0,1.0
483978.1515869,286504.9375,305972.96875,317262.375,327457.53125,321963.84375,271483.21875,262112.75,271799.28125,-0.074951171875,0.8681640625,-0.522705078125,2.746581792831421,-8.544920921325684,1.6174315214157104,60.0,1328811.0,1.0
483978.1539462,288493.4375,307251.03125,320536.5625,329189.34375,323726.15625,271523.375,263361.6875,272137.5,-0.071533203125,0.86767578125,-0.519287109375,2.044677495956421,-8.361815452575684,1.3732908964157104,60.0,1328812.0,1.0
483978.1539807,291523.90625,306482.65625,318697.71875,327381.90625,321860.3125,271267.75,261078.765625,271432.8125,-0.0693359375,0.8681640625,-0.52001953125,1.4648436307907104,-8.178709983825684,1.2512205839157104,60.0,1328813.0,1.0
483978.1578888,291178.96875,304700.6875,314277.96875,324513.71875,318984.96875,271046.375,258437.59375,270659.0,-0.067626953125,0.8681640625,-0.518798828125,0.7934569716453552,-7.965087413787842,1.1596678495407104,60.0,1328814.0,1.0
483978.157929,288169.34375,304386.0625,313295.9375,324475.71875,318971.125,271160.125,258947.46875,270855.15625,-0.06640625,0.867919921875,-0.5146484375,0.1220703050494194,-7.751464366912842,1.0070799589157104,60.0,1328815.0,1.0
483978.1579376,286462.75,305972.78125,317152.6875,327378.25,321910.65625,271462.03125,261968.453125,271773.0,-0.064453125,0.867919921875,-0.51318359375,-0.5187987685203552,-7.537841320037842,0.9460448622703552,60.0,1328816.0,1.0
483978.1579455,288462.78125,307254.15625,320433.09375,329135.09375,323685.625,271525.34375,263234.09375,272116.78125,-0.063720703125,0.868408203125,-0.51318359375,-1.1291502714157104,-7.110595226287842,0.9155272841453552,60.0,1328817.0,1.0
483978.1627349,291500.75,306484.90625,318602.59375,327338.4375,321821.78125,271260.59375,260954.578125,271407.6875,-0.064697265625,0.869384765625,-0.508544921875,-1.7700194120407104,-6.744384288787842,0.8239745497703552,60.0,1328818.0,1.0
483978.1627878,291500.75,306484.90625,318602.59375,327338.4375,321821.78125,271260.59375,260954.578125,271407.6875,-0.064697265625,0.869384765625,-0.508544921875,-1.7700194120407104,-6.744384288787842,0.8239745497703552,60.0,1328819.0,0.0
483978.1627896,291500.75,306484.90625,318602.59375,327338.4375,321821.78125,271260.59375,260954.578125,271407.6875,-0.064697265625,0.869384765625,-0.508544921875,-1.7700194120407104,-6.744384288787842,0.8239745497703552,60.0,1328820.0,0.0
483978.162791,291500.75,306484.90625,318602.59375,327338.4375,321821.78125,271260.59375,260954.578125,271407.6875,-0.064697265625,0.869384765625,-0.508544921875,-1.7700194120407104,-6.744384288787842,0.8239745497703552,60.0,1328821.0,0.0
483978.1627923,291500.75,306484.90625,318602.59375,327338.4375,321821.78125,271260.59375,260954.578125,271407.6875,-0.064697265625,0.869384765625,-0.508544921875,-1.7700194120407104,-6.744384288787842,0.8239745497703552,60.0,1328822.0,0.0
483978.1627936,291500.75,306484.90625,318602.59375,327338.4375,321821.78125,271260.59375,260954.578125,271407.6875,-0.064697265625,0.869384765625,-0.508544921875,-1.7700194120407104,-6.744384288787842,0.8239745497703552,60.0,1328823.0,0.0
483978.1627949,291500.75,306484.90625,318602.59375,327338.4375,321821.78125,271260.59375,260954.578125,271407.6875,-0.064697265625,0.869384765625,-0.508544921875,-1.7700194120407104,-6.744384288787842,0.8239745497703552,60.0,1328824.0,0.0
483978.1627962,291500.75,306484.90625,318602.59375,327338.4375,321821.78125,271260.59375,260954.578125,271407.6875,-0.064697265625,0.869384765625,-0.508544921875,-1.7700194120407104,-6.744384288787842,0.8239745497703552,60.0,1328825.0,0.0
483978.1627975,291500.75,306484.90625,318602.59375,327338.4375,321821.78125,271260.59375,260954.578125,271407.6875,-0.064697265625,0.869384765625,-0.508544921875,-1.7700194120407104,-6.744384288787842,0.8239745497703552,60.0,1328826.0,0.0
483978.1627988,291500.75,306484.90625,318602.59375,327338.4375,321821.78125,271260.59375,260954.578125,271407.6875,-0.064697265625,0.869384765625,-0.508544921875,-1.7700194120407104,-6.744384288787842,0.8239745497703552,60.0,1328827.0,0.0
483978.1628001,291500.75,306484.90625,318602.59375,327338.4375,321821.78125,271260.59375,260954.578125,271407.6875,-0.064697265625,0.869384765625,-0.508544921875,-1.7700194120407104,-6.744384288787842,0.8239745497703552,60.0,1328828.0,0.0
483978.1628014,291500.75,306484.90625,318602.59375,327338.4375,321821.78125,271260.59375,260954.578125,271407.6875,-0.064697265625,0.869384765625,-0.508544921875,-1.7700194120407104,-6.744384288787842,0.8239745497703552,60.0,1328829.0,0.0
483978.1628027,291500.75,306484.90625,318602.59375,327338.4375,321821.78125,271260.59375,260954.578125,271407.6875,-0.064697265625,0.869384765625,-0.508544921875,-1.7700194120407104,-6.744384288787842,0.8239745497703552,60.0,1328830.0,0.0
483978.162804,291500.75,306484.90625,318602.59375,327338.4375,321821.78125,271260.59375,260954.578125,271407.6875,-0.064697265625,0.869384765625,-0.508544921875,-1.7700194120407104,-6.744384288787842,0.8239745497703552,60.0,1328831.0,0.0
483978.1628053,291500.75,306484.90625,318602.59375,327338.4375,321821.78125,271260.59375,260954.578125,271407.6875,-0.064697265625,0.869384765625,-0.508544921875,-1.7700194120407104,-6.744384288787842,0.8239745497703552,60.0,1328832.0,0.0
483978.1628066,291500.75,306484.90625,318602.59375,327338.4375,321821.78125,271260.59375,260954.578125,271407.6875,-0.064697265625,0.869384765625,-0.508544921875,-1.7700194120407104,-6.744384288787842,0.8239745497703552,60.0,1328833.0,0.0
483978.1628079,291500.75,306484.90625,318602.59375,327338.4375,321821.78125,271260.59375,260954.578125,271407.6875,-0.064697265625,0.869384765625,-0.508544921875,-1.7700194120407104,-6.744384288787842,0.8239745497703552,60.0,1328834.0,0.0
483978.1628092,291500.75,306484.90625,318602.59375,327338.4375,321821.78125,271260.59375,260954.578125,271407.6875,-0.064697265625,0.869384765625,-0.508544921875,-1.7700194120407104,-6.744384288787842,0.8239745497703552,60.0,1328835.0,0.0
483978.1628104,291500.75,306484.90625,318602.59375,327338.4375,321821.78125,271260.59375,260954.578125,271407.6875,-0.064697265625,0.869384765625,-0.508544921875,-1.7700194120407104,-6.744384288787842,0.8239745497703552,60.0,1328836.0,0.0
483978.1628118,291500.75,306484.90625,318602.59375,327338.4375,321821.78125,271260.59375,260954.578125,271407.6875,-0.064697265625,0.869384765625,-0.508544921875,-1.7700194120407104,-6.744384288787842,0.8239745497703552,60.0,1328837.0,0.0
483978.1628131,291500.75,306484.90625,318602.59375,327338.4375,321821.78125,271260.59375,260954.578125,271407.6875,-0.064697265625,0.869384765625,-0.508544921875,-1.7700194120407104,-6.744384288787842,0.8239745497703552,60.0,1328838.0,0.0
483978.1628143,291500.75,306484.90625,318602.59375,327338.4375,321821.78125,271260.59375,260954.578125,271407.6875,-0.064697265625,0.869384765625,-0.508544921875,-1.7700194120407104,-6.744384288787842,0.8239745497703552,60.0,1328839.0,0.0
483978.1628156,291500.75,306484.90625,318602.59375,327338.4375,321821.78125,271260.59375,260954.578125,271407.6875,-0.064697265625,0.869384765625,-0.508544921875,-1.7700194120407104,-6.744384288787842,0.8239745497703552,60.0,1328840.0,0.0
483978.1628169,291500.75,306484.90625,318602.59375,327338.4375,321821.78125,271260.59375,260954.578125,271407.6875,-0.064697265625,0.869384765625,-0.508544921875,-1.7700194120407104,-6.744384288787842,0.8239745497703552,60.0,1328841.0,0.0
483978.1628182,291500.75,306484.90625,318602.59375,327338.4375,321821.78125,271260.59375,260954.578125,271407.6875,-0.064697265625,0.869384765625,-0.508544921875,-1.7700194120407104,-6.744384288787842,0.8239745497703552,60.0,1328842.0,0.0
483978.1628195,291608.03125,306457.4375,318528.8125,327478.1875,321910.375,271337.21875,261030.65625,271460.96875,-0.05517578125,0.87548828125,-0.488037109375,-6.439208507537842,3.845214605331421,0.7019042372703552,60.0,1328843.0,1.0
483978.1664109,291367.6875,304708.46875,314232.8125,324666.15625,319073.125,271111.375,258444.375,270689.03125,-0.0537109375,0.876220703125,-0.48779296875,-6.195067882537842,4.302978038787842,0.9155272841453552,60.0,1328844.0,1.0
483978.2302747,288293.71875,304333.6875,313226.0,324623.6875,319063.9375,271219.5625,259005.859375,270886.0,-0.05224609375,0.876953125,-0.486572265625,-6.225585460662842,4.821776866912842,1.1596678495407104,60.0,1328845.0,1.0
483978.2303144,286440.84375,305840.71875,316978.25,327478.28125,321983.96875,271527.5625,262048.109375,271801.25,-0.052734375,0.8798828125,-0.4873046875,-6.134032726287842,5.249022960662842,1.4038084745407104,60.0,1328846.0,1.0
483978.2303233,288429.25,307125.78125,320262.875,329225.375,323764.59375,271604.375,263337.96875,272151.625,-0.052001953125,0.8798828125,-0.489013671875,-5.859374523162842,5.737304210662842,1.6174315214157104,60.0,1328847.0,1.0
483978.2303313,291666.21875,306472.46875,318632.71875,327522.375,321988.59375,271373.71875,261147.15625,271481.875,-0.05126953125,0.8818359375,-0.486328125,-5.767821788787842,6.195067882537842,1.9226073026657104,60.0,1328848.0,1.0
483978.2303398,291442.96875,304721.0,314356.5625,324712.21875,319158.6875,271140.625,258563.109375,270707.625,-0.050537109375,0.88134765625,-0.48681640625,-5.706786632537842,6.622313976287842,2.044677495956421,60.0,1328849.0,1.0
483978.2303477,288342.0625,304320.09375,313333.125,324648.1875,319133.65625,271241.65625,259106.171875,270888.40625,-0.0498046875,0.8828125,-0.485595703125,-5.523681163787842,7.110595226287842,2.166747808456421,60.0,1328850.0,1.0
483978.2303556,286456.75,305804.78125,317061.3125,327484.90625,322040.65625,271540.90625,262149.6875,271801.15625,-0.0478515625,0.88330078125,-0.483642578125,-5.493163585662842,7.568358898162842,2.319335699081421,60.0,1328851.0,1.0
483978.2317885,288454.46875,307100.5625,320354.25,329245.3125,323833.15625,271630.21875,263458.9375,272165.65625,-0.048095703125,0.884765625,-0.481201171875,-5.523681163787842,8.056639671325684,2.624511480331421,60.0,1328852.0,1.0
483978.2440526,291714.34375,306452.4375,318739.75,327554.375,322061.21875,271402.75,261269.375,271499.3125,-0.047119140625,0.884033203125,-0.477294921875,-5.340575695037842,8.453368186950684,2.838134527206421,60.0,1328853.0,1.0
483978.2465327,291506.5625,304710.09375,314494.34375,324765.0625,319242.1875,271173.0625,258700.359375,270733.71875,-0.044921875,0.88623046875,-0.477294921875,-5.310058116912842,8.850096702575684,3.021239995956421,60.0,1328854.0,1.0
483978.246572,288393.3125,304307.9375,313472.78125,324694.96875,319221.46875,271265.4375,259246.1875,270910.21875,-0.042724609375,0.8857421875,-0.477294921875,-5.310058116912842,9.033202171325684,3.082275152206421,60.0,1328855.0,1.0
483978.2616394,286474.53125,305777.96875,317171.8125,327508.15625,322110.8125,271560.21875,262272.875,271809.5625,-0.0419921875,0.885986328125,-0.47705078125,-5.187987804412842,9.368895530700684,3.173827886581421,60.0,1328856.0,1.0
483978.2616843,286474.53125,305777.96875,317171.8125,327508.15625,322110.8125,271560.21875,262272.875,271809.5625,-0.0419921875,0.885986328125,-0.47705078125,-5.187987804412842,9.368895530700684,3.173827886581421,60.0,1328857.0,0.0
483978.2616861,286474.53125,305777.96875,317171.8125,327508.15625,322110.8125,271560.21875,262272.875,271809.5625,-0.0419921875,0.885986328125,-0.47705078125,-5.187987804412842,9.368895530700684,3.173827886581421,60.0,1328858.0,0.0
483978.2616875,286474.53125,305777.96875,317171.8125,327508.15625,322110.8125,271560.21875,262272.875,271809.5625,-0.0419921875,0.885986328125,-0.47705078125,-5.187987804412842,9.368895530700684,3.173827886581421,60.0,1328859.0,0.0
483978.2616888,286474.53125,305777.96875,317171.8125,327508.15625,322110.8125,271560.21875,262272.875,271809.5625,-0.0419921875,0.885986328125,-0.47705078125,-5.187987804412842,9.368895530700684,3.173827886581421,60.0,1328860.0,0.0
483978.2616901,286474.53125,305777.96875,317171.8125,327508.15625,322110.8125,271560.21875,262272.875,271809.5625,-0.0419921875,0.885986328125,-0.47705078125,-5.187987804412842,9.368895530700684,3.173827886581421,60.0,1328861.0,0.0
483978.2616914,286474.53125,305777.96875,317171.8125,327508.15625,322110.8125,271560.21875,262272.875,271809.5625,-0.0419921875,0.885986328125,-0.47705078125,-5.187987804412842,9.368895530700684,3.173827886581421,60.0,1328862.0,0.0
483978.2616927,286474.53125,305777.96875,317171.8125,327508.15625,322110.8125,271560.21875,262272.875,271809.5625,-0.0419921875,0.885986328125,-0.47705078125,-5.187987804412842,9.368895530700684,3.173827886581421,60.0,1328863.0,0.0
483978.261694,291565.03125,304678.625,314721.78125,324829.4375,319367.71875,271200.53125,258893.46875,270751.15625,-0.029541015625,0.8828125,-0.4765625,-4.791259288787842,12.603758811950684,4.730224132537842,60.0,1328864.0,1.0
483978.2617085,288437.28125,304274.84375,313676.15625,324729.1875,319327.9375,271291.0,259406.40625,270920.84375,-0.0283203125,0.8828125,-0.476318359375,-4.791259288787842,12.908934593200684,4.943847179412842,60.0,1328865.0,1.0
483978.2617173,286487.875,305749.71875,317345.0625,327517.8125,322206.40625,271588.375,262419.25,271821.1875,-0.027587890625,0.883056640625,-0.476806640625,-4.913329601287842,13.183592796325684,5.035399913787842,60.0,1328866.0,1.0
483978.2617251,288462.6875,307048.0,320609.40625,329269.46875,323982.5625,271670.96875,263711.78125,272185.625,-0.02587890625,0.880859375,-0.4775390625,-4.669188976287842,13.641356468200684,5.004882335662842,60.0,1328867.0,1.0
483978.2617329,291745.53125,306400.78125,319000.71875,327591.28125,322191.5625,271421.09375,261482.078125,271500.46875,-0.02490234375,0.877197265625,-0.4755859375,-4.364013195037842,13.885497093200684,5.004882335662842,60.0,1328868.0,1.0
483978.261741,291579.3125,304672.25,314776.875,324813.15625,319368.09375,271189.96875,258873.09375,270722.90625,-0.024658203125,0.876220703125,-0.47607421875,-4.150390148162842,14.160155296325684,5.157470226287842,60.0,1328869.0,1.0
483978.2617488,288450.875,304271.0,313729.5625,324713.71875,319320.625,271286.4375,259383.25,270897.625,-0.02587890625,0.873046875,-0.477783203125,-4.058837413787842,14.282225608825684,5.310058116912842,60.0,1328870.0,1.0
483978.2617566,286485.71875,305736.75,317381.90625,327490.4375,322190.75,271587.5625,262405.75,271796.59375,-0.02685546875,0.8740234375,-0.477783203125,-3.845214605331421,14.495848655700684,5.218505382537842,60.0,1328871.0,1.0
483978.2617644,288443.71875,307015.4375,320637.03125,329239.34375,323963.59375,271663.28125,263701.4375,272143.9375,-0.02685546875,0.875,-0.479736328125,-3.631591558456421,14.739989280700684,5.187987804412842,60.0,1328872.0,1.0
483978.2617724,291734.71875,306359.1875,319045.25,327583.34375,322184.40625,271414.5625,261486.453125,271471.34375,-0.0263671875,0.875,-0.478271484375,-3.417968511581421,14.892577171325684,5.096435070037842,60.0,1328873.0,1.0
483978.2639184,291575.03125,304625.21875,314828.53125,324808.5,319358.0,271182.09375,258875.765625,270706.71875,-0.0283203125,0.872802734375,-0.4794921875,-3.265380620956421,14.831542015075684,4.974364757537842,60.0,1328874.0,1.0
483978.2639527,291575.03125,304625.21875,314828.53125,324808.5,319358.0,271182.09375,258875.765625,270706.71875,-0.0283203125,0.872802734375,-0.4794921875,-3.265380620956421,14.831542015075684,4.974364757537842,60.0,1328875.0,0.0
483978.2639544,291575.03125,304625.21875,314828.53125,324808.5,319358.0,271182.09375,258875.765625,270706.71875,-0.0283203125,0.872802734375,-0.4794921875,-3.265380620956421,14.831542015075684,4.974364757537842,60.0,1328876.0,0.0
483978.2639559,291575.03125,304625.21875,314828.53125,324808.5,319358.0,271182.09375,258875.765625,270706.71875,-0.0283203125,0.872802734375,-0.4794921875,-3.265380620956421,14.831542015075684,4.974364757537842,60.0,1328877.0,0.0
483978.2639575,291575.03125,304625.21875,314828.53125,324808.5,319358.0,271182.09375,258875.765625,270706.71875,-0.0283203125,0.872802734375,-0.4794921875,-3.265380620956421,14.831542015075684,4.974364757537842,60.0,1328878.0,0.0
483978.2639588,291575.03125,304625.21875,314828.53125,324808.5,319358.0,271182.09375,258875.765625,270706.71875,-0.0283203125,0.872802734375,-0.4794921875,-3.265380620956421,14.831542015075684,4.974364757537842,60.0,1328879.0,0.0
483978.2639601,291575.03125,304625.21875,314828.53125,324808.5,319358.0,271182.09375,258875.765625,270706.71875,-0.0283203125,0.872802734375,-0.4794921875,-3.265380620956421,14.831542015075684,4.974364757537842,60.0,1328880.0,0.0
483978.2639614,291575.03125,304625.21875,314828.53125,324808.5,319358.0,271182.09375,258875.765625,270706.71875,-0.0283203125,0.872802734375,-0.4794921875,-3.265380620956421,14.831542015075684,4.974364757537842,60.0,1328881.0,0.0
483978.2639626,288368.71875,306908.6875,320625.875,329130.09375,323878.125,271654.96875,263591.90625,272122.125,-0.031982421875,0.871337890625,-0.484375,-1.2512205839157104,14.251708030700684,3.692626714706421,60.0,1328882.0,1.0
483978.2664608,291657.90625,306243.84375,319025.21875,327488.3125,322092.59375,271408.21875,261367.546875,271447.90625,-0.033203125,0.86962890625,-0.483642578125,-0.8239745497703552,13.946532249450684,3.417968511581421,60.0,1328883.0,1.0
483978.271425,291507.96875,304504.28125,314798.75,324713.71875,319257.03125,271164.21875,258739.0625,270674.625,-0.032470703125,0.870361328125,-0.4833984375,-0.6103515028953552,13.854979515075684,3.295898199081421,60.0,1328884.0,1.0
483978.2765878,288419.6875,304147.8125,313767.8125,324612.96875,319227.625,271276.96875,259252.078125,270871.78125,-0.033203125,0.87060546875,-0.48193359375,-0.5493163466453552,13.549803733825684,3.112792730331421,60.0,1328885.0,1.0
483978.2840727,286462.90625,305651.53125,317417.0625,327374.75,322109.3125,271587.46875,262272.53125,271782.28125,-0.033935546875,0.870849609375,-0.48583984375,-0.1831054538488388,13.336180686950684,2.990722417831421,60.0,1328886.0,1.0
483978.2866056,288385.71875,306921.5625,320640.875,329116.84375,323866.40625,271648.1875,263555.6875,272122.3125,-0.034912109375,0.871826171875,-0.488525390625,-0.1220703050494194,13.031004905700684,2.746581792831421,60.0,1328887.0,1.0
483978.2881753,291665.25,306258.0625,319038.90625,327488.9375,322086.6875,271397.84375,261338.578125,271444.6875,-0.03564453125,0.872802734375,-0.487060546875,0.0610351525247097,12.725829124450684,2.563476324081421,60.0,1328888.0,1.0
483978.2953304,291513.25,304513.5625,314801.4375,324718.90625,319243.625,271161.375,258707.0625,270667.03125,-0.03369140625,0.873046875,-0.490234375,0.2441406100988388,12.329100608825684,2.410888433456421,60.0,1328889.0,1.0
483978.2978742,288388.5625,304116.40625,313732.3125,324571.5625,319170.15625,271239.15625,259176.53125,270819.84375,-0.031982421875,0.87255859375,-0.488037109375,0.4882812201976776,12.023924827575684,2.288818120956421,60.0,1328890.0,1.0
483978.3003482,286414.90625,305605.125,317365.375,327313.6875,322033.125,271534.46875,262183.21875,271713.375,-0.0341796875,0.871337890625,-0.494384765625,0.4577636420726776,11.718749046325684,2.166747808456421,60.0,1328891.0,1.0
483978.302683,288342.625,306881.96875,320604.84375,329074.28125,323812.78125,271614.46875,263495.59375,272072.875,-0.03466796875,0.873046875,-0.492919921875,0.6713866591453552,11.291502952575684,2.136230230331421,60.0,1328892.0,1.0
483978.3027175,291626.875,306216.59375,319010.5625,327471.9375,322050.125,271390.5,261309.25,271425.1875,-0.036865234375,0.873046875,-0.494384765625,0.9460448622703552,10.894774436950684,1.9531248807907104,60.0,1328893.0,1.0
483978.3089802,291523.53125,304520.71875,314819.34375,324751.46875,319259.8125,271203.65625,258732.71875,270698.40625,-0.03857421875,0.869873046875,-0.4921875,1.0375975370407104,10.437010765075684,1.9836424589157104,60.0,1328894.0,1.0
483978.3090191,288433.09375,304161.3125,313774.875,324621.1875,319212.78125,271300.3125,259230.0,270872.3125,-0.042236328125,0.869384765625,-0.4931640625,1.0375975370407104,10.009764671325684,1.8310545682907104,60.0,1328895.0,1.0
483978.3090276,286489.5625,305689.4375,317437.625,327375.8125,322099.46875,271612.6875,262263.3125,271783.90625,-0.041015625,0.869140625,-0.494873046875,1.1901854276657104,9.521483421325684,1.5563963651657104,60.0,1328896.0,1.0
483978.3090359,288419.15625,306979.40625,320682.375,329141.15625,323883.3125,271695.40625,263583.75,272147.625,-0.04345703125,0.86767578125,-0.49169921875,1.3732908964157104,9.094237327575684,1.3732908964157104,60.0,1328897.0,1.0
483978.3090441,291645.65625,306265.9375,319033.71875,327494.46875,322073.625,271408.84375,261345.1875,271453.625,-0.045166015625,0.8671875,-0.4951171875,1.4953612089157104,8.575438499450684,1.1291502714157104,60.0,1328898.0,1.0
483978.309052,291498.5,304530.5625,314793.21875,324727.59375,319237.65625,271171.90625,258715.46875,270681.59375,-0.0478515625,0.868408203125,-0.49755859375,1.5869139432907104,7.934569835662842,1.1901854276657104,60.0,1328899.0,1.0
483978.3115019,288412.71875,304178.03125,313740.46875,324587.84375,319183.375,271268.84375,259198.984375,270852.0,-0.05078125,0.8681640625,-0.499267578125,1.7700194120407104,7.263183116912842,1.0986326932907104,60.0,1328900.0,1.0
483978.3115364,286473.28125,305711.875,317403.375,327339.25,322069.53125,271568.15625,262224.25,271754.21875,-0.05126953125,0.869140625,-0.501220703125,1.9226073026657104,6.530761241912842,1.1596678495407104,60.0,1328901.0,1.0
483978.3144379,288396.34375,307000.59375,320650.09375,329110.15625,323857.46875,271649.34375,263546.9375,272116.6875,-0.048828125,0.871337890625,-0.502197265625,2.136230230331421,5.889892101287842,1.1596678495407104,60.0,1328902.0,1.0
483978.3627756,291629.46875,306300.1875,319024.6875,327494.90625,322074.25,271399.375,261339.5625,271452.65625,-0.049560546875,0.871337890625,-0.500732421875,2.258300542831421,5.249022960662842,1.2512205839157104,60.0,1328903.0,1.0
483978.3628149,291469.53125,304542.1875,314766.75,324723.9375,319224.84375,271159.125,258706.078125,270686.4375,-0.048095703125,0.875244140625,-0.49853515625,2.349853277206421,4.608153820037842,1.1901854276657104,60.0,1328904.0,1.0
483978.3628235,288392.9375,304188.40625,313724.8125,324595.625,319173.09375,271249.0625,259192.09375,270855.15625,-0.046630859375,0.8759765625,-0.498046875,2.380370855331421,3.997802495956421,1.4343260526657104,60.0,1328905.0,1.0
483978.3628315,286445.03125,305707.25,317380.84375,327338.1875,322047.15625,271537.9375,262201.25,271741.71875,-0.04638671875,0.876953125,-0.500732421875,2.258300542831421,3.417968511581421,1.6174315214157104,60.0,1328906.0,1.0
483978.3628399,288365.0625,306989.875,320627.375,329116.125,323837.46875,271616.0,263524.75,272107.1875,-0.0478515625,0.874267578125,-0.49853515625,2.319335699081421,2.807616949081421,1.8005369901657104,60.0,1328907.0,1.0
483978.3628478,291614.46875,306302.875,319009.03125,327520.5,322073.28125,271382.1875,261333.21875,271448.625,-0.048828125,0.873291015625,-0.5,2.319335699081421,2.105712652206421,1.9531248807907104,60.0,1328908.0,1.0
483978.3628557,291450.9375,304545.40625,314747.8125,324746.1875,319223.4375,271145.53125,258699.640625,270672.40625,-0.050048828125,0.872314453125,-0.5,2.258300542831421,1.5869139432907104,2.075195074081421,60.0,1328909.0,1.0
483978.3651886,288377.21875,304188.21875,313694.6875,324603.59375,319158.96875,271236.5625,259180.015625,270838.6875,-0.05322265625,0.870361328125,-0.50048828125,2.349853277206421,0.8850097060203552,2.166747808456421,60.0,1328910.0,1.0
483978.3691147,286452.625,305721.8125,317372.0625,327359.03125,322048.0625,271539.375,262208.25,271741.875,-0.05419921875,0.867431640625,-0.50244140625,2.441406011581421,0.1220703050494194,2.258300542831421,60.0,1328911.0,1.0
483978.3691529,288370.25,307001.40625,320622.03125,329127.9375,323840.6875,271612.96875,263532.09375,272101.75,-0.051513671875,0.866455078125,-0.5029296875,2.532958745956421,-0.5187987685203552,2.471923589706421,60.0,1328912.0,1.0
483978.3691616,291579.3125,306281.15625,318969.34375,327495.4375,322048.25,271352.15625,261317.03125,271422.53125,-0.05078125,0.865966796875,-0.498779296875,2.624511480331421,-1.2817381620407104,2.593993902206421,60.0,1328913.0,1.0
483978.3828898,291412.21875,304522.40625,314706.0625,324713.65625,319202.0625,271119.6875,258686.3125,270648.15625,-0.050048828125,0.86767578125,-0.49951171875,2.746581792831421,-1.9836424589157104,2.685546636581421,60.0,1328914.0,1.0
483978.3829556,291412.21875,304522.40625,314706.0625,324713.65625,319202.0625,271119.6875,258686.3125,270648.15625,-0.050048828125,0.86767578125,-0.49951171875,2.746581792831421,-1.9836424589157104,2.685546636581421,60.0,1328915.0,0.0
483978.3829572,291412.21875,304522.40625,314706.0625,324713.65625,319202.0625,271119.6875,258686.3125,270648.15625,-0.050048828125,0.86767578125,-0.49951171875,2.746581792831421,-1.9836424589157104,2.685546636581421,60.0,1328916.0,0.0
483978.3829586,291412.21875,304522.40625,314706.0625,324713.65625,319202.0625,271119.6875,258686.3125,270648.15625,-0.050048828125,0.86767578125,-0.49951171875,2.746581792831421,-1.9836424589157104,2.685546636581421,60.0,1328917.0,0.0
483978.3829599,291412.21875,304522.40625,314706.0625,324713.65625,319202.0625,271119.6875,258686.3125,270648.15625,-0.050048828125,0.86767578125,-0.49951171875,2.746581792831421,-1.9836424589157104,2.685546636581421,60.0,1328918.0,0.0
483978.3829612,291412.21875,304522.40625,314706.0625,324713.65625,319202.0625,271119.6875,258686.3125,270648.15625,-0.050048828125,0.86767578125,-0.49951171875,2.746581792831421,-1.9836424589157104,2.685546636581421,60.0,1328919.0,0.0
483978.3829625,291412.21875,304522.40625,314706.0625,324713.65625,319202.0625,271119.6875,258686.3125,270648.15625,-0.050048828125,0.86767578125,-0.49951171875,2.746581792831421,-1.9836424589157104,2.685546636581421,60.0,1328920.0,0.0
483978.3829638,291412.21875,304522.40625,314706.0625,324713.65625,319202.0625,271119.6875,258686.3125,270648.15625,-0.050048828125,0.86767578125,-0.49951171875,2.746581792831421,-1.9836424589157104,2.685546636581421,60.0,1328921.0,0.0
483978.3829651,291412.21875,304522.40625,314706.0625,324713.65625,319202.0625,271119.6875,258686.3125,270648.15625,-0.050048828125,0.86767578125,-0.49951171875,2.746581792831421,-1.9836424589157104,2.685546636581421,60.0,1328922.0,0.0
483978.3829664,291412.21875,304522.40625,314706.0625,324713.65625,319202.0625,271119.6875,258686.3125,270648.15625,-0.050048828125,0.86767578125,-0.49951171875,2.746581792831421,-1.9836424589157104,2.685546636581421,60.0,1328923.0,0.0
483978.3829677,291412.21875,304522.40625,314706.0625,324713.65625,319202.0625,271119.6875,258686.3125,270648.15625,-0.050048828125,0.86767578125,-0.49951171875,2.746581792831421,-1.9836424589157104,2.685546636581421,60.0,1328924.0,0.0
483978.382969,291412.21875,304522.40625,314706.0625,324713.65625,319202.0625,271119.6875,258686.3125,270648.15625,-0.050048828125,0.86767578125,-0.49951171875,2.746581792831421,-1.9836424589157104,2.685546636581421,60.0,1328925.0,0.0
483978.3829703,291412.21875,304522.40625,314706.0625,324713.65625,319202.0625,271119.6875,258686.3125,270648.15625,-0.050048828125,0.86767578125,-0.49951171875,2.746581792831421,-1.9836424589157104,2.685546636581421,60.0,1328926.0,0.0
483978.3829716,291412.21875,304522.40625,314706.0625,324713.65625,319202.0625,271119.6875,258686.3125,270648.15625,-0.050048828125,0.86767578125,-0.49951171875,2.746581792831421,-1.9836424589157104,2.685546636581421,60.0,1328927.0,0.0
483978.3829729,291412.21875,304522.40625,314706.0625,324713.65625,319202.0625,271119.6875,258686.3125,270648.15625,-0.050048828125,0.86767578125,-0.49951171875,2.746581792831421,-1.9836424589157104,2.685546636581421,60.0,1328928.0,0.0
483978.3829742,291412.21875,304522.40625,314706.0625,324713.65625,319202.0625,271119.6875,258686.3125,270648.15625,-0.050048828125,0.86767578125,-0.49951171875,2.746581792831421,-1.9836424589157104,2.685546636581421,60.0,1328929.0,0.0
483978.3829755,291412.21875,304522.40625,314706.0625,324713.65625,319202.0625,271119.6875,258686.3125,270648.15625,-0.050048828125,0.86767578125,-0.49951171875,2.746581792831421,-1.9836424589157104,2.685546636581421,60.0,1328930.0,0.0
483978.3829768,291412.21875,304522.40625,314706.0625,324713.65625,319202.0625,271119.6875,258686.3125,270648.15625,-0.050048828125,0.86767578125,-0.49951171875,2.746581792831421,-1.9836424589157104,2.685546636581421,60.0,1328931.0,0.0
483978.3829781,291412.21875,304522.40625,314706.0625,324713.65625,319202.0625,271119.6875,258686.3125,270648.15625,-0.050048828125,0.86767578125,-0.49951171875,2.746581792831421,-1.9836424589157104,2.685546636581421,60.0,1328932.0,0.0
483978.3829794,291412.21875,304522.40625,314706.0625,324713.65625,319202.0625,271119.6875,258686.3125,270648.15625,-0.050048828125,0.86767578125,-0.49951171875,2.746581792831421,-1.9836424589157104,2.685546636581421,60.0,1328933.0,0.0
483978.3829807,291412.21875,304522.40625,314706.0625,324713.65625,319202.0625,271119.6875,258686.3125,270648.15625,-0.050048828125,0.86767578125,-0.49951171875,2.746581792831421,-1.9836424589157104,2.685546636581421,60.0,1328934.0,0.0
483978.382982,291412.21875,304522.40625,314706.0625,324713.65625,319202.0625,271119.6875,258686.3125,270648.15625,-0.050048828125,0.86767578125,-0.49951171875,2.746581792831421,-1.9836424589157104,2.685546636581421,60.0,1328935.0,0.0
483978.3829833,291412.21875,304522.40625,314706.0625,324713.65625,319202.0625,271119.6875,258686.3125,270648.15625,-0.050048828125,0.86767578125,-0.49951171875,2.746581792831421,-1.9836424589157104,2.685546636581421,60.0,1328936.0,0.0
483978.3829845,291412.21875,304522.40625,314706.0625,324713.65625,319202.0625,271119.6875,258686.3125,270648.15625,-0.050048828125,0.86767578125,-0.49951171875,2.746581792831421,-1.9836424589157104,2.685546636581421,60.0,1328937.0,0.0
483978.3829858,291412.21875,304522.40625,314706.0625,324713.65625,319202.0625,271119.6875,258686.3125,270648.15625,-0.050048828125,0.86767578125,-0.49951171875,2.746581792831421,-1.9836424589157104,2.685546636581421,60.0,1328938.0,0.0
483978.3829871,291412.21875,304522.40625,314706.0625,324713.65625,319202.0625,271119.6875,258686.3125,270648.15625,-0.050048828125,0.86767578125,-0.49951171875,2.746581792831421,-1.9836424589157104,2.685546636581421,60.0,1328939.0,0.0
483978.3829884,291412.21875,304522.40625,314706.0625,324713.65625,319202.0625,271119.6875,258686.3125,270648.15625,-0.050048828125,0.86767578125,-0.49951171875,2.746581792831421,-1.9836424589157104,2.685546636581421,60.0,1328940.0,0.0
483978.3829897,291412.21875,304522.40625,314706.0625,324713.65625,319202.0625,271119.6875,258686.3125,270648.15625,-0.050048828125,0.86767578125,-0.49951171875,2.746581792831421,-1.9836424589157104,2.685546636581421,60.0,1328941.0,0.0
483978.3829912,291412.21875,304522.40625,314706.0625,324713.65625,319202.0625,271119.6875,258686.3125,270648.15625,-0.050048828125,0.86767578125,-0.49951171875,2.746581792831421,-1.9836424589157104,2.685546636581421,60.0,1328942.0,0.0
483978.3829925,291412.21875,304522.40625,314706.0625,324713.65625,319202.0625,271119.6875,258686.3125,270648.15625,-0.050048828125,0.86767578125,-0.49951171875,2.746581792831421,-1.9836424589157104,2.685546636581421,60.0,1328943.0,0.0
483978.3829938,291412.21875,304522.40625,314706.0625,324713.65625,319202.0625,271119.6875,258686.3125,270648.15625,-0.050048828125,0.86767578125,-0.49951171875,2.746581792831421,-1.9836424589157104,2.685546636581421,60.0,1328944.0,0.0
483978.3829951,291412.21875,304522.40625,314706.0625,324713.65625,319202.0625,271119.6875,258686.3125,270648.15625,-0.050048828125,0.86767578125,-0.49951171875,2.746581792831421,-1.9836424589157104,2.685546636581421,60.0,1328945.0,0.0
483978.3829963,291412.21875,304522.40625,314706.0625,324713.65625,319202.0625,271119.6875,258686.3125,270648.15625,-0.050048828125,0.86767578125,-0.49951171875,2.746581792831421,-1.9836424589157104,2.685546636581421,60.0,1328946.0,0.0
483978.3829976,291412.21875,304522.40625,314706.0625,324713.65625,319202.0625,271119.6875,258686.3125,270648.15625,-0.050048828125,0.86767578125,-0.49951171875,2.746581792831421,-1.9836424589157104,2.685546636581421,60.0,1328947.0,0.0
483978.3829989,291412.21875,304522.40625,314706.0625,324713.65625,319202.0625,271119.6875,258686.3125,270648.15625,-0.050048828125,0.86767578125,-0.49951171875,2.746581792831421,-1.9836424589157104,2.685546636581421,60.0,1328948.0,0.0
483978.3830002,291412.21875,304522.40625,314706.0625,324713.65625,319202.0625,271119.6875,258686.3125,270648.15625,-0.050048828125,0.86767578125,-0.49951171875,2.746581792831421,-1.9836424589157104,2.685546636581421,60.0,1328949.0,0.0
483978.3830015,291412.21875,304522.40625,314706.0625,324713.65625,319202.0625,271119.6875,258686.3125,270648.15625,-0.050048828125,0.86767578125,-0.49951171875,2.746581792831421,-1.9836424589157104,2.685546636581421,60.0,1328950.0,0.0
483978.3830028,291412.21875,304522.40625,314706.0625,324713.65625,319202.0625,271119.6875,258686.3125,270648.15625,-0.050048828125,0.86767578125,-0.49951171875,2.746581792831421,-1.9836424589157104,2.685546636581421,60.0,1328951.0,0.0
483978.3830041,291412.21875,304522.40625,314706.0625,324713.65625,319202.0625,271119.6875,258686.3125,270648.15625,-0.050048828125,0.86767578125,-0.49951171875,2.746581792831421,-1.9836424589157104,2.685546636581421,60.0,1328952.0,0.0
483978.3830054,291412.21875,304522.40625,314706.0625,324713.65625,319202.0625,271119.6875,258686.3125,270648.15625,-0.050048828125,0.86767578125,-0.49951171875,2.746581792831421,-1.9836424589157104,2.685546636581421,60.0,1328953.0,0.0
483978.3830066,291412.21875,304522.40625,314706.0625,324713.65625,319202.0625,271119.6875,258686.3125,270648.15625,-0.050048828125,0.86767578125,-0.49951171875,2.746581792831421,-1.9836424589157104,2.685546636581421,60.0,1328954.0,0.0
483978.3830079,291412.21875,304522.40625,314706.0625,324713.65625,319202.0625,271119.6875,258686.3125,270648.15625,-0.050048828125,0.86767578125,-0.49951171875,2.746581792831421,-1.9836424589157104,2.685546636581421,60.0,1328955.0,0.0
483978.3830092,291412.21875,304522.40625,314706.0625,324713.65625,319202.0625,271119.6875,258686.3125,270648.15625,-0.050048828125,0.86767578125,-0.49951171875,2.746581792831421,-1.9836424589157104,2.685546636581421,60.0,1328956.0,0.0
483978.3830105,291412.21875,304522.40625,314706.0625,324713.65625,319202.0625,271119.6875,258686.3125,270648.15625,-0.050048828125,0.86767578125,-0.49951171875,2.746581792831421,-1.9836424589157104,2.685546636581421,60.0,1328957.0,0.0
483978.3830118,291412.21875,304522.40625,314706.0625,324713.65625,319202.0625,271119.6875,258686.3125,270648.15625,-0.050048828125,0.86767578125,-0.49951171875,2.746581792831421,-1.9836424589157104,2.685546636581421,60.0,1328958.0,0.0
483978.3830131,291412.21875,304522.40625,314706.0625,324713.65625,319202.0625,271119.6875,258686.3125,270648.15625,-0.050048828125,0.86767578125,-0.49951171875,2.746581792831421,-1.9836424589157104,2.685546636581421,60.0,1328959.0,0.0
483978.3830144,291412.21875,304522.40625,314706.0625,324713.65625,319202.0625,271119.6875,258686.3125,270648.15625,-0.050048828125,0.86767578125,-0.49951171875,2.746581792831421,-1.9836424589157104,2.685546636581421,60.0,1328960.0,0.0
483978.3830157,291412.21875,304522.40625,314706.0625,324713.65625,319202.0625,271119.6875,258686.3125,270648.15625,-0.050048828125,0.86767578125,-0.49951171875,2.746581792831421,-1.9836424589157104,2.685546636581421,60.0,1328961.0,0.0
483978.383017,291412.21875,304522.40625,314706.0625,324713.65625,319202.0625,271119.6875,258686.3125,270648.15625,-0.050048828125,0.86767578125,-0.49951171875,2.746581792831421,-1.9836424589157104,2.685546636581421,60.0,1328962.0,0.0
483978.3830184,291412.21875,304522.40625,314706.0625,324713.65625,319202.0625,271119.6875,258686.3125,270648.15625,-0.050048828125,0.86767578125,-0.49951171875,2.746581792831421,-1.9836424589157104,2.685546636581421,60.0,1328963.0,0.0
483978.3830197,291412.21875,304522.40625,314706.0625,324713.65625,319202.0625,271119.6875,258686.3125,270648.15625,-0.050048828125,0.86767578125,-0.49951171875,2.746581792831421,-1.9836424589157104,2.685546636581421,60.0,1328964.0,0.0
483978.3830211,291412.21875,304522.40625,314706.0625,324713.65625,319202.0625,271119.6875,258686.3125,270648.15625,-0.050048828125,0.86767578125,-0.49951171875,2.746581792831421,-1.9836424589157104,2.685546636581421,60.0,1328965.0,0.0
483978.3830224,291412.21875,304522.40625,314706.0625,324713.65625,319202.0625,271119.6875,258686.3125,270648.15625,-0.050048828125,0.86767578125,-0.49951171875,2.746581792831421,-1.9836424589157104,2.685546636581421,60.0,1328966.0,0.0
483978.3830237,291412.21875,304522.40625,314706.0625,324713.65625,319202.0625,271119.6875,258686.3125,270648.15625,-0.050048828125,0.86767578125,-0.49951171875,2.746581792831421,-1.9836424589157104,2.685546636581421,60.0,1328967.0,0.0
483978.383025,291412.21875,304522.40625,314706.0625,324713.65625,319202.0625,271119.6875,258686.3125,270648.15625,-0.050048828125,0.86767578125,-0.49951171875,2.746581792831421,-1.9836424589157104,2.685546636581421,60.0,1328968.0,0.0
483978.3830263,291412.21875,304522.40625,314706.0625,324713.65625,319202.0625,271119.6875,258686.3125,270648.15625,-0.050048828125,0.86767578125,-0.49951171875,2.746581792831421,-1.9836424589157104,2.685546636581421,60.0,1328969.0,0.0
483978.3830276,288282.34375,304354.96875,313512.09375,324525.96875,319258.46875,271232.09375,259296.609375,270889.125,-0.0498046875,0.865966796875,-0.51171875,2.075195074081421,-16.998289108276367,4.608153820037842,60.0,1328970.0,1.0
483978.3852363,286361.09375,305763.21875,317157.3125,327431.0625,322128.53125,271506.84375,262325.09375,271796.59375,-0.051025390625,0.861572265625,-0.509033203125,1.8920897245407104,-16.693113327026367,4.547118663787842,60.0,1328971.0,1.0
483978.3852709,288291.125,307037.78125,320378.5625,329160.21875,323882.15625,271577.65625,263598.875,272140.09375,-0.051025390625,0.863525390625,-0.508544921875,1.7395018339157104,-16.357419967651367,4.455565929412842,60.0,1328972.0,1.0
483978.3876846,291514.5,306454.0625,318740.4375,327343.46875,322080.96875,271338.03125,261341.609375,271439.96875,-0.0498046875,0.864990234375,-0.51220703125,1.4343260526657104,-15.899657249450684,4.455565929412842,60.0,1328973.0,1.0
483978.392559,291343.90625,304778.46875,314497.65625,324485.5625,319257.3125,271110.5,258728.15625,270664.15625,-0.04931640625,0.86474609375,-0.5126953125,1.3427733182907104,-15.472411155700684,4.333495616912842,60.0,1328974.0,1.0
483978.3993545,288250.15625,304342.96875,313440.125,324475.28125,319226.28125,271208.46875,259269.25,270860.34375,-0.048583984375,0.864501953125,-0.513671875,1.1596678495407104,-15.075682640075684,4.211425304412842,60.0,1328975.0,1.0
483978.4065619,286308.78125,305731.46875,317068.28125,327395.6875,322091.0625,271493.40625,262300.9375,271776.40625,-0.046875,0.8642578125,-0.51416015625,1.0375975370407104,-14.709471702575684,4.119872570037842,60.0,1328976.0,1.0
483978.4090627,288259.09375,307024.5625,320312.6875,329155.1875,323869.28125,271571.84375,263594.03125,272142.96875,-0.048095703125,0.8671875,-0.51318359375,1.0681151151657104,-14.282225608825684,4.058837413787842,60.0,1328977.0,1.0
483978.416683,291505.125,306458.34375,318696.8125,327343.09375,322085.0,271341.25,261347.15625,271451.5,-0.048095703125,0.866943359375,-0.514892578125,0.8850097060203552,-13.793944358825684,3.936767339706421,60.0,1328978.0,1.0
483978.4166959,291330.6875,304781.0625,314460.28125,324483.96875,319261.25,271117.8125,258731.203125,270674.625,-0.049072265625,0.8701171875,-0.51611328125,0.6713866591453552,-13.397215843200684,3.845214605331421,60.0,1328979.0,1.0
483978.4166979,288246.59375,304349.3125,313414.125,324498.96875,319239.96875,271212.6875,259277.828125,270877.75,-0.048828125,0.871337890625,-0.5166015625,0.5493163466453552,-12.908934593200684,3.753661870956421,60.0,1328980.0,1.0
483978.4166998,286293.6875,305716.53125,317032.875,327426.4375,322097.25,271476.53125,262301.75,271777.375,-0.049072265625,0.87060546875,-0.513671875,0.3356933295726776,-12.481688499450684,3.723144292831421,60.0,1328981.0,1.0
483978.4167016,288221.375,306989.25,320247.6875,329164.59375,323847.03125,271556.53125,263573.46875,272122.3125,-0.048583984375,0.871826171875,-0.5107421875,0.2136230319738388,-12.054442405700684,3.601073980331421,60.0,1328982.0,1.0
483978.4167034,291478.28125,306443.25,318643.09375,327346.6875,322064.6875,271335.53125,261327.84375,271428.6875,-0.048583984375,0.873779296875,-0.51025390625,-0.03051757626235485,-11.535643577575684,3.540038824081421,60.0,1328983.0,1.0
483978.4167052,291315.40625,304775.25,314421.65625,324489.9375,319253.46875,271098.875,258715.203125,270649.15625,-0.048583984375,0.8720703125,-0.512939453125,-0.3051757514476776,-11.138915061950684,3.356933355331421,60.0,1328984.0,1.0
483978.4167071,288181.15625,304286.125,313324.71875,324476.625,319196.875,271166.8125,259233.75,270826.71875,-0.05078125,0.87060546875,-0.51123046875,-0.3967284858226776,-10.650633811950684,3.234863042831421,60.0,1328985.0,1.0
483978.4167089,286216.96875,305635.1875,316919.84375,327414.34375,322047.34375,271457.5625,262267.15625,271749.125,-0.05078125,0.870361328125,-0.51123046875,-0.5187987685203552,-10.101317405700684,3.051757574081421,60.0,1328986.0,1.0
483978.4277793,288156.125,306916.375,320143.96875,329160.125,323805.625,271543.5,263551.75,272107.28125,-0.050048828125,0.87109375,-0.510986328125,-0.6713866591453552,-9.521483421325684,2.838134527206421,60.0,1328987.0,1.0
483978.4302342,291437.53125,306398.53125,318565.84375,327347.21875,322043.40625,271337.6875,261321.40625,271430.21875,-0.05126953125,0.86865234375,-0.5126953125,-0.7324218153953552,-9.063719749450684,2.624511480331421,60.0,1328988.0,1.0
483978.432704,291279.28125,304740.9375,314353.53125,324482.15625,319232.8125,271118.71875,258716.09375,270654.4375,-0.051025390625,0.867431640625,-0.5107421875,-0.7934569716453552,-8.636473655700684,2.532958745956421,60.0,1328989.0,1.0
483978.4775668,288161.46875,304273.15625,313274.5625,324478.6875,319186.3125,271189.625,259246.265625,270833.40625,-0.05029296875,0.866455078125,-0.505615234375,-0.8544921278953552,-8.117674827575684,2.380370855331421,60.0,1328990.0,1.0
483978.4775758,286188.53125,305612.65625,316862.0,327405.78125,322030.8125,271457.84375,262267.5,271742.5,-0.0517578125,0.865478515625,-0.503662109375,-0.9155272841453552,-7.720946788787842,2.197265386581421,60.0,1328991.0,1.0
483978.4775775,288123.125,306889.375,320074.65625,329138.03125,323776.03125,271537.0625,263536.5625,272091.90625,-0.052734375,0.861572265625,-0.504638671875,-1.0375975370407104,-7.141112804412842,2.044677495956421,60.0,1328992.0,1.0
483978.477579,291418.40625,306381.8125,318502.375,327308.3125,322010.0625,271322.65625,261298.25,271406.6875,-0.05078125,0.859619140625,-0.504150390625,-1.0375975370407104,-6.683349132537842,1.7700194120407104,60.0,1328993.0,1.0
483978.4775805,291298.78125,304757.75,314325.53125,324466.15625,319234.15625,271135.875,258721.984375,270660.3125,-0.051025390625,0.858642578125,-0.508056640625,-0.9460448622703552,-6.225585460662842,1.5563963651657104,60.0,1328994.0,1.0
483978.477582,288167.90625,304270.125,313223.875,324460.25,319172.5625,271210.1875,259243.140625,270840.21875,-0.048828125,0.859375,-0.509033203125,-0.7934569716453552,-5.645751476287842,1.3732908964157104,60.0,1328995.0,1.0
483978.4775834,286209.625,305617.46875,316820.71875,327416.25,322032.40625,271479.28125,262280.84375,271765.5625,-0.0478515625,0.862548828125,-0.50927734375,-0.7019042372703552,-5.096435070037842,1.1901854276657104,60.0,1328996.0,1.0
483978.4775849,288171.5,306919.25,320066.71875,329173.96875,323809.5625,271566.09375,263573.9375,272131.4375,-0.048828125,0.8623046875,-0.510986328125,-0.4882812201976776,-4.577636241912842,0.9765624403953552,60.0,1328997.0,1.0
483978.4775863,291450.21875,306399.15625,318476.96875,327316.5625,322021.0625,271340.0,261307.1875,271416.09375,-0.0478515625,0.862548828125,-0.5078125,-0.3662109076976776,-4.058837413787842,0.8850097060203552,60.0,1328998.0,1.0
483978.4775878,291306.625,304756.9375,314272.34375,324454.375,319214.5625,271123.46875,258699.8125,270647.375,-0.048095703125,0.862060546875,-0.50537109375,-0.4272460639476776,-3.601073980331421,0.7934569716453552,60.0,1328999.0,1.0
483978.4775895,288168.625,304261.71875,313169.40625,324458.46875,319153.15625,271186.3125,259223.109375,270828.59375,-0.047607421875,0.863037109375,-0.50439453125,-0.3356933295726776,-2.990722417831421,0.6713866591453552,60.0,1329000.0,1.0
483978.4966328,286182.53125,305576.53125,316740.6875,327399.59375,321985.21875,271451.125,262239.09375,271731.59375,-0.05029296875,0.86328125,-0.503662109375,-0.2746581733226776,-2.380370855331421,0.5493163466453552,60.0,1329001.0,1.0
483978.4990275,288159.0625,306891.625,319997.5,329173.1875,323769.875,271558.875,263540.40625,272109.6875,-0.054931640625,0.86083984375,-0.5029296875,-0.2441406100988388,-1.8920897245407104,0.4577636420726776,60.0,1329002.0,1.0
483978.4990421,291461.5625,306395.59375,318438.0625,327339.15625,322008.375,271345.09375,261296.015625,271417.34375,-0.055419921875,0.858154296875,-0.504150390625,-0.0915527269244194,-1.5563963651657104,0.2746581733226776,60.0,1329003.0,1.0
483978.5017793,291315.5625,304741.90625,314223.15625,324464.65625,319190.625,271120.3125,258674.421875,270637.96875,-0.060791015625,0.856689453125,-0.503173828125,-0.0610351525247097,-1.1901854276657104,0.0915527269244194,60.0,1329004.0,1.0
483978.5017939,288195.0,304258.21875,313133.125,324481.0,319139.84375,271196.6875,259207.65625,270833.0625,-0.062255859375,0.853515625,-0.501708984375,0.1220703050494194,-0.9155272841453552,-0.1525878757238388,60.0,1329005.0,1.0
483978.5017963,286211.96875,305577.5,316710.1875,327424.90625,321978.25,271462.84375,262231.3125,271744.375,-0.064697265625,0.852783203125,-0.505615234375,0.3967284858226776,-0.6408690810203552,-0.3356933295726776,60.0,1329006.0,1.0
483978.5115002,288177.75,306880.875,319957.71875,329177.46875,323750.5625,271556.09375,263522.875,272110.6875,-0.06591796875,0.856689453125,-0.505126953125,0.6103515028953552,-0.3051757514476776,-0.6103515028953552,60.0,1329007.0,1.0
483978.5190245,291493.40625,306397.1875,318410.28125,327346.6875,321999.96875,271352.6875,261292.703125,271435.03125,-0.0673828125,0.858642578125,-0.5048828125,0.8239745497703552,-0.1220703050494194,-0.6713866591453552,60.0,1329008.0,1.0
483978.5190441,291361.1875,304762.75,314219.40625,324487.0,319203.65625,271147.15625,258696.6875,270669.34375,-0.06591796875,0.860595703125,-0.5068359375,0.9460448622703552,0.0915527269244194,-0.8850097060203552,60.0,1329009.0,1.0
483978.5364897,288217.1875,304259.375,313111.03125,324477.25,319133.125,271217.6875,259215.703125,270843.96875,-0.065673828125,0.864501953125,-0.503662109375,1.0070799589157104,0.3356933295726776,-1.1596678495407104,60.0,1329010.0,1.0
483978.5391464,286247.1875,305593.5,316701.4375,327427.15625,321975.90625,271486.1875,262242.5625,271760.5625,-0.06640625,0.8671875,-0.50439453125,1.0681151151657104,0.5798339247703552,-1.2817381620407104,60.0,1329011.0,1.0
483978.5391826,288206.90625,306891.34375,319945.03125,329179.875,323740.28125,271577.375,263526.53125,272123.84375,-0.06689453125,0.870361328125,-0.5078125,1.1291502714157104,0.7324218153953552,-1.3427733182907104,60.0,1329012.0,1.0
483978.5415518,291475.34375,306364.125,318349.03125,327317.1875,321946.3125,271338.375,261255.96875,271410.4375,-0.06640625,0.870849609375,-0.506103515625,1.0986326932907104,0.9765624403953552,-1.4648436307907104,60.0,1329013.0,1.0
483978.549062,291315.75,304703.03125,314128.46875,324445.78125,319128.5625,271117.65625,258642.59375,270629.125,-0.067626953125,0.870361328125,-0.506591796875,1.1291502714157104,1.1596678495407104,-1.5258787870407104,60.0,1329014.0,1.0
483978.551642,288194.375,304214.21875,313041.84375,324467.40625,319079.5625,271195.53125,259178.328125,270821.875,-0.0712890625,0.8671875,-0.50341796875,1.0375975370407104,1.1901854276657104,-1.4953612089157104,60.0,1329015.0,1.0
483978.5516869,286240.125,305560.34375,316644.46875,327432.0625,321931.125,271462.03125,262207.53125,271741.71875,-0.071533203125,0.868896484375,-0.501953125,1.0375975370407104,1.3732908964157104,-1.4648436307907104,60.0,1329016.0,1.0
483978.5540528,288194.375,306859.78125,319891.46875,329183.625,323695.5625,271548.75,263488.0,272099.96875,-0.070068359375,0.868408203125,-0.503173828125,1.0375975370407104,1.4343260526657104,-1.4343260526657104,60.0,1329017.0,1.0
483978.5540925,291492.0625,306366.78125,318332.9375,327363.125,321939.875,271352.5,261260.4375,271421.8125,-0.071044921875,0.8671875,-0.50537109375,0.9765624403953552,1.5869139432907104,-1.4953612089157104,60.0,1329018.0,1.0
483978.5591257,291347.03125,304721.25,314119.53125,324506.5625,319134.1875,271142.21875,258665.75,270658.71875,-0.072509765625,0.86474609375,-0.505859375,1.0070799589157104,1.6174315214157104,-1.4648436307907104,60.0,1329019.0,1.0
483978.5591689,288229.15625,304240.6875,313033.34375,324517.65625,319083.3125,271207.125,259196.828125,270845.5625,-0.07177734375,0.864990234375,-0.507080078125,1.0070799589157104,1.7089842557907104,-1.3122557401657104,60.0,1329020.0,1.0
483978.5615364,286296.4375,305602.4375,316665.125,327490.96875,321957.75,271495.9375,262243.09375,271778.1875,-0.071044921875,0.86474609375,-0.506591796875,1.0681151151657104,1.8005369901657104,-1.2207030057907104,60.0,1329021.0,1.0
483978.5639359,288218.0625,306867.5625,319886.1875,329211.09375,323692.4375,271557.71875,263495.34375,272106.75,-0.07373046875,0.86474609375,-0.50537109375,1.0681151151657104,1.8920897245407104,-1.1901854276657104,60.0,1329022.0,1.0
483978.5776412,291478.65625,306339.6875,318282.96875,327343.0,321895.09375,271327.03125,261229.671875,271399.28125,-0.07421875,0.86474609375,-0.505615234375,1.0375975370407104,1.9226073026657104,-0.9155272841453552,60.0,1329023.0,1.0
483978.580145,291345.53125,304709.28125,314083.78125,324482.875,319104.0625,271120.0625,258644.03125,270640.21875,-0.074951171875,0.8623046875,-0.505615234375,1.1596678495407104,1.8920897245407104,-0.8239745497703552,60.0,1329024.0,1.0
483978.5826539,288245.25,304239.96875,313012.40625,324496.28125,319066.53125,271203.21875,259187.625,270838.34375,-0.076416015625,0.8623046875,-0.50439453125,1.2512205839157104,1.8005369901657104,-0.7934569716453552,60.0,1329025.0,1.0
483978.5928437,286302.0,305593.15625,316636.875,327451.46875,321929.5,271477.875,262219.875,271761.09375,-0.076904296875,0.863525390625,-0.504638671875,1.2207030057907104,1.8005369901657104,-0.6408690810203552,60.0,1329026.0,1.0
483978.5928893,288248.75,306887.78125,319888.96875,329194.375,323696.375,271561.71875,263496.9375,272113.09375,-0.0791015625,0.865234375,-0.50830078125,1.2207030057907104,1.7395018339157104,-0.4882812201976776,60.0,1329027.0,1.0
483978.5976977,291523.4375,306374.75,318306.03125,327351.875,321923.6875,271354.5625,261254.171875,271420.46875,-0.078857421875,0.862548828125,-0.506591796875,1.2512205839157104,1.7089842557907104,-0.4272460639476776,60.0,1329028.0,1.0
483978.5977358,291362.15625,304714.65625,314074.3125,324474.125,319103.71875,271132.125,258643.484375,270644.3125,-0.077880859375,0.861572265625,-0.5078125,1.2817381620407104,1.6174315214157104,-0.3051757514476776,60.0,1329029.0,1.0
483978.6003097,288268.3125,304246.6875,313003.21875,324498.4375,319062.125,271213.3125,259179.84375,270837.1875,-0.07861328125,0.862548828125,-0.509521484375,1.1596678495407104,1.5258787870407104,-0.2441406100988388,60.0,1329030.0,1.0
483978.6163895,286348.3125,305611.75,316637.59375,327477.65625,321928.875,271503.625,262219.6875,271772.0,-0.07861328125,0.864990234375,-0.50927734375,1.1596678495407104,1.4343260526657104,-0.0610351525247097,60.0,1329031.0,1.0
483978.6190653,288339.5625,306942.5625,319927.15625,329265.8125,323727.03125,271619.84375,263530.5625,272157.0,-0.07861328125,0.8681640625,-0.508056640625,1.2207030057907104,1.3732908964157104,0.1220703050494194,60.0,1329032.0,1.0
483978.6215935,291615.28125,306429.375,318349.75,327434.65625,321962.84375,271399.71875,261289.765625,271467.3125,-0.078369140625,0.869384765625,-0.507568359375,1.1596678495407104,1.2207030057907104,0.1831054538488388,60.0,1329033.0,1.0
483978.6265637,291416.78125,304720.71875,314074.65625,324527.9375,319102.8125,271124.71875,258635.890625,270650.75,-0.077392578125,0.87109375,-0.508056640625,1.1901854276657104,1.1901854276657104,0.3051757514476776,60.0,1329034.0,1.0
483978.6289399,288324.90625,304245.34375,312998.03125,324550.375,319055.34375,271206.78125,259168.84375,270839.5,-0.0771484375,0.867919921875,-0.50830078125,1.0070799589157104,1.0986326932907104,0.3662109076976776,60.0,1329035.0,1.0
483978.7106398,286399.4375,305606.46875,316625.09375,327511.0,321913.25,271488.6875,262196.0625,271755.125,-0.076416015625,0.866455078125,-0.509033203125,0.8239745497703552,1.0986326932907104,0.4272460639476776,60.0,1329036.0,1.0
483978.7379102,288373.28125,306925.9375,319899.78125,329279.9375,323698.78125,271594.625,263493.0,272128.9375,-0.07373046875,0.8642578125,-0.509033203125,0.7324218153953552,1.0070799589157104,0.5493163466453552,60.0,1329037.0,1.0
483978.7379497,291653.875,306420.4375,318319.78125,327443.0625,321934.15625,271379.78125,261254.53125,271440.75,-0.072998046875,0.85986328125,-0.50830078125,0.7629393935203552,0.9765624403953552,0.6713866591453552,60.0,1329038.0,1.0
483978.7379597,291495.375,304768.5625,314091.46875,324565.5,319122.84375,271152.59375,258647.0625,270662.375,-0.0732421875,0.85888671875,-0.510498046875,0.7629393935203552,1.0681151151657104,0.7324218153953552,60.0,1329039.0,1.0
483978.7503174,288386.0625,304285.65625,313000.875,324558.78125,319060.78125,271224.125,259169.46875,270839.59375,-0.072509765625,0.858642578125,-0.50927734375,0.8544921278953552,0.9460448622703552,0.7629393935203552,60.0,1329040.0,1.0
483978.7577347,286469.09375,305655.03125,316643.9375,327528.4375,321930.40625,271521.0625,262214.125,271775.84375,-0.071044921875,0.859130859375,-0.510009765625,0.8850097060203552,0.9765624403953552,0.8850097060203552,60.0,1329041.0,1.0
483978.7690774,288425.75,306957.15625,319903.90625,329274.28125,323696.8125,271600.8125,263490.96875,272131.0625,-0.07275390625,0.859619140625,-0.5126953125,0.9155272841453552,0.8544921278953552,0.8850097060203552,60.0,1329042.0,1.0
483978.7828321,291683.9375,306434.75,318312.46875,327416.3125,321917.78125,271372.4375,261239.609375,271431.90625,-0.072021484375,0.859375,-0.511474609375,1.0681151151657104,0.9155272841453552,0.9460448622703552,60.0,1329043.0,1.0
483978.7828743,291534.1875,304789.65625,314106.03125,324559.9375,319123.8125,271150.0,258648.671875,270667.84375,-0.071533203125,0.8583984375,-0.513427734375,1.0986326932907104,0.9460448622703552,0.9460448622703552,60.0,1329044.0,1.0
483978.782883,288421.65625,304298.0,313013.03125,324552.09375,319057.5625,271207.9375,259161.609375,270840.75,-0.0703125,0.85693359375,-0.513427734375,1.1596678495407104,0.9460448622703552,0.9155272841453552,60.0,1329045.0,1.0
483978.7828909,286510.5625,305673.09375,316659.40625,327521.75,321930.75,271497.53125,262202.34375,271771.5625,-0.071044921875,0.855712890625,-0.51318359375,1.0986326932907104,0.9460448622703552,0.9155272841453552,60.0,1329046.0,1.0
483978.7828992,288491.375,307004.71875,319950.75,329298.0,323731.3125,271605.71875,263510.0,272151.0,-0.072021484375,0.857177734375,-0.51220703125,1.2207030057907104,0.8544921278953552,0.7934569716453552,60.0,1329047.0,1.0
483978.7829072,291742.9375,306480.875,318360.46875,327441.53125,321952.5,271376.46875,261257.75,271446.3125,-0.07373046875,0.857666015625,-0.51220703125,1.1901854276657104,0.9765624403953552,0.8544921278953552,60.0,1329048.0,1.0
483978.7829152,291572.53125,304809.21875,314121.25,324565.6875,319128.65625,271148.65625,258639.640625,270657.09375,-0.074951171875,0.861328125,-0.51220703125,1.1901854276657104,0.9155272841453552,0.8239745497703552,60.0,1329049.0,1.0
483978.7829229,288482.71875,304337.625,313050.9375,324594.5625,319085.84375,271233.0625,259173.3125,270843.78125,-0.075927734375,0.860595703125,-0.513916015625,1.1901854276657104,0.8544921278953552,0.8544921278953552,60.0,1329050.0,1.0
483978.7829307,286549.46875,305688.0,316675.59375,327552.03125,321940.15625,271503.875,262192.40625,271755.5625,-0.074951171875,0.864013671875,-0.514404296875,1.1901854276657104,0.8850097060203552,0.8239745497703552,60.0,1329051.0,1.0
483978.7829385,288507.84375,306998.71875,319952.71875,329317.9375,323728.03125,271599.28125,263485.59375,272128.9375,-0.0751953125,0.86181640625,-0.514892578125,1.1901854276657104,0.8239745497703552,0.7324218153953552,60.0,1329052.0,1.0
483978.7829462,291761.625,306479.34375,318371.46875,327475.96875,321959.46875,271378.875,261244.609375,271432.96875,-0.076416015625,0.861572265625,-0.51611328125,1.0681151151657104,0.7629393935203552,0.5798339247703552,60.0,1329053.0,1.0
483978.7829541,291602.21875,304827.28125,314160.59375,324615.75,319162.09375,271160.75,258654.75,270668.5625,-0.075927734375,0.863037109375,-0.51513671875,0.9765624403953552,0.6713866591453552,0.4882812201976776,60.0,1329054.0,1.0
483978.7829624,288500.15625,304349.5,313083.65625,324620.75,319113.8125,271235.84375,259181.28125,270851.125,-0.076416015625,0.862548828125,-0.51318359375,0.8850097060203552,0.6408690810203552,0.4577636420726776,60.0,1329055.0,1.0
483978.7829705,286557.96875,305697.59375,316705.8125,327570.09375,321967.40625,271509.875,262197.40625,271763.34375,-0.07568359375,0.864013671875,-0.51318359375,0.8239745497703552,0.4577636420726776,0.3662109076976776,60.0,1329056.0,1.0
483978.7829786,288489.40625,306989.5,319964.4375,329315.78125,323736.78125,271593.90625,263477.1875,272123.21875,-0.076904296875,0.8642578125,-0.514404296875,0.8239745497703552,0.4577636420726776,0.3662109076976776,60.0,1329057.0,1.0
483978.7829879,291748.40625,306484.71875,318389.34375,327469.0,321973.6875,271381.40625,261245.953125,271434.21875,-0.076416015625,0.86474609375,-0.51416015625,0.6713866591453552,0.5187987685203552,0.2136230319738388,60.0,1329058.0,1.0
483978.7851609,291572.09375,304818.875,314161.21875,324584.8125,319161.65625,271155.90625,258645.375,270662.125,-0.075927734375,0.865478515625,-0.511474609375,0.6713866591453552,0.3967284858226776,0.1831054538488388,60.0,1329059.0,1.0
483978.7876929,288464.84375,304331.1875,313077.21875,324582.125,319107.90625,271219.75,259168.75,270847.28125,-0.07421875,0.866943359375,-0.510986328125,0.6103515028953552,0.3967284858226776,0.1525878757238388,60.0,1329060.0,1.0
483978.7940105,286521.03125,305669.96875,316693.21875,327520.5625,321957.03125,271488.15625,262180.0,271759.3125,-0.075927734375,0.86669921875,-0.51318359375,0.4272460639476776,0.3662109076976776,0.2441406100988388,60.0,1329061.0,1.0
483978.7990548,288462.96875,306975.84375,319964.34375,329272.59375,323740.96875,271586.75,263472.71875,272129.09375,-0.0751953125,0.86669921875,-0.513916015625,0.2441406100988388,0.3662109076976776,0.1525878757238388,60.0,1329062.0,1.0
483978.7990951,291724.875,306478.46875,318405.625,327438.3125,321997.09375,271390.4375,261261.59375,271454.71875,-0.07421875,0.8671875,-0.512939453125,0.0,0.4882812201976776,0.2441406100988388,60.0,1329063.0,1.0
483978.7991041,291551.34375,304810.9375,314166.03125,324553.96875,319176.75,271169.0625,258655.5625,270670.96875,-0.0732421875,0.86376953125,-0.513671875,-0.0610351525247097,0.4882812201976776,0.2136230319738388,60.0,1329064.0,1.0
483978.7991124,288461.625,304344.3125,313092.875,324572.75,319134.46875,271260.6875,259197.1875,270870.4375,-0.073974609375,0.863037109375,-0.5146484375,-0.03051757626235485,0.3356933295726776,0.0915527269244194,60.0,1329065.0,1.0
483978.7991214,286517.625,305687.21875,316712.6875,327520.9375,321985.375,271511.84375,262208.25,271783.0,-0.074462890625,0.862548828125,-0.515869140625,-0.0915527269244194,0.4882812201976776,0.2746581733226776,60.0,1329066.0,1.0
483978.8039489,288445.53125,306972.875,319966.65625,329263.28125,323750.1875,271558.59375,263470.3125,272126.6875,-0.073974609375,0.864013671875,-0.51318359375,-0.1220703050494194,0.5798339247703552,0.2441406100988388,60.0,1329067.0,1.0
483978.8064533,291695.375,306458.78125,318386.5,327414.28125,321981.53125,271336.875,261229.234375,271428.875,-0.071533203125,0.862060546875,-0.5126953125,-0.3051757514476776,0.7324218153953552,0.1525878757238388,60.0,1329068.0,1.0
483978.8115951,291533.28125,304811.90625,314169.96875,324545.65625,319178.71875,271120.25,258637.765625,270654.5,-0.0712890625,0.862060546875,-0.510498046875,-0.4272460639476776,0.8544921278953552,0.1831054538488388,60.0,1329069.0,1.0
483978.8116372,288435.6875,304342.625,313094.65625,324553.875,319135.09375,271190.40625,259167.421875,270839.0625,-0.072265625,0.862548828125,-0.511474609375,-0.5187987685203552,0.9155272841453552,0.3051757514476776,60.0,1329070.0,1.0
483978.8140537,286504.59375,305702.9375,316722.28125,327507.625,321996.21875,271474.28125,262188.3125,271762.09375,-0.071044921875,0.861083984375,-0.510498046875,-0.5493163466453552,1.0070799589157104,0.3662109076976776,60.0,1329071.0,1.0
483978.8140932,288431.21875,306995.6875,319974.90625,329246.9375,323760.75,271557.4375,263460.90625,272111.65625,-0.06982421875,0.85888671875,-0.5126953125,-0.6103515028953552,1.0375975370407104,0.4882812201976776,60.0,1329072.0,1.0
483978.8165634,291685.0,306484.0,318402.03125,327406.21875,321997.09375,271341.34375,261229.671875,271419.21875,-0.070068359375,0.8564453125,-0.511962890625,-0.5187987685203552,1.0986326932907104,0.6713866591453552,60.0,1329073.0,1.0
483978.8190945,291528.8125,304833.375,314189.71875,324542.59375,319197.15625,271119.78125,258641.078125,270650.75,-0.072509765625,0.854736328125,-0.515625,-0.4577636420726776,1.1596678495407104,0.7934569716453552,60.0,1329074.0,1.0
483978.8305905,288442.03125,304363.0,313118.53125,324561.5625,319157.0,271211.15625,259181.09375,270850.6875,-0.07177734375,0.856689453125,-0.51513671875,-0.3662109076976776,1.2512205839157104,0.7629393935203552,60.0,1329075.0,1.0
483978.8306442,286489.125,305696.0625,316723.59375,327501.25,321999.15625,271478.3125,262190.09375,271762.34375,-0.072509765625,0.858642578125,-0.511474609375,-0.2441406100988388,1.4648436307907104,0.8850097060203552,60.0,1329076.0,1.0
483978.8328446,288396.34375,306968.6875,319965.9375,329228.78125,323755.375,271544.5625,263457.96875,272106.3125,-0.073486328125,0.8603515625,-0.513427734375,-0.2746581733226776,1.5258787870407104,0.9460448622703552,60.0,1329077.0,1.0
483978.8352732,291650.03125,306458.875,318405.875,327398.25,322002.03125,271335.09375,261237.359375,271424.5,-0.0732421875,0.863525390625,-0.511474609375,-0.3356933295726776,1.5869139432907104,0.9460448622703552,60.0,1329078.0,1.0
483978.8376786,291485.0,304794.46875,314178.71875,324523.5625,319189.28125,271112.90625,258637.953125,270646.5625,-0.072998046875,0.86376953125,-0.5146484375,-0.3356933295726776,1.6174315214157104,0.9460448622703552,60.0,1329079.0,1.0
483978.8402386,288389.5625,304313.03125,313091.4375,324525.34375,319136.875,271190.78125,259163.75,270834.65625,-0.0712890625,0.862548828125,-0.514892578125,-0.3356933295726776,1.6784666776657104,0.9460448622703552,60.0,1329080.0,1.0
483978.8452447,286444.59375,305651.96875,316702.78125,327468.90625,321983.78125,271459.96875,262173.28125,271747.34375,-0.07080078125,0.864013671875,-0.513916015625,-0.3356933295726776,1.7700194120407104,1.0375975370407104,60.0,1329081.0,1.0
483978.8476817,288374.53125,306949.0,319965.875,329224.5,323757.78125,271555.46875,263459.5625,272108.09375,-0.071044921875,0.86669921875,-0.513671875,-0.3662109076976776,1.7395018339157104,1.0070799589157104,60.0,1329082.0,1.0
483978.850212,291624.65625,306431.15625,318394.625,327391.03125,321994.15625,271342.0625,261231.828125,271414.21875,-0.06982421875,0.865966796875,-0.511962890625,-0.3051757514476776,1.7700194120407104,0.9765624403953552,60.0,1329083.0,1.0
483978.8553381,291467.5625,304775.53125,314179.53125,324530.1875,319190.34375,271120.5,258639.375,270641.5625,-0.0693359375,0.865478515625,-0.5126953125,-0.3967284858226776,1.9531248807907104,0.9765624403953552,60.0,1329084.0,1.0
483978.8578082,288369.15625,304293.34375,313086.1875,324534.46875,319132.9375,271188.90625,259159.640625,270826.53125,-0.06982421875,0.866943359375,-0.513916015625,-0.4577636420726776,2.075195074081421,1.0070799589157104,60.0,1329085.0,1.0
483978.8578476,286422.34375,305633.21875,316695.90625,327484.0,321985.65625,271469.09375,262179.8125,271749.3125,-0.068603515625,0.863525390625,-0.5126953125,-0.5798339247703552,2.075195074081421,1.1291502714157104,60.0,1329086.0,1.0
483978.8642174,288338.40625,306920.125,319946.375,329234.78125,323754.75,271557.0,263465.46875,272104.875,-0.06884765625,0.863037109375,-0.513916015625,-0.5798339247703552,2.197265386581421,1.1596678495407104,60.0,1329087.0,1.0
483978.868944,291594.15625,306414.28125,318382.1875,327408.1875,321997.5625,271347.34375,261243.71875,271418.0625,-0.068603515625,0.86328125,-0.51513671875,-0.7324218153953552,2.319335699081421,1.2817381620407104,60.0,1329088.0,1.0
483978.8753407,291446.28125,304764.96875,314167.0,324543.6875,319194.46875,271130.15625,258655.203125,270646.75,-0.069580078125,0.863525390625,-0.512939453125,-0.6103515028953552,2.349853277206421,1.3122557401657104,60.0,1329089.0,1.0
483978.9091071,288339.65625,304273.34375,313063.5625,324537.78125,319129.1875,271198.46875,259173.046875,270825.625,-0.0693359375,0.8642578125,-0.5078125,-0.6408690810203552,2.319335699081421,1.2817381620407104,60.0,1329090.0,1.0
483978.9091488,286382.625,305605.84375,316656.1875,327476.0625,321967.0625,271464.09375,262179.625,271736.15625,-0.068603515625,0.8623046875,-0.510498046875,-0.6713866591453552,2.410888433456421,1.2207030057907104,60.0,1329091.0,1.0
483978.9091576,288317.9375,306913.25,319927.15625,329237.71875,323759.59375,271554.40625,263480.5,272107.8125,-0.0703125,0.862548828125,-0.5126953125,-0.7324218153953552,2.563476324081421,1.1901854276657104,60.0,1329092.0,1.0
483978.9091654,291580.125,306404.34375,318368.34375,327404.6875,322009.71875,271332.75,261259.8125,271419.75,-0.067626953125,0.862548828125,-0.51123046875,-0.8239745497703552,2.624511480331421,1.2512205839157104,60.0,1329093.0,1.0
483978.9091732,291422.78125,304735.65625,314139.375,324529.5625,319194.375,271106.75,258656.984375,270632.78125,-0.066650390625,0.863525390625,-0.51025390625,-0.7934569716453552,2.746581792831421,1.2207030057907104,60.0,1329094.0,1.0
483978.909181,288324.65625,304248.84375,313033.34375,324525.1875,319129.09375,271188.90625,259175.828125,270819.46875,-0.06884765625,0.8662109375,-0.509033203125,-0.8850097060203552,2.777099370956421,1.2512205839157104,60.0,1329095.0,1.0
483978.9091887,286362.6875,305584.03125,316621.5,327458.34375,321964.46875,271459.1875,262179.53125,271734.46875,-0.068359375,0.864990234375,-0.50927734375,-0.9460448622703552,2.868652105331421,1.1901854276657104,60.0,1329096.0,1.0
483978.9091965,288283.59375,306882.40625,319878.875,329213.59375,323740.90625,271554.84375,263470.75,272098.625,-0.0703125,0.865234375,-0.51171875,-1.0375975370407104,2.960204839706421,1.2512205839157104,60.0,1329097.0,1.0
483978.9092043,291545.09375,306377.34375,318315.59375,327383.15625,321982.53125,271340.4375,261246.046875,271403.65625,-0.070556640625,0.865478515625,-0.508056640625,-0.9460448622703552,2.868652105331421,1.1901854276657104,60.0,1329098.0,1.0
483978.9092126,291409.71875,304735.5625,314109.0,324530.625,319184.96875,271135.53125,258661.28125,270638.78125,-0.0693359375,0.8642578125,-0.508056640625,-1.0681151151657104,2.990722417831421,1.1901854276657104,60.0,1329099.0,1.0
483978.9092204,288311.9375,304253.125,313012.5,324535.625,319126.875,271198.03125,259183.59375,270826.09375,-0.069091796875,0.864501953125,-0.505859375,-1.0375975370407104,3.051757574081421,1.1596678495407104,60.0,1329100.0,1.0
483978.9092283,286354.5625,305592.875,316607.03125,327477.03125,321971.4375,271461.15625,262195.0,271742.34375,-0.068115234375,0.865478515625,-0.50732421875,-1.0375975370407104,3.051757574081421,1.1291502714157104,60.0,1329101.0,1.0
483978.9092363,288271.1875,306889.375,319860.0,329234.40625,323745.1875,271552.59375,263482.90625,272102.375,-0.068359375,0.864013671875,-0.5107421875,-1.0681151151657104,3.173827886581421,1.1291502714157104,60.0,1329102.0,1.0
483978.9092441,291549.375,306400.21875,318315.3125,327419.375,322000.5,271339.8125,261266.0625,271416.875,-0.06787109375,0.86474609375,-0.510498046875,-1.1291502714157104,3.204345464706421,1.1596678495407104,60.0,1329103.0,1.0
483978.9092518,291407.9375,304747.46875,314101.125,324548.6875,319186.9375,271115.40625,258662.265625,270634.40625,-0.068359375,0.864013671875,-0.509033203125,-1.1291502714157104,3.082275152206421,1.1901854276657104,60.0,1329104.0,1.0
483978.9092596,288308.71875,304261.71875,312991.59375,324537.96875,319120.34375,271187.5625,259174.65625,270816.53125,-0.06884765625,0.86376953125,-0.509033203125,-1.1291502714157104,3.173827886581421,1.1291502714157104,60.0,1329105.0,1.0
483978.9177926,286332.9375,305590.28125,316564.03125,327461.75,321950.875,271451.3125,262172.90625,271721.21875,-0.068359375,0.862060546875,-0.50927734375,-1.0375975370407104,3.143310308456421,1.1596678495407104,60.0,1329106.0,1.0
483978.9178318,288253.90625,306891.34375,319824.5,329224.3125,323734.28125,271549.3125,263472.375,272091.375,-0.068359375,0.861328125,-0.5078125,-1.0375975370407104,3.173827886581421,1.1291502714157104,60.0,1329107.0,1.0
483978.9178405,291538.8125,306399.875,318285.90625,327413.375,321992.90625,271346.4375,261265.0,271413.3125,-0.0673828125,0.86083984375,-0.509765625,-1.0986326932907104,3.173827886581421,1.1596678495407104,60.0,1329108.0,1.0
483978.9178483,291403.1875,304746.46875,314076.53125,324545.75,319184.625,271130.25,258668.171875,270635.75,-0.06884765625,0.860595703125,-0.50732421875,-1.0375975370407104,3.204345464706421,1.2207030057907104,60.0,1329109.0,1.0
483978.9178561,288308.09375,304261.625,312975.5,324542.78125,319122.84375,271210.1875,259187.359375,270826.34375,-0.068115234375,0.8623046875,-0.509033203125,-1.0070799589157104,3.082275152206421,1.0375975370407104,60.0,1329110.0,1.0
483978.9201811,286338.75,305592.25,316558.90625,327471.9375,321957.59375,271475.09375,262191.875,271739.375,-0.069580078125,0.8642578125,-0.510986328125,-0.9155272841453552,3.112792730331421,1.1596678495407104,60.0,1329111.0,1.0
483978.9228519,288250.875,306885.34375,319817.34375,329226.1875,323732.40625,271553.875,263478.25,272098.15625,-0.069580078125,0.867919921875,-0.508544921875,-0.8239745497703552,3.082275152206421,1.0681151151657104,60.0,1329112.0,1.0
483978.9252961,291533.71875,306393.15625,318286.0,327414.0,321992.71875,271338.75,261265.703125,271414.46875,-0.069091796875,0.8662109375,-0.507080078125,-0.8850097060203552,3.112792730331421,1.0681151151657104,60.0,1329113.0,1.0
483978.9253298,291414.8125,304746.1875,314078.9375,324552.625,319184.4375,271120.78125,258667.0,270638.78125,-0.070556640625,0.865478515625,-0.5078125,-1.0070799589157104,3.112792730331421,1.1291502714157104,60.0,1329114.0,1.0
483978.9277576,288319.1875,304261.15625,312968.4375,324547.4375,319113.0,271201.40625,259180.65625,270821.875,-0.06884765625,0.86669921875,-0.509033203125,-0.9765624403953552,3.112792730331421,1.0986326932907104,60.0,1329115.0,1.0
483978.9277972,286336.78125,305588.0625,316543.53125,327473.1875,321941.9375,271466.59375,262182.9375,271728.03125,-0.0712890625,0.86474609375,-0.51025390625,-1.0070799589157104,3.051757574081421,1.1901854276657104,60.0,1329116.0,1.0
483978.9301595,288233.4375,306870.875,319788.9375,329207.25,323704.25,271534.09375,263456.71875,272069.375,-0.071533203125,0.863037109375,-0.507080078125,-1.0986326932907104,2.960204839706421,1.0986326932907104,60.0,1329117.0,1.0
483978.9331341,288233.4375,306870.875,319788.9375,329207.25,323704.25,271534.09375,263456.71875,272069.375,-0.071533203125,0.863037109375,-0.507080078125,-1.0986326932907104,2.960204839706421,1.0986326932907104,60.0,1329118.0,0.0
483978.9331425,288233.4375,306870.875,319788.9375,329207.25,323704.25,271534.09375,263456.71875,272069.375,-0.071533203125,0.863037109375,-0.507080078125,-1.0986326932907104,2.960204839706421,1.0986326932907104,60.0,1329119.0,0.0
483978.933144,288233.4375,306870.875,319788.9375,329207.25,323704.25,271534.09375,263456.71875,272069.375,-0.071533203125,0.863037109375,-0.507080078125,-1.0986326932907104,2.960204839706421,1.0986326932907104,60.0,1329120.0,0.0
483978.9331455,288233.4375,306870.875,319788.9375,329207.25,323704.25,271534.09375,263456.71875,272069.375,-0.071533203125,0.863037109375,-0.507080078125,-1.0986326932907104,2.960204839706421,1.0986326932907104,60.0,1329121.0,0.0
483978.9331469,288233.4375,306870.875,319788.9375,329207.25,323704.25,271534.09375,263456.71875,272069.375,-0.071533203125,0.863037109375,-0.507080078125,-1.0986326932907104,2.960204839706421,1.0986326932907104,60.0,1329122.0,0.0
483978.9331482,288233.4375,306870.875,319788.9375,329207.25,323704.25,271534.09375,263456.71875,272069.375,-0.071533203125,0.863037109375,-0.507080078125,-1.0986326932907104,2.960204839706421,1.0986326932907104,60.0,1329123.0,0.0
483978.9331495,291425.625,304760.875,314093.25,324550.46875,319180.5,271114.5,258666.734375,270625.8125,-0.06689453125,0.867431640625,-0.507568359375,-0.7629393935203552,2.777099370956421,1.0375975370407104,60.0,1329124.0,1.0
483978.9331847,288313.09375,304254.28125,312970.125,324525.53125,319097.1875,271164.40625,259161.6875,270803.5625,-0.06591796875,0.86669921875,-0.508056640625,-0.7934569716453552,2.807616949081421,1.0375975370407104,60.0,1329125.0,1.0
483978.9331932,286323.96875,305576.34375,316540.9375,327446.0,321924.15625,271430.46875,262159.96875,271713.09375,-0.06494140625,0.867431640625,-0.510498046875,-0.8544921278953552,2.777099370956421,1.0681151151657104,60.0,1329126.0,1.0
483978.9416525,288246.78125,306892.3125,319822.0,329222.34375,323723.1875,271528.125,263471.75,272085.03125,-0.063232421875,0.864990234375,-0.50634765625,-0.8544921278953552,2.716064214706421,1.0986326932907104,60.0,1329127.0,1.0
483978.9416927,291560.28125,306421.96875,318313.8125,327429.28125,322003.71875,271321.9375,261275.0,271410.375,-0.06640625,0.863525390625,-0.503173828125,-0.8544921278953552,2.929687261581421,1.1291502714157104,60.0,1329128.0,1.0
483978.941702,291454.34375,304785.0,314122.65625,324563.34375,319205.53125,271109.25,258681.125,270637.96875,-0.06689453125,0.86328125,-0.505859375,-1.0681151151657104,2.899169683456421,1.0681151151657104,60.0,1329129.0,1.0
483978.9440637,288336.90625,304280.21875,312997.5625,324531.53125,319123.125,271187.375,259181.984375,270812.5,-0.068603515625,0.861572265625,-0.509033203125,-1.0070799589157104,2.868652105331421,1.0375975370407104,60.0,1329130.0,1.0
483978.9464438,286345.4375,305604.40625,316570.375,327458.25,321959.8125,271464.90625,262190.0,271728.65625,-0.070556640625,0.860595703125,-0.510009765625,-0.8544921278953552,2.716064214706421,0.9460448622703552,60.0,1329131.0,1.0
483978.9528645,288252.3125,306903.6875,319835.15625,329216.71875,323745.71875,271549.84375,263482.375,272087.8125,-0.069091796875,0.86328125,-0.5078125,-0.7934569716453552,2.655029058456421,0.8239745497703552,60.0,1329132.0,1.0
483978.9529045,291543.46875,306411.21875,318307.09375,327403.09375,322001.75,271324.34375,261259.09375,271397.40625,-0.070068359375,0.86328125,-0.50830078125,-0.7019042372703552,2.624511480331421,0.8239745497703552,60.0,1329133.0,1.0
483978.9677272,291425.09375,304754.96875,314097.09375,324525.71875,319182.5625,271093.875,258642.953125,270613.3125,-0.069580078125,0.866943359375,-0.506591796875,-0.7324218153953552,2.502441167831421,0.8239745497703552,60.0,1329134.0,1.0
483978.9677413,288316.96875,304257.78125,312970.75,324496.5625,319102.28125,271168.25,259142.921875,270793.28125,-0.07080078125,0.865966796875,-0.506591796875,-0.7934569716453552,2.410888433456421,0.7934569716453552,60.0,1329135.0,1.0
483978.9677433,286331.21875,305593.96875,316547.84375,327424.09375,321943.09375,271443.09375,262154.5,271710.6875,-0.070068359375,0.864501953125,-0.505615234375,-0.9155272841453552,2.380370855331421,0.7324218153953552,60.0,1329136.0,1.0
483978.9677448,288244.8125,306904.65625,319833.71875,329196.6875,323748.84375,271532.3125,263468.59375,272083.78125,-0.0693359375,0.863525390625,-0.505859375,-0.9765624403953552,2.288818120956421,0.7324218153953552,60.0,1329137.0,1.0
483978.9677464,291550.625,306428.40625,318326.5,327398.4375,322022.59375,271321.5,261263.65625,271405.53125,-0.06787109375,0.864990234375,-0.507080078125,-1.0986326932907104,2.258300542831421,0.7934569716453552,60.0,1329138.0,1.0
483978.9677481,291440.9375,304776.34375,314118.75,324522.84375,319201.78125,271094.84375,258646.265625,270621.4375,-0.0673828125,0.8642578125,-0.506591796875,-1.0375975370407104,2.197265386581421,0.6713866591453552,60.0,1329139.0,1.0
483978.9716581,288337.53125,304279.59375,312991.5,324499.59375,319120.4375,271176.84375,259143.8125,270802.46875,-0.067626953125,0.863525390625,-0.508544921875,-0.9765624403953552,2.105712652206421,0.7324218153953552,60.0,1329140.0,1.0
483978.9716706,286344.28125,305610.15625,316561.78125,327430.375,321954.1875,271453.8125,262151.65625,271716.84375,-0.0693359375,0.863525390625,-0.50732421875,-0.9765624403953552,2.105712652206421,0.6713866591453552,60.0,1329141.0,1.0
483978.9716724,288248.375,306909.9375,319837.375,329199.46875,323743.125,271540.53125,263455.90625,272078.0625,-0.068115234375,0.86181640625,-0.505126953125,-0.9155272841453552,2.014159917831421,0.6408690810203552,60.0,1329142.0,1.0
483978.9716744,291549.65625,306421.25,318323.1875,327395.75,322007.75,271324.53125,261245.6875,271392.5625,-0.070068359375,0.8642578125,-0.50537109375,-0.9155272841453552,1.9531248807907104,0.6103515028953552,60.0,1329143.0,1.0
483978.974035,291455.125,304780.96875,314133.65625,324534.5625,319202.0625,271103.6875,258642.234375,270617.40625,-0.072021484375,0.86376953125,-0.506591796875,-0.9460448622703552,1.9836424589157104,0.4577636420726776,60.0,1329144.0,1.0
483978.9765741,288345.46875,304281.28125,313004.8125,324499.875,319113.625,271167.71875,259134.78125,270793.09375,-0.073974609375,0.86328125,-0.507080078125,-0.9155272841453552,1.9531248807907104,0.3051757514476776,60.0,1329145.0,1.0
483978.9765875,286336.3125,305596.46875,316561.78125,327414.1875,321935.5,271437.4375,262133.21875,271700.9375,-0.073486328125,0.8662109375,-0.50732421875,-0.9155272841453552,1.8005369901657104,0.2746581733226776,60.0,1329146.0,1.0
483978.981482,288241.5,306901.53125,319845.15625,329188.90625,323732.40625,271532.40625,263446.25,272070.625,-0.07373046875,0.867431640625,-0.505126953125,-0.9460448622703552,1.6479490995407104,0.1525878757238388,60.0,1329147.0,1.0
483978.9913962,291574.5,306447.625,318368.96875,327416.9375,322025.8125,271337.125,261262.484375,271414.03125,-0.0732421875,0.866455078125,-0.507568359375,-0.9765624403953552,1.5563963651657104,0.1220703050494194,60.0,1329148.0,1.0
483978.9914123,291482.0625,304804.6875,314177.5625,324546.8125,319218.0625,271098.59375,258646.4375,270631.0,-0.07421875,0.86767578125,-0.50732421875,-0.9155272841453552,1.4953612089157104,0.1220703050494194,60.0,1329149.0,1.0
483978.9939794,288376.3125,304300.6875,313045.6875,324500.9375,319129.28125,271171.03125,259134.609375,270798.1875,-0.07421875,0.869384765625,-0.5078125,-1.0070799589157104,1.3732908964157104,0.0610351525247097,60.0,1329150.0,1.0
483978.9964922,286371.8125,305615.6875,316608.53125,327408.28125,321948.90625,271439.96875,262129.65625,271698.15625,-0.074951171875,0.87109375,-0.5048828125,-1.0681151151657104,1.3122557401657104,0.0610351525247097,60.0,1329151.0,1.0
483978.9990514,288293.25,306939.0,319920.1875,329195.53125,323767.625,271538.9375,263458.40625,272080.90625,-0.07177734375,0.870361328125,-0.509033203125,-1.0986326932907104,1.2817381620407104,0.0610351525247097,60.0,1329152.0,1.0
483979.001482,291600.25,306458.78125,318434.15625,327399.0625,322049.125,271319.53125,261256.5,271400.96875,-0.07177734375,0.86865234375,-0.50732421875,-1.1291502714157104,1.2207030057907104,0.0915527269244194,60.0,1329153.0,1.0
483979.0039812,291502.78125,304801.90625,314232.90625,324512.84375,319226.5625,271094.84375,258633.484375,270613.03125,-0.072265625,0.86865234375,-0.50830078125,-1.1901854276657104,1.1901854276657104,0.0915527269244194,60.0,1329154.0,1.0
483979.0064948,288415.03125,304312.84375,313115.6875,324481.1875,319145.65625,271188.8125,259134.15625,270797.125,-0.072021484375,0.86865234375,-0.50830078125,-1.1291502714157104,1.1596678495407104,0.1831054538488388,60.0,1329155.0,1.0
483979.0090759,286417.6875,305637.78125,316687.9375,327397.5625,321975.03125,271467.59375,262138.5,271705.40625,-0.07177734375,0.866943359375,-0.506591796875,-1.1901854276657104,1.1901854276657104,0.3356933295726776,60.0,1329156.0,1.0
483979.0090984,288326.25,306949.375,319989.1875,329181.40625,323778.53125,271558.15625,263453.3125,272075.09375,-0.072021484375,0.867431640625,-0.505859375,-1.0070799589157104,1.1901854276657104,0.2746581733226776,60.0,1329157.0,1.0
483979.0114794,291656.84375,306485.625,318518.71875,327398.90625,322067.71875,271349.46875,261258.28125,271407.84375,-0.071044921875,0.864990234375,-0.50439453125,-0.9765624403953552,1.1291502714157104,0.1220703050494194,60.0,1329158.0,1.0
483979.013886,291578.0625,304846.6875,314345.03125,324523.90625,319260.96875,271116.03125,258643.9375,270627.59375,-0.071533203125,0.861572265625,-0.505859375,-0.8544921278953552,1.1901854276657104,0.2441406100988388,60.0,1329159.0,1.0
483979.0190897,288477.4375,304342.71875,313221.71875,324473.6875,319170.15625,271195.6875,259128.609375,270803.09375,-0.071533203125,0.862548828125,-0.503173828125,-0.8239745497703552,1.2207030057907104,0.2136230319738388,60.0,1329160.0,1.0
483979.0228057,286455.84375,305647.34375,316772.34375,327364.03125,321975.5625,271453.71875,262107.125,271694.59375,-0.069091796875,0.862060546875,-0.505615234375,-0.8544921278953552,1.1901854276657104,0.3051757514476776,60.0,1329161.0,1.0
483979.022835,288372.9375,306972.78125,320082.0,329152.6875,323781.84375,271548.9375,263428.8125,272066.875,-0.070556640625,0.862548828125,-0.503173828125,-0.8239745497703552,1.1901854276657104,0.4272460639476776,60.0,1329162.0,1.0
483979.0228419,291719.15625,306527.1875,318631.5625,327380.90625,322085.15625,271347.25,261247.296875,271407.5,-0.0703125,0.861572265625,-0.50439453125,-0.7324218153953552,1.1901854276657104,0.5493163466453552,60.0,1329163.0,1.0
483979.0251763,291644.0625,304889.0,314457.59375,324497.90625,319273.5,271116.75,258626.765625,270624.46875,-0.06982421875,0.862548828125,-0.505126953125,-0.7019042372703552,1.0986326932907104,0.5187987685203552,60.0,1329164.0,1.0
483979.0303722,288550.03125,304386.53125,313330.96875,324446.40625,319173.4375,271188.46875,259100.1875,270792.46875,-0.06884765625,0.860595703125,-0.503662109375,-0.6713866591453552,1.0375975370407104,0.5798339247703552,60.0,1329165.0,1.0
483979.0304127,286566.90625,305728.0625,316924.9375,327369.5625,322019.71875,271472.21875,262115.25,271713.71875,-0.0693359375,0.85986328125,-0.50244140625,-0.6103515028953552,1.0681151151657104,0.5798339247703552,60.0,1329166.0,1.0
483979.0326785,288486.28125,307050.21875,320247.21875,329162.0,323840.3125,271579.59375,263443.84375,272095.9375,-0.06982421875,0.85888671875,-0.50341796875,-0.5798339247703552,1.0986326932907104,0.7629393935203552,60.0,1329167.0,1.0
483979.034423,291808.65625,306580.84375,318782.03125,327369.9375,322118.0625,271365.84375,261237.71875,271410.53125,-0.06787109375,0.85986328125,-0.505126953125,-0.4272460639476776,1.2817381620407104,0.8544921278953552,60.0,1329168.0,1.0
483979.0415681,291760.5625,304958.71875,314623.71875,324501.84375,319314.25,271156.09375,258624.09375,270634.84375,-0.070556640625,0.861328125,-0.50439453125,-0.2136230319738388,1.3427733182907104,0.8239745497703552,60.0,1329169.0,1.0
483979.0440686,288678.0625,304455.8125,313498.0625,324444.625,319213.6875,271228.40625,259093.03125,270801.59375,-0.06884765625,0.86572265625,-0.5048828125,-0.3051757514476776,1.3122557401657104,0.8239745497703552,60.0,1329170.0,1.0
483979.0465531,286692.59375,305783.59375,317082.65625,327366.4375,322046.8125,271511.03125,262094.78125,271720.25,-0.069091796875,0.867919921875,-0.502197265625,-0.3051757514476776,1.3732908964157104,0.8544921278953552,60.0,1329171.0,1.0
483979.0480409,288626.125,307118.71875,320423.8125,329182.46875,323876.25,271623.40625,263434.90625,272110.875,-0.0693359375,0.869140625,-0.506103515625,-0.2441406100988388,1.3732908964157104,0.8850097060203552,60.0,1329172.0,1.0
483979.0594177,291917.09375,306611.84375,318928.65625,327363.5625,322125.40625,271373.09375,261199.546875,271395.96875,-0.0693359375,0.869873046875,-0.50390625,-0.3662109076976776,1.3732908964157104,0.9765624403953552,60.0,1329173.0,1.0
483979.0991079,291857.5625,304977.125,314763.1875,324492.90625,319316.40625,271154.03125,258579.203125,270616.96875,-0.071044921875,0.867919921875,-0.506591796875,-0.5493163466453552,1.3427733182907104,0.9765624403953552,60.0,1329174.0,1.0
483979.0991484,288754.6875,304454.28125,313616.0,324426.5625,319202.96875,271215.0,259036.078125,270772.1875,-0.070068359375,0.8671875,-0.507080078125,-0.5493163466453552,1.4953612089157104,0.9155272841453552,60.0,1329175.0,1.0
483979.1128443,286736.78125,305759.4375,317169.40625,327342.75,322018.375,271496.625,262032.46875,271685.28125,-0.06884765625,0.865478515625,-0.5029296875,-0.5798339247703552,1.4953612089157104,0.9155272841453552,60.0,1329176.0,1.0
483979.1128865,288655.0,307094.65625,320503.75,329175.40625,323857.65625,271621.375,263394.3125,272093.25,-0.069580078125,0.86572265625,-0.504150390625,-0.7629393935203552,1.5869139432907104,0.9155272841453552,60.0,1329177.0,1.0
483979.1128967,291978.15625,306629.5625,319044.25,327408.28125,322154.375,271415.71875,261215.109375,271423.40625,-0.071533203125,0.86474609375,-0.504150390625,-0.7324218153953552,1.5869139432907104,0.5798339247703552,60.0,1329178.0,1.0
483979.1167693,291893.5,304975.71875,314859.75,324530.0,319338.0625,271179.5,258593.421875,270639.3125,-0.072021484375,0.865478515625,-0.503662109375,-0.6713866591453552,1.6479490995407104,0.5493163466453552,60.0,1329179.0,1.0
483979.1168094,288797.78125,304462.4375,313719.90625,324487.1875,319244.53125,271247.5625,259071.578125,270819.03125,-0.070556640625,0.8701171875,-0.502197265625,-0.6103515028953552,1.5869139432907104,0.6103515028953552,60.0,1329180.0,1.0
483979.1168194,286764.125,305752.125,317255.65625,327393.15625,322057.1875,271489.9375,262061.15625,271722.46875,-0.071533203125,0.87109375,-0.50634765625,-0.7019042372703552,1.5258787870407104,0.5798339247703552,60.0,1329181.0,1.0
483979.1202952,288635.15625,307040.46875,320538.59375,329189.4375,323858.5625,271579.4375,263389.75,272091.03125,-0.071044921875,0.870361328125,-0.50439453125,-0.8239745497703552,1.5563963651657104,0.4882812201976776,60.0,1329182.0,1.0
483979.120336,291939.71875,306559.03125,319055.78125,327413.8125,322142.5625,271369.15625,261200.796875,271408.40625,-0.071533203125,0.86767578125,-0.502197265625,-0.8239745497703552,1.4648436307907104,0.5493163466453552,60.0,1329183.0,1.0
483979.120346,291855.875,304911.15625,314860.09375,324542.15625,319325.09375,271140.71875,258582.34375,270627.15625,-0.07275390625,0.86572265625,-0.500732421875,-0.7934569716453552,1.3122557401657104,0.7019042372703552,60.0,1329184.0,1.0
483979.122831,288748.0625,304397.875,313692.875,324488.34375,319217.875,271209.90625,259055.203125,270798.46875,-0.072265625,0.863525390625,-0.503662109375,-0.7629393935203552,1.3427733182907104,0.7324218153953552,60.0,1329185.0,1.0
483979.125259,286721.5625,305710.1875,317225.53125,327412.46875,322044.9375,271488.59375,262068.3125,271712.90625,-0.070556640625,0.8603515625,-0.50244140625,-0.7019042372703552,1.3732908964157104,0.7629393935203552,60.0,1329186.0,1.0
483979.125302,288572.46875,306996.40625,320489.4375,329202.59375,323840.6875,271567.375,263395.375,272072.78125,-0.0703125,0.857421875,-0.50341796875,-0.6408690810203552,1.3732908964157104,0.6713866591453552,60.0,1329187.0,1.0
483979.1277574,291890.1875,306540.59375,319019.65625,327454.78125,322146.78125,271364.125,261228.0625,271422.625,-0.06982421875,0.857177734375,-0.505859375,-0.3967284858226776,1.3732908964157104,0.5493163466453552,60.0,1329188.0,1.0
483979.1277915,291807.75,304895.0625,314814.9375,324583.90625,319329.90625,271140.96875,258612.921875,270640.65625,-0.0693359375,0.85888671875,-0.5078125,-0.3051757514476776,1.3732908964157104,0.3967284858226776,60.0,1329189.0,1.0
483979.1315539,288691.65625,304378.375,313635.9375,324523.28125,319218.34375,271217.78125,259091.15625,270807.40625,-0.06884765625,0.862548828125,-0.509033203125,-0.1220703050494194,1.4038084745407104,0.4272460639476776,60.0,1329190.0,1.0
483979.131594,286644.15625,305674.96875,317142.21875,327437.4375,322028.03125,271485.03125,262093.4375,271717.46875,-0.068603515625,0.865234375,-0.510986328125,0.0610351525247097,1.5563963651657104,0.5798339247703552,60.0,1329191.0,1.0
483979.131604,288505.4375,306971.4375,320405.3125,329248.28125,323836.375,271572.625,263433.5625,272094.78125,-0.070068359375,0.8671875,-0.508056640625,0.0,1.6479490995407104,0.4882812201976776,60.0,1329192.0,1.0
483979.136223,291811.15625,306507.53125,318921.6875,327493.125,322139.34375,271368.875,261265.796875,271434.5,-0.07080078125,0.86865234375,-0.5078125,0.0915527269244194,1.5869139432907104,0.5187987685203552,60.0,1329193.0,1.0
483979.1362648,291718.34375,304857.15625,314701.75,324617.625,319315.0625,271140.0,258645.546875,270651.21875,-0.07275390625,0.86962890625,-0.50439453125,0.0610351525247097,1.5563963651657104,0.5493163466453552,60.0,1329194.0,1.0
483979.1427089,288594.90625,304334.3125,313504.34375,324552.34375,319193.75,271203.125,259112.078125,270818.21875,-0.072265625,0.869384765625,-0.50439453125,0.0610351525247097,1.6174315214157104,0.5798339247703552,60.0,1329195.0,1.0
483979.1453804,286549.65625,305642.5,317018.21875,327473.8125,322019.28125,271461.6875,262127.140625,271731.4375,-0.073974609375,0.870361328125,-0.50634765625,0.0,1.6479490995407104,0.6408690810203552,60.0,1329196.0,1.0
483979.1454211,288410.65625,306954.09375,320296.84375,329294.0625,323847.375,271558.78125,263488.53125,272116.3125,-0.0751953125,0.867919921875,-0.5048828125,0.0610351525247097,1.5869139432907104,0.5798339247703552,60.0,1329197.0,1.0
483979.1528073,291688.21875,306467.28125,318780.15625,327517.53125,322123.53125,271341.15625,261299.59375,271432.0,-0.074462890625,0.864013671875,-0.5068359375,0.0,1.6174315214157104,0.5493163466453552,60.0,1329198.0,1.0
483979.1651867,291595.5,304820.84375,314549.59375,324637.90625,319295.5,271111.28125,258676.484375,270647.8125,-0.073974609375,0.8583984375,-0.50390625,0.03051757626235485,1.6174315214157104,0.6103515028953552,60.0,1329199.0,1.0
483979.1677522,288478.6875,304306.3125,313345.28125,324572.28125,319179.15625,271186.40625,259148.375,270821.34375,-0.0712890625,0.854736328125,-0.5029296875,0.2136230319738388,1.5563963651657104,0.5798339247703552,60.0,1329200.0,1.0
483979.1740894,286421.875,305605.5,316830.71875,327473.0,321984.21875,271443.96875,262148.6875,271722.65625,-0.0693359375,0.85546875,-0.506103515625,0.3662109076976776,1.5563963651657104,0.4882812201976776,60.0,1329201.0,1.0
483979.176434,288278.40625,306917.53125,320103.28125,329293.78125,323808.03125,271542.25,263512.40625,272112.28125,-0.06787109375,0.85595703125,-0.507080078125,0.6408690810203552,1.5869139432907104,0.4882812201976776,60.0,1329202.0,1.0
483979.1828171,291571.1875,306444.65625,318602.21875,327532.1875,322102.40625,271334.53125,261344.125,271443.0,-0.06640625,0.857177734375,-0.50830078125,0.8850097060203552,1.6784666776657104,0.4272460639476776,60.0,1329203.0,1.0
483979.1853277,291464.4375,304773.84375,314346.53125,324629.96875,319256.96875,271091.4375,258704.28125,270641.5625,-0.06494140625,0.85888671875,-0.508544921875,1.2512205839157104,1.8310545682907104,0.1525878757238388,60.0,1329204.0,1.0
483979.1877669,288353.96875,304279.6875,313146.875,324572.03125,319150.5625,271160.90625,259185.5625,270824.46875,-0.062255859375,0.862548828125,-0.50537109375,1.2817381620407104,1.9531248807907104,0.4882812201976776,60.0,1329205.0,1.0
483979.1878068,286296.34375,305577.5,316635.625,327481.0625,321965.4375,271423.3125,262192.59375,271733.21875,-0.060302734375,0.8642578125,-0.507080078125,1.0070799589157104,1.9531248807907104,0.8544921278953552,60.0,1329206.0,1.0
483979.1964425,288129.125,306846.46875,319878.15625,329288.5,323770.5625,271513.0,263533.15625,272103.96875,-0.0595703125,0.863525390625,-0.509521484375,1.0375975370407104,2.166747808456421,1.0375975370407104,60.0,1329207.0,1.0
483979.1989334,291435.90625,306379.5,318386.21875,327556.4375,322084.625,271319.53125,261383.015625,271451.84375,-0.062255859375,0.86669921875,-0.510009765625,1.0681151151657104,2.349853277206421,1.2817381620407104,60.0,1329208.0,1.0
483979.2053379,291355.28125,304725.90625,314150.21875,324700.40625,319268.125,271109.25,258777.421875,270681.34375,-0.067138671875,0.867431640625,-0.507568359375,1.0070799589157104,2.502441167831421,1.2207030057907104,60.0,1329209.0,1.0
483979.2077572,288222.4375,304171.59375,312908.0,324639.96875,319128.9375,271185.5,259242.703125,270846.21875,-0.07177734375,0.86572265625,-0.507080078125,0.9765624403953552,2.624511480331421,1.3732908964157104,60.0,1329210.0,1.0
483979.2101953,286146.96875,305443.65625,316365.96875,327560.8125,321921.8125,271435.3125,262239.53125,271742.5,-0.07470703125,0.863525390625,-0.506591796875,0.8239745497703552,2.593993902206421,1.2207030057907104,60.0,1329211.0,1.0
483979.212723,287980.6875,306731.5625,319610.125,329397.0625,323737.59375,271513.71875,263597.96875,272112.46875,-0.076904296875,0.862548828125,-0.506591796875,0.9460448622703552,2.502441167831421,1.0375975370407104,60.0,1329212.0,1.0
483979.2215179,291244.9375,306233.65625,318071.5,327667.65625,322031.78125,271307.53125,261446.21875,271451.5,-0.076904296875,0.859619140625,-0.50537109375,1.0375975370407104,2.441406011581421,0.9460448622703552,60.0,1329213.0,1.0
483979.2240835,291129.4375,304552.375,313784.8125,324814.125,319198.46875,271089.21875,258842.6875,270674.53125,-0.0791015625,0.85986328125,-0.509765625,1.1291502714157104,2.288818120956421,0.6713866591453552,60.0,1329214.0,1.0
483979.2265218,288011.625,304016.65625,312537.84375,324758.78125,319073.125,271156.4375,259320.65625,270847.09375,-0.078857421875,0.859619140625,-0.510498046875,1.0375975370407104,2.075195074081421,0.6408690810203552,60.0,1329215.0,1.0
