Time,FZ,C3,CZ,C4,PZ,PO7,OZ,PO8,AccX,AccY,AccZ,Gyro1,Gyro2,Gyro3,Battery,Counter,Validation
1138815.7065514,301078.8125,294490.59375,646363.1875,617243.5625,316730.5,283434.34375,279953.03125,290074.59375,-0.08935546875,0.973876953125,-0.122314453125,-6.622313976287842,2.044677495956421,9.948729515075684,40.0,3860.0,1.0
1138815.7091369,299968.46875,294608.25,645829.4375,616619.5,316530.9375,283525.09375,279993.4375,290204.25,-0.087158203125,0.97705078125,-0.125244140625,-6.347655773162842,2.136230230331421,10.101317405700684,40.0,3861.0,1.0
1138815.7116592,299736.09375,294657.34375,645635.6875,616448.625,316451.8125,283555.3125,280020.875,290239.03125,-0.09326171875,0.97265625,-0.12841796875,-6.164550304412842,2.380370855331421,10.223387718200684,40.0,3862.0,1.0
1138815.7209658,300748.1875,294599.65625,646089.1875,617013.9375,316665.9375,283484.875,280009.625,290146.5,-0.08984375,0.965576171875,-0.126708984375,-5.859374523162842,2.593993902206421,10.192870140075684,40.0,3863.0,1.0
1138815.7209975,301561.625,294473.4375,646489.1875,617464.0,316822.59375,283405.65625,279956.3125,290032.84375,-0.088134765625,0.961669921875,-0.12353515625,-5.493163585662842,2.746581792831421,10.375975608825684,40.0,3864.0,1.0
1138815.7228879,301084.625,294469.59375,646289.0,617189.625,316734.53125,283425.3125,279939.875,290058.5,-0.089111328125,0.96240234375,-0.12646484375,-4.943847179412842,2.868652105331421,10.223387718200684,40.0,3865.0,1.0
1138815.7291387,299977.3125,294590.03125,645755.1875,616561.1875,316536.03125,283508.125,279972.0625,290181.0,-0.087158203125,0.966796875,-0.126953125,-4.547118663787842,2.990722417831421,10.162352561950684,40.0,3866.0,1.0
1138815.7335277,299735.21875,294636.96875,645560.8125,616388.1875,316460.40625,283527.78125,279987.96875,290202.0,-0.0859375,0.9697265625,-0.123291015625,-4.211425304412842,3.173827886581421,10.101317405700684,40.0,3867.0,1.0
1138815.7335595,300743.4375,294579.71875,646014.0,616957.8125,316664.875,283470.75,279987.1875,290126.46875,-0.08447265625,0.96826171875,-0.121826171875,-3.997802495956421,3.265380620956421,10.101317405700684,40.0,3868.0,1.0
1138815.7365922,301586.1875,294483.34375,646441.1875,617439.4375,316840.8125,283416.03125,279962.5,290039.375,-0.08642578125,0.967041015625,-0.121826171875,-3.662109136581421,3.417968511581421,10.101317405700684,40.0,3869.0,1.0
1138815.7453902,301097.6875,294473.875,646231.9375,617159.9375,316737.90625,283430.25,279944.09375,290060.46875,-0.08642578125,0.96484375,-0.12158203125,-3.479003667831421,3.540038824081421,10.070799827575684,40.0,3870.0,1.0
1138815.7497301,299977.3125,294582.40625,645685.0,616508.1875,316529.875,283503.0,279972.96875,290175.625,-0.08837890625,0.965087890625,-0.12451171875,-3.234863042831421,3.784179449081421,9.918211936950684,40.0,3871.0,1.0
1138815.7497652,299749.4375,294639.90625,645506.1875,616349.9375,316467.8125,283525.09375,279996.46875,290207.09375,-0.087646484375,0.964599609375,-0.122802734375,-2.868652105331421,3.936767339706421,9.765624046325684,40.0,3872.0,1.0
1138815.7604058,300768.125,294595.46875,645967.9375,616933.125,316688.28125,283470.46875,280002.1875,290133.25,-0.084716796875,0.966552734375,-0.124267578125,-2.563476324081421,3.936767339706421,9.643553733825684,40.0,3873.0,1.0
1138815.7635399,301603.1875,294497.3125,646392.0,617417.8125,316873.375,283418.15625,279977.875,290040.0,-0.081787109375,0.96923828125,-0.125244140625,-2.166747808456421,4.211425304412842,9.460448265075684,40.0,3874.0,1.0
1138815.7635721,301136.46875,294499.96875,646201.8125,617162.6875,316793.0,283442.65625,279970.71875,290074.78125,-0.08251953125,0.968994140625,-0.125,-1.8310545682907104,4.333495616912842,9.429930686950684,40.0,3875.0,1.0
1138815.7653868,300056.96875,294633.03125,645688.375,616565.6875,316613.625,283530.71875,280015.59375,290214.96875,-0.08154296875,0.971923828125,-0.12353515625,-1.5869139432907104,4.638671398162842,9.338377952575684,40.0,3876.0,1.0
1138815.7790758,299799.65625,294662.0,645479.875,616374.75,316526.5625,283526.25,280013.0,290225.25,-0.081298828125,0.97021484375,-0.12548828125,-1.3427733182907104,4.760741710662842,9.277342796325684,40.0,3877.0,1.0
1138815.7822175,300791.46875,294584.03125,645916.0625,616920.0625,316723.6875,283456.0,279993.875,290128.875,-0.083251953125,0.968505859375,-0.12646484375,-1.1901854276657104,4.882812023162842,9.185790061950684,40.0,3878.0,1.0
1138815.7822487,301623.46875,294475.03125,646338.1875,617390.375,316902.4375,283396.09375,279960.4375,290031.96875,-0.080322265625,0.96875,-0.132080078125,-0.9765624403953552,4.943847179412842,8.941649436950684,40.0,3879.0,1.0
1138815.7841744,301174.9375,294496.21875,646169.625,617152.875,316838.3125,283428.90625,279962.9375,290079.25,-0.080322265625,0.96923828125,-0.132568359375,-0.5798339247703552,5.218505382537842,8.819579124450684,40.0,3880.0,1.0
1138815.7866135,300085.9375,294634.71875,645658.0,616547.6875,316659.15625,283519.46875,280002.28125,290214.4375,-0.081298828125,0.968017578125,-0.1298828125,-0.4272460639476776,5.554198741912842,8.789061546325684,40.0,3881.0,1.0
1138815.7929154,299857.25,294696.21875,645482.75,616389.25,316603.1875,283544.9375,280023.84375,290244.75,-0.08203125,0.964111328125,-0.128173828125,-0.0915527269244194,5.645751476287842,8.666991233825684,40.0,3882.0,1.0
1138815.8023333,300843.40625,294621.65625,645916.6875,616938.8125,316797.375,283473.34375,280008.625,290151.6875,-0.080322265625,0.96484375,-0.134033203125,0.2746581733226776,5.767821788787842,8.636473655700684,40.0,3883.0,1.0
1138815.8023775,301673.28125,294516.25,646335.0625,617415.5625,316973.84375,283419.0625,279981.625,290059.0625,-0.079833984375,0.962646484375,-0.13330078125,0.7019042372703552,5.798339366912842,8.544920921325684,40.0,3884.0,1.0
1138815.8042485,301202.5625,294524.3125,646143.5625,617151.875,316892.21875,283440.96875,279969.75,290086.21875,-0.080810546875,0.961181640625,-0.13330078125,1.0681151151657104,5.950927257537842,8.483885765075684,40.0,3885.0,1.0
1138815.8067368,300114.90625,294666.09375,645634.3125,616550.8125,316721.1875,283530.28125,280012.65625,290221.0625,-0.079345703125,0.96630859375,-0.13232421875,1.2817381620407104,6.256103038787842,8.422850608825684,40.0,3886.0,1.0
1138815.8131043,299880.6875,294729.59375,645453.0625,616384.4375,316662.375,283554.4375,280034.8125,290257.71875,-0.079833984375,0.969482421875,-0.131103515625,1.1901854276657104,6.469726085662842,8.148192405700684,40.0,3887.0,1.0
1138815.8173252,300852.15625,294646.875,645871.9375,616910.6875,316846.625,283482.625,280018.03125,290161.6875,-0.080322265625,0.968017578125,-0.13525390625,1.8005369901657104,6.378173351287842,8.056639671325684,40.0,3888.0,1.0
1138815.817379,301646.46875,294513.46875,646252.6875,617340.875,316989.6875,283411.90625,279972.5,290051.8125,-0.0791015625,0.970947265625,-0.134521484375,2.197265386581421,6.500243663787842,8.026122093200684,40.0,3889.0,1.0
1138815.8204978,301190.5,294532.96875,646069.1875,617088.9375,316913.34375,283448.5625,279972.5,290091.78125,-0.07568359375,0.974609375,-0.13330078125,2.349853277206421,6.591796398162842,7.904052257537842,40.0,3890.0,1.0
1138815.8342384,300137.4375,294693.46875,645581.6875,616520.75,316756.875,283551.21875,280026.78125,290236.25,-0.074951171875,0.97607421875,-0.134765625,2.685546636581421,6.774901866912842,7.843017101287842,40.0,3891.0,1.0
1138815.8374417,299899.4375,294747.46875,645397.0625,616362.25,316696.96875,283573.09375,280045.5625,290265.21875,-0.074462890625,0.978271484375,-0.133544921875,2.807616949081421,6.927489757537842,7.720946788787842,40.0,3892.0,1.0
1138815.8374862,300843.125,294646.15625,645793.1875,616857.5625,316862.28125,283483.53125,280012.65625,290157.65625,-0.07861328125,0.978271484375,-0.130859375,2.990722417831421,6.958007335662842,7.690429210662842,40.0,3893.0,1.0
1138815.8392352,301654.5,294524.5625,646183.125,617313.1875,317009.96875,283419.96875,279975.8125,290055.75,-0.080810546875,0.980224609375,-0.134765625,2.929687261581421,7.080077648162842,7.629394054412842,40.0,3894.0,1.0
1138815.8417653,301204.15625,294548.96875,646002.8125,617074.9375,316932.09375,283458.65625,279977.4375,290101.96875,-0.078857421875,0.985107421875,-0.1337890625,2.899169683456421,7.110595226287842,7.385253429412842,40.0,3895.0,1.0
1138815.8505919,300141.84375,294705.15625,645510.25,616498.3125,316767.5,283544.5,280020.0625,290245.1875,-0.076904296875,0.984130859375,-0.133056640625,2.838134527206421,7.202147960662842,7.354735851287842,40.0,3896.0,1.0
1138815.8530538,299894.8125,294752.65625,645323.0625,616327.3125,316703.65625,283559.4375,280034.03125,290270.59375,-0.075927734375,0.98388671875,-0.137451171875,2.685546636581421,7.293700695037842,7.080077648162842,40.0,3897.0,1.0
1138815.8573334,300857.90625,294664.84375,645741.6875,616860.25,316888.03125,283495.0625,280025.71875,290184.21875,-0.073486328125,0.9873046875,-0.13427734375,2.471923589706421,7.476806163787842,6.988524913787842,40.0,3898.0,1.0
1138815.8573779,301654.59375,294527.625,646121.125,617293.8125,317027.21875,283416.46875,279979.21875,290074.34375,-0.071044921875,0.985595703125,-0.136474609375,2.349853277206421,7.568358898162842,7.049560070037842,40.0,3899.0,1.0
1138815.8604542,301203.53125,294544.25,645940.6875,617047.5,316947.65625,283443.125,279976.0,290109.84375,-0.0712890625,0.981201171875,-0.141357421875,2.563476324081421,7.537841320037842,7.141112804412842,40.0,3900.0,1.0
1138815.8742248,300153.1875,294705.875,645460.5625,616480.1875,316795.59375,283531.96875,280018.1875,290248.40625,-0.073486328125,0.97900390625,-0.143310546875,2.441406011581421,7.751464366912842,7.202147960662842,40.0,3901.0,1.0
1138815.8774485,299913.9375,294767.5,645280.875,616319.9375,316738.1875,283551.65625,280033.9375,290273.09375,-0.07421875,0.978515625,-0.145263671875,2.532958745956421,7.598876476287842,7.110595226287842,40.0,3902.0,1.0
1138815.8774934,300872.375,294679.875,645695.625,616855.8125,316918.15625,283484.5,280022.125,290182.0625,-0.07421875,0.98046875,-0.145263671875,2.868652105331421,7.598876476287842,7.019042491912842,40.0,3903.0,1.0
1138815.8792099,301665.875,294540.40625,646073.5625,617296.625,317052.34375,283414.59375,279978.15625,290071.75,-0.074951171875,0.982177734375,-0.14306640625,2.838134527206421,7.690429210662842,6.866454601287842,40.0,3904.0,1.0
1138815.8829831,301223.375,294560.96875,645899.375,617057.375,316978.0625,283447.5,279976.4375,290113.5,-0.073486328125,0.981201171875,-0.143798828125,3.051757574081421,7.659911632537842,6.866454601287842,40.0,3905.0,1.0
1138815.8917469,300179.75,294732.25,645425.5,616479.75,316837.25,283537.15625,280025.34375,290256.28125,-0.071533203125,0.98291015625,-0.146728515625,2.929687261581421,7.629394054412842,6.896972179412842,40.0,3906.0,1.0
1138815.894957,299936.375,294789.65625,645241.25,616308.5,316780.84375,283568.28125,280048.5,290290.53125,-0.07568359375,0.98681640625,-0.14697265625,2.868652105331421,7.659911632537842,6.866454601287842,40.0,3907.0,1.0
1138815.8950035,300868.625,294685.78125,645624.4375,616816.5625,316935.3125,283492.71875,280029.1875,290194.40625,-0.0751953125,0.984375,-0.14599609375,2.655029058456421,7.537841320037842,6.713866710662842,40.0,3908.0,1.0
1138815.905506,301650.40625,294539.40625,645983.4375,617234.75,317046.90625,283413.78125,279975.625,290075.40625,-0.077392578125,0.984619140625,-0.146728515625,2.777099370956421,7.446288585662842,6.652831554412842,40.0,3909.0,1.0
1138815.9086429,301214.0,294567.5625,645803.6875,616985.5,316962.40625,283443.90625,279968.9375,290107.40625,-0.077880859375,0.985595703125,-0.151611328125,2.807616949081421,7.415771007537842,6.500243663787842,40.0,3910.0,1.0
1138815.9087345,300175.90625,294741.84375,645330.75,616422.4375,316817.03125,283542.25,280017.40625,290243.40625,-0.07958984375,0.98388671875,-0.15478515625,2.868652105331421,7.354735851287842,6.347655773162842,40.0,3911.0,1.0
1138815.9104165,299930.375,294798.78125,645147.4375,616253.25,316755.625,283551.84375,280024.625,290266.84375,-0.08154296875,0.986083984375,-0.1533203125,2.868652105331421,7.293700695037842,6.256103038787842,40.0,3912.0,1.0
1138815.9168433,300872.5625,294702.59375,645545.125,616767.875,316919.5,283483.4375,280012.9375,290181.1875,-0.08544921875,0.986083984375,-0.15283203125,2.990722417831421,7.080077648162842,6.103515148162842,40.0,3913.0,1.0
1138815.9210809,301647.96875,294554.34375,645901.875,617175.3125,317039.3125,283419.15625,279975.375,290071.375,-0.085205078125,0.988037109375,-0.152587890625,3.082275152206421,6.927489757537842,5.859374523162842,40.0,3914.0,1.0
1138815.9211252,301224.28125,294583.3125,645736.8125,616947.4375,316973.9375,283462.34375,279985.46875,290122.78125,-0.08984375,0.98828125,-0.151123046875,3.021239995956421,6.561278820037842,5.493163585662842,40.0,3915.0,1.0
1138815.9242182,300221.125,294784.3125,645293.9375,616417.0,316853.96875,283569.53125,280048.0625,290279.25,-0.0927734375,0.990478515625,-0.15478515625,3.082275152206421,6.195067882537842,5.279540538787842,40.0,3916.0,1.0
1138815.9329367,299976.4375,294841.0625,645106.3125,616248.6875,316784.84375,283580.34375,280053.34375,290293.46875,-0.095703125,0.990478515625,-0.156005859375,3.112792730331421,5.889892101287842,5.065917491912842,40.0,3917.0,1.0
1138815.9374418,300879.15625,294714.90625,645474.75,616722.0,316928.34375,283496.5625,280021.78125,290180.5625,-0.09814453125,0.99365234375,-0.16162109375,3.265380620956421,5.493163585662842,4.760741710662842,40.0,3918.0,1.0
1138815.9374962,301640.75,294558.375,645828.625,617128.625,317047.09375,283417.71875,279972.0625,290061.1875,-0.099365234375,0.994873046875,-0.159912109375,3.265380620956421,5.096435070037842,4.425048351287842,40.0,3919.0,1.0
1138815.9429166,301232.96875,294608.625,645681.5,616921.4375,316992.09375,283460.375,279983.59375,290112.78125,-0.100830078125,0.994384765625,-0.15869140625,3.509521245956421,4.730224132537842,4.089354991912842,40.0,3920.0,1.0
1138815.9517118,300240.96875,294817.46875,645262.1875,616409.0,316893.84375,283567.03125,280048.25,290279.78125,-0.101318359375,0.996337890625,-0.1611328125,3.662109136581421,4.302978038787842,3.662109136581421,40.0,3921.0,1.0
1138815.9548372,300022.375,294901.59375,645115.0,616260.9375,316876.59375,283600.28125,280076.65625,290322.53125,-0.100830078125,1.001220703125,-0.161865234375,3.723144292831421,3.875732183456421,3.326415777206421,40.0,3922.0,1.0
1138815.9548816,300939.4375,294795.84375,645504.4375,616762.5625,317048.4375,283530.1875,280063.53125,290227.65625,-0.098876953125,1.007568359375,-0.16064453125,3.967284917831421,3.448486089706421,2.868652105331421,40.0,3923.0,1.0
1138815.9605918,301680.53125,294617.46875,645838.25,617148.25,317151.875,283434.15625,279998.15625,290094.8125,-0.094970703125,1.01708984375,-0.160400390625,4.180907726287842,3.082275152206421,2.624511480331421,40.0,3924.0,1.0
1138815.9648272,301294.65625,294677.28125,645708.75,616955.75,317121.75,283485.9375,280017.75,290160.53125,-0.09326171875,1.024658203125,-0.163818359375,3.997802495956421,2.685546636581421,2.563476324081421,40.0,3925.0,1.0
1138815.9648803,300349.25,294922.96875,645339.25,616491.375,317081.40625,283601.71875,280099.5625,290348.625,-0.08935546875,1.0263671875,-0.164794921875,3.692626714706421,2.441406011581421,2.410888433456421,40.0,3926.0,1.0
1138815.9729876,300157.84375,295025.0625,645227.0625,616379.9375,317100.5625,283636.84375,280136.75,290402.46875,-0.0849609375,1.030029296875,-0.166015625,3.448486089706421,2.197265386581421,2.410888433456421,40.0,3927.0,1.0
1138815.9760857,301062.1875,294906.78125,645609.1875,616858.8125,317270.78125,283557.46875,280108.59375,290293.21875,-0.086181640625,1.0322265625,-0.1650390625,3.326415777206421,1.9226073026657104,2.441406011581421,40.0,3928.0,1.0
1138815.9761296,301817.0625,294732.71875,645950.875,617257.75,317378.5,283478.0625,280059.40625,290175.625,-0.082763671875,1.035400390625,-0.164794921875,3.204345464706421,1.6784666776657104,2.410888433456421,40.0,3929.0,1.0
1138815.9843781,301409.34375,294775.09375,645808.625,617045.6875,317332.03125,283503.09375,280063.4375,290230.53125,-0.08251953125,1.042724609375,-0.164306640625,2.990722417831421,1.4648436307907104,2.593993902206421,40.0,3930.0,1.0
1138815.9885878,300476.21875,295036.5,645452.875,616585.0625,317305.75,283621.375,280141.125,290411.9375,-0.0830078125,1.04150390625,-0.161376953125,2.624511480331421,1.4343260526657104,2.746581792831421,40.0,3931.0,1.0
1138815.9886309,300258.59375,295127.0,645327.1875,616442.25,317324.25,283636.21875,280153.46875,290434.8125,-0.083251953125,1.03759765625,-0.154052734375,2.075195074081421,1.3427733182907104,2.838134527206421,40.0,3932.0,1.0
1138815.9916592,301120.40625,294975.90625,645671.375,616871.1875,317454.0625,283544.9375,280110.375,290313.21875,-0.083251953125,1.02734375,-0.15087890625,1.6784666776657104,1.2817381620407104,2.960204839706421,40.0,3933.0,1.0
1138816.0005883,301864.34375,294803.96875,646006.6875,617263.9375,317554.28125,283480.9375,280068.1875,290209.25,-0.0849609375,1.013427734375,-0.14892578125,1.2512205839157104,1.0986326932907104,3.112792730331421,40.0,3934.0,1.0
1138816.004814,301499.9375,294886.21875,645910.625,617102.125,317548.375,283538.0625,280097.15625,290290.34375,-0.08837890625,0.99853515625,-0.150146484375,1.2817381620407104,0.9155272841453552,3.234863042831421,40.0,3935.0,1.0
1138816.0048597,300605.75,295185.46875,645609.625,616680.875,317569.21875,283671.1875,280193.78125,290494.90625,-0.091552734375,0.98291015625,-0.150146484375,1.3732908964157104,0.7019042372703552,3.051757574081421,40.0,3936.0,1.0
1138816.0105973,300432.59375,295315.28125,645544.625,616596.5,317632.0625,283708.5625,280235.1875,290556.25,-0.094482421875,0.9677734375,-0.1455078125,1.5869139432907104,0.4577636420726776,2.960204839706421,40.0,3937.0,1.0
1138816.0129653,301315.21875,295174.46875,645930.25,617084.1875,317789.15625,283628.09375,280209.625,290448.25,-0.096435546875,0.953857421875,-0.145263671875,1.8615721464157104,0.1525878757238388,2.899169683456421,40.0,3938.0,1.0
1138816.021738,302030.8125,294975.625,646252.375,617447.6875,317863.90625,283540.03125,280148.1875,290311.28125,-0.099365234375,0.943115234375,-0.143798828125,2.258300542831421,-0.0610351525247097,2.685546636581421,40.0,3939.0,1.0
1138816.0262159,301669.8125,295076.75,646178.75,617260.875,317877.6875,283608.4375,280191.03125,290395.125,-0.102783203125,0.931884765625,-0.1474609375,2.655029058456421,-0.4272460639476776,2.227782964706421,40.0,3940.0,1.0
1138816.0262608,300801.125,295395.21875,645922.5,616884.5625,317938.375,283736.375,280289.375,290607.1875,-0.10595703125,0.9189453125,-0.15380859375,3.204345464706421,-0.6408690810203552,1.8615721464157104,40.0,3941.0,1.0
1138816.031646,300610.0625,295514.3125,645858.8125,616807.75,318011.15625,283753.09375,280312.78125,290653.15625,-0.109130859375,0.9091796875,-0.155029296875,4.119872570037842,-1.0681151151657104,1.4953612089157104,40.0,3942.0,1.0
1138816.0411055,301396.21875,295305.28125,646151.75,617166.5625,318092.15625,283639.90625,280241.71875,290486.5,-0.109375,0.900634765625,-0.16357421875,5.279540538787842,-1.5563963651657104,0.6713866591453552,40.0,3943.0,1.0
1138816.0411512,302050.84375,295045.28125,646393.1875,617447.1875,318082.59375,283538.6875,280153.65625,290313.6875,-0.109130859375,0.8955078125,-0.16650390625,6.683349132537842,-2.014159917831421,0.2441406100988388,40.0,3944.0,1.0
1138816.0436062,301709.03125,295143.96875,646312.1875,617308.5625,318071.40625,283602.25,280185.21875,290398.96875,-0.108154296875,0.891845703125,-0.16845703125,8.026122093200684,-2.349853277206421,-0.4577636420726776,40.0,3945.0,1.0
1138816.0436503,300856.625,295492.84375,646068.875,616940.75,318145.34375,283730.46875,280286.0625,290618.03125,-0.107177734375,0.89453125,-0.17236328125,9.277342796325684,-2.593993902206421,-0.9765624403953552,40.0,3946.0,1.0
1138816.0518122,300658.34375,295612.46875,645997.75,616838.5,318217.59375,283746.375,280312.09375,290661.46875,-0.105224609375,0.897216796875,-0.170166015625,10.345458030700684,-2.960204839706421,-1.4648436307907104,40.0,3947.0,1.0
1138816.0542388,301454.5,295389.40625,646279.8125,617226.4375,318277.84375,283656.53125,280260.21875,290506.1875,-0.103515625,0.8974609375,-0.169921875,11.291502952575684,-3.204345464706421,-1.8615721464157104,40.0,3948.0,1.0
1138816.0579941,302046.75,295082.8125,646443.4375,617444.0625,318190.6875,283536.8125,280149.1875,290305.375,-0.1005859375,0.89892578125,-0.17529296875,12.176512718200684,-3.326415777206421,-2.258300542831421,40.0,3949.0,1.0
1138816.0673127,301614.09375,295392.0,646316.625,617258.75,318137.3125,283580.4375,280171.1875,290307.40625,-0.095458984375,0.90576171875,-0.174560546875,13.000487327575684,-3.265380620956421,-2.471923589706421,40.0,3950.0,1.0
1138816.0673559,300804.78125,295924.15625,646122.0,616992.9375,318253.8125,283738.4375,280307.59375,290520.125,-0.094970703125,0.90869140625,-0.1748046875,13.183592796325684,-3.356933355331421,-2.685546636581421,40.0,3951.0,1.0
1138816.0694047,300682.75,295832.25,646054.0625,616884.9375,318331.9375,283757.5625,280332.09375,290595.65625,-0.091552734375,0.9052734375,-0.1787109375,14.068602561950684,-3.570556402206421,-2.502441167831421,40.0,3952.0,1.0
1138816.0805876,301370.46875,295474.25,646216.5625,617128.375,318290.09375,283608.5,280219.1875,290404.4375,-0.09130859375,0.90478515625,-0.181884765625,15.075682640075684,-3.601073980331421,-2.441406011581421,40.0,3953.0,1.0
1138816.0836324,301924.6875,295094.90625,646302.875,617295.125,318116.65625,283491.21875,280098.03125,290203.09375,-0.08837890625,0.9091796875,-0.18701171875,15.930174827575684,-3.387450933456421,-2.502441167831421,40.0,3954.0,1.0
1138816.0836763,301559.65625,295144.875,646151.3125,617112.5,318017.15625,283544.84375,280115.5625,290279.71875,-0.09228515625,0.91357421875,-0.186767578125,16.601560592651367,-3.295898199081421,-2.380370855331421,40.0,3955.0,1.0
1138816.0855438,300811.59375,295574.75,645990.9375,616855.25,318160.375,283716.59375,280264.59375,290563.21875,-0.093505859375,0.912353515625,-0.190185546875,16.967771530151367,-3.295898199081421,-2.349853277206421,40.0,3956.0,1.0
1138816.0943696,300660.125,295716.1875,645955.625,616812.5,318268.84375,283748.0625,280309.65625,290636.4375,-0.099609375,0.914306640625,-0.189453125,17.364500045776367,-3.234863042831421,-2.227782964706421,40.0,3957.0,1.0
1138816.0986272,301320.125,295362.84375,646083.125,617042.625,318183.28125,283607.71875,280196.65625,290407.5625,-0.10302734375,0.916015625,-0.192138671875,17.730710983276367,-3.234863042831421,-2.197265386581421,40.0,3958.0,1.0
1138816.0986791,301827.15625,294945.21875,646110.625,617165.0625,317947.15625,283467.15625,280057.28125,290171.6875,-0.105224609375,0.91796875,-0.198974609375,18.249509811401367,-3.234863042831421,-2.471923589706421,40.0,3959.0,1.0
1138816.1117477,301491.78125,295034.5625,645977.625,617017.625,317860.5,283531.96875,280089.71875,290260.75,-0.10693359375,0.923095703125,-0.20166015625,18.981931686401367,-3.326415777206421,-2.624511480331421,40.0,3960.0,1.0
1138816.1148029,300783.3125,295509.21875,645853.75,616780.3125,318042.0,283719.8125,280258.96875,290560.4375,-0.107177734375,0.930419921875,-0.20166015625,19.226072311401367,-3.387450933456421,-2.532958745956421,40.0,3961.0,1.0
1138816.1148468,300619.53125,295655.125,645812.1875,616730.625,318147.25,283754.34375,280301.09375,290622.125,-0.107177734375,0.93701171875,-0.20166015625,19.165037155151367,-3.417968511581421,-2.410888433456421,40.0,3962.0,1.0
1138816.1212174,301186.375,295232.6875,645848.3125,616849.5,317987.65625,283559.6875,280139.25,290335.125,-0.10498046875,0.9453125,-0.203857421875,18.951414108276367,-3.479003667831421,-2.258300542831421,40.0,3963.0,1.0
1138816.1212628,301676.21875,294800.84375,645835.875,616931.875,317709.59375,283425.9375,280000.40625,290087.75,-0.10546875,0.9462890625,-0.2060546875,18.951414108276367,-3.631591558456421,-2.197265386581421,40.0,3964.0,1.0
1138816.132337,301371.09375,294923.25,645721.625,616808.5625,317640.3125,283520.09375,280060.9375,290206.40625,-0.10498046875,0.953857421875,-0.20556640625,18.981931686401367,-3.692626714706421,-2.166747808456421,40.0,3965.0,1.0
1138816.1323915,300693.21875,295427.9375,645632.5,616625.75,317858.71875,283706.0625,280238.0625,290530.03125,-0.10400390625,0.965576171875,-0.20849609375,19.042966842651367,-3.723144292831421,-2.105712652206421,40.0,3966.0,1.0
1138816.1348083,300556.6875,295597.71875,645624.0,616596.5625,317999.625,283738.0625,280285.25,290599.15625,-0.1025390625,0.9765625,-0.20751953125,18.707273483276367,-3.662109136581421,-2.014159917831421,40.0,3967.0,1.0
1138816.1348523,301163.65625,295191.71875,645696.4375,616774.875,317861.3125,283578.75,280154.46875,290342.5625,-0.0986328125,0.98486328125,-0.208984375,18.127439498901367,-3.662109136581421,-1.8005369901657104,40.0,3968.0,1.0
1138816.1486024,301600.25,294707.21875,645638.75,616796.125,317535.15625,283419.25,279988.96875,290063.59375,-0.10009765625,0.98974609375,-0.2099609375,17.669675827026367,-3.448486089706421,-1.4343260526657104,40.0,3969.0,1.0
1138816.148647,301306.34375,294830.6875,645538.4375,616674.375,317472.5625,283505.96875,280045.28125,290178.125,-0.1005859375,0.990966796875,-0.2109375,16.815183639526367,-3.570556402206421,-0.9765624403953552,40.0,3970.0,1.0
1138816.1512785,300682.28125,295371.96875,645510.375,616552.3125,317739.53125,283701.21875,280232.875,290516.71875,-0.095458984375,0.992431640625,-0.209228515625,16.052244186401367,-3.509521245956421,-0.6713866591453552,40.0,3971.0,1.0
1138816.1513268,300566.0625,295556.0625,645534.875,616552.875,317904.9375,283733.6875,280281.40625,290593.625,-0.09326171875,0.994140625,-0.208740234375,15.228270530700684,-3.387450933456421,-0.2441406100988388,40.0,3972.0,1.0
1138816.1772798,301152.9375,295136.75,645597.1875,616723.75,317764.5625,283561.5,280133.4375,290316.8125,-0.087158203125,0.995361328125,-0.21337890625,14.434813499450684,-3.448486089706421,0.2136230319738388,40.0,3973.0,1.0
1138816.1773233,301616.59375,294664.21875,645565.0,616775.0625,317467.5625,283418.4375,279982.34375,290050.375,-0.08251953125,0.9970703125,-0.21240234375,13.793944358825684,-3.204345464706421,0.5493163466453552,40.0,3974.0,1.0
1138816.1793115,301361.96875,294816.65625,645507.75,616683.5625,317446.90625,283508.8125,280048.78125,290177.34375,-0.0791015625,1.002685546875,-0.21240234375,12.664793968200684,-3.051757574081421,1.1596678495407104,40.0,3975.0,1.0
1138816.1866154,300792.625,295407.46875,645547.625,616628.3125,317790.0625,283715.0,280255.84375,290544.625,-0.072509765625,1.000732421875,-0.216064453125,11.413573265075684,-2.716064214706421,1.8310545682907104,40.0,3976.0,1.0
1138816.1866583,300667.46875,295595.40625,645576.875,616631.5625,317982.09375,283745.21875,280300.1875,290618.65625,-0.06884765625,1.0,-0.215576171875,10.711668968200684,-2.532958745956421,2.685546636581421,40.0,3977.0,1.0
1138816.1866705,301190.40625,295133.875,645579.5625,616710.4375,317787.375,283557.28125,280125.9375,290309.65625,-0.06201171875,0.997314453125,-0.216064453125,9.674071311950684,-2.014159917831421,3.326415777206421,40.0,3978.0,1.0
1138816.1899235,301612.5625,294646.6875,645499.4375,616737.9375,317434.5625,283417.8125,279970.375,290041.53125,-0.06103515625,0.9951171875,-0.218994140625,8.605956077575684,-1.6174315214157104,4.028319835662842,40.0,3979.0,1.0
1138816.1899701,301281.3125,294774.90625,645364.25,616569.9375,317350.1875,283500.96875,280023.75,290151.84375,-0.06005859375,0.996337890625,-0.22119140625,7.873534679412842,-0.9765624403953552,4.821776866912842,40.0,3980.0,1.0
1138816.192293,300671.375,295364.28125,645352.8125,616429.25,317651.90625,283717.5,280236.53125,290514.5,-0.06201171875,0.996826171875,-0.221435546875,7.171630382537842,-0.4272460639476776,5.645751476287842,40.0,3981.0,1.0
1138816.1923286,300523.59375,295542.75,645358.0,616404.75,317821.53125,283741.5625,280278.71875,290583.0625,-0.061279296875,0.996337890625,-0.223388671875,6.439208507537842,0.03051757626235485,6.072997570037842,40.0,3982.0,1.0
1138816.1940992,301064.6875,295077.71875,645367.125,616520.5,317622.40625,283551.03125,280115.28125,290288.90625,-0.060791015625,0.997314453125,-0.2236328125,5.889892101287842,0.4882812201976776,6.591796398162842,40.0,3983.0,1.0
1138816.2030168,301469.53125,294552.09375,645260.125,616517.75,317230.625,283384.71875,279936.75,289991.375,-0.0615234375,1.000732421875,-0.220947265625,5.340575695037842,0.9765624403953552,7.110595226287842,40.0,3984.0,1.0
1138816.2061535,301169.9375,294681.65625,645147.9375,616377.4375,317153.9375,283464.75,279991.90625,290106.96875,-0.059814453125,0.999755859375,-0.220947265625,4.577636241912842,1.4648436307907104,7.568358898162842,40.0,3985.0,1.0
1138816.2061977,300602.53125,295294.8125,645177.4375,616315.5,317482.21875,283687.5625,280213.0,290488.125,-0.058349609375,0.999267578125,-0.219482421875,3.784179449081421,1.8615721464157104,8.300780296325684,40.0,3986.0,1.0
1138816.2167644,300479.78125,295502.5,645214.625,616344.375,317673.65625,283745.21875,280279.625,290579.65625,-0.057861328125,0.996826171875,-0.2177734375,2.777099370956421,2.532958745956421,8.880614280700684,40.0,3987.0,1.0
1138816.219843,300968.40625,295003.15625,645178.0625,616370.6875,317437.4375,283544.21875,280092.6875,290244.46875,-0.0556640625,0.989990234375,-0.21630859375,1.8005369901657104,3.051757574081421,9.277342796325684,40.0,3988.0,1.0
1138816.2198878,301366.4375,294470.3125,645065.75,616358.4375,317035.5625,283381.78125,279919.03125,289951.40625,-0.05517578125,0.98583984375,-0.212890625,1.0681151151657104,3.417968511581421,9.826659202575684,40.0,3989.0,1.0
1138816.2217248,301070.875,294605.125,644956.6875,616230.75,316945.4375,283470.28125,279978.3125,290074.59375,-0.055419921875,0.982666015625,-0.213134765625,0.5187987685203552,3.936767339706421,10.253905296325684,40.0,3990.0,1.0
1138816.2281242,300491.59375,295228.125,644990.8125,616163.25,317279.375,283696.21875,280202.1875,290457.0,-0.052490234375,0.97802734375,-0.215087890625,-0.03051757626235485,4.302978038787842,10.620116233825684,40.0,3991.0,1.0
1138816.232351,300353.46875,295415.34375,645012.125,616137.375,317458.96875,283731.1875,280250.03125,290529.96875,-0.04931640625,0.97607421875,-0.21728515625,-0.5798339247703552,4.821776866912842,10.986327171325684,40.0,3992.0,1.0
1138816.2323956,300852.96875,294902.125,644977.125,616206.25,317212.5625,283521.25,280053.96875,290199.78125,-0.0458984375,0.974365234375,-0.216552734375,-1.0375975370407104,5.310058116912842,11.505125999450684,40.0,3993.0,1.0
1138816.235436,301223.84375,294345.03125,644834.8125,616167.0625,316787.53125,283337.875,279846.4375,289868.78125,-0.041015625,0.973876953125,-0.21533203125,-1.5563963651657104,5.981444835662842,12.084959983825684,40.0,3994.0,1.0
1138816.2442706,300947.46875,294495.34375,644743.875,616062.375,316718.0625,283437.125,279917.15625,290004.34375,-0.0361328125,0.970458984375,-0.2109375,-2.014159917831421,6.500243663787842,12.542723655700684,40.0,3995.0,1.0
1138816.2485961,300401.46875,295149.71875,644818.0,616044.875,317082.84375,283682.8125,280162.78125,290414.8125,-0.0322265625,0.96728515625,-0.210693359375,-2.502441167831421,7.171630382537842,13.061522483825684,40.0,3996.0,1.0
1138816.2486484,300269.59375,295356.0625,644856.6875,616023.375,317274.34375,283726.625,280223.125,290497.40625,-0.028564453125,0.964111328125,-0.21435546875,-3.143310308456421,7.812499523162842,13.641356468200684,40.0,3997.0,1.0
1138816.2541707,300771.0625,294853.78125,644828.4375,616045.3125,317039.9375,283519.8125,280037.5,290168.5625,-0.0283203125,0.95703125,-0.212158203125,-3.692626714706421,8.544920921325684,14.282225608825684,40.0,3998.0,1.0
1138816.2635598,301150.625,294289.78125,644698.75,616022.3125,316615.4375,283336.09375,279841.71875,289852.59375,-0.02880859375,0.951171875,-0.213134765625,-4.272460460662842,9.338377952575684,14.862059593200684,40.0,3999.0,1.0
1138816.2636086,300851.46875,294419.15625,644592.9375,615879.1875,316526.375,283415.5625,279894.71875,289968.46875,-0.028564453125,0.944580078125,-0.218017578125,-4.699706554412842,9.857176780700684,15.350340843200684,40.0,4000.0,1.0
1138816.2655953,300280.5,295063.15625,644651.1875,615828.5,316873.625,283650.4375,280124.875,290362.59375,-0.0244140625,0.9384765625,-0.220703125,-4.760741710662842,10.559081077575684,15.655516624450684,40.0,4001.0,1.0
1138816.271876,300157.03125,295279.4375,644702.375,615839.5625,317077.40625,283697.84375,280186.71875,290457.28125,-0.02197265625,0.932373046875,-0.2255859375,-4.516601085662842,11.138915061950684,15.991209983825684,40.0,4002.0,1.0
1138816.2761056,300664.59375,294777.875,644673.625,615898.5625,316843.0625,283503.8125,280014.34375,290145.25,-0.021484375,0.932861328125,-0.229248046875,-4.302978038787842,11.596678733825684,16.448972702026367,40.0,4003.0,1.0
1138816.2761482,301057.34375,294224.34375,644547.8125,615878.75,316428.28125,283335.5625,279831.875,289839.46875,-0.0146484375,0.933349609375,-0.226318359375,-4.119872570037842,12.298583030700684,16.723630905151367,40.0,4004.0,1.0
1138816.2843309,300790.46875,294388.03125,644470.625,615788.25,316372.25,283433.0,279903.5,289978.59375,-0.011474609375,0.9365234375,-0.22119140625,-3.997802495956421,13.000487327575684,17.089841842651367,40.0,4005.0,1.0
1138816.2873364,300203.875,295029.90625,644513.1875,615698.125,316722.90625,283652.6875,280122.90625,290361.6875,-0.00830078125,0.934814453125,-0.209228515625,-4.333495616912842,13.580321311950684,17.486570358276367,40.0,4006.0,1.0
1138816.2873808,300051.4375,295227.5625,644538.0,615671.75,316908.3125,283686.9375,280168.5,290435.625,-0.005615234375,0.929443359375,-0.20751953125,-4.760741710662842,14.251708030700684,17.822263717651367,40.0,4007.0,1.0
1138816.2956747,300560.875,294717.96875,644516.0625,615741.625,316670.0625,283488.25,279989.9375,290118.40625,-0.00537109375,0.9208984375,-0.201416015625,-5.249022960662842,14.801024436950684,18.402097702026367,40.0,4008.0,1.0
1138816.2980097,300951.6875,294154.15625,644385.0,615695.9375,316240.4375,283315.96875,279800.75,289802.4375,-0.00146484375,0.9150390625,-0.2041015625,-5.645751476287842,15.411375999450684,18.798826217651367,40.0,4009.0,1.0
1138816.3016968,300675.3125,294310.625,644305.0625,615599.25,316169.375,283409.84375,279862.71875,289929.3125,-0.0009765625,0.9111328125,-0.206298828125,-5.767821788787842,15.930174827575684,19.317625045776367,40.0,4010.0,1.0
1138816.3110784,300099.09375,294978.75,644374.8125,615551.0625,316540.0625,283649.65625,280103.21875,290330.84375,0.00048828125,0.909912109375,-0.203857421875,-5.950927257537842,16.601560592651367,19.714353561401367,40.0,4011.0,1.0
1138816.3111224,299965.34375,295195.375,644420.3125,615533.4375,316748.09375,283697.5625,280165.375,290418.1875,0.000732421875,0.911865234375,-0.2060546875,-6.256103038787842,17.059324264526367,19.714353561401367,40.0,4012.0,1.0
1138816.3357193,300503.84375,294701.96875,644422.125,615649.5,316533.34375,283500.6875,279989.0625,290105.28125,0.000732421875,0.91796875,-0.206298828125,-6.195067882537842,17.517087936401367,19.866941452026367,40.0,4013.0,1.0
1138816.3379515,300890.34375,294131.34375,644277.25,615588.5,316106.0,283307.3125,279786.28125,289779.75,0.002197265625,0.932373046875,-0.20556640625,-6.164550304412842,17.974851608276367,19.989011764526367,40.0,4014.0,1.0
1138816.3405817,300623.75,294292.65625,644186.3125,615477.3125,316044.5625,283398.6875,279851.09375,289909.65625,0.00341796875,0.947265625,-0.20849609375,-6.500243663787842,18.280027389526367,20.111082077026367,40.0,4015.0,1.0
1138816.3430601,300027.40625,294949.875,644225.125,615401.0625,316407.65625,283631.65625,280081.3125,290301.53125,0.005615234375,0.961669921875,-0.205322265625,-7.049560070037842,18.768308639526367,20.202634811401367,40.0,4016.0,1.0
1138816.3456956,299882.09375,295165.0,644251.625,615384.5625,316610.5,283667.875,280132.375,290380.03125,0.00830078125,0.975830078125,-0.199462890625,-7.751464366912842,19.256589889526367,20.446775436401367,40.0,4017.0,1.0
1138816.3480109,300430.25,294672.53125,644248.625,615519.25,316400.03125,283487.625,279968.5,290083.1875,0.010009765625,0.986328125,-0.1962890625,-8.789061546325684,19.500730514526367,20.568845748901367,40.0,4018.0,1.0
1138816.3505811,300849.03125,294112.59375,644114.875,615451.75,315990.28125,283321.15625,279789.75,289775.4375,0.010009765625,0.991943359375,-0.188720703125,-9.918211936950684,19.775388717651367,20.843503952026367,40.0,4019.0,1.0
1138816.3530189,300576.34375,294278.78125,644027.375,615358.1875,315935.75,283418.25,279861.28125,289912.78125,0.013671875,0.9931640625,-0.185546875,-11.199950218200684,20.050046920776367,21.148679733276367,40.0,4020.0,1.0
1138816.3556942,299968.5625,294931.625,644053.8125,615280.0625,316285.5,283642.5625,280079.71875,290297.84375,0.01708984375,0.996337890625,-0.184326171875,-12.786864280700684,20.294187545776367,21.331785202026367,40.0,4021.0,1.0
1138816.3586239,299780.1875,295121.625,644043.5625,615182.6875,316465.9375,283656.0,280107.6875,290347.46875,0.02001953125,0.998291015625,-0.181884765625,-14.068602561950684,20.446775436401367,21.667478561401367,40.0,4022.0,1.0
1138816.3586683,300341.5625,294636.0625,644040.8125,615293.5,316257.0,283481.28125,279955.875,290059.6875,0.02001953125,0.99560546875,-0.18017578125,-15.319823265075684,20.629880905151367,21.881101608276367,40.0,4023.0,1.0
1138816.3605788,300784.125,294089.0625,643932.25,615323.625,315853.0625,283324.28125,279785.65625,289773.3125,0.021484375,0.993896484375,-0.179443359375,-16.540525436401367,20.812986373901367,22.125242233276367,40.0,4024.0,1.0
1138816.3630267,300467.90625,294237.46875,643807.6875,615152.5,315771.78125,283406.8125,279841.4375,289884.0,0.01953125,0.99658203125,-0.1748046875,-17.639158248901367,20.965574264526367,22.186277389526367,40.0,4025.0,1.0
1138816.3724593,299840.8125,294897.75,643823.875,615058.5,316114.84375,283638.1875,280064.15625,290269.96875,0.01953125,1.001708984375,-0.169921875,-18.768308639526367,20.904539108276367,22.277830123901367,40.0,4026.0,1.0
1138816.372506,299666.1875,295101.25,643818.6875,614976.625,316303.5625,283648.9375,280094.09375,290332.09375,0.018798828125,1.007080078125,-0.168701171875,-20.111082077026367,20.782468795776367,22.369382858276367,40.0,4027.0,1.0
1138816.3742652,300208.8125,294587.6875,643793.6875,615057.75,316074.0625,283448.03125,279913.9375,290018.28125,0.020751953125,1.005859375,-0.165771484375,-21.392820358276367,20.751951217651367,22.491453170776367,40.0,4028.0,1.0
1138816.3828764,300652.78125,294035.6875,643684.25,615075.9375,315673.78125,283286.5625,279733.4375,289713.40625,0.02001953125,1.001953125,-0.16162109375,-22.827146530151367,20.629880905151367,22.491453170776367,40.0,4029.0,1.0
1138816.3898447,300390.75,294217.625,643602.625,614980.1875,315624.71875,283399.03125,279816.75,289860.46875,0.01904296875,1.001953125,-0.159423828125,-24.017332077026367,20.355222702026367,22.491453170776367,40.0,4030.0,1.0
1138816.3898893,299772.03125,294900.25,643636.5,614874.5,315993.6875,283642.65625,280060.21875,290270.3125,0.01953125,1.00341796875,-0.1572265625,-25.115964889526367,20.111082077026367,22.521970748901367,40.0,4031.0,1.0
1138816.3923931,299602.875,295121.625,643651.3125,614823.1875,316200.21875,283675.3125,280109.5625,290352.3125,0.0224609375,1.004150390625,-0.15478515625,-26.153562545776367,19.897459030151367,22.399900436401367,40.0,4032.0,1.0
1138816.3924315,300173.46875,294605.03125,643645.625,614925.6875,315986.71875,283470.75,279926.5625,290029.375,0.024658203125,1.001708984375,-0.150146484375,-27.435300827026367,19.622800827026367,22.247312545776367,40.0,4033.0,1.0
1138816.3942582,300657.25,294053.75,643569.625,614966.1875,315612.46875,283306.6875,279749.71875,289729.125,0.027587890625,1.00048828125,-0.14453125,-28.533933639526367,19.256589889526367,22.094724655151367,40.0,4034.0,1.0
1138816.4079631,300415.875,294242.5,643516.9375,614876.75,315589.40625,283416.28125,279836.875,289875.84375,0.027099609375,0.99755859375,-0.14111328125,-29.449460983276367,18.798826217651367,22.003171920776367,40.0,4035.0,1.0
1138816.4128439,299772.5,294911.4375,643544.5,614761.1875,315958.03125,283635.0625,280049.3125,290262.0,0.026123046875,0.994140625,-0.1337890625,-30.212400436401367,18.585203170776367,21.667478561401367,40.0,4036.0,1.0
1138816.4128759,299634.28125,295139.875,643588.5,614761.8125,316188.34375,283669.03125,280099.5625,290347.5625,0.02587890625,0.9951171875,-0.130126953125,-31.005857467651367,18.249509811401367,21.301267623901367,40.0,4037.0,1.0
1138816.4128871,300266.375,294658.84375,643655.8125,614965.625,316044.5625,283496.21875,279950.96875,290058.875,0.025146484375,0.99658203125,-0.12841796875,-31.768796920776367,17.761228561401367,20.782468795776367,40.0,4038.0,1.0
1138816.4155785,300777.15625,294103.03125,643606.375,615034.5625,315700.0,283328.3125,279775.375,289759.1875,0.02685546875,0.997314453125,-0.121826171875,-32.653804779052734,17.333982467651367,20.233152389526367,40.0,4039.0,1.0
1138816.4189277,300504.5625,294271.1875,643546.875,614930.75,315684.0625,283419.96875,279844.84375,289894.90625,0.025390625,0.99560546875,-0.11767578125,-33.599849700927734,16.784666061401367,19.744871139526367,40.0,4040.0,1.0
1138816.4265743,299874.5,294972.5,643605.8125,614834.125,316095.25,283654.375,280083.46875,290301.6875,0.025146484375,0.99365234375,-0.117919921875,-34.393306732177734,16.296384811401367,19.134519577026367,40.0,4041.0,1.0
1138816.4408917,299737.1875,295215.875,643659.0,614818.9375,316346.3125,283696.03125,280149.96875,290405.15625,0.0283203125,0.990478515625,-0.111572265625,-35.003658294677734,15.808104515075684,18.371580123901367,40.0,4042.0,1.0
1138816.4409224,300359.1875,294705.71875,643709.375,614995.875,316185.125,283524.65625,279989.3125,290097.75,0.028564453125,0.986328125,-0.111572265625,-35.217281341552734,15.228270530700684,17.913816452026367,40.0,4043.0,1.0
1138816.4439805,300890.34375,294138.25,643673.3125,615089.8125,315838.5625,283339.9375,279794.78125,289783.6875,0.02978515625,0.98583984375,-0.110595703125,-35.644527435302734,14.831542015075684,17.181394577026367,40.0,4044.0,1.0
1138816.4440001,300589.65625,294290.9375,643601.1875,614959.75,315811.03125,283389.8125,279838.75,289895.4375,0.033447265625,0.98291015625,-0.107666015625,-35.980220794677734,14.282225608825684,16.418455123901367,40.0,4045.0,1.0
1138816.444007,299930.46875,294978.3125,643641.875,614832.4375,316200.21875,283622.09375,280069.875,290294.8125,0.034912109375,0.983154296875,-0.10986328125,-35.858150482177734,13.793944358825684,15.716551780700684,40.0,4046.0,1.0
1138816.4478235,299805.125,295227.84375,643719.625,614871.3125,316465.5,283681.8125,280147.9375,290410.78125,0.0361328125,0.9814453125,-0.1005859375,-35.736080169677734,13.305663108825684,14.892577171325684,40.0,4047.0,1.0
1138816.4565551,300447.78125,294705.875,643782.375,615041.6875,316307.875,283475.9375,279972.96875,290092.9375,0.03955078125,0.983154296875,-0.092529296875,-35.675045013427734,12.786864280700684,14.068602561950684,40.0,4048.0,1.0
1138816.4658726,301005.875,294138.25,643768.4375,615163.75,315975.09375,283302.5625,279795.21875,289794.21875,0.041748046875,0.9853515625,-0.084228515625,-35.766597747802734,12.268065452575684,13.488768577575684,40.0,4049.0,1.0
1138816.4658949,300730.9375,294313.75,643712.0625,615048.125,315957.375,283405.46875,279867.0,289933.53125,0.04541015625,0.9853515625,-0.077880859375,-35.827632904052734,11.749266624450684,12.817381858825684,40.0,4050.0,1.0
1138816.4721432,300044.125,295006.5625,643739.375,614938.0625,316338.53125,283643.84375,280103.125,290343.90625,0.048095703125,0.98388671875,-0.070556640625,-35.675045013427734,11.474608421325684,12.054442405700684,40.0,4051.0,1.0
1138816.4721644,299873.6875,295235.09375,643775.0625,614874.8125,316579.46875,283680.125,280161.4375,290435.09375,0.04931640625,0.98291015625,-0.068359375,-35.491939544677734,11.047362327575684,11.383055686950684,40.0,4052.0,1.0
1138816.4746448,300548.375,294727.0,643853.625,615081.9375,316436.625,283489.0625,279997.46875,290128.53125,0.051025390625,0.982666015625,-0.066650390625,-35.278316497802734,10.650633811950684,10.620116233825684,40.0,4053.0,1.0
1138816.4746652,301143.8125,294179.5625,643858.1875,615237.6875,316116.8125,283343.0625,279839.75,289847.96875,0.052978515625,0.98046875,-0.0615234375,-35.034175872802734,10.284422874450684,10.009764671325684,40.0,4054.0,1.0
1138816.4878084,300807.375,294335.46875,643760.125,615078.8125,316070.3125,283429.875,279896.96875,289971.25,0.052001953125,0.979736328125,-0.05517578125,-34.545894622802734,9.887694358825684,9.399413108825684,40.0,4055.0,1.0
1138816.4952289,300030.34375,294983.40625,643698.375,614828.6875,316389.0625,283633.90625,280093.21875,290333.0,0.053466796875,0.979248046875,-0.053466796875,-34.301753997802734,9.399413108825684,8.605956077575684,40.0,4056.0,1.0
1138816.4952489,299834.375,295204.25,643694.3125,614762.5,316595.84375,283666.0,280141.65625,290416.21875,0.054931640625,0.979248046875,-0.046875,-33.843990325927734,9.155272483825684,7.934569835662842,40.0,4057.0,1.0
1138816.4952557,300522.71875,294705.0,643769.875,614968.5625,316442.0625,283481.03125,279983.5,290115.03125,0.057861328125,0.978759765625,-0.04052734375,-33.203121185302734,8.941649436950684,7.263183116912842,40.0,4058.0,1.0
1138816.4984117,301100.90625,294137.4375,643754.75,615094.9375,316099.8125,283304.25,279803.8125,289810.75,0.058837890625,0.97998046875,-0.039794921875,-32.623287200927734,8.544920921325684,6.530761241912842,40.0,4059.0,1.0
1138816.4984318,300786.8125,294298.375,643669.3125,614985.6875,316055.03125,283398.3125,279863.0,289941.75,0.058837890625,0.9853515625,-0.03955078125,-32.104488372802734,8.270262718200684,5.920409679412842,40.0,4060.0,1.0
1138816.5090059,300008.71875,294972.15625,643615.375,614736.5,316381.53125,283632.75,280085.4375,290333.25,0.05712890625,0.987060546875,-0.039306640625,-31.616209030151367,7.995604991912842,5.279540538787842,40.0,4061.0,1.0
1138816.5183713,299813.71875,295198.25,643610.75,614662.5625,316583.96875,283674.6875,280142.125,290419.90625,0.0556640625,0.986572265625,-0.03857421875,-31.066892623901367,7.781981945037842,4.669188976287842,40.0,4062.0,1.0
1138816.5183805,300508.75,294694.1875,643687.1875,614880.5,316428.84375,283476.09375,279974.75,290101.0625,0.057373046875,0.988037109375,-0.038330078125,-30.487058639526367,7.507323741912842,3.967284917831421,40.0,4063.0,1.0
1138816.5208444,301106.4375,294125.71875,643679.5,615015.8125,316087.3125,283297.28125,279786.46875,289778.84375,0.055908203125,0.988525390625,-0.037841796875,-30.029294967651367,7.324218273162842,3.387450933456421,40.0,4064.0,1.0
1138816.5208535,300776.1875,294276.71875,643573.8125,614880.3125,316025.875,283388.46875,279845.03125,289908.5,0.056396484375,0.98876953125,-0.033447265625,-29.418943405151367,6.988524913787842,2.929687261581421,40.0,4065.0,1.0
1138816.5227494,299982.96875,294935.40625,643502.5625,614648.5625,316331.375,283610.9375,280060.84375,290305.46875,0.0556640625,0.990478515625,-0.02880859375,-28.503416061401367,6.591796398162842,2.502441167831421,40.0,4066.0,1.0
1138816.5353318,299753.53125,295149.96875,643478.875,614565.1875,316518.34375,283642.5,280112.78125,290391.09375,0.057861328125,0.9951171875,-0.023193359375,-27.801511764526367,6.164550304412842,2.014159917831421,40.0,4067.0,1.0
1138816.5383699,300465.5625,294644.1875,643560.6875,614761.3125,316368.65625,283447.125,279949.875,290076.75,0.057373046875,1.001953125,-0.020263671875,-27.160642623901367,6.011962413787842,1.4343260526657104,40.0,4068.0,1.0
1138816.5383789,301082.5625,294081.5625,643567.9375,614897.3125,316044.84375,283263.125,279763.75,289756.6875,0.0576171875,1.008544921875,-0.017333984375,-26.489255905151367,5.798339366912842,0.9460448622703552,40.0,4069.0,1.0
1138816.546501,300734.875,294229.4375,643456.5,614747.9375,315982.6875,283357.1875,279825.34375,289887.3125,0.05517578125,1.01123046875,-0.017822265625,-25.939939498901367,5.462646007537842,0.6103515028953552,40.0,4070.0,1.0
1138816.5508534,299900.25,294883.53125,643357.25,614487.5625,316272.28125,283596.09375,280054.59375,290290.875,0.05224609375,1.011962890625,-0.01123046875,-25.451658248901367,5.096435070037842,0.0915527269244194,40.0,4071.0,1.0
1138816.5508615,299696.40625,295114.9375,643343.4375,614428.375,316466.84375,283646.4375,280115.28125,290385.90625,0.048828125,1.0126953125,-0.008056640625,-24.993894577026367,4.760741710662842,-0.3051757514476776,40.0,4072.0,1.0
1138816.5570701,300418.53125,294601.0,643428.25,614641.0,316314.84375,283433.90625,279933.34375,290059.9375,0.04931640625,1.013427734375,-0.006591796875,-24.597166061401367,4.455565929412842,-0.7934569716453552,40.0,4073.0,1.0
1138816.5570772,301062.1875,294044.625,643454.25,614804.25,316006.03125,283255.625,279753.46875,289753.8125,0.0478515625,1.011474609375,-0.000244140625,-24.230955123901367,4.058837413787842,-1.0986326932907104,40.0,4074.0,1.0
1138816.5627595,300738.96875,294199.125,643356.3125,614669.9375,315953.625,283359.59375,279824.71875,289894.8125,0.044921875,1.009765625,-0.000732421875,-24.078367233276367,3.753661870956421,-1.5258787870407104,40.0,4075.0,1.0
1138816.5721048,299889.25,294844.75,643247.9375,614397.4375,316231.5,283592.96875,280045.46875,290288.28125,0.043212890625,1.00390625,-0.00146484375,-23.559568405151367,3.387450933456421,-1.8920897245407104,40.0,4076.0,1.0
1138816.5721154,299686.03125,295086.3125,643241.8125,614328.625,316426.875,283644.09375,280115.03125,290393.25,0.039794921875,0.996826171875,-0.004638671875,-22.918699264526367,2.990722417831421,-2.258300542831421,40.0,4077.0,1.0
1138816.5740154,300446.09375,294599.5,643359.75,614544.1875,316295.875,283436.59375,279940.78125,290067.0,0.037841796875,0.9951171875,-0.002685546875,-22.155759811401367,2.593993902206421,-2.838134527206421,40.0,4078.0,1.0
1138816.5777728,301125.5625,294057.6875,643421.75,614749.5625,316009.875,283262.40625,279762.59375,289762.5625,0.03759765625,0.994873046875,-0.00146484375,-21.606443405151367,2.319335699081421,-3.356933355331421,40.0,4079.0,1.0
1138816.582094,300758.125,294185.4375,643299.3125,614582.8125,315937.8125,283335.8125,279805.6875,289871.125,0.034912109375,0.99267578125,0.0009765625,-20.996091842651367,2.075195074081421,-3.784179449081421,40.0,4080.0,1.0
1138816.582102,299890.15625,294825.5,643177.1875,614290.1875,316210.5,283577.75,280029.71875,290261.1875,0.035400390625,0.990478515625,0.005859375,-20.233152389526367,1.5563963651657104,-4.180907726287842,40.0,4081.0,1.0
1138816.5953395,299656.875,295044.46875,643143.3125,614209.5,316383.9375,283627.65625,280089.28125,290358.65625,0.033447265625,0.986083984375,0.009765625,-19.622800827026367,1.1291502714157104,-4.547118663787842,40.0,4082.0,1.0
1138816.5983772,300448.21875,294578.03125,643294.75,614510.625,316278.09375,283442.84375,279937.71875,290065.9375,0.03173828125,0.982421875,0.009033203125,-18.707273483276367,0.7324218153953552,-4.760741710662842,40.0,4083.0,1.0
1138816.5983851,301161.875,294060.71875,643393.375,614747.3125,316022.3125,283293.09375,279785.75,289786.71875,0.031494140625,0.980712890625,0.0078125,-18.035886764526367,0.3967284858226776,-5.004882335662842,40.0,4084.0,1.0
1138816.6003226,300796.90625,294195.90625,643280.625,614578.125,315962.84375,283375.25,279838.5,289905.53125,0.02978515625,0.9765625,0.009521484375,-17.120359420776367,-0.03051757626235485,-5.249022960662842,40.0,4085.0,1.0
1138816.6040079,299845.09375,294775.96875,643085.9375,614193.0,316170.28125,283567.9375,280017.21875,290251.375,0.027587890625,0.98046875,0.006591796875,-15.838622093200684,-0.6713866591453552,-5.310058116912842,40.0,4086.0,1.0
1138816.612852,299605.65625,294995.03125,643037.1875,614094.625,316330.5625,283610.03125,280076.84375,290343.90625,0.027587890625,0.9853515625,0.004150390625,-14.678954124450684,-1.0070799589157104,-5.554198741912842,40.0,4087.0,1.0
1138816.6171957,300425.4375,294547.09375,643210.75,614431.125,316243.5,283429.34375,279934.96875,290060.65625,0.02978515625,0.9931640625,0.005859375,-13.793944358825684,-1.4953612089157104,-5.798339366912842,40.0,4088.0,1.0
1138816.6172159,301154.28125,294037.9375,643328.0,614707.9375,316012.28125,283269.03125,279783.25,289786.625,0.02734375,1.00048828125,0.008056640625,-12.908934593200684,-1.7700194120407104,-5.798339366912842,40.0,4089.0,1.0
1138816.6278293,300754.71875,294141.0,643170.5625,614459.5625,315923.6875,283335.09375,279813.1875,289870.65625,0.024169921875,1.005126953125,0.008056640625,-12.237547874450684,-2.166747808456421,-5.859374523162842,40.0,4090.0,1.0
1138816.630836,299801.5625,294717.25,642959.875,614094.0,316114.84375,283548.96875,280002.1875,290224.53125,0.0224609375,1.009033203125,0.010986328125,-11.993407249450684,-2.593993902206421,-5.981444835662842,40.0,4091.0,1.0
1138816.6308449,299549.0625,294923.5,642894.9375,613999.5625,316254.03125,283589.5625,280051.09375,290309.3125,0.01953125,1.011474609375,0.010498046875,-11.749266624450684,-2.838134527206421,-6.072997570037842,40.0,4092.0,1.0
1138816.6326085,300395.21875,294507.3125,643093.0625,614334.4375,316193.0625,283419.0625,279923.6875,290046.09375,0.015625,1.012451171875,0.00439453125,-11.383055686950684,-3.326415777206421,-6.164550304412842,40.0,4093.0,1.0
1138816.6390289,301145.4375,294012.625,643221.375,614582.8125,315970.0,283259.5625,279768.65625,289761.78125,0.013427734375,1.01220703125,-0.00146484375,-11.016844749450684,-3.753661870956421,-6.225585460662842,40.0,4094.0,1.0
1138816.6415438,300772.5,294131.0,643093.1875,614416.3125,315897.40625,283336.53125,279809.6875,289872.46875,0.009521484375,1.009765625,-0.00244140625,-10.559081077575684,-4.241942882537842,-6.347655773162842,40.0,4095.0,1.0
1138816.6453293,299805.5625,294707.21875,642877.25,614040.0625,316082.84375,283552.53125,279999.6875,290231.25,0.008056640625,1.010498046875,-0.00048828125,-10.223387718200684,-4.638671398162842,-6.561278820037842,40.0,4096.0,1.0
1138816.6640337,299531.28125,294912.59375,642787.375,613864.875,316209.96875,283580.4375,280043.5,290304.375,0.006103515625,1.0078125,-0.001220703125,-9.735106468200684,-5.065917491912842,-6.652831554412842,40.0,4097.0,1.0
1138816.6640524,300403.53125,294518.3125,643011.0625,614233.8125,316175.0,283420.03125,279923.78125,290044.65625,0.00634765625,1.00048828125,-0.002197265625,-9.277342796325684,-5.401610851287842,-6.744384288787842,40.0,4098.0,1.0
1138816.6640554,301184.75,294048.75,643180.0625,614541.375,315995.84375,283271.09375,279777.59375,289780.09375,0.00341796875,0.994384765625,-0.000732421875,-8.911131858825684,-5.859374523162842,-6.866454601287842,40.0,4099.0,1.0
1138816.6666147,300810.40625,294165.15625,643054.0,614368.6875,315926.46875,283348.53125,279819.8125,289883.90625,-0.000732421875,0.99462890625,-0.00146484375,-8.178709983825684,-6.347655773162842,-7.110595226287842,40.0,4100.0,1.0
1138816.6691022,299805.3125,294722.4375,642809.0,613953.1875,316093.5625,283562.65625,280006.5,290231.25,-0.004150390625,0.992431640625,-0.005615234375,-7.507323741912842,-6.744384288787842,-7.263183116912842,40.0,4101.0,1.0
1138816.67163,299530.90625,294927.09375,642719.875,613814.8125,316215.5,283613.34375,280068.625,290321.09375,-0.003662109375,0.990234375,-0.00390625,-6.713866710662842,-7.232665538787842,-7.568358898162842,40.0,4102.0,1.0
1138816.6741086,300401.90625,294527.875,642940.6875,614193.0625,316176.71875,283448.28125,279946.40625,290066.1875,-0.0068359375,0.98779296875,-0.000732421875,-6.195067882537842,-7.690429210662842,-7.690429210662842,40.0,4103.0,1.0
1138816.677853,301195.03125,294064.84375,643122.6875,614509.125,316019.09375,283277.4375,279792.28125,289797.71875,-0.0087890625,0.985107421875,-0.000244140625,-5.615233898162842,-8.178709983825684,-8.056639671325684,40.0,4104.0,1.0
1138816.6846522,300778.3125,294150.84375,642963.1875,614295.8125,315929.0625,283333.21875,279813.71875,289881.75,-0.007080078125,0.9833984375,0.000732421875,-5.065917491912842,-8.789061546325684,-8.300780296325684,40.0,4105.0,1.0
1138816.6846687,299754.875,294679.4375,642691.25,613844.0,316067.90625,283541.1875,279992.34375,290216.9375,-0.0087890625,0.974853515625,0.0048828125,-4.638671398162842,-9.216307640075684,-8.544920921325684,40.0,4106.0,1.0
1138816.6928781,299490.5,294886.03125,642606.3125,613723.75,316180.90625,283591.875,280049.3125,290311.625,-0.008056640625,0.971923828125,-0.001708984375,-4.364013195037842,-9.704588890075684,-9.277342796325684,40.0,4107.0,1.0
1138816.6958975,300369.8125,294500.6875,642837.25,614102.875,316146.9375,283420.40625,279920.28125,290055.125,-0.00830078125,0.979248046875,-0.00537109375,-3.570556402206421,-9.979247093200684,-9.155272483825684,40.0,4108.0,1.0
1138816.6959147,301197.46875,294069.03125,643056.5,614469.125,316010.59375,283284.25,279797.53125,289808.625,-0.009521484375,0.975830078125,-0.0009765625,-2.777099370956421,-10.559081077575684,-8.789061546325684,40.0,4109.0,1.0
1138816.7015498,300792.28125,294155.9375,642906.5,614260.3125,315919.75,283340.21875,279822.5625,289890.4375,-0.0068359375,0.97265625,0.0009765625,-2.166747808456421,-11.077879905700684,-8.758543968200684,40.0,4110.0,1.0
1138816.705379,299763.8125,294676.75,642622.3125,613792.1875,316040.375,283536.90625,279988.96875,290215.0625,-0.00537109375,0.97265625,0.00390625,-1.8615721464157104,-11.444090843200684,-8.666991233825684,40.0,4111.0,1.0
1138816.7222745,299477.0,294873.25,642525.125,613653.25,316153.1875,283579.375,280037.875,290295.625,-0.0029296875,0.97265625,0.00048828125,-1.4953612089157104,-11.627196311950684,-8.544920921325684,40.0,4112.0,1.0
1138816.722311,300383.9375,294510.875,642780.6875,614064.3125,316146.3125,283417.53125,279920.5625,290051.375,0.00048828125,0.973876953125,-0.001953125,-1.1901854276657104,-11.871336936950684,-8.483885765075684,40.0,4113.0,1.0
1138816.7241742,301180.65625,294054.125,642971.9375,614394.9375,315993.34375,283251.15625,279769.28125,289783.84375,0.00390625,0.973388671875,-0.010009765625,-0.7629393935203552,-12.054442405700684,-8.300780296325684,40.0,4114.0,1.0
1138816.7272725,300798.53125,294157.90625,642846.5,614221.875,315929.40625,283327.96875,279809.53125,289882.375,0.007080078125,0.96923828125,-0.01416015625,-0.1525878757238388,-12.145995140075684,-8.117674827575684,40.0,4115.0,1.0
1138816.7273103,299767.5625,294677.625,642563.3125,613760.875,316057.15625,283524.84375,279978.6875,290204.6875,0.008056640625,0.9677734375,-0.0146484375,0.1831054538488388,-12.145995140075684,-8.056639671325684,40.0,4116.0,1.0
1138816.7291932,299499.71875,294885.15625,642474.0,613615.125,316176.15625,283575.4375,280036.53125,290296.4375,0.00537109375,0.9697265625,-0.016357421875,0.7629393935203552,-12.237547874450684,-7.873534679412842,40.0,4117.0,1.0
1138816.7316243,300406.9375,294533.25,642739.9375,614021.0625,316185.28125,283420.65625,279926.8125,290055.90625,0.005615234375,0.970947265625,-0.021484375,1.6174315214157104,-12.298583030700684,-7.781981945037842,40.0,4118.0,1.0
1138816.7405063,301222.59375,294092.5625,642952.5,614364.125,316054.40625,283263.125,279785.1875,289800.46875,0.001953125,0.977294921875,-0.021728515625,2.441406011581421,-12.298583030700684,-7.568358898162842,40.0,4119.0,1.0
1138816.742927,300824.1875,294181.15625,642811.0,614165.25,315979.125,283331.1875,279815.6875,289884.53125,-0.001953125,0.992919921875,-0.01513671875,3.143310308456421,-12.268065452575684,-7.659911632537842,40.0,4120.0,1.0
1138816.7454474,299790.90625,294696.40625,642531.875,613716.1875,316112.875,283528.6875,279987.34375,290212.84375,-0.00146484375,1.001708984375,-0.010498046875,3.204345464706421,-12.298583030700684,-7.598876476287842,40.0,4121.0,1.0
1138816.7541769,299517.5,294908.75,642440.6875,613584.9375,316238.03125,283586.34375,280054.0625,290310.8125,-0.002685546875,1.0048828125,-0.01171875,3.082275152206421,-12.359618186950684,-7.507323741912842,40.0,4122.0,1.0
1138816.7572331,300446.4375,294573.5625,642721.125,614012.1875,316262.71875,283446.78125,279958.125,290085.78125,-0.005126953125,1.0048828125,-0.015625,2.929687261581421,-12.390135765075684,-7.476806163787842,40.0,4123.0,1.0
1138816.7572685,301258.625,294127.5,642928.8125,614370.1875,316127.4375,283282.09375,279805.5,289818.90625,-0.0078125,1.00244140625,-0.018798828125,2.807616949081421,-12.359618186950684,-7.385253429412842,40.0,4124.0,1.0
1138816.7630382,300844.5625,294202.96875,642771.5,614155.625,316043.65625,283341.71875,279827.3125,289898.90625,-0.007080078125,0.99853515625,-0.019775390625,2.777099370956421,-12.359618186950684,-7.324218273162842,40.0,4125.0,1.0
1138816.7697699,299799.59375,294706.875,642472.875,613668.3125,316162.9375,283535.125,279994.0625,290226.34375,-0.00634765625,0.99365234375,-0.02001953125,2.746581792831421,-12.420653343200684,-7.232665538787842,40.0,4126.0,1.0
1138816.7698047,299521.53125,294906.96875,642379.9375,613547.5625,316278.0,283580.71875,280048.3125,290316.375,-0.006103515625,0.99267578125,-0.026123046875,2.746581792831421,-12.420653343200684,-7.202147960662842,40.0,4127.0,1.0
1138816.7779606,300460.84375,294576.15625,642663.4375,613986.375,316293.125,283433.90625,279944.875,290083.09375,-0.003662109375,0.995849609375,-0.032470703125,2.960204839706421,-12.481688499450684,-7.141112804412842,40.0,4128.0,1.0
1138816.7822373,301290.96875,294149.25,642882.8125,614335.3125,316168.03125,283283.6875,279804.4375,289820.875,-0.001708984375,1.000732421875,-0.031494140625,3.204345464706421,-12.359618186950684,-7.049560070037842,40.0,4129.0,1.0
1138816.7822735,300874.96875,294220.5,642718.4375,614092.375,316077.03125,283346.90625,279831.0625,289900.53125,0.000244140625,1.005126953125,-0.03076171875,3.417968511581421,-12.207030296325684,-6.958007335662842,40.0,4130.0,1.0
1138816.7880327,299844.28125,294732.0,642432.875,613647.3125,316208.28125,283555.6875,280015.15625,290243.5,0.0009765625,1.01171875,-0.02880859375,3.417968511581421,-12.054442405700684,-6.774901866912842,40.0,4131.0,1.0
1138816.7922308,299560.25,294929.40625,642328.125,613502.9375,316320.65625,283591.71875,280063.78125,290327.90625,0.000732421875,1.014892578125,-0.029052734375,3.265380620956421,-11.840819358825684,-6.622313976287842,40.0,4132.0,1.0
1138816.7922662,300480.5,294592.78125,642602.25,613948.0,316336.75,283435.78125,279952.125,290094.90625,-0.003662109375,1.01806640625,-0.02880859375,3.082275152206421,-11.688231468200684,-6.408690929412842,40.0,4133.0,1.0
1138816.8005337,301282.84375,294158.71875,642805.6875,614259.75,316210.21875,283278.59375,279799.875,289820.0625,-0.005126953125,1.020263671875,-0.031982421875,2.929687261581421,-11.535643577575684,-6.439208507537842,40.0,4134.0,1.0
1138816.8035422,300913.875,294258.84375,642679.75,614093.75,316150.78125,283361.40625,279843.9375,289927.96875,-0.005615234375,1.0205078125,-0.03515625,2.746581792831421,-11.383055686950684,-6.256103038787842,40.0,4135.0,1.0
1138816.8035779,299854.375,294740.65625,642363.3125,613617.0,316247.53125,283544.6875,280001.03125,290246.1875,-0.00732421875,1.02001953125,-0.034912109375,2.685546636581421,-11.474608421325684,-6.011962413787842,40.0,4136.0,1.0
1138816.8117944,299573.03125,294947.65625,642264.5625,613448.0625,316360.25,283592.96875,280059.78125,290335.84375,-0.007568359375,1.020751953125,-0.038330078125,2.624511480331421,-11.474608421325684,-5.798339366912842,40.0,4137.0,1.0
1138816.8142014,300509.5625,294629.90625,642557.5,613905.6875,316388.96875,283454.65625,279969.28125,290119.5625,-0.00634765625,1.020751953125,-0.03466796875,2.563476324081421,-11.444090843200684,-5.767821788787842,40.0,4138.0,1.0
1138816.8178651,301327.1875,294197.96875,642774.5,614244.125,316266.5625,283303.53125,279829.375,289859.75,-0.00830078125,1.018798828125,-0.03173828125,2.471923589706421,-11.352538108825684,-5.737304210662842,40.0,4139.0,1.0
1138816.8266787,300919.75,294266.375,642615.875,614043.0625,316178.5,283355.84375,279851.09375,289940.40625,-0.01025390625,1.018798828125,-0.033203125,2.441406011581421,-11.230467796325684,-5.615233898162842,40.0,4140.0,1.0
1138816.8310256,299861.4375,294746.5625,642303.6875,613560.9375,316280.875,283543.34375,280011.75,290257.25,-0.0126953125,1.020263671875,-0.029541015625,2.166747808456421,-11.138915061950684,-5.584716320037842,40.0,4141.0,1.0
1138816.8310633,299591.96875,294966.0625,642222.0625,613442.5,316410.3125,283611.375,280085.96875,290363.21875,-0.01513671875,1.015380859375,-0.0263671875,2.197265386581421,-11.260985374450684,-5.401610851287842,40.0,4142.0,1.0
1138816.8371725,300494.90625,294623.53125,642481.375,613842.4375,316415.59375,283453.75,279968.40625,290117.0625,-0.01904296875,1.015380859375,-0.02392578125,2.166747808456421,-11.230467796325684,-5.340575695037842,40.0,4143.0,1.0
1138816.8372059,301312.34375,294191.34375,642692.0625,614170.1875,316285.0625,283296.03125,279822.40625,289848.84375,-0.017578125,1.011962890625,-0.0234375,2.075195074081421,-11.352538108825684,-5.157470226287842,40.0,4144.0,1.0
1138816.8498021,300924.59375,294265.5625,642550.875,613970.5,316201.5625,283351.03125,279844.84375,289934.3125,-0.016845703125,1.010986328125,-0.025634765625,1.9226073026657104,-11.352538108825684,-5.035399913787842,40.0,4145.0,1.0
1138816.849834,299883.96875,294754.78125,642254.6875,613525.3125,316307.96875,283544.84375,280010.78125,290263.25,-0.016845703125,1.007080078125,-0.028076171875,1.8920897245407104,-11.474608421325684,-5.004882335662842,40.0,4146.0,1.0
1138816.853581,299591.34375,294952.90625,642147.125,613374.25,316408.28125,283587.6875,280064.5,290351.9375,-0.01611328125,1.00439453125,-0.029052734375,2.014159917831421,-11.474608421325684,-5.096435070037842,40.0,4147.0,1.0
1138816.8536145,300506.34375,294624.15625,642421.625,613786.375,316417.84375,283437.03125,279957.03125,290118.40625,-0.013427734375,0.997314453125,-0.027587890625,2.044677495956421,-11.627196311950684,-4.882812023162842,40.0,4148.0,1.0
1138816.8623888,301337.375,294203.5,642646.5625,614142.625,316291.15625,283289.96875,279820.0625,289862.25,-0.01025390625,0.9931640625,-0.03125,2.258300542831421,-11.596678733825684,-4.821776866912842,40.0,4149.0,1.0
1138816.8624205,300927.4375,294267.0,642483.75,613899.5625,316197.53125,283350.65625,279844.375,289934.25,-0.006591796875,0.989501953125,-0.035400390625,2.746581792831421,-11.413573265075684,-4.730224132537842,40.0,4150.0,1.0
1138816.8686129,299877.71875,294757.375,642181.625,613438.75,316306.53125,283559.96875,280025.25,290266.75,-0.00732421875,0.984130859375,-0.03076171875,3.204345464706421,-11.322020530700684,-4.791259288787842,40.0,4151.0,1.0
1138816.8686451,299581.53125,294955.0625,642066.75,613286.3125,316404.5,283598.78125,280078.28125,290353.1875,-0.008056640625,0.9794921875,-0.028564453125,3.723144292831421,-11.230467796325684,-4.638671398162842,40.0,4152.0,1.0
1138816.8767096,300495.09375,294632.5625,642336.125,613704.125,316415.25,283444.375,279971.34375,290123.40625,-0.007080078125,0.977783203125,-0.030517578125,4.241942882537842,-11.138915061950684,-4.882812023162842,40.0,4153.0,1.0
1138816.8860212,301320.125,294205.9375,642559.0625,614048.9375,316290.96875,283290.3125,279824.8125,289859.59375,-0.0078125,0.9765625,-0.031005859375,4.821776866912842,-11.077879905700684,-4.882812023162842,40.0,4154.0,1.0
1138816.8860567,300915.125,294259.9375,642398.1875,613839.75,316193.25,283337.78125,279839.46875,289927.53125,-0.009521484375,0.974853515625,-0.027099609375,5.432128429412842,-10.925292015075684,-4.791259288787842,40.0,4155.0,1.0
1138816.8885466,299862.0625,294728.40625,642080.6875,613369.0625,316283.90625,283526.78125,279999.78125,290243.125,-0.005859375,0.971923828125,-0.027587890625,5.889892101287842,-10.833739280700684,-4.852294445037842,40.0,4156.0,1.0
1138816.888585,299583.21875,294938.78125,641987.1875,613237.9375,316402.28125,283579.8125,280066.21875,290349.09375,-0.00390625,0.965087890625,-0.023681640625,6.195067882537842,-10.742186546325684,-4.791259288787842,40.0,4157.0,1.0
1138816.8992108,300513.125,294625.59375,642283.125,613688.0,316430.4375,283439.28125,279967.78125,290126.625,-0.002197265625,0.955810546875,-0.023681640625,6.500243663787842,-10.559081077575684,-4.791259288787842,40.0,4158.0,1.0
1138816.9091467,301357.15625,294217.46875,642530.8125,614045.25,316329.15625,283295.84375,279836.625,289873.34375,-0.001708984375,0.94873046875,-0.026123046875,6.988524913787842,-10.406493186950684,-4.913329601287842,40.0,4159.0,1.0
1138816.9091776,300948.625,294277.625,642372.0,613824.625,316232.75,283356.03125,279863.25,289954.09375,-0.006591796875,0.942626953125,-0.02880859375,7.690429210662842,-10.375975608825684,-4.943847179412842,40.0,4160.0,1.0
1138816.9091863,299872.1875,294743.875,642036.8125,613348.0625,316302.59375,283548.25,280022.84375,290270.125,-0.008056640625,0.9365234375,-0.029052734375,8.392333030700684,-10.284422874450684,-4.974364757537842,40.0,4161.0,1.0
1138816.9122348,299552.0,294934.9375,641896.4375,613138.0625,316375.28125,283590.71875,280068.71875,290346.125,-0.008544921875,0.93603515625,-0.033935546875,9.338377952575684,-10.101317405700684,-5.218505382537842,40.0,4162.0,1.0
1138816.9122622,300447.25,294605.03125,642149.9375,613510.8125,316373.125,283428.53125,279950.59375,290094.90625,-0.009033203125,0.935546875,-0.037353515625,10.223387718200684,-9.948729515075684,-5.371093273162842,40.0,4163.0,1.0
1138816.914161,301313.875,294215.21875,642410.8125,613913.5625,316281.59375,283298.4375,279830.34375,289855.65625,-0.012451171875,0.9375,-0.03466796875,11.077879905700684,-9.918211936950684,-5.401610851287842,40.0,4164.0,1.0
1138816.9254101,300931.84375,294286.46875,642278.375,613728.25,316212.46875,283368.0,279868.96875,289947.65625,-0.0126953125,0.940185546875,-0.03125,11.810301780700684,-9.887694358825684,-5.401610851287842,40.0,4165.0,1.0
1138816.9321763,299891.40625,294761.78125,641980.1875,613268.0,316321.28125,283566.21875,280035.71875,290266.21875,-0.014404296875,0.943603515625,-0.033447265625,12.451170921325684,-9.857176780700684,-5.554198741912842,40.0,4166.0,1.0
1138816.9321998,299615.21875,294967.21875,641887.875,613131.625,316436.0,283611.8125,280090.78125,290360.25,-0.01611328125,0.9482421875,-0.034912109375,12.908934593200684,-9.887694358825684,-5.706786632537842,40.0,4167.0,1.0
1138816.9485448,300557.5,294665.375,642197.0,613575.8125,316488.125,283461.34375,279987.25,290135.5,-0.019775390625,0.9521484375,-0.037353515625,13.366698265075684,-9.887694358825684,-5.767821788787842,40.0,4168.0,1.0
1138816.9485801,301432.15625,294272.625,642469.1875,613983.75,316413.375,283317.40625,279858.4375,289891.6875,-0.021728515625,0.960205078125,-0.044677734375,13.977049827575684,-9.887694358825684,-5.859374523162842,40.0,4169.0,1.0
1138816.9510282,301044.84375,294329.65625,642319.5,613763.4375,316329.78125,283372.65625,279880.875,289962.125,-0.0224609375,0.965087890625,-0.043701171875,14.404295921325684,-10.009764671325684,-6.072997570037842,40.0,4170.0,1.0
1138816.9510643,299975.90625,294782.59375,641981.8125,613267.875,316401.84375,283561.84375,280039.75,290269.34375,-0.020751953125,0.9716796875,-0.048583984375,14.678954124450684,-10.040282249450684,-6.347655773162842,40.0,4171.0,1.0
1138816.975485,299649.125,294966.875,641836.0,613076.1875,316471.03125,283607.71875,280084.71875,290347.125,-0.02001953125,0.9755859375,-0.050048828125,14.923094749450684,-9.948729515075684,-6.469726085662842,40.0,4172.0,1.0
1138816.9779321,300567.6875,294662.4375,642108.3125,613491.375,316489.53125,283465.71875,279988.5,290128.4375,-0.022705078125,0.9794921875,-0.0537109375,15.289305686950684,-10.101317405700684,-6.500243663787842,40.0,4173.0,1.0
1138816.9809886,301428.125,294273.59375,642362.4375,613878.875,316401.75,283323.46875,279864.875,289893.5625,-0.0234375,0.985595703125,-0.046630859375,15.411375999450684,-10.101317405700684,-6.652831554412842,40.0,4174.0,1.0
1138816.9810244,301059.40625,294340.125,642229.0625,613664.3125,316334.25,283385.25,279889.4375,289970.4375,-0.02099609375,0.98974609375,-0.04833984375,15.563963890075684,-10.192870140075684,-6.683349132537842,40.0,4175.0,1.0
1138816.9829827,300045.53125,294813.53125,641936.5,613227.1875,316440.8125,283586.53125,280057.625,290300.53125,-0.020263671875,0.990234375,-0.0478515625,15.869139671325684,-10.192870140075684,-6.683349132537842,40.0,4176.0,1.0
1138816.9855103,299753.09375,295014.25,641820.4375,613079.4375,316536.84375,283623.4375,280106.25,290395.21875,-0.017333984375,0.998291015625,-0.05322265625,15.747069358825684,-10.375975608825684,-7.110595226287842,40.0,4177.0,1.0
1138816.9879515,300654.75,294708.3125,642081.0,613463.4375,316554.625,283471.71875,280003.90625,290169.65625,-0.01904296875,1.01220703125,-0.057861328125,16.021726608276367,-10.284422874450684,-6.958007335662842,40.0,4178.0,1.0
1138816.9929525,301461.9375,294301.84375,642282.875,613778.3125,316427.84375,283331.34375,279877.03125,289923.5,-0.017578125,1.01806640625,-0.061767578125,15.930174827575684,-10.253905296325684,-6.713866710662842,40.0,4179.0,1.0
1138816.9955038,301039.375,294343.25,642079.625,613522.25,316291.40625,283388.03125,279899.03125,289998.78125,-0.02001953125,1.013671875,-0.06201171875,15.624999046325684,-10.131834983825684,-6.591796398162842,40.0,4180.0,1.0
1138816.9979208,299941.28125,294761.6875,641685.8125,612983.75,316298.9375,283563.0,280023.03125,290263.96875,-0.02197265625,1.00830078125,-0.062744140625,15.472411155700684,-10.162352561950684,-6.561278820037842,40.0,4181.0,1.0
1138817.0004991,299602.96875,294930.75,641513.9375,612774.375,316336.9375,283599.9375,280057.8125,290328.0,-0.026611328125,1.008544921875,-0.06640625,15.899657249450684,-10.131834983825684,-6.347655773162842,40.0,4182.0,1.0
1138817.0035075,300507.15625,294635.0625,641778.3125,613180.5,316349.34375,283450.0,279956.25,290108.125,-0.027099609375,1.010498046875,-0.061279296875,16.326902389526367,-10.284422874450684,-6.500243663787842,40.0,4183.0,1.0
1138817.0035436,301345.6875,294242.75,642008.8125,613545.25,316233.03125,283307.40625,279828.375,289867.375,-0.0263671875,1.017822265625,-0.062744140625,16.357419967651367,-10.345458030700684,-6.622313976287842,40.0,4184.0,1.0
1138817.0056178,300951.21875,294300.34375,641840.0,613332.6875,316117.15625,283378.375,279854.125,289943.96875,-0.025390625,1.01806640625,-0.067138671875,16.418455123901367,-10.406493186950684,-6.713866710662842,40.0,4185.0,1.0
1138817.0079268,299862.4375,294739.40625,641469.5,612775.3125,316159.4375,283556.65625,280001.3125,290232.40625,-0.025390625,1.0166015625,-0.070068359375,16.479490280151367,-10.375975608825684,-6.713866710662842,40.0,4186.0,1.0
1138817.0110466,299558.8125,294938.0625,641332.625,612612.5,316232.75,283601.90625,280060.5625,290330.03125,-0.025390625,1.015869140625,-0.06884765625,16.357419967651367,-10.437010765075684,-6.896972179412842,40.0,4187.0,1.0
1138817.0110811,300475.78125,294652.5,641620.625,613042.875,316267.09375,283476.09375,279978.3125,290122.625,-0.021728515625,1.013671875,-0.06884765625,16.479490280151367,-10.437010765075684,-6.958007335662842,40.0,4188.0,1.0
1138817.0192103,301316.28125,294265.28125,641870.5,613426.3125,316177.34375,283340.46875,279859.15625,289889.09375,-0.02294921875,1.012939453125,-0.073486328125,16.693113327026367,-10.314940452575684,-6.988524913787842,40.0,4189.0,1.0
1138817.0235476,300903.125,294303.5625,641686.8125,613181.625,316057.25,283388.46875,279868.09375,289949.34375,-0.0234375,1.00927734375,-0.07958984375,17.120359420776367,-10.253905296325684,-7.141112804412842,40.0,4190.0,1.0
1138817.0235868,299821.9375,294737.1875,641314.3125,612646.25,316086.75,283570.15625,280012.28125,290238.125,-0.027587890625,1.0068359375,-0.0791015625,17.547605514526367,-10.162352561950684,-7.263183116912842,40.0,4191.0,1.0
1138817.0292137,299497.46875,294926.90625,641163.0625,612474.9375,316138.875,283616.1875,280062.375,290325.3125,-0.03271484375,1.005126953125,-0.078369140625,17.913816452026367,-10.162352561950684,-7.202147960662842,40.0,4192.0,1.0
1138817.0384775,300376.0625,294621.9375,641420.6875,612873.6875,316144.78125,283469.03125,279958.28125,290102.21875,-0.035888671875,1.0087890625,-0.079345703125,18.524168014526367,-10.314940452575684,-7.232665538787842,40.0,4193.0,1.0
1138817.0385075,301189.0625,294211.1875,641642.5,613226.5,316021.0625,283315.625,279824.53125,289854.21875,-0.0390625,1.013427734375,-0.077880859375,18.707273483276367,-10.406493186950684,-7.293700695037842,40.0,4194.0,1.0
1138817.0404051,300759.625,294241.40625,641439.75,612960.5,315880.0625,283360.5,279835.71875,289911.15625,-0.041015625,1.013671875,-0.075439453125,18.829343795776367,-10.589598655700684,-7.415771007537842,40.0,4195.0,1.0
1138817.046653,299677.90625,294670.75,641055.9375,612421.5625,315893.09375,283553.96875,279979.65625,290202.8125,-0.043701171875,1.01123046875,-0.073486328125,18.798826217651367,-10.803221702575684,-7.507323741912842,40.0,4196.0,1.0
1138817.0560135,299345.84375,294858.9375,640888.5625,612229.4375,315932.28125,283606.625,280037.78125,290293.5625,-0.0439453125,1.008056640625,-0.076416015625,18.768308639526367,-11.016844749450684,-7.507323741912842,40.0,4197.0,1.0
1138817.056049,300229.1875,294556.3125,641145.0,612637.5,315933.0625,283465.8125,279948.5625,290085.6875,-0.042236328125,1.00732421875,-0.080810546875,18.920896530151367,-11.291502952575684,-7.720946788787842,40.0,4198.0,1.0
1138817.0579331,301031.4375,294136.8125,641354.1875,612978.3125,315795.375,283295.78125,279796.28125,289822.375,-0.0439453125,1.007568359375,-0.086669921875,19.195554733276367,-11.413573265075684,-7.873534679412842,40.0,4199.0,1.0
1138817.0604804,300620.0625,294166.5,641167.9375,612748.0625,315668.875,283324.46875,279790.03125,289864.6875,-0.040283203125,1.01123046875,-0.08740234375,19.409177780151367,-11.596678733825684,-7.904052257537842,40.0,4200.0,1.0
1138817.0691771,299586.34375,294623.0,640836.25,612276.375,315729.9375,283517.21875,279950.34375,290170.625,-0.037353515625,1.013671875,-0.087158203125,19.622800827026367,-11.688231468200684,-7.873534679412842,40.0,4201.0,1.0
1138817.0722704,299292.65625,294825.25,640721.125,612117.375,315815.5,283580.0,280012.9375,290270.125,-0.036376953125,1.015625,-0.087158203125,19.653318405151367,-11.810301780700684,-7.873534679412842,40.0,4202.0,1.0
1138817.0723053,300223.625,294549.875,641042.25,612582.875,315878.96875,283463.59375,279941.3125,290080.40625,-0.0390625,1.014892578125,-0.08154296875,19.439695358276367,-11.840819358825684,-7.781981945037842,40.0,4203.0,1.0
1138817.074227,301076.40625,294165.25,641317.8125,612990.0,315810.75,283326.625,279823.46875,289848.0625,-0.0380859375,1.00830078125,-0.082763671875,19.226072311401367,-11.932372093200684,-7.720946788787842,40.0,4204.0,1.0
1138817.0879282,300715.09375,294223.53125,641191.375,612803.5,315737.90625,283389.03125,279851.46875,289925.375,-0.03955078125,1.00390625,-0.084228515625,19.165037155151367,-12.084959983825684,-7.690429210662842,40.0,4205.0,1.0
1138817.0910224,299670.375,294659.75,640861.3125,612309.375,315803.0,283568.1875,279998.15625,290221.5,-0.04052734375,0.99658203125,-0.085693359375,19.073484420776367,-12.145995140075684,-7.873534679412842,40.0,4206.0,1.0
1138817.0910616,299406.375,294881.03125,640779.9375,612217.25,315922.34375,283631.21875,280070.9375,290334.25,-0.0439453125,0.994384765625,-0.08837890625,19.012449264526367,-12.176512718200684,-7.904052257537842,40.0,4207.0,1.0
1138817.0929362,300333.78125,294612.375,641110.75,612703.375,316002.09375,283502.125,279989.5,290138.4375,-0.04443359375,0.989501953125,-0.091796875,18.951414108276367,-12.420653343200684,-7.934569835662842,40.0,4208.0,1.0
1138817.0955011,301145.5,294203.25,641359.125,613035.4375,315923.25,283349.59375,279851.375,289881.5,-0.041015625,0.98828125,-0.09326171875,18.981931686401367,-12.512206077575684,-8.026122093200684,40.0,4209.0,1.0
1138817.1041427,300767.21875,294245.625,641214.1875,612837.3125,315830.0,283400.1875,279866.5625,289945.78125,-0.0400390625,0.984619140625,-0.095458984375,18.890378952026367,-12.695311546325684,-8.056639671325684,40.0,4210.0,1.0
1138817.1072457,299730.03125,294689.4375,640884.5625,612355.6875,315889.875,283580.96875,280014.4375,290244.21875,-0.041748046875,0.98291015625,-0.095947265625,18.920896530151367,-12.786864280700684,-8.148192405700684,40.0,4211.0,1.0
1138817.107281,299425.25,294879.78125,640763.8125,612203.875,315978.21875,283618.96875,280060.03125,290324.0625,-0.04150390625,0.9814453125,-0.096923828125,18.890378952026367,-12.908934593200684,-8.209227561950684,40.0,4212.0,1.0
1138817.1129053,300342.09375,294603.96875,641084.25,612680.9375,316053.9375,283485.21875,279977.15625,290128.4375,-0.040771484375,0.97998046875,-0.1005859375,18.890378952026367,-13.061522483825684,-8.331297874450684,40.0,4213.0,1.0
1138817.1272108,301188.34375,294218.34375,641363.0625,613078.0,316003.4375,283349.40625,279858.53125,289896.25,-0.04052734375,0.98046875,-0.099853515625,18.798826217651367,-13.214110374450684,-8.422850608825684,40.0,4214.0,1.0
1138817.1272454,300839.375,294275.3125,641238.9375,612900.125,315938.4375,283410.03125,279879.53125,289966.96875,-0.040283203125,0.9814453125,-0.103515625,18.798826217651367,-13.305663108825684,-8.483885765075684,40.0,4215.0,1.0
1138817.1298013,299823.625,294733.25,640929.5,612439.625,316025.0625,283591.4375,280028.9375,290271.21875,-0.0380859375,0.98583984375,-0.10498046875,18.737791061401367,-13.336180686950684,-8.514403343200684,40.0,4216.0,1.0
1138817.1298335,299517.9375,294937.71875,640816.125,612273.9375,316129.78125,283629.4375,280076.59375,290358.84375,-0.0361328125,0.991455078125,-0.107666015625,18.585203170776367,-13.397215843200684,-8.666991233825684,40.0,4217.0,1.0
1138817.1592213,300411.125,294646.78125,641119.4375,612720.875,316186.53125,283485.84375,279985.84375,290152.75,-0.02880859375,0.99267578125,-0.11376953125,18.249509811401367,-13.488768577575684,-8.636473655700684,40.0,4218.0,1.0
1138817.1592601,301239.84375,294245.8125,641388.4375,613122.0,316120.90625,283340.375,279861.03125,289914.5625,-0.017822265625,0.993408203125,-0.113037109375,18.249509811401367,-13.458250999450684,-8.453368186950684,40.0,4219.0,1.0
1138817.1592694,300873.375,294294.78125,641253.3125,612910.625,316050.65625,283393.65625,279882.84375,289982.4375,-0.009033203125,0.995361328125,-0.1123046875,17.852781295776367,-13.275145530700684,-8.331297874450684,40.0,4220.0,1.0
1138817.1616738,299859.46875,294748.34375,640940.75,612431.5,316131.90625,283581.5,280037.5,290286.3125,0.003173828125,1.001220703125,-0.11083984375,17.395017623901367,-13.031004905700684,-8.148192405700684,40.0,4221.0,1.0
1138817.1691107,299578.9375,294963.5625,640844.75,612316.75,316234.5625,283637.46875,280103.21875,290396.28125,0.011962890625,1.00634765625,-0.111572265625,16.876218795776367,-12.512206077575684,-7.873534679412842,40.0,4222.0,1.0
1138817.1691457,300473.09375,294678.09375,641154.1875,612775.875,316298.375,283500.0625,280015.4375,290196.1875,0.01904296875,1.01123046875,-0.1162109375,16.357419967651367,-11.993407249450684,-7.385253429412842,40.0,4223.0,1.0
1138817.1691545,301275.96875,294266.8125,641393.5,613115.4375,316213.53125,283345.9375,279875.40625,289935.9375,0.02197265625,1.0166015625,-0.1201171875,15.777586936950684,-11.444090843200684,-6.896972179412842,40.0,4224.0,1.0
1138817.1723605,300892.40625,294303.5625,641229.375,612879.125,316116.1875,283388.125,279881.5,289985.65625,0.021484375,1.01953125,-0.125244140625,15.136717796325684,-10.681151390075684,-6.347655773162842,40.0,4225.0,1.0
1138817.1724045,299879.6875,294755.875,640902.5,612401.625,316184.40625,283574.375,280030.1875,290284.34375,0.020263671875,1.0205078125,-0.1259765625,14.831542015075684,-10.314940452575684,-6.134032726287842,40.0,4226.0,1.0
1138817.1743957,299585.28125,294955.34375,640782.625,612255.6875,316274.34375,283628.09375,280087.84375,290376.625,0.01513671875,1.02099609375,-0.123779296875,14.373778343200684,-9.613036155700684,-5.859374523162842,40.0,4227.0,1.0
1138817.1767792,300475.9375,294676.5625,641085.8125,612709.4375,316338.71875,283506.0625,280018.5625,290187.0,0.0068359375,1.0205078125,-0.1240234375,13.916014671325684,-9.063719749450684,-5.615233898162842,40.0,4228.0,1.0
1138817.1792439,301281.78125,294270.5625,641328.4375,613075.8125,316255.375,283362.8125,279893.03125,289945.78125,-0.004150390625,1.018310546875,-0.118896484375,13.366698265075684,-8.544920921325684,-5.523681163787842,40.0,4229.0,1.0
1138817.1817889,300915.375,294310.15625,641175.8125,612876.0,316155.0625,283411.28125,279907.59375,290012.03125,-0.017578125,1.013916015625,-0.119140625,12.969969749450684,-8.270262718200684,-5.615233898162842,40.0,4230.0,1.0
1138817.1856524,299888.71875,294744.5,640834.375,612367.4375,316204.0625,283577.3125,280039.125,290294.71875,-0.030029296875,1.009521484375,-0.11279296875,12.145995140075684,-8.148192405700684,-6.134032726287842,40.0,4231.0,1.0
1138817.1923434,299571.6875,294935.21875,640697.875,612191.25,316280.6875,283613.34375,280083.46875,290378.9375,-0.03466796875,1.0068359375,-0.116455078125,11.718749046325684,-8.117674827575684,-6.652831554412842,40.0,4232.0,1.0
1138817.1923917,300445.5625,294644.65625,640979.75,612621.375,316325.9375,283483.53125,280003.53125,290178.75,-0.035400390625,0.99853515625,-0.120849609375,11.138915061950684,-8.148192405700684,-7.080077648162842,40.0,4233.0,1.0
1138817.2055892,301263.96875,294240.25,641224.3125,613005.625,316235.90625,283343.5,279880.34375,289940.5,-0.0361328125,0.988525390625,-0.128662109375,10.864256858825684,-8.239745140075684,-7.568358898162842,40.0,4234.0,1.0
1138817.2086462,300904.84375,294292.46875,641080.9375,612803.3125,316151.125,283402.53125,279900.34375,289997.8125,-0.034912109375,0.979248046875,-0.130859375,10.864256858825684,-8.270262718200684,-8.056639671325684,40.0,4235.0,1.0
1138817.2086903,299890.15625,294732.625,640748.625,612307.9375,316207.5625,283579.09375,280039.375,290278.90625,-0.03466796875,0.970947265625,-0.13427734375,11.077879905700684,-8.178709983825684,-8.483885765075684,40.0,4236.0,1.0
1138817.2149451,299593.40625,294938.0625,640628.375,612159.125,316286.75,283637.03125,280099.90625,290377.4375,-0.034423828125,0.96435546875,-0.1357421875,11.474608421325684,-8.148192405700684,-9.002684593200684,40.0,4237.0,1.0
1138817.2149894,300456.90625,294646.4375,640907.8125,612579.625,316325.84375,283498.53125,280011.84375,290170.71875,-0.034912109375,0.961181640625,-0.135986328125,11.901854515075684,-8.148192405700684,-9.307860374450684,40.0,4238.0,1.0
1138817.2261138,301258.34375,294235.96875,641145.0625,612940.125,316237.0625,283349.3125,279883.0,289928.59375,-0.035400390625,0.959228515625,-0.1357421875,12.512206077575684,-8.026122093200684,-9.582518577575684,40.0,4239.0,1.0
1138817.2261583,300899.28125,294278.25,640994.625,612734.5625,316141.03125,283398.6875,279898.75,289994.84375,-0.0341796875,0.95947265625,-0.137451171875,12.939452171325684,-8.026122093200684,-9.765624046325684,40.0,4240.0,1.0
1138817.2286352,299915.375,294738.4375,640684.0,612293.0625,316209.875,283587.875,280058.78125,290307.6875,-0.033935546875,0.958740234375,-0.137939453125,13.305663108825684,-7.995604991912842,-9.979247093200684,40.0,4241.0,1.0
1138817.2286791,299604.9375,294930.84375,640552.375,612113.125,316283.71875,283632.84375,280114.125,290398.78125,-0.037109375,0.958740234375,-0.138427734375,13.763426780700684,-7.934569835662842,-10.040282249450684,40.0,4242.0,1.0
1138817.2342397,300454.3125,294632.84375,640826.0,612510.0625,316322.0,283494.6875,280025.53125,290189.9375,-0.0361328125,0.95751953125,-0.13525390625,13.977049827575684,-7.751464366912842,-10.192870140075684,40.0,4243.0,1.0
1138817.2485112,301271.3125,294245.625,641091.3125,612899.25,316259.21875,283363.375,279909.03125,289956.9375,-0.03466796875,0.95166015625,-0.135009765625,14.251708030700684,-7.720946788787842,-10.192870140075684,40.0,4244.0,1.0
1138817.2485551,300910.1875,294280.65625,640939.6875,612685.375,316152.03125,283409.3125,279915.8125,290009.53125,-0.03515625,0.94775390625,-0.13427734375,14.495848655700684,-7.598876476287842,-10.162352561950684,40.0,4245.0,1.0
1138817.2559805,299904.1875,294717.875,640609.3125,612195.875,316197.71875,283583.65625,280054.3125,290295.8125,-0.037109375,0.944580078125,-0.137451171875,14.862059593200684,-7.415771007537842,-10.284422874450684,40.0,4246.0,1.0
1138817.2560183,299593.59375,294914.65625,640480.0,612034.5,316270.40625,283632.5625,280105.46875,290380.03125,-0.03759765625,0.943115234375,-0.141357421875,15.228270530700684,-7.324218273162842,-10.375975608825684,40.0,4247.0,1.0
1138817.2579361,300465.9375,294639.1875,640773.375,612478.0,316323.25,283513.28125,280031.6875,290183.9375,-0.0361328125,0.9404296875,-0.142578125,15.686034202575684,-7.049560070037842,-10.223387718200684,40.0,4248.0,1.0
1138817.2604827,301278.09375,294245.34375,641025.875,612855.6875,316246.8125,283373.8125,279908.75,289947.125,-0.04150390625,0.940673828125,-0.14453125,16.143796920776367,-6.927489757537842,-10.406493186950684,40.0,4249.0,1.0
1138817.2629157,300908.9375,294274.15625,640865.9375,612633.4375,316140.21875,283408.875,279907.4375,289989.3125,-0.044921875,0.942138671875,-0.148193359375,16.601560592651367,-6.774901866912842,-10.284422874450684,40.0,4250.0,1.0
1138817.2654621,299915.09375,294700.875,640532.75,612144.9375,316184.125,283581.875,280041.0,290268.53125,-0.0498046875,0.9443359375,-0.14794921875,16.754148483276367,-6.591796398162842,-10.345458030700684,40.0,4251.0,1.0
1138817.2691463,299601.28125,294897.125,640398.875,611982.0,316253.0625,283634.34375,280095.8125,290357.65625,-0.051513671875,0.9501953125,-0.1474609375,16.998289108276367,-6.500243663787842,-10.375975608825684,40.0,4252.0,1.0
1138817.2835904,300443.84375,294603.53125,640671.75,612403.9375,316290.53125,283494.0625,280013.5625,290162.5,-0.05078125,0.952392578125,-0.1455078125,17.028806686401367,-6.500243663787842,-10.437010765075684,40.0,4253.0,1.0
1138817.2836381,301230.28125,294196.53125,640904.5625,612745.0,316206.125,283340.125,279885.34375,289916.1875,-0.05224609375,0.95556640625,-0.143798828125,17.089841842651367,-6.439208507537842,-10.528563499450684,40.0,4254.0,1.0
1138817.2862515,300895.09375,294250.0,640772.9375,612563.375,316126.1875,283399.03125,279907.15625,289983.15625,-0.053466796875,0.95947265625,-0.142578125,16.937253952026367,-6.378173351287842,-10.620116233825684,40.0,4255.0,1.0
1138817.2862976,299908.65625,294694.71875,640447.5,612077.875,316173.125,283585.53125,280052.96875,290278.625,-0.05419921875,0.961181640625,-0.144287109375,16.723630905151367,-6.378173351287842,-10.650633811950684,40.0,4256.0,1.0
1138817.2879885,299598.15625,294889.875,640312.5,611909.875,316229.375,283631.125,280099.65625,290367.15625,-0.052490234375,0.96533203125,-0.1474609375,16.418455123901367,-6.164550304412842,-10.742186546325684,40.0,4257.0,1.0
1138817.2917131,300452.6875,294609.0625,640602.5625,612348.0625,316274.59375,283490.5,280012.03125,290168.5625,-0.052490234375,0.971435546875,-0.152099609375,16.143796920776367,-6.134032726287842,-10.711668968200684,40.0,4258.0,1.0
1138817.3061108,301239.125,294205.375,640847.1875,612709.0625,316193.96875,283341.8125,279882.84375,289924.59375,-0.05224609375,0.97607421875,-0.15185546875,15.747069358825684,-5.981444835662842,-10.803221702575684,40.0,4259.0,1.0
1138817.3061546,300902.15625,294254.90625,640715.8125,612524.5625,316112.59375,283396.96875,279903.5625,289989.5,-0.052001953125,0.978515625,-0.151123046875,15.289305686950684,-5.828856945037842,-10.864256858825684,40.0,4260.0,1.0
1138817.3081064,299925.03125,294695.4375,640392.625,612046.75,316162.3125,283578.65625,280041.09375,290265.65625,-0.052734375,0.979736328125,-0.15234375,14.678954124450684,-5.645751476287842,-10.864256858825684,40.0,4261.0,1.0
1138817.310581,299597.4375,294877.8125,640240.375,611854.0,316210.0625,283627.28125,280084.4375,290340.15625,-0.05419921875,0.979248046875,-0.1494140625,14.129637718200684,-5.401610851287842,-10.772704124450684,40.0,4262.0,1.0
1138817.3141753,300446.875,294608.0,640536.5,612282.5,316278.53125,283503.46875,280013.625,290158.03125,-0.0576171875,0.97998046875,-0.15087890625,13.549803733825684,-5.187987804412842,-10.742186546325684,40.0,4263.0,1.0
1138817.3261133,301266.75,294237.75,640816.875,612688.25,316241.625,283384.28125,279916.4375,289952.03125,-0.05810546875,0.97802734375,-0.151611328125,12.939452171325684,-5.035399913787842,-10.620116233825684,40.0,4264.0,1.0
1138817.326159,300920.46875,294270.5625,640672.0,612502.125,316144.96875,283422.625,279919.65625,290001.84375,-0.06298828125,0.9736328125,-0.151123046875,12.115477561950684,-4.852294445037842,-10.650633811950684,40.0,4265.0,1.0
1138817.3287452,299922.6875,294687.90625,640325.5,611989.75,316169.5625,283580.53125,280038.40625,290258.25,-0.06640625,0.966796875,-0.154541015625,11.566161155700684,-4.730224132537842,-10.650633811950684,40.0,4266.0,1.0
1138817.3287883,299611.125,294881.46875,640188.75,611819.0625,316226.5,283624.96875,280085.53125,290340.5,-0.07421875,0.95703125,-0.160400390625,11.108397483825684,-4.638671398162842,-10.559081077575684,40.0,4267.0,1.0
1138817.3305455,300454.75,294608.875,640479.4375,612246.25,316284.34375,283495.40625,280012.21875,290157.9375,-0.079345703125,0.950927734375,-0.164306640625,10.742186546325684,-4.699706554412842,-10.742186546325684,40.0,4268.0,1.0
1138817.3392978,301268.09375,294234.96875,640762.6875,612658.5625,316246.875,283369.34375,279915.28125,289956.59375,-0.084228515625,0.946533203125,-0.167236328125,10.772704124450684,-4.852294445037842,-10.711668968200684,40.0,4269.0,1.0
1138817.3423605,300916.1875,294269.40625,640618.9375,612446.4375,316156.6875,283412.1875,279920.375,289997.90625,-0.087646484375,0.94384765625,-0.17041015625,10.986327171325684,-4.974364757537842,-10.925292015075684,40.0,4270.0,1.0
1138817.3424041,299931.46875,294694.25,640280.3125,611950.625,316186.71875,283574.0,280040.375,290261.65625,-0.0908203125,0.946533203125,-0.172607421875,11.260985374450684,-5.065917491912842,-11.077879905700684,40.0,4271.0,1.0
1138817.3507734,299641.96875,294904.71875,640162.125,611804.125,316264.0625,283636.21875,280106.8125,290365.71875,-0.09228515625,0.955322265625,-0.170166015625,11.230467796325684,-5.218505382537842,-11.138915061950684,40.0,4272.0,1.0
1138817.3530492,300479.875,294631.3125,640453.125,612242.75,316326.46875,283507.9375,280033.9375,290186.53125,-0.091064453125,0.9609375,-0.166015625,11.047362327575684,-5.371093273162842,-11.322020530700684,40.0,4273.0,1.0
1138817.3565914,301273.625,294244.1875,640722.0625,612640.625,316279.0,283370.15625,279919.9375,289967.59375,-0.0888671875,0.960205078125,-0.162109375,10.559081077575684,-5.584716320037842,-11.474608421325684,40.0,4274.0,1.0
1138817.3630404,300920.125,294268.25,640565.375,612412.0,316172.78125,283404.65625,279917.875,290004.96875,-0.08740234375,0.95654296875,-0.1611328125,10.192870140075684,-5.615233898162842,-11.413573265075684,40.0,4275.0,1.0
1138817.3662184,299944.59375,294694.625,640232.9375,611921.4375,316208.71875,283582.0625,280051.09375,290278.0,-0.0888671875,0.953857421875,-0.164794921875,9.796141624450684,-5.767821788787842,-11.383055686950684,40.0,4276.0,1.0
1138817.3662626,299633.71875,294887.03125,640093.5625,611755.5,316262.8125,283636.125,280103.65625,290371.78125,-0.090576171875,0.94775390625,-0.167724609375,9.643553733825684,-5.767821788787842,-11.474608421325684,40.0,4277.0,1.0
1138817.3767892,300475.3125,294623.1875,640391.0,612193.9375,316329.3125,283514.375,280033.5625,290194.40625,-0.092041015625,0.94677734375,-0.171875,9.552000999450684,-5.767821788787842,-11.535643577575684,40.0,4278.0,1.0
1138817.3798592,301288.65625,294255.71875,640675.125,612596.625,316299.5625,283385.8125,279931.5625,289985.8125,-0.092041015625,0.949462890625,-0.173095703125,9.552000999450684,-5.859374523162842,-11.596678733825684,40.0,4279.0,1.0
1138817.379903,300961.59375,294292.90625,640538.5,612413.5,316208.71875,283437.9375,279944.96875,290042.40625,-0.09033203125,0.955810546875,-0.16748046875,9.643553733825684,-5.950927257537842,-11.718749046325684,40.0,4280.0,1.0
1138817.3855971,299964.90625,294705.15625,640179.5625,611888.3125,316220.5,283600.28125,280065.03125,290296.96875,-0.09130859375,0.9619140625,-0.167724609375,9.460448265075684,-5.920409679412842,-11.718749046325684,40.0,4281.0,1.0
1138817.3899832,299649.65625,294897.125,640038.125,611711.75,316282.28125,283648.46875,280115.28125,290383.875,-0.09130859375,0.9697265625,-0.169189453125,9.246825218200684,-5.920409679412842,-11.718749046325684,40.0,4282.0,1.0
1138817.3900292,300478.625,294626.40625,640327.625,612147.8125,316344.6875,283520.53125,280041.1875,290199.40625,-0.09130859375,0.976806640625,-0.166259765625,8.911131858825684,-5.920409679412842,-11.749266624450684,40.0,4283.0,1.0
1138817.4006756,301281.6875,294252.6875,640606.0625,612545.5625,316310.625,283374.96875,279925.40625,289974.1875,-0.093994140625,0.983642578125,-0.1650390625,8.270262718200684,-5.950927257537842,-11.718749046325684,40.0,4284.0,1.0
1138817.4036358,300974.3125,294308.75,640488.8125,612382.75,316242.0625,283436.40625,279952.65625,290045.28125,-0.09423828125,0.988525390625,-0.166015625,7.690429210662842,-6.042479991912842,-11.688231468200684,40.0,4285.0,1.0
1138817.4036796,300010.59375,294739.25,640161.5625,611920.6875,316272.5625,283629.25,280097.0625,290330.03125,-0.09521484375,0.9873046875,-0.164306640625,7.019042491912842,-6.011962413787842,-11.779784202575684,40.0,4286.0,1.0
1138817.4055407,299649.03125,294899.71875,639969.1875,611652.9375,316284.09375,283661.09375,280123.4375,290380.09375,-0.09716796875,0.988525390625,-0.161865234375,6.500243663787842,-5.981444835662842,-11.810301780700684,40.0,4287.0,1.0
1138817.4144116,300491.5,294644.1875,640272.75,612104.25,316356.40625,283524.65625,280046.71875,290199.96875,-0.100830078125,0.989990234375,-0.158935546875,5.859374523162842,-6.042479991912842,-11.779784202575684,40.0,4288.0,1.0
1138817.4167729,301275.25,294254.28125,640539.875,612475.375,316315.46875,283367.46875,279917.78125,289962.3125,-0.102783203125,0.986328125,-0.154052734375,5.065917491912842,-6.011962413787842,-11.901854515075684,40.0,4289.0,1.0
1138817.4205899,300960.25,294303.90625,640415.9375,612302.0,316244.65625,283429.6875,279943.28125,290026.40625,-0.104736328125,0.97998046875,-0.1552734375,4.302978038787842,-6.072997570037842,-12.084959983825684,40.0,4290.0,1.0
1138817.4292283,299963.03125,294700.96875,640047.5,611783.875,316243.3125,283588.84375,280058.96875,290280.59375,-0.10595703125,0.971435546875,-0.152587890625,3.479003667831421,-6.134032726287842,-12.207030296325684,40.0,4291.0,1.0
1138817.4337174,299625.40625,294871.125,639875.875,611591.6875,316264.5,283629.96875,280098.125,290358.03125,-0.1064453125,0.965576171875,-0.156005859375,3.112792730331421,-6.164550304412842,-12.359618186950684,40.0,4292.0,1.0
1138817.4337636,300467.90625,294627.3125,640180.1875,612018.4375,316349.96875,283512.125,280035.09375,290185.375,-0.108154296875,0.963623046875,-0.160400390625,2.990722417831421,-6.164550304412842,-12.542723655700684,40.0,4293.0,1.0
1138817.435543,301301.8125,294285.6875,640490.9375,612455.6875,316350.875,283394.75,279945.25,289993.59375,-0.108642578125,0.960693359375,-0.16552734375,2.899169683456421,-6.164550304412842,-12.847899436950684,40.0,4294.0,1.0
1138817.449886,300967.40625,294315.1875,640343.875,612260.6875,316252.53125,283432.28125,279944.78125,290031.59375,-0.108642578125,0.959716796875,-0.16357421875,2.960204839706421,-6.134032726287842,-13.061522483825684,40.0,4295.0,1.0
1138817.4499301,299974.28125,294710.8125,639974.125,611744.75,316246.53125,283595.46875,280065.03125,290284.25,-0.112548828125,0.963623046875,-0.161376953125,2.807616949081421,-6.256103038787842,-13.305663108825684,40.0,4296.0,1.0
1138817.4523617,299637.75,294887.21875,639800.5625,611543.375,316275.15625,283643.90625,280112.34375,290366.53125,-0.115234375,0.96630859375,-0.162841796875,2.655029058456421,-6.256103038787842,-13.641356468200684,40.0,4297.0,1.0
1138817.4524049,300484.96875,294648.21875,640110.6875,611988.125,316360.71875,283531.8125,280059.15625,290207.03125,-0.116455078125,0.96630859375,-0.16064453125,2.471923589706421,-6.256103038787842,-13.793944358825684,40.0,4298.0,1.0
1138817.4595963,301322.375,294309.625,640433.5,612444.6875,316368.9375,283419.5,279975.0,290015.59375,-0.1181640625,0.96875,-0.160400390625,2.441406011581421,-6.317138195037842,-14.190672874450684,40.0,4299.0,1.0
1138817.4647894,300961.25,294315.09375,640262.25,612194.0,316255.125,283446.15625,279961.0625,290036.0625,-0.123291015625,0.97265625,-0.158447265625,2.166747808456421,-6.408690929412842,-14.404295921325684,40.0,4300.0,1.0
1138817.4648447,299962.125,294703.46875,639887.625,611677.75,316250.28125,283603.25,280077.90625,290287.75,-0.125,0.974609375,-0.156982421875,1.8310545682907104,-6.500243663787842,-14.648436546325684,40.0,4301.0,1.0
1138817.4666272,299635.53125,294884.0625,639720.5625,611492.0625,316273.25,283649.0,280124.40625,290375.28125,-0.128173828125,0.974609375,-0.1513671875,1.5563963651657104,-6.683349132537842,-14.739989280700684,40.0,4302.0,1.0
1138817.4754291,300467.1875,294629.0,640014.25,611927.3125,316339.6875,283519.65625,280050.03125,290190.46875,-0.126220703125,0.97412109375,-0.14794921875,1.0375975370407104,-6.866454601287842,-14.862059593200684,40.0,4303.0,1.0
1138817.4784721,301296.875,294287.46875,640325.1875,612347.4375,316346.125,283392.3125,279953.90625,289987.34375,-0.124755859375,0.969970703125,-0.150634765625,0.4882812201976776,-6.958007335662842,-15.075682640075684,40.0,4304.0,1.0
1138817.4785074,300977.53125,294321.34375,640192.375,612158.25,316264.78125,283430.78125,279959.0,290038.9375,-0.123046875,0.962646484375,-0.1572265625,0.0610351525247097,-6.958007335662842,-15.228270530700684,40.0,4305.0,1.0
1138817.4804244,299972.9375,294698.75,639798.5,611629.9375,316231.0625,283592.5,280064.6875,290278.46875,-0.12255859375,0.957763671875,-0.167724609375,0.0610351525247097,-6.988524913787842,-15.319823265075684,40.0,4306.0,1.0
1138817.4942015,299623.71875,294863.5,639608.875,611404.9375,316240.625,283638.1875,280107.25,290354.09375,-0.120849609375,0.95458984375,-0.16650390625,0.2746581733226776,-7.080077648162842,-15.533446311950684,40.0,4307.0,1.0
1138817.4973675,300469.6875,294631.21875,639929.375,611856.5625,316336.46875,283535.375,280056.71875,290201.03125,-0.1220703125,0.956787109375,-0.164794921875,0.7629393935203552,-7.049560070037842,-15.777586936950684,40.0,4308.0,1.0
1138817.4974132,301316.0,294308.75,640272.125,612308.75,316371.78125,283409.3125,279970.90625,290009.0625,-0.1201171875,0.960205078125,-0.158935546875,1.0681151151657104,-6.988524913787842,-16.021726608276367,40.0,4309.0,1.0
1138817.4993924,300999.4375,294347.53125,640144.0625,612130.0,316297.5,283457.59375,279987.1875,290061.375,-0.115478515625,0.9658203125,-0.15478515625,1.1291502714157104,-6.958007335662842,-16.143796920776367,40.0,4310.0,1.0
1138817.5030297,299967.75,294698.90625,639726.375,611569.9375,316243.75,283590.53125,280078.8125,290284.25,-0.1142578125,0.964111328125,-0.14990234375,0.9765624403953552,-6.713866710662842,-16.052244186401367,40.0,4311.0,1.0
1138817.5117456,299605.75,294853.3125,639522.625,611352.0625,316235.09375,283631.9375,280107.15625,290352.84375,-0.1142578125,0.960205078125,-0.14990234375,0.6408690810203552,-6.530761241912842,-15.960692405700684,40.0,4312.0,1.0
1138817.5160946,300458.96875,294630.4375,639847.625,611803.75,316342.28125,283531.1875,280062.28125,290207.65625,-0.118408203125,0.951171875,-0.155029296875,0.5187987685203552,-6.408690929412842,-15.960692405700684,40.0,4313.0,1.0
1138817.5161393,301286.59375,294292.75,640168.375,612227.75,316358.46875,283393.84375,279957.9375,290000.84375,-0.122314453125,0.945068359375,-0.16162109375,0.5798339247703552,-6.195067882537842,-15.960692405700684,40.0,4314.0,1.0
1138817.5293769,300934.59375,294295.40625,640003.625,611998.6875,316246.34375,283409.5,279936.21875,290023.1875,-0.125244140625,0.938232421875,-0.165771484375,0.9765624403953552,-6.103515148162842,-16.082761764526367,40.0,4315.0,1.0
1138817.5335845,299941.1875,294676.28125,639619.875,611471.875,316222.75,283582.40625,280060.65625,290279.09375,-0.1279296875,0.93994140625,-0.171142578125,1.7089842557907104,-6.103515148162842,-16.265867233276367,40.0,4316.0,1.0
1138817.5336269,299605.375,294849.375,639440.4375,611278.5625,316233.3125,283640.625,280118.34375,290368.9375,-0.1328125,0.94482421875,-0.174072265625,2.441406011581421,-5.981444835662842,-16.448972702026367,40.0,4317.0,1.0
1138817.5361249,300466.28125,294629.90625,639766.0625,611728.125,316335.59375,283532.15625,280067.46875,290209.34375,-0.135009765625,0.951904296875,-0.173828125,2.746581792831421,-5.920409679412842,-16.632078170776367,40.0,4318.0,1.0
1138817.5361693,301321.5625,294322.5,640122.1875,612200.875,316389.9375,283415.65625,279985.125,290023.8125,-0.138671875,0.953857421875,-0.17041015625,2.929687261581421,-6.011962413787842,-16.906736373901367,40.0,4319.0,1.0
1138817.5492871,301001.9375,294356.03125,639996.125,612016.125,316322.625,283455.375,279992.8125,290072.09375,-0.143310546875,0.950439453125,-0.16943359375,3.051757574081421,-5.981444835662842,-17.089841842651367,40.0,4320.0,1.0
1138817.5568313,299955.40625,294685.9375,639554.875,611430.0625,316243.9375,283580.625,280067.0,290274.53125,-0.14501953125,0.94580078125,-0.167724609375,3.265380620956421,-6.103515148162842,-17.486570358276367,40.0,4321.0,1.0
1138817.5568769,299591.53125,294835.53125,639342.6875,611202.375,316220.0625,283612.90625,280095.0,290338.71875,-0.14794921875,0.94189453125,-0.175537109375,3.509521245956421,-6.195067882537842,-17.791746139526367,40.0,4322.0,1.0
1138817.5568895,300468.15625,294644.65625,639695.875,611698.8125,316351.59375,283530.1875,280065.9375,290209.34375,-0.152587890625,0.940673828125,-0.18310546875,3.997802495956421,-6.317138195037842,-18.127439498901367,40.0,4323.0,1.0
1138817.5598524,301313.40625,294327.25,640041.0,612142.25,316394.0625,283406.375,279975.0,290007.375,-0.156982421875,0.940185546875,-0.18359375,4.547118663787842,-6.408690929412842,-18.371580123901367,40.0,4324.0,1.0
1138817.5598977,300972.59375,294333.6875,639890.6875,611931.25,316293.375,283436.59375,279965.71875,290034.28125,-0.164306640625,0.943603515625,-0.18603515625,5.126952648162842,-6.530761241912842,-18.829343795776367,40.0,4325.0,1.0
1138817.5616738,299940.65625,294671.8125,639462.1875,611359.5625,316220.4375,283571.9375,280056.90625,290257.09375,-0.172607421875,0.948974609375,-0.185302734375,5.584716320037842,-6.835937023162842,-19.378660202026367,40.0,4326.0,1.0
1138817.579293,299589.84375,294841.0625,639266.4375,611113.1875,316213.28125,283618.71875,280103.5,290333.875,-0.1787109375,0.95703125,-0.18359375,6.011962413787842,-7.293700695037842,-20.019529342651367,40.0,4327.0,1.0
1138817.5842912,300482.375,294665.5625,639644.0,611628.8125,316365.09375,283545.75,280088.90625,290223.28125,-0.184326171875,0.965576171875,-0.18408203125,6.286620616912842,-7.568358898162842,-20.660398483276367,40.0,4328.0,1.0
1138817.5843384,301333.96875,294352.1875,640007.25,612126.875,316422.40625,283423.625,280002.8125,290040.8125,-0.186767578125,0.9775390625,-0.1826171875,6.347655773162842,-7.873534679412842,-21.270750045776367,40.0,4329.0,1.0
1138817.5843503,300971.53125,294337.71875,639839.0,611875.125,316308.84375,283430.40625,279969.375,290031.875,-0.1845703125,0.983642578125,-0.17822265625,6.408690929412842,-8.148192405700684,-21.728513717651367,40.0,4330.0,1.0
1138817.587375,299944.5,294675.9375,639419.875,611311.5,316240.0,283581.0625,280062.1875,290254.65625,-0.18798828125,0.994873046875,-0.171875,6.286620616912842,-8.392333030700684,-22.186277389526367,40.0,4331.0,1.0
1138817.587419,299556.03125,294811.125,639189.375,611034.9375,316204.15625,283609.21875,280087.84375,290317.96875,-0.190185546875,1.00390625,-0.17431640625,5.828856945037842,-9.033202171325684,-22.888181686401367,40.0,4332.0,1.0
1138817.5893062,300440.53125,294629.625,639558.375,611534.0,316342.375,283529.65625,280071.9375,290207.8125,-0.190673828125,1.012939453125,-0.1767578125,5.218505382537842,-9.338377952575684,-23.132322311401367,40.0,4333.0,1.0
1138817.6167905,301332.09375,294354.4375,639965.9375,612050.6875,316436.78125,283430.6875,280006.03125,290046.25,-0.18701171875,1.017822265625,-0.176025390625,4.455565929412842,-9.643553733825684,-23.376462936401367,40.0,4334.0,1.0
1138817.6211476,300976.28125,294341.1875,639807.5625,611826.1875,316329.5,283438.46875,279979.5625,290050.03125,-0.1845703125,1.017822265625,-0.171142578125,3.631591558456421,-9.948729515075684,-23.803709030151367,40.0,4335.0,1.0
1138817.6211941,299939.5,294668.5,639362.125,611230.75,316242.40625,283590.8125,280078.1875,290266.125,-0.184326171875,1.01318359375,-0.168701171875,2.807616949081421,-10.131834983825684,-23.895261764526367,40.0,4336.0,1.0
1138817.6212061,299565.0625,294813.1875,639128.9375,610973.1875,316203.625,283623.4375,280107.25,290333.78125,-0.18505859375,1.005615234375,-0.1669921875,2.258300542831421,-10.284422874450684,-23.925779342651367,40.0,4337.0,1.0
1138817.621218,300435.0,294619.34375,639479.25,611469.75,316337.625,283523.125,280070.84375,290206.46875,-0.185546875,0.997802734375,-0.16552734375,1.7089842557907104,-10.375975608825684,-24.139402389526367,40.0,4338.0,1.0
1138817.6236246,301313.96875,294332.6875,639865.0,611973.625,316431.6875,283411.8125,279994.78125,290035.90625,-0.185302734375,0.9921875,-0.17041015625,1.1901854276657104,-10.437010765075684,-24.169919967651367,40.0,4339.0,1.0
1138817.6236691,301007.65625,294349.34375,639734.25,611803.0625,316354.8125,283445.875,279990.5625,290073.1875,-0.185302734375,0.987548828125,-0.176025390625,0.5493163466453552,-10.589598655700684,-24.291990280151367,40.0,4340.0,1.0
1138817.6255795,299971.5,294671.375,639285.25,611216.875,316265.40625,283585.0,280077.75,290282.03125,-0.1845703125,0.979736328125,-0.1796875,0.3662109076976776,-10.559081077575684,-24.291990280151367,40.0,4341.0,1.0
1138817.6280463,299576.78125,294810.125,639050.5,610927.1875,316224.4375,283616.65625,280100.375,290337.65625,-0.1875,0.97509765625,-0.1826171875,0.4577636420726776,-10.406493186950684,-24.353025436401367,40.0,4342.0,1.0
1138817.6343535,300455.1875,294633.375,639428.625,611450.4375,316374.125,283523.40625,280067.46875,290221.5,-0.19384765625,0.97607421875,-0.18115234375,0.6713866591453552,-10.314940452575684,-24.658201217651367,40.0,4343.0,1.0
1138817.638582,301337.75,294358.4375,639836.0,611960.75,316484.0,283425.40625,280010.40625,290062.09375,-0.2001953125,0.978515625,-0.18359375,0.7324218153953552,-10.406493186950684,-24.963376998901367,40.0,4344.0,1.0
1138817.6386263,301001.84375,294353.1875,639682.875,611743.0625,316384.75,283441.0625,279989.59375,290073.4375,-0.2021484375,0.981201171875,-0.17724609375,0.7324218153953552,-10.345458030700684,-25.115964889526367,40.0,4345.0,1.0
1138817.6405425,299960.15625,294665.21875,639224.0,611168.1875,316278.90625,283575.625,280068.96875,290282.5625,-0.202392578125,0.983154296875,-0.167724609375,0.6103515028953552,-10.223387718200684,-25.329587936401367,40.0,4346.0,1.0
1138817.6542382,299590.625,294815.78125,638995.375,610914.4375,316242.34375,283624.34375,280112.53125,290357.3125,-0.201904296875,0.986572265625,-0.166015625,0.2441406100988388,-10.101317405700684,-25.360105514526367,40.0,4347.0,1.0
1138817.6574926,300472.5625,294645.71875,639372.375,611417.0,316404.875,283538.6875,280087.3125,290234.375,-0.201171875,0.9892578125,-0.162353515625,-0.3051757514476776,-10.040282249450684,-25.482175827026367,40.0,4348.0,1.0
1138817.6575372,301349.375,294368.90625,639774.25,611915.3125,316520.46875,283425.40625,280009.875,290064.5,-0.202392578125,0.990966796875,-0.166259765625,-0.8544921278953552,-9.979247093200684,-25.329587936401367,40.0,4349.0,1.0
1138817.6592535,301046.625,294392.0625,639657.625,611750.1875,316457.09375,283463.5,280011.84375,290102.0625,-0.202880859375,0.991455078125,-0.16796875,-1.3122557401657104,-9.704588890075684,-25.177000045776367,40.0,4350.0,1.0
1138817.6630495,299986.1875,294685.40625,639184.0,611133.0,316333.625,283592.15625,280081.59375,290290.875,-0.203857421875,0.991455078125,-0.17236328125,-1.7395018339157104,-9.368895530700684,-24.993894577026367,40.0,4351.0,1.0
1138817.6717648,299601.375,294822.90625,638943.3125,610874.5625,316270.3125,283629.625,280109.46875,290350.875,-0.204345703125,0.990234375,-0.173095703125,-2.227782964706421,-9.124754905700684,-24.749753952026367,40.0,4352.0,1.0
1138817.681208,300489.09375,294662.25,639330.8125,611400.625,316433.5625,283548.4375,280092.21875,290244.9375,-0.204345703125,0.987060546875,-0.172607421875,-2.593993902206421,-8.758543968200684,-24.444578170776367,40.0,4353.0,1.0
1138817.6812521,301370.90625,294394.84375,639741.625,611894.125,316560.625,283439.4375,280024.0,290082.03125,-0.201171875,0.979248046875,-0.170654296875,-3.112792730331421,-8.514403343200684,-23.986814498901367,40.0,4354.0,1.0
1138817.6830706,301056.03125,294403.5,639604.6875,611709.4375,316482.46875,283474.84375,280022.9375,290121.71875,-0.19921875,0.968505859375,-0.17236328125,-3.356933355331421,-8.056639671325684,-23.529050827026367,40.0,4355.0,1.0
1138817.6855643,299973.84375,294676.84375,639094.3125,611061.5625,316330.84375,283591.34375,280075.96875,290284.71875,-0.19775390625,0.958740234375,-0.1748046875,-3.448486089706421,-7.629394054412842,-23.101804733276367,40.0,4356.0,1.0
1138817.689222,299588.59375,294814.25,638844.6875,610780.125,316269.0625,283624.25,280099.90625,290338.96875,-0.197265625,0.951904296875,-0.177734375,-3.479003667831421,-7.019042491912842,-22.613523483276367,40.0,4357.0,1.0
1138817.6985319,300482.28125,294666.28125,639240.8125,611318.75,316444.75,283542.4375,280086.15625,290239.28125,-0.198974609375,0.9443359375,-0.17919921875,-3.265380620956421,-6.469726085662842,-22.064207077026367,40.0,4358.0,1.0
1138817.6985764,301398.96875,294418.1875,639684.0625,611893.6875,316583.875,283448.28125,280034.125,290097.5,-0.20166015625,0.941162109375,-0.17578125,-2.929687261581421,-5.767821788787842,-21.514890670776367,40.0,4359.0,1.0
1138817.7005389,301057.4375,294405.375,639520.8125,611678.25,316474.15625,283463.9375,280010.59375,290103.84375,-0.20458984375,0.94140625,-0.17431640625,-2.532958745956421,-5.218505382537842,-21.179197311401367,40.0,4360.0,1.0
1138817.7041283,299980.09375,294683.8125,639013.4375,611012.5625,316327.1875,283579.09375,280070.59375,290280.5,-0.2060546875,0.938720703125,-0.171142578125,-2.319335699081421,-4.608153820037842,-20.629880905151367,40.0,4361.0,1.0
1138817.7185863,299597.96875,294827.9375,638768.125,610731.375,316272.5625,283623.625,280105.8125,290338.96875,-0.205078125,0.93701171875,-0.171142578125,-2.166747808456421,-4.150390148162842,-20.141599655151367,40.0,4362.0,1.0
1138817.7186278,300473.875,294666.8125,639151.0,611235.1875,316439.75,283532.78125,280079.1875,290225.71875,-0.205078125,0.931640625,-0.172607421875,-2.166747808456421,-3.509521245956421,-19.531248092651367,40.0,4363.0,1.0
1138817.7206952,301387.625,294414.6875,639599.5,611807.875,316591.09375,283432.65625,280021.40625,290084.53125,-0.203857421875,0.923583984375,-0.17431640625,-2.044677495956421,-2.838134527206421,-19.073484420776367,40.0,4364.0,1.0
1138817.7236303,301061.65625,294413.09375,639452.3125,611589.375,316501.53125,283455.53125,280006.65625,290090.25,-0.20361328125,0.923583984375,-0.18017578125,-1.6784666776657104,-2.288818120956421,-18.402097702026367,40.0,4365.0,1.0
1138817.7236744,300022.21875,294712.9375,638975.9375,610985.75,316374.28125,283597.6875,280087.65625,290292.84375,-0.204345703125,0.92041015625,-0.181884765625,-1.2817381620407104,-1.6479490995407104,-17.730710983276367,40.0,4366.0,1.0
1138817.7268066,299632.65625,294850.0,638725.375,610713.6875,316302.84375,283630.15625,280110.03125,290350.34375,-0.205810546875,0.921875,-0.183349609375,-0.7934569716453552,-1.0681151151657104,-16.998289108276367,40.0,4367.0,1.0
1138817.7411427,300536.90625,294709.1875,639136.625,611257.125,316488.5625,283545.9375,280093.9375,290246.96875,-0.205322265625,0.922607421875,-0.181884765625,-0.2746581733226776,-0.4577636420726776,-16.418455123901367,40.0,4368.0,1.0
1138817.7411876,301496.78125,294492.125,639638.625,611889.3125,316690.15625,283468.78125,280065.40625,290131.8125,-0.205322265625,0.924560546875,-0.1806640625,0.1220703050494194,0.1220703050494194,-15.747069358825684,40.0,4369.0,1.0
1138817.7431417,301174.46875,294483.1875,639511.0625,611688.0,316625.09375,283472.15625,280036.53125,290135.125,-0.203125,0.92919921875,-0.1787109375,0.2441406100988388,0.7019042372703552,-14.984129905700684,40.0,4370.0,1.0
1138817.7455836,300091.5,294745.6875,638997.0625,610991.5625,316473.53125,283569.96875,280073.28125,290280.78125,-0.20263671875,0.93115234375,-0.175537109375,0.5187987685203552,1.3427733182907104,-14.282225608825684,40.0,4371.0,1.0
1138817.7480333,299712.6875,294899.8125,638759.0625,610743.9375,316417.375,283631.21875,280119.9375,290370.28125,-0.199462890625,0.932373046875,-0.17724609375,0.4882812201976776,2.014159917831421,-13.580321311950684,40.0,4372.0,1.0
1138817.7542509,300569.65625,294729.5,639124.5,611233.6875,316564.1875,283541.8125,280092.3125,290251.1875,-0.195068359375,0.928466796875,-0.178466796875,0.3356933295726776,2.746581792831421,-12.756346702575684,40.0,4373.0,1.0
1138817.7587586,301405.875,294429.625,639507.6875,611710.3125,316660.84375,283417.53125,280011.40625,290072.375,-0.19287109375,0.92236328125,-0.17578125,0.3662109076976776,3.448486089706421,-11.871336936950684,40.0,4374.0,1.0
1138817.7588038,301081.0625,294427.375,639353.875,611489.9375,316559.53125,283452.59375,280007.90625,290095.09375,-0.19140625,0.91845703125,-0.17724609375,0.4882812201976776,4.089354991912842,-10.986327171325684,40.0,4375.0,1.0
1138817.7692242,300028.46875,294720.625,638856.8125,610877.0625,316403.96875,283591.96875,280086.6875,290293.84375,-0.1953125,0.914794921875,-0.1796875,0.5798339247703552,4.638671398162842,-10.070799827575684,40.0,4376.0,1.0
1138817.7723284,299630.6875,294858.15625,638591.875,610596.0625,316317.0,283635.0625,280115.125,290357.65625,-0.19873046875,0.90869140625,-0.182861328125,0.8239745497703552,5.157470226287842,-9.399413108825684,40.0,4377.0,1.0
1138817.7723699,300491.40625,294693.28125,638964.4375,611116.6875,316469.34375,283547.90625,280090.4375,290250.65625,-0.201904296875,0.90576171875,-0.1826171875,1.0681151151657104,5.676269054412842,-8.819579124450684,40.0,4378.0,1.0
1138817.7741126,301352.84375,294408.53125,639365.6875,611610.1875,316583.96875,283426.5625,280012.46875,290071.3125,-0.20166015625,0.904052734375,-0.181884765625,1.1901854276657104,6.072997570037842,-8.178709983825684,40.0,4379.0,1.0
1138817.78442,301032.25,294399.59375,639208.4375,611374.9375,316477.84375,283451.6875,279998.875,290080.15625,-0.199951171875,0.901611328125,-0.18212890625,1.4953612089157104,6.683349132537842,-7.598876476287842,40.0,4380.0,1.0
1138817.7866701,299952.1875,294669.15625,638684.6875,610711.75,316300.96875,283564.78125,280047.625,290247.96875,-0.197509765625,0.89794921875,-0.18701171875,1.7089842557907104,7.080077648162842,-7.171630382537842,40.0,4381.0,1.0
1138817.7892694,299553.25,294805.40625,638414.5,610416.1875,316212.03125,283608.6875,280069.34375,290300.09375,-0.194091796875,0.894775390625,-0.189208984375,1.8920897245407104,7.629394054412842,-6.530761241912842,40.0,4382.0,1.0
1138817.7917887,300450.5625,294676.125,638822.125,610977.875,316397.28125,283545.75,280078.0,290226.25,-0.192626953125,0.89013671875,-0.18896484375,2.349853277206421,8.148192405700684,-5.981444835662842,40.0,4383.0,1.0
1138817.7956955,301332.03125,294400.90625,639245.0,611528.75,316522.4375,283442.03125,280019.71875,290070.3125,-0.191162109375,0.881591796875,-0.192626953125,2.563476324081421,8.728026390075684,-5.615233898162842,40.0,4384.0,1.0
1138817.8123841,300978.6875,294370.0,639061.4375,611272.875,316392.53125,283451.34375,279989.0625,290059.59375,-0.196533203125,0.87255859375,-0.196533203125,3.112792730331421,9.307860374450684,-5.340575695037842,40.0,4385.0,1.0
1138817.8124282,299951.9375,294675.75,638583.5625,610683.5,316255.90625,283590.53125,280066.9375,290269.875,-0.20068359375,0.8681640625,-0.197265625,3.875732183456421,9.674071311950684,-5.096435070037842,40.0,4386.0,1.0
