Time,FZ,C3,CZ,C4,PZ,PO7,OZ,PO8,AccX,AccY,AccZ,Gyro1,Gyro2,Gyro3,Battery,Counter,Validation
1136530.992426,289788.6875,282905.5,319571.75,291358.03125,295743.46875,275873.8125,276105.21875,278859.84375,-0.153076171875,0.890380859375,-0.3466796875,-2.532958745956421,-15.106200218200684,-6.195067882537842,60.0,2925218.0,1.0
1136530.9986288,289723.5,282873.40625,319637.65625,291370.75,295839.03125,275871.84375,276104.21875,278967.75,-0.153076171875,0.889892578125,-0.348876953125,-2.380370855331421,-14.526366233825684,-5.523681163787842,60.0,2925219.0,1.0
1136531.0074034,288986.0625,282809.75,318873.75,290053.0625,295384.03125,275822.25,275899.03125,278586.6875,-0.153564453125,0.8916015625,-0.35107421875,-2.319335699081421,-13.854979515075684,-5.096435070037842,60.0,2925220.0,1.0
1136531.0123714,288544.6875,282764.25,318263.03125,289119.125,294945.84375,275757.15625,275726.84375,278166.125,-0.155029296875,0.89208984375,-0.3505859375,-2.227782964706421,-13.275145530700684,-4.425048351287842,60.0,2925221.0,1.0
1136531.0124024,289055.28125,282836.65625,318708.4375,289945.15625,295180.375,275800.5,275867.84375,278345.46875,-0.154052734375,0.89111328125,-0.349609375,-1.9836424589157104,-12.634276390075684,-3.936767339706421,60.0,2925222.0,1.0
1136531.0124103,289786.625,282894.34375,319567.46875,291353.46875,295742.21875,275868.5625,276101.1875,278855.1875,-0.152099609375,0.89208984375,-0.348388671875,-1.9226073026657104,-12.115477561950684,-3.295898199081421,60.0,2925223.0,1.0
1136531.0149911,289731.0,282871.25,319637.90625,291370.75,295836.34375,275865.5,276098.25,278960.4375,-0.14892578125,0.89013671875,-0.34814453125,-1.8615721464157104,-11.566161155700684,-2.777099370956421,60.0,2925224.0,1.0
1136531.0261869,288998.40625,282814.03125,318885.28125,290069.78125,295389.125,275820.90625,275901.09375,278595.71875,-0.1474609375,0.8857421875,-0.346435546875,-1.7395018339157104,-10.894774436950684,-2.227782964706421,60.0,2925225.0,1.0
1136531.0305327,288552.0,282768.09375,318273.46875,289133.875,294955.25,275759.84375,275733.8125,278174.0,-0.145263671875,0.885498046875,-0.35107421875,-1.5869139432907104,-10.375975608825684,-1.5869139432907104,60.0,2925226.0,1.0
1136531.0305641,289065.1875,282841.125,318717.75,289956.0625,295185.5625,275803.375,275871.5,278347.0,-0.140625,0.885498046875,-0.349365234375,-1.4648436307907104,-9.582518577575684,-1.1596678495407104,60.0,2925227.0,1.0
1136531.0392782,289803.15625,282910.96875,319585.25,291371.1875,295752.5,275875.875,276107.96875,278864.84375,-0.13720703125,0.8857421875,-0.347412109375,-1.3427733182907104,-8.850096702575684,-0.6103515028953552,60.0,2925228.0,1.0
1136531.0393153,289721.1875,282864.65625,319635.25,291360.28125,295831.25,275855.40625,276092.25,278959.25,-0.138671875,0.88720703125,-0.343017578125,-1.1596678495407104,-8.178709983825684,-0.0915527269244194,60.0,2925229.0,1.0
1136531.0456321,288986.4375,282801.96875,318880.90625,290063.78125,295378.6875,275803.90625,275895.09375,278591.625,-0.137939453125,0.891357421875,-0.344482421875,-1.0070799589157104,-7.415771007537842,0.3967284858226776,60.0,2925230.0,1.0
1136531.0456615,288551.75,282767.8125,318276.96875,289135.5625,294949.0,275746.40625,275732.375,278176.5,-0.135498046875,0.896728515625,-0.34033203125,-1.1291502714157104,-6.530761241912842,0.8544921278953552,60.0,2925231.0,1.0
1136531.0562216,289054.46875,282828.53125,318706.375,289943.8125,295168.125,275774.125,275852.8125,278337.71875,-0.1328125,0.900146484375,-0.339111328125,-1.2512205839157104,-5.706786632537842,1.4038084745407104,60.0,2925232.0,1.0
1136531.0661166,289787.4375,282889.15625,319567.1875,291348.65625,295731.21875,275842.25,276081.96875,278851.09375,-0.1328125,0.901611328125,-0.337890625,-1.4038084745407104,-5.035399913787842,1.8615721464157104,60.0,2925233.0,1.0
1136531.0661544,289732.96875,282864.90625,319642.75,291366.53125,295825.71875,275839.84375,276076.5,278957.375,-0.132568359375,0.90380859375,-0.339111328125,-1.6784666776657104,-4.364013195037842,2.319335699081421,60.0,2925234.0,1.0
1136531.0661619,289011.46875,282814.75,318900.65625,290077.8125,295388.59375,275804.8125,275889.75,278599.21875,-0.132568359375,0.904541015625,-0.336181640625,-2.014159917831421,-3.601073980331421,2.777099370956421,60.0,2925235.0,1.0
1136531.0705025,288573.46875,282775.6875,318294.59375,289147.8125,294961.59375,275751.78125,275729.25,278181.6875,-0.132080078125,0.904541015625,-0.334228515625,-2.197265386581421,-2.990722417831421,3.265380620956421,60.0,2925236.0,1.0
1136531.0705323,289074.5,282844.1875,318724.625,289947.65625,295187.25,275793.28125,275862.375,278345.9375,-0.134765625,0.902099609375,-0.336669921875,-2.441406011581421,-2.441406011581421,3.448486089706421,60.0,2925237.0,1.0
1136531.0724362,289812.28125,282912.75,319589.1875,291364.65625,295751.59375,275865.78125,276098.25,278862.6875,-0.138671875,0.900146484375,-0.3408203125,-2.655029058456421,-1.8310545682907104,3.723144292831421,60.0,2925238.0,1.0
1136531.0825295,289761.3125,282890.65625,319672.6875,291402.9375,295855.125,275869.34375,276100.28125,278975.09375,-0.143310546875,0.900390625,-0.33935546875,-2.868652105331421,-1.3122557401657104,3.845214605331421,60.0,2925239.0,1.0
1136531.0856377,289027.375,282826.46875,318920.34375,290111.875,295403.96875,275818.5625,275899.5625,278607.71875,-0.146240234375,0.89990234375,-0.340087890625,-2.990722417831421,-0.9155272841453552,3.875732183456421,60.0,2925240.0,1.0
1136531.0856809,288583.21875,282793.46875,318312.375,289171.0625,294977.15625,275766.90625,275741.15625,278194.90625,-0.146484375,0.899169921875,-0.337646484375,-3.173827886581421,-0.5798339247703552,3.875732183456421,60.0,2925241.0,1.0
1136531.0912483,289066.53125,282854.28125,318727.65625,289946.21875,295190.375,275798.53125,275867.03125,278351.03125,-0.14599609375,0.901611328125,-0.33642578125,-3.326415777206421,-0.4272460639476776,3.845214605331421,60.0,2925242.0,1.0
1136531.0957608,289801.375,282908.09375,319586.59375,291355.8125,295749.4375,275863.625,276095.28125,278857.96875,-0.14697265625,0.90087890625,-0.335205078125,-3.356933355331421,-0.1220703050494194,3.723144292831421,60.0,2925243.0,1.0
1136531.0958054,289750.875,282884.6875,319665.90625,291394.25,295850.03125,275861.9375,276097.96875,278969.8125,-0.144775390625,0.90234375,-0.336669921875,-3.601073980331421,0.1220703050494194,3.662109136581421,60.0,2925244.0,1.0
1136531.1063047,289014.59375,282823.4375,318915.6875,290098.9375,295404.34375,275812.21875,275901.4375,278611.65625,-0.144287109375,0.903076171875,-0.335205078125,-3.723144292831421,0.2746581733226776,3.692626714706421,60.0,2925245.0,1.0
1136531.1093912,288579.53125,282786.59375,318316.3125,289170.25,294982.5,275765.03125,275748.3125,278210.125,-0.14404296875,0.903564453125,-0.3349609375,-3.936767339706421,0.5493163466453552,3.570556402206421,60.0,2925246.0,1.0
1136531.1094343,289064.84375,282843.90625,318727.03125,289942.0,295185.46875,275792.28125,275866.75,278355.40625,-0.1435546875,0.9033203125,-0.330322265625,-4.058837413787842,0.7324218153953552,3.509521245956421,60.0,2925247.0,1.0
1136531.1112461,289808.875,282911.75,319591.78125,291352.59375,295745.15625,275862.75,276096.1875,278864.21875,-0.142578125,0.904296875,-0.33447265625,-4.272460460662842,1.0681151151657104,3.356933355331421,60.0,2925248.0,1.0
1136531.1202867,289775.90625,282894.5,319687.4375,291405.78125,295857.8125,275869.4375,276106.03125,278976.53125,-0.142822265625,0.906494140625,-0.333984375,-4.302978038787842,1.2817381620407104,3.234863042831421,60.0,2925249.0,1.0
1136531.1243402,289036.5,282823.78125,318930.53125,290107.15625,295409.0625,275818.75,275906.625,278609.59375,-0.14453125,0.908935546875,-0.33349609375,-4.486083507537842,1.3732908964157104,3.204345464706421,60.0,2925250.0,1.0
1136531.1243836,288579.28125,282780.78125,318313.8125,289161.3125,294975.4375,275761.4375,275738.5625,278193.5,-0.14599609375,0.914794921875,-0.331298828125,-4.577636241912842,1.4648436307907104,3.021239995956421,60.0,2925251.0,1.0
1136531.1325414,289054.21875,282837.65625,318716.5,289929.78125,295176.34375,275787.8125,275852.625,278337.96875,-0.145263671875,0.921142578125,-0.330078125,-4.913329601287842,1.5563963651657104,2.990722417831421,60.0,2925252.0,1.0
1136531.1356354,289801.1875,282905.0625,319588.3125,291358.40625,295742.03125,275862.5625,276090.8125,278856.8125,-0.147705078125,0.925048828125,-0.329345703125,-5.340575695037842,1.6174315214157104,3.021239995956421,60.0,2925253.0,1.0
1136531.1356788,289760.96875,282885.46875,319681.90625,291406.9375,295851.90625,275863.375,276095.8125,278971.6875,-0.146240234375,0.9248046875,-0.326416015625,-5.706786632537842,1.7395018339157104,2.929687261581421,60.0,2925254.0,1.0
1136531.1438986,289020.5,282819.75,318927.59375,290097.59375,295406.3125,275815.0,275898.5,278604.3125,-0.145751953125,0.9248046875,-0.32666015625,-6.103515148162842,1.7395018339157104,2.899169683456421,60.0,2925255.0,1.0
1136531.1463152,288561.75,282775.0625,318303.6875,289139.125,294966.875,275755.71875,275728.53125,278183.03125,-0.14501953125,0.921875,-0.327880859375,-6.286620616912842,1.7700194120407104,2.929687261581421,60.0,2925256.0,1.0
1136531.1556584,289044.8125,282837.125,318710.9375,289915.375,295168.5625,275785.59375,275848.0,278334.5625,-0.143310546875,0.91748046875,-0.325927734375,-6.622313976287842,2.014159917831421,2.807616949081421,60.0,2925257.0,1.0
1136531.1557037,289789.84375,282899.25,319578.8125,291343.125,295731.5625,275852.46875,276079.71875,278850.1875,-0.140869140625,0.9140625,-0.322509765625,-6.958007335662842,2.075195074081421,2.777099370956421,60.0,2925258.0,1.0
1136531.1575401,289771.6875,282887.34375,319693.25,291426.625,295859.15625,275865.15625,276098.5,278985.0,-0.138916015625,0.90673828125,-0.324951171875,-7.202147960662842,2.136230230331421,2.868652105331421,60.0,2925259.0,1.0
1136531.1613977,289067.96875,282851.5,318972.28125,290170.90625,295441.625,275840.46875,275921.46875,278649.46875,-0.136962890625,0.90185546875,-0.325927734375,-7.263183116912842,2.258300542831421,2.838134527206421,60.0,2925260.0,1.0
1136531.1731476,288597.59375,282805.375,318340.1875,289195.5625,294993.34375,275778.4375,275747.75,278228.625,-0.13232421875,0.896728515625,-0.326904296875,-7.232665538787842,2.471923589706421,2.838134527206421,60.0,2925261.0,1.0
1136531.1731924,289049.03125,282844.96875,318722.75,289922.53125,295180.5625,275798.53125,275857.1875,278356.84375,-0.1259765625,0.890380859375,-0.325439453125,-7.171630382537842,2.777099370956421,2.899169683456421,60.0,2925262.0,1.0
1136531.1750992,289802.90625,282912.03125,319598.125,291357.875,295751.9375,275873.5625,276096.28125,278871.46875,-0.121826171875,0.88623046875,-0.3271484375,-6.927489757537842,3.173827886581421,2.929687261581421,60.0,2925263.0,1.0
1136531.179098,289780.0,282897.90625,319706.59375,291435.5625,295873.53125,275878.9375,276109.15625,278996.375,-0.1142578125,0.88525390625,-0.326416015625,-6.652831554412842,3.601073980331421,2.990722417831421,60.0,2925264.0,1.0
1136531.1844544,289039.28125,282834.78125,318948.9375,290131.5625,295422.40625,275824.375,275903.96875,278621.46875,-0.109619140625,0.88427734375,-0.32666015625,-6.256103038787842,4.058837413787842,3.143310308456421,60.0,2925265.0,1.0
1136531.1844981,288570.15625,282789.8125,318314.15625,289158.1875,294971.15625,275759.90625,275728.53125,278189.65625,-0.105712890625,0.882568359375,-0.325927734375,-6.072997570037842,4.577636241912842,3.234863042831421,60.0,2925266.0,1.0
1136531.1863123,289048.5625,282847.5625,318719.71875,289922.96875,295177.0625,275791.84375,275854.15625,278341.71875,-0.101318359375,0.87744140625,-0.32373046875,-5.798339366912842,5.157470226287842,3.479003667831421,60.0,2925267.0,1.0
1136531.1950909,289802.53125,282904.78125,319592.6875,291362.0625,295746.0625,275858.4375,276089.5625,278861.375,-0.10107421875,0.877197265625,-0.323486328125,-5.493163585662842,5.798339366912842,3.662109136581421,60.0,2925268.0,1.0
1136531.1987992,289775.71875,282889.59375,319699.4375,291436.1875,295864.96875,275862.65625,276098.78125,278984.90625,-0.1025390625,0.876708984375,-0.32568359375,-5.157470226287842,6.347655773162842,3.814697027206421,60.0,2925269.0,1.0
1136531.2026495,289053.125,282841.59375,318961.46875,290147.21875,295428.65625,275823.03125,275908.53125,278625.15625,-0.105712890625,0.8798828125,-0.3251953125,-4.730224132537842,6.958007335662842,3.906249761581421,60.0,2925270.0,1.0
1136531.2143868,288591.78125,282801.96875,318332.75,289172.21875,294983.6875,275766.1875,275738.8125,278203.25,-0.109130859375,0.888427734375,-0.322265625,-4.425048351287842,7.476806163787842,3.875732183456421,60.0,2925271.0,1.0
1136531.2144299,289064.5,282855.4375,318726.59375,289925.28125,295176.15625,275788.96875,275850.59375,278341.28125,-0.11376953125,0.897705078125,-0.318359375,-4.150390148162842,7.904052257537842,3.845214605331421,60.0,2925272.0,1.0
1136531.2168942,289811.21875,282914.71875,319595.90625,291357.96875,295739.0625,275851.21875,276081.53125,278847.78125,-0.118408203125,0.90380859375,-0.31640625,-3.967284917831421,8.300780296325684,3.784179449081421,60.0,2925273.0,1.0
1136531.2169376,289773.40625,282875.46875,319692.8125,291427.15625,295847.78125,275839.84375,276078.125,278960.59375,-0.123046875,0.911865234375,-0.316162109375,-4.028319835662842,8.483885765075684,3.570556402206421,60.0,2925274.0,1.0
1136531.2251061,289039.0,282820.75,318947.25,290132.53125,295409.0625,275799.15625,275883.84375,278600.28125,-0.129150390625,0.9169921875,-0.319091796875,-4.211425304412842,8.697508811950684,3.601073980331421,60.0,2925275.0,1.0
1136531.2276476,288581.96875,282788.28125,318321.65625,289162.46875,294975.28125,275751.15625,275723.25,278182.3125,-0.1337890625,0.920166015625,-0.31884765625,-4.302978038787842,8.911131858825684,3.479003667831421,60.0,2925276.0,1.0
1136531.2300916,289054.65625,282840.34375,318713.375,289916.8125,295166.5,275775.3125,275838.6875,278317.3125,-0.13623046875,0.920654296875,-0.318603515625,-4.486083507537842,8.972167015075684,3.173827886581421,60.0,2925277.0,1.0
1136531.233798,289819.4375,282918.125,319605.71875,291371.09375,295753.375,275862.65625,276093.0625,278850.90625,-0.137451171875,0.920654296875,-0.3212890625,-4.547118663787842,9.033202171325684,2.777099370956421,60.0,2925278.0,1.0
1136531.2481013,289799.3125,282905.875,319724.1875,291462.75,295882.84375,275873.75,276112.09375,278987.6875,-0.140869140625,0.9189453125,-0.3212890625,-4.608153820037842,8.972167015075684,2.349853277206421,60.0,2925279.0,1.0
1136531.2481456,289064.84375,282844.09375,318976.65625,290163.46875,295438.21875,275828.3125,275916.28125,278621.9375,-0.14013671875,0.91748046875,-0.320068359375,-4.730224132537842,8.880614280700684,2.105712652206421,60.0,2925280.0,1.0
1136531.2502155,288587.0625,282795.53125,318329.1875,289161.3125,294979.46875,275764.21875,275734.96875,278179.71875,-0.140625,0.91455078125,-0.321533203125,-4.699706554412842,8.850096702575684,1.6784666776657104,60.0,2925281.0,1.0
1136531.2532126,289057.15625,282853.21875,318721.125,289916.09375,295173.9375,275793.375,275851.65625,278323.40625,-0.142578125,0.912109375,-0.321533203125,-4.791259288787842,8.666991233825684,1.1596678495407104,60.0,2925282.0,1.0
1136531.2532597,289826.21875,282926.15625,319614.6875,291387.46875,295756.875,275873.125,276103.59375,278858.5,-0.141357421875,0.911376953125,-0.3203125,-4.730224132537842,8.544920921325684,0.7019042372703552,60.0,2925283.0,1.0
1136531.2550304,289794.3125,282900.0625,319721.875,291470.4375,295873.625,275866.125,276107.34375,278979.1875,-0.142333984375,0.909912109375,-0.3193359375,-4.730224132537842,8.575438499450684,0.3356933295726776,60.0,2925284.0,1.0
1136531.2688162,289045.09375,282824.3125,318958.34375,290149.875,295421.15625,275807.5,275900.03125,278601.0,-0.142333984375,0.907470703125,-0.320556640625,-4.608153820037842,8.361815452575684,-0.0915527269244194,60.0,2925285.0,1.0
1136531.2738465,288575.25,282787.21875,318320.78125,289163.1875,294975.4375,275756.875,275734.625,278173.5625,-0.1416015625,0.909423828125,-0.32275390625,-4.516601085662842,8.300780296325684,-0.6103515028953552,60.0,2925286.0,1.0
1136531.2738895,289048.65625,282846.59375,318715.78125,289925.46875,295176.09375,275790.5,275857.375,278322.40625,-0.138671875,0.909912109375,-0.319091796875,-4.364013195037842,8.178709983825684,-0.9460448622703552,60.0,2925287.0,1.0
1136531.2739022,289819.71875,282918.84375,319608.15625,291386.46875,295762.40625,275873.75,276107.34375,278861.1875,-0.13916015625,0.909912109375,-0.318359375,-4.272460460662842,8.148192405700684,-1.2817381620407104,60.0,2925288.0,1.0
1136531.2775602,289797.4375,282890.125,319718.46875,291470.25,295880.15625,275867.84375,276111.65625,278987.875,-0.137939453125,0.91162109375,-0.321044921875,-4.150390148162842,8.026122093200684,-1.4953612089157104,60.0,2925289.0,1.0
1136531.2875264,289057.5,282824.0625,318965.5625,290167.84375,295431.34375,275814.8125,275906.5625,278617.0,-0.1376953125,0.91357421875,-0.31884765625,-4.180907726287842,7.781981945037842,-1.7089842557907104,60.0,2925290.0,1.0
1136531.2906357,288578.75,282784.09375,318323.28125,289168.375,294978.59375,275759.125,275735.34375,278183.46875,-0.135498046875,0.912353515625,-0.3193359375,-4.180907726287842,7.751464366912842,-1.9226073026657104,60.0,2925291.0,1.0
1136531.2906795,289046.96875,282849.1875,318717.03125,289914.03125,295173.5,275792.375,275855.78125,278319.90625,-0.13623046875,0.91064453125,-0.320068359375,-4.058837413787842,7.659911632537842,-2.075195074081421,60.0,2925292.0,1.0
1136531.2924625,289807.09375,282914.96875,319607.34375,291380.5625,295751.84375,275867.84375,276102.53125,278851.53125,-0.137451171875,0.912353515625,-0.322509765625,-4.119872570037842,7.568358898162842,-2.258300542831421,60.0,2925293.0,1.0
1136531.3037097,289808.1875,282899.4375,319740.1875,291503.96875,295885.78125,275874.28125,276119.875,278994.9375,-0.143310546875,0.914306640625,-0.3232421875,-3.906249761581421,7.476806163787842,-2.349853277206421,60.0,2925294.0,1.0
1136531.3068842,289064.3125,282825.84375,318975.0625,290186.09375,295428.375,275813.9375,275907.09375,278607.96875,-0.1474609375,0.913818359375,-0.321044921875,-3.967284917831421,7.354735851287842,-2.441406011581421,60.0,2925295.0,1.0
1136531.3069276,288565.40625,282770.6875,318309.0625,289159.96875,294958.625,275742.21875,275718.96875,278153.0,-0.150390625,0.91748046875,-0.320556640625,-3.906249761581421,7.171630382537842,-2.593993902206421,60.0,2925296.0,1.0
1136531.3156383,289031.125,282830.6875,318697.09375,289900.625,295149.78125,275772.09375,275837.0,278294.4375,-0.15380859375,0.9189453125,-0.320556640625,-3.906249761581421,6.866454601287842,-2.624511480331421,60.0,2925297.0,1.0
1136531.3156816,289798.78125,282897.28125,319593.84375,291365.65625,295739.875,275853.8125,276092.96875,278840.8125,-0.156005859375,0.9169921875,-0.31884765625,-4.028319835662842,6.530761241912842,-2.624511480331421,60.0,2925298.0,1.0
1136531.3176699,289787.53125,282873.6875,319717.75,291474.4375,295868.0,275854.4375,276100.28125,278976.53125,-0.159912109375,0.916259765625,-0.317626953125,-4.058837413787842,6.164550304412842,-2.563476324081421,60.0,2925299.0,1.0
1136531.3201306,289063.6875,282823.875,318977.1875,290184.03125,295430.4375,275813.65625,275905.5625,278613.4375,-0.164306640625,0.9130859375,-0.316650390625,-4.089354991912842,5.737304210662842,-2.685546636581421,60.0,2925300.0,1.0
1136531.348765,288586.15625,282786.5,318328.09375,289177.59375,294975.4375,275758.75,275735.6875,278171.125,-0.168701171875,0.911376953125,-0.317626953125,-3.997802495956421,5.340575695037842,-2.655029058456421,60.0,2925301.0,1.0
1136531.3518896,289058.40625,282855.25,318723.1875,289920.5625,295175.90625,275800.25,275864.96875,278324.65625,-0.170654296875,0.907958984375,-0.318115234375,-4.058837413787842,4.669188976287842,-2.746581792831421,60.0,2925302.0,1.0
1136531.3519322,289833.28125,282928.3125,319625.03125,291404.09375,295764.46875,275879.375,276117.46875,278874.40625,-0.1728515625,0.90380859375,-0.3203125,-4.028319835662842,4.180907726287842,-2.716064214706421,60.0,2925303.0,1.0
1136531.3536877,289803.875,282881.53125,319735.1875,291503.78125,295881.40625,275859.0625,276113.875,278991.0,-0.174560546875,0.90087890625,-0.3193359375,-4.089354991912842,3.540038824081421,-2.929687261581421,60.0,2925304.0,1.0
1136531.3562681,289052.78125,282810.03125,318968.09375,290167.5,295424.375,275800.78125,275902.25,278598.25,-0.1748046875,0.89990234375,-0.32080078125,-3.997802495956421,2.990722417831421,-2.990722417831421,60.0,2925305.0,1.0
1136531.3587654,288571.9375,282774.53125,318316.46875,289153.4375,294966.6875,275747.21875,275729.78125,278159.53125,-0.1748046875,0.896484375,-0.32177734375,-3.784179449081421,2.349853277206421,-2.990722417831421,60.0,2925306.0,1.0
1136531.3613214,289041.6875,282838.375,318711.125,289904.90625,295165.34375,275788.71875,275856.21875,278313.125,-0.171142578125,0.894287109375,-0.319091796875,-3.753661870956421,1.7395018339157104,-3.082275152206421,60.0,2925307.0,1.0
1136531.3639197,289821.59375,282920.4375,319621.5625,291397.375,295761.15625,275880.09375,276118.4375,278871.1875,-0.168212890625,0.893310546875,-0.32080078125,-3.601073980331421,1.3427733182907104,-3.112792730331421,60.0,2925308.0,1.0
1136531.3663118,289806.90625,282890.65625,319744.84375,291509.5,295887.75,275875.25,276125.96875,279004.84375,-0.16259765625,0.892578125,-0.323974609375,-3.540038824081421,0.9460448622703552,-3.173827886581421,60.0,2925309.0,1.0
1136531.3688072,289061.625,282820.03125,318984.25,290190.84375,295432.9375,275818.46875,275914.78125,278621.46875,-0.157958984375,0.8916015625,-0.324462890625,-3.479003667831421,0.5798339247703552,-3.143310308456421,60.0,2925310.0,1.0
1136531.3713206,288577.5625,282784.53125,318324.875,289168.8125,294971.4375,275762.875,275738.8125,278175.6875,-0.1513671875,0.8955078125,-0.325927734375,-3.204345464706421,0.3967284858226776,-2.868652105331421,60.0,2925311.0,1.0
1136531.3745013,289043.5625,282847.75,318712.75,289914.125,295163.65625,275797.375,275859.96875,278320.625,-0.147216796875,0.893798828125,-0.325927734375,-3.112792730331421,0.3051757514476776,-2.624511480331421,60.0,2925312.0,1.0
1136531.3745448,289818.90625,282925.8125,319621.90625,291404.4375,295762.15625,275883.46875,276119.59375,278874.78125,-0.14306640625,0.895751953125,-0.32763671875,-3.112792730331421,0.1220703050494194,-2.258300542831421,60.0,2925313.0,1.0
1136531.3762853,289801.03125,282883.78125,319743.25,291509.125,295891.875,275873.5625,276127.90625,279006.46875,-0.138916015625,0.89892578125,-0.330322265625,-3.082275152206421,0.0915527269244194,-1.8005369901657104,60.0,2925314.0,1.0
1136531.3849184,289049.90625,282803.5,318972.90625,290179.5625,295427.65625,275808.5625,275910.46875,278613.875,-0.13525390625,0.90185546875,-0.32763671875,-3.143310308456421,0.1525878757238388,-1.3122557401657104,60.0,2925315.0,1.0
1136531.3936901,288581.40625,282789.53125,318333.90625,289178.375,294979.125,275768.9375,275748.84375,278184.71875,-0.13525390625,0.90478515625,-0.327392578125,-3.143310308456421,0.1831054538488388,-0.8850097060203552,60.0,2925316.0,1.0
1136531.3937346,289041.0625,282853.90625,318721.40625,289916.8125,295181.625,275811.25,275874.28125,278335.8125,-0.13623046875,0.907470703125,-0.327392578125,-3.173827886581421,0.1525878757238388,-0.3662109076976776,60.0,2925317.0,1.0
1136531.3937471,289808.625,282918.65625,319616.375,291385.125,295766.0625,275886.0625,276121.40625,278881.46875,-0.13671875,0.91259765625,-0.328857421875,-3.540038824081421,0.1525878757238388,0.3051757514476776,60.0,2925318.0,1.0
1136531.3976815,289804.15625,282884.6875,319747.875,291513.0,295892.21875,275875.78125,276125.96875,279016.46875,-0.13623046875,0.918701171875,-0.331787109375,-3.753661870956421,0.2441406100988388,0.7629393935203552,60.0,2925319.0,1.0
1136531.4013076,289068.0625,282824.3125,318997.84375,290211.9375,295448.9375,275825.8125,275919.34375,278639.4375,-0.13623046875,0.92236328125,-0.331787109375,-4.058837413787842,0.3051757514476776,1.1596678495407104,60.0,2925320.0,1.0
1136531.4106422,288559.5,282782.03125,318318.4375,289157.8125,294973.84375,275761.53125,275736.75,278182.75,-0.137939453125,0.923583984375,-0.328857421875,-4.241942882537842,0.4272460639476776,1.5258787870407104,60.0,2925321.0,1.0
1136531.4106847,289010.40625,282829.15625,318687.96875,289885.5,295150.15625,275781.5625,275846.65625,278318.21875,-0.137451171875,0.925048828125,-0.32568359375,-4.608153820037842,0.5798339247703552,2.044677495956421,60.0,2925322.0,1.0
1136531.4125294,289791.71875,282898.71875,319599.46875,291379.9375,295744.625,275860.25,276100.03125,278870.5625,-0.1376953125,0.925048828125,-0.32666015625,-4.852294445037842,0.5493163466453552,2.471923589706421,60.0,2925323.0,1.0
1136531.4188939,289802.28125,282877.96875,319747.09375,291513.625,295888.65625,275863.28125,276113.25,279018.28125,-0.138916015625,0.9267578125,-0.325927734375,-5.249022960662842,0.4882812201976776,2.777099370956421,60.0,2925324.0,1.0
1136531.4230874,289067.96875,282814.9375,318993.90625,290203.625,295440.53125,275810.625,275908.875,278642.65625,-0.140869140625,0.928466796875,-0.321533203125,-5.554198741912842,0.3967284858226776,3.021239995956421,60.0,2925325.0,1.0
1136531.4231368,288563.625,282769.78125,318319.25,289159.25,294969.8125,275749.90625,275728.90625,278187.5,-0.141357421875,0.93017578125,-0.323486328125,-5.889892101287842,0.3967284858226776,3.265380620956421,60.0,2925326.0,1.0
1136531.4262505,289015.40625,282825.5,318691.625,289880.78125,295148.71875,275776.46875,275843.96875,278320.0,-0.14208984375,0.9326171875,-0.322509765625,-6.225585460662842,0.3051757514476776,3.326415777206421,60.0,2925327.0,1.0
1136531.4400916,289805.65625,282905.40625,319612.0,291386.28125,295755.34375,275864.96875,276107.1875,278887.1875,-0.14306640625,0.934326171875,-0.31884765625,-6.713866710662842,0.3662109076976776,3.417968511581421,60.0,2925328.0,1.0
1136531.4432389,289819.53125,282890.9375,319765.78125,291540.78125,295908.9375,275872.9375,276128.90625,279047.15625,-0.142333984375,0.9345703125,-0.31884765625,-7.293700695037842,0.2441406100988388,3.479003667831421,60.0,2925329.0,1.0
1136531.4432832,289078.15625,282823.4375,319010.0,290230.8125,295462.1875,275817.3125,275921.84375,278665.5625,-0.141845703125,0.93408203125,-0.31494140625,-7.751464366912842,0.2746581733226776,3.509521245956421,60.0,2925330.0,1.0
1136531.4450426,288572.125,282780.34375,318333.65625,289175.53125,294988.40625,275754.75,275738.09375,278205.75,-0.140380859375,0.932373046875,-0.3154296875,-8.056639671325684,0.1525878757238388,3.509521245956421,60.0,2925331.0,1.0
1136531.4488303,289030.15625,282845.78125,318711.03125,289895.6875,295174.5625,275791.75,275860.59375,278351.46875,-0.139404296875,0.93115234375,-0.3154296875,-8.361815452575684,0.2136230319738388,3.601073980331421,60.0,2925332.0,1.0
1136531.4631365,289842.6875,282942.15625,319652.84375,291432.4375,295795.75,275895.5625,276138.03125,278927.53125,-0.13720703125,0.931640625,-0.3125,-8.850096702575684,0.0915527269244194,3.570556402206421,60.0,2925333.0,1.0
1136531.4631798,289851.90625,282916.875,319800.625,291583.53125,295936.5,275893.5,276151.0,279071.75,-0.13623046875,0.927978515625,-0.3095703125,-9.216307640075684,0.0610351525247097,3.631591558456421,60.0,2925334.0,1.0
1136531.4657804,289084.34375,282829.96875,319021.1875,290241.78125,295468.625,275822.15625,275926.5625,278675.5625,-0.13134765625,0.92626953125,-0.309814453125,-9.521483421325684,0.2136230319738388,3.540038824081421,60.0,2925335.0,1.0
1136531.4658295,288580.09375,282790.71875,318345.375,289187.59375,294999.9375,275767.0625,275748.65625,278219.15625,-0.12841796875,0.924560546875,-0.307373046875,-9.765624046325684,0.3051757514476776,3.540038824081421,60.0,2925336.0,1.0
1136531.4675601,289030.40625,282853.03125,318713.4375,289898.90625,295177.96875,275796.9375,275862.375,278349.78125,-0.12451171875,0.925048828125,-0.30859375,-10.070799827575684,0.4272460639476776,3.417968511581421,60.0,2925337.0,1.0
1136531.4712654,289823.0,282923.125,319635.0625,291414.375,295783.40625,275881.15625,276122.8125,278918.21875,-0.12255859375,0.92529296875,-0.30224609375,-10.192870140075684,0.5187987685203552,3.295898199081421,60.0,2925338.0,1.0
1136531.4800901,289837.84375,282903.625,319790.71875,291571.625,295936.03125,275888.40625,276145.4375,279073.53125,-0.118408203125,0.9228515625,-0.301025390625,-10.253905296325684,0.7324218153953552,3.295898199081421,60.0,2925339.0,1.0
1136531.4845208,289090.9375,282835.0625,319028.15625,290248.59375,295479.71875,275829.21875,275931.84375,278678.25,-0.114013671875,0.916748046875,-0.3037109375,-10.437010765075684,1.0375975370407104,3.265380620956421,60.0,2925340.0,1.0
1136531.4845646,288577.125,282790.96875,318343.03125,289186.15625,295000.65625,275765.03125,275746.15625,278213.875,-0.11181640625,0.91259765625,-0.29931640625,-10.559081077575684,1.2817381620407104,3.295898199081421,60.0,2925341.0,1.0
1136531.4900998,289034.28125,282860.96875,318716.84375,289893.1875,295186.90625,275805.15625,275871.21875,278354.25,-0.110595703125,0.912353515625,-0.30078125,-10.528563499450684,1.7089842557907104,3.204345464706421,60.0,2925342.0,1.0
1136531.5006121,289816.75,282923.65625,319633.90625,291404.90625,295785.84375,275883.21875,276129.1875,278916.78125,-0.11181640625,0.907958984375,-0.3017578125,-10.620116233825684,1.8615721464157104,3.204345464706421,60.0,2925343.0,1.0
1136531.500658,289835.8125,282899.6875,319794.28125,291574.84375,295938.09375,275884.8125,276147.59375,279075.59375,-0.1162109375,0.908447265625,-0.2978515625,-10.467528343200684,2.075195074081421,3.112792730331421,60.0,2925344.0,1.0
1136531.5024976,289069.21875,282813.3125,319011.96875,290229.0,295468.25,275808.03125,275917.46875,278674.3125,-0.11767578125,0.9072265625,-0.298095703125,-10.406493186950684,2.349853277206421,2.899169683456421,60.0,2925345.0,1.0
1136531.505199,288546.5625,282761.28125,318314.875,289140.9375,294980.71875,275738.90625,275725.84375,278201.4375,-0.1181640625,0.90771484375,-0.294189453125,-10.284422874450684,2.532958745956421,2.716064214706421,60.0,2925346.0,1.0
1136531.5168958,289008.53125,282832.8125,318692.875,289870.75,295165.34375,275777.4375,275847.09375,278335.75,-0.120849609375,0.91162109375,-0.293701171875,-10.192870140075684,2.685546636581421,2.655029058456421,60.0,2925347.0,1.0
1136531.5169397,289795.5625,282901.46875,319613.6875,291387.0,295766.15625,275855.6875,276103.6875,278901.78125,-0.1220703125,0.91259765625,-0.290771484375,-10.253905296325684,2.838134527206421,2.441406011581421,60.0,2925348.0,1.0
1136531.5193424,289829.09375,282898.25,319788.5625,291558.59375,295932.71875,275874.09375,276136.875,279073.96875,-0.1240234375,0.914794921875,-0.289306640625,-10.284422874450684,2.868652105331421,2.227782964706421,60.0,2925349.0,1.0
1136531.5193855,289078.625,282826.375,319024.125,290233.46875,295476.125,275816.875,275929.09375,278668.25,-0.1240234375,0.91650390625,-0.29052734375,-10.131834983825684,2.868652105331421,2.075195074081421,60.0,2925350.0,1.0
1136531.5250891,288553.25,282777.375,318323.1875,289144.875,294984.375,275748.5625,275736.59375,278192.40625,-0.126708984375,0.9169921875,-0.288818359375,-10.040282249450684,2.929687261581421,1.8920897245407104,60.0,2925351.0,1.0
1136531.531424,289014.25,282847.5625,318699.5,289869.59375,295168.65625,275789.59375,275862.03125,278333.3125,-0.131591796875,0.918701171875,-0.28515625,-10.192870140075684,2.899169683456421,1.7395018339157104,60.0,2925352.0,1.0
1136531.5356512,289816.9375,282924.90625,319632.5625,291409.53125,295780.03125,275876.875,276126.3125,278905.34375,-0.1357421875,0.921142578125,-0.284912109375,-10.070799827575684,2.746581792831421,1.4038084745407104,60.0,2925353.0,1.0
1136531.5356945,289844.46875,282908.28125,319800.375,291585.75,295939.71875,275882.3125,276148.5625,279068.15625,-0.139892578125,0.924072265625,-0.2861328125,-10.223387718200684,2.685546636581421,1.0986326932907104,60.0,2925354.0,1.0
1136531.5388222,289079.9375,282818.78125,319022.09375,290242.15625,295474.53125,275812.5,275924.4375,278664.9375,-0.14208984375,0.926025390625,-0.284912109375,-10.314940452575684,2.532958745956421,0.8239745497703552,60.0,2925355.0,1.0
1136531.5475321,288540.75,282764.25,318308.78125,289130.125,294973.65625,275738.1875,275722.90625,278180.96875,-0.143310546875,0.926025390625,-0.284912109375,-10.375975608825684,2.288818120956421,0.5798339247703552,60.0,2925356.0,1.0
1136531.5544615,288987.875,282830.0625,318674.375,289833.65625,295150.875,275774.21875,275838.96875,278310.6875,-0.143798828125,0.92724609375,-0.28173828125,-10.314940452575684,2.075195074081421,0.3662109076976776,60.0,2925357.0,1.0
1136531.5545064,289812.1875,282922.3125,319630.75,291412.3125,295778.5,275874.90625,276115.40625,278903.125,-0.142822265625,0.92919921875,-0.275146484375,-10.345458030700684,1.8615721464157104,-0.0915527269244194,60.0,2925358.0,1.0
1136531.5563082,289829.625,282892.8125,319793.65625,291580.21875,295933.0,275873.125,276131.59375,279057.4375,-0.1416015625,0.9296875,-0.274658203125,-10.375975608825684,1.6174315214157104,-0.3662109076976776,60.0,2925359.0,1.0
1136531.5705797,289082.625,282824.15625,319030.5625,290241.78125,295478.375,275815.875,275923.625,278663.0625,-0.138427734375,0.93115234375,-0.27392578125,-10.467528343200684,1.4343260526657104,-0.5493163466453552,60.0,2925360.0,1.0
1136531.5706202,288539.84375,282770.6875,318306.75,289114.28125,294969.09375,275740.6875,275719.78125,278171.9375,-0.137451171875,0.93408203125,-0.27392578125,-10.620116233825684,1.1901854276657104,-0.7324218153953552,60.0,2925361.0,1.0
1136531.572558,288983.40625,282826.84375,318663.375,289818.90625,295138.96875,275772.4375,275831.09375,278301.84375,-0.135986328125,0.93701171875,-0.272216796875,-10.650633811950684,1.2207030057907104,-0.9460448622703552,60.0,2925362.0,1.0
1136531.5751979,289803.25,282912.21875,319617.0,291390.3125,295767.3125,275870.34375,276109.40625,278891.59375,-0.1357421875,0.939453125,-0.267578125,-10.650633811950684,1.0070799589157104,-0.9155272841453552,60.0,2925363.0,1.0
1136531.5794044,289826.3125,282883.96875,319783.84375,291574.84375,295925.03125,275868.46875,276128.8125,279047.78125,-0.134765625,0.942138671875,-0.269775390625,-10.955809593200684,0.9155272841453552,-0.9155272841453552,60.0,2925364.0,1.0
1136531.5794556,289070.75,282809.40625,319008.65625,290231.6875,295460.125,275807.84375,275911.8125,278642.5,-0.13134765625,0.9453125,-0.269287109375,-11.138915061950684,0.8239745497703552,-0.8850097060203552,60.0,2925365.0,1.0
1136531.5812503,288542.78125,282773.8125,318300.84375,289120.375,294964.09375,275748.21875,275723.53125,278161.65625,-0.130126953125,0.94580078125,-0.269775390625,-11.352538108825684,0.6408690810203552,-0.8239745497703552,60.0,2925366.0,1.0
1136531.5949162,288993.21875,282839.96875,318666.25,289828.1875,295143.09375,275784.6875,275846.90625,278298.375,-0.127685546875,0.946044921875,-0.266845703125,-11.535643577575684,0.7019042372703552,-0.6713866591453552,60.0,2925367.0,1.0
1136531.6026094,289805.5,282914.4375,319614.40625,291399.34375,295765.09375,275870.96875,276116.03125,278888.1875,-0.12744140625,0.94580078125,-0.264892578125,-11.749266624450684,0.6713866591453552,-0.3662109076976776,60.0,2925368.0,1.0
1136531.6026533,289831.875,282884.5,319786.96875,291591.75,295928.25,275869.8125,276134.4375,279058.9375,-0.12646484375,0.94189453125,-0.261962890625,-11.932372093200684,0.6713866591453552,-0.2136230319738388,60.0,2925369.0,1.0
1136531.6026658,289070.46875,282802.40625,319003.3125,290236.625,295456.0,275799.0,275907.34375,278646.59375,-0.1279296875,0.941650390625,-0.260986328125,-12.084959983825684,0.6408690810203552,-0.1220703050494194,60.0,2925370.0,1.0
1136531.6050903,288536.0,282767.09375,318286.1875,289118.21875,294951.21875,275733.46875,275712.09375,278150.84375,-0.13037109375,0.941162109375,-0.25927734375,-12.359618186950684,0.7019042372703552,0.0,60.0,2925371.0,1.0
1136531.6088216,288973.5625,282825.40625,318643.96875,289822.84375,295126.46875,275768.9375,275833.3125,278283.96875,-0.133544921875,0.93994140625,-0.2568359375,-12.359618186950684,0.5798339247703552,0.1831054538488388,60.0,2925372.0,1.0
1136531.6231453,289797.0,282897.28125,319601.34375,291397.65625,295756.5,275861.03125,276109.6875,278883.96875,-0.133544921875,0.939453125,-0.2568359375,-12.390135765075684,0.4882812201976776,0.3356933295726776,60.0,2925373.0,1.0
1136531.6231906,289834.28125,282869.21875,319784.8125,291595.96875,295928.09375,275866.5,276135.625,279057.6875,-0.13525390625,0.937255859375,-0.253173828125,-12.512206077575684,0.3967284858226776,0.3967284858226776,60.0,2925374.0,1.0
1136531.6257642,289065.1875,282794.03125,318998.75,290229.625,295452.875,275796.3125,275909.21875,278641.875,-0.13720703125,0.933837890625,-0.253173828125,-12.451170921325684,0.1831054538488388,0.5798339247703552,60.0,2925375.0,1.0
1136531.6258081,288517.125,282742.0625,318265.96875,289094.25,294935.84375,275719.40625,275700.375,278142.71875,-0.138671875,0.933349609375,-0.24951171875,-12.603758811950684,0.0610351525247097,0.6713866591453552,60.0,2925376.0,1.0
1136531.641916,288958.0,282804.65625,318621.375,289788.3125,295105.34375,275751.25,275815.4375,278271.46875,-0.14306640625,0.932373046875,-0.249267578125,-12.664793968200684,-0.2136230319738388,0.7324218153953552,60.0,2925377.0,1.0
1136531.6419599,289799.40625,282896.3125,319601.15625,291401.3125,295749.1875,275854.78125,276103.4375,278884.53125,-0.1474609375,0.9326171875,-0.24853515625,-12.603758811950684,-0.4272460639476776,0.7629393935203552,60.0,2925378.0,1.0
1136531.6450744,289839.03125,282873.9375,319790.53125,291607.9375,295923.0625,275861.75,276131.0625,279064.03125,-0.1484375,0.929443359375,-0.2451171875,-12.634276390075684,-0.7324218153953552,0.6103515028953552,60.0,2925379.0,1.0
1136531.6451175,289068.78125,282798.03125,319003.5,290238.3125,295450.65625,275795.78125,275907.625,278649.28125,-0.14990234375,0.92724609375,-0.247314453125,-12.695311546325684,-1.1596678495407104,0.6408690810203552,60.0,2925380.0,1.0
1136531.6451309,288515.96875,282750.9375,318266.40625,289094.15625,294935.03125,275722.625,275702.875,278142.78125,-0.15380859375,0.927001953125,-0.247314453125,-12.634276390075684,-1.4648436307907104,0.3967284858226776,60.0,2925381.0,1.0
1136531.6488195,288971.78125,282823.96875,318633.15625,289801.375,295114.125,275763.125,275825.28125,278274.3125,-0.15283203125,0.924560546875,-0.24267578125,-12.451170921325684,-1.7700194120407104,0.3967284858226776,60.0,2925382.0,1.0
1136531.6552121,289813.4375,282907.5625,319614.5,291405.15625,295761.96875,275865.96875,276111.90625,278890.40625,-0.152099609375,0.921875,-0.244384765625,-12.329100608825684,-2.197265386581421,0.3356933295726776,60.0,2925383.0,1.0
1136531.6618667,289859.9375,282884.75,319811.375,291627.96875,295941.84375,275873.375,276140.53125,279075.40625,-0.14990234375,0.9228515625,-0.244873046875,-12.298583030700684,-2.532958745956421,0.2136230319738388,60.0,2925384.0,1.0
1136531.6619091,289087.90625,282806.25,319024.84375,290258.96875,295470.21875,275807.21875,275914.5,278665.1875,-0.148193359375,0.921875,-0.2421875,-12.054442405700684,-2.777099370956421,0.1220703050494194,60.0,2925385.0,1.0
1136531.67556,288530.71875,282767.28125,318285.625,289095.15625,294954.34375,275741.59375,275712.09375,278161.5625,-0.14697265625,0.921142578125,-0.24267578125,-11.993407249450684,-3.082275152206421,0.03051757626235485,60.0,2925386.0,1.0
1136531.6756091,288982.6875,282840.40625,318647.5625,289803.6875,295126.90625,275780.21875,275832.34375,278281.03125,-0.145263671875,0.920654296875,-0.2431640625,-11.871336936950684,-3.295898199081421,0.0610351525247097,60.0,2925387.0,1.0
1136531.6781613,289809.0625,282912.125,319613.96875,291405.96875,295755.96875,275867.46875,276104.40625,278881.9375,-0.144775390625,0.923583984375,-0.241455078125,-11.688231468200684,-3.417968511581421,0.03051757626235485,60.0,2925388.0,1.0
1136531.6782051,289861.09375,282889.875,319817.8125,291637.15625,295941.84375,275879.90625,276141.40625,279072.1875,-0.142578125,0.92578125,-0.2421875,-11.566161155700684,-3.570556402206421,0.1220703050494194,60.0,2925389.0,1.0
1136531.6869426,289085.21875,282803.3125,319022.96875,290258.96875,295464.5,275807.03125,275915.59375,278650.53125,-0.1435546875,0.926513671875,-0.24365234375,-11.505125999450684,-3.540038824081421,0.2441406100988388,60.0,2925390.0,1.0
1136531.6869857,288523.84375,282757.4375,318274.1875,289089.4375,294938.4375,275733.1875,275709.3125,278133.9375,-0.14208984375,0.926025390625,-0.2412109375,-11.383055686950684,-3.601073980331421,0.3051757514476776,60.0,2925391.0,1.0
1136531.6906532,288961.5,282822.0,318625.28125,289781.875,295106.0625,275763.40625,275821.34375,278257.15625,-0.142333984375,0.926025390625,-0.239501953125,-11.322020530700684,-3.540038824081421,0.4577636420726776,60.0,2925392.0,1.0
1136531.6906967,289808.71875,282910.0625,319611.0,291402.5625,295755.78125,275862.65625,276104.3125,278882.5625,-0.142822265625,0.927490234375,-0.237060546875,-11.199950218200684,-3.723144292831421,0.6408690810203552,60.0,2925393.0,1.0
1136531.6988152,289867.09375,282888.53125,319816.1875,291639.5,295943.625,275873.1875,276136.25,279071.03125,-0.143310546875,0.9267578125,-0.237060546875,-11.169432640075684,-3.662109136581421,0.6408690810203552,60.0,2925394.0,1.0
1136531.7093867,289081.125,282798.21875,319013.3125,290255.84375,295461.1875,275799.8125,275904.125,278641.0625,-0.143798828125,0.926025390625,-0.235107421875,-10.955809593200684,-3.814697027206421,0.6408690810203552,60.0,2925395.0,1.0
1136531.709433,288508.09375,282747.0625,318257.65625,289077.625,294928.5,275720.6875,275689.5625,278116.78125,-0.14404296875,0.9267578125,-0.2353515625,-10.894774436950684,-3.875732183456421,0.7324218153953552,60.0,2925396.0,1.0
1136531.7114759,288964.78125,282831.75,318622.25,289777.78125,295108.40625,275769.3125,275815.625,278250.96875,-0.14599609375,0.923095703125,-0.233642578125,-10.620116233825684,-4.028319835662842,0.7934569716453552,60.0,2925397.0,1.0
1136531.7138076,289822.9375,282922.3125,319621.8125,291415.4375,295771.09375,275878.46875,276111.46875,278884.0625,-0.145263671875,0.92626953125,-0.235107421875,-10.467528343200684,-4.058837413787842,0.7934569716453552,60.0,2925398.0,1.0
1136531.7287583,289874.59375,282896.03125,319826.3125,291645.84375,295957.125,275882.5,276141.34375,279072.0,-0.146240234375,0.92919921875,-0.23486328125,-10.223387718200684,-4.119872570037842,0.8239745497703552,60.0,2925399.0,1.0
1136531.7288023,289090.9375,282807.25,319027.34375,290257.1875,295476.21875,275804.71875,275909.15625,278643.9375,-0.146484375,0.9306640625,-0.23583984375,-9.948729515075684,-4.119872570037842,0.8544921278953552,60.0,2925400.0,1.0
1136531.728815,288512.65625,282753.0625,318263.65625,289067.4375,294940.03125,275724.6875,275694.3125,278117.75,-0.1484375,0.93115234375,-0.231689453125,-9.948729515075684,-4.180907726287842,0.8544921278953552,60.0,2925401.0,1.0
1136531.7313177,288958.09375,282824.0625,318614.75,289760.53125,295105.96875,275759.84375,275808.1875,278241.59375,-0.1484375,0.932861328125,-0.231201171875,-9.826659202575684,-4.211425304412842,0.8850097060203552,60.0,2925402.0,1.0
1136531.7339277,289821.59375,282919.0,319612.34375,291398.28125,295765.375,275866.21875,276100.90625,278871.1875,-0.14892578125,0.93115234375,-0.23193359375,-9.735106468200684,-4.302978038787842,0.7934569716453552,60.0,2925403.0,1.0
1136531.7375218,289876.5625,282885.75,319823.15625,291640.125,295954.53125,275871.40625,276130.875,279061.8125,-0.1494140625,0.929931640625,-0.23095703125,-9.643553733825684,-4.364013195037842,0.8544921278953552,60.0,2925404.0,1.0
1136531.7412877,289085.75,282792.59375,319020.75,290248.875,295470.40625,275795.3125,275898.21875,278634.625,-0.1494140625,0.93017578125,-0.22998046875,-9.521483421325684,-4.364013195037842,0.7934569716453552,60.0,2925405.0,1.0
1136531.750658,288509.53125,282746.53125,318257.84375,289059.75,294938.25,275721.65625,275691.25,278112.5625,-0.14990234375,0.931884765625,-0.230712890625,-9.429930686950684,-4.425048351287842,0.7629393935203552,60.0,2925406.0,1.0
1136531.7507013,288965.15625,282827.71875,318618.3125,289760.875,295111.34375,275764.9375,275814.90625,278245.15625,-0.1484375,0.929443359375,-0.230712890625,-9.338377952575684,-4.516601085662842,0.7629393935203552,60.0,2925407.0,1.0
1136531.753353,289842.0625,282933.125,319632.46875,291421.25,295785.65625,275885.4375,276122.65625,278890.6875,-0.14697265625,0.929443359375,-0.2294921875,-9.124754905700684,-4.577636241912842,0.6713866591453552,60.0,2925408.0,1.0
1136531.7534004,289904.03125,282911.75,319848.84375,291671.9375,295981.1875,275898.21875,276160.03125,279088.46875,-0.148193359375,0.92724609375,-0.2314453125,-8.850096702575684,-4.516601085662842,0.6103515028953552,60.0,2925409.0,1.0
1136531.7638172,289113.03125,282821.03125,319042.03125,290275.875,295491.3125,275819.5625,275924.53125,278655.46875,-0.149169921875,0.9248046875,-0.232666015625,-8.697508811950684,-4.577636241912842,0.6103515028953552,60.0,2925410.0,1.0
1136531.7669124,288512.40625,282754.84375,318256.03125,289058.125,294936.46875,275728.09375,275695.5625,278108.71875,-0.146484375,0.926513671875,-0.2294921875,-8.331297874450684,-4.547118663787842,0.6408690810203552,60.0,2925411.0,1.0
1136531.7669563,288956.9375,282825.5,318606.0625,289749.4375,295101.6875,275764.84375,275811.5,278229.875,-0.14453125,0.92822265625,-0.231201171875,-8.148192405700684,-4.455565929412842,0.4577636420726776,60.0,2925412.0,1.0
1136531.7750217,289822.46875,282918.84375,319608.15625,291399.4375,295760.53125,275870.6875,276105.375,278861.625,-0.14208984375,0.927001953125,-0.22900390625,-8.087157249450684,-4.516601085662842,0.3967284858226776,60.0,2925413.0,1.0
1136531.7776743,289888.5625,282894.5,319828.1875,291655.9375,295956.4375,275878.75,276140.0,279060.28125,-0.142822265625,0.927978515625,-0.228271484375,-7.843017101287842,-4.425048351287842,0.3356933295726776,60.0,2925414.0,1.0
1136531.7800855,289100.25,282802.875,319026.5625,290260.75,295473.8125,275799.4375,275908.0625,278631.0625,-0.14208984375,0.9287109375,-0.23046875,-7.537841320037842,-4.241942882537842,0.2746581733226776,60.0,2925415.0,1.0
1136531.7888202,288521.34375,282754.59375,318261.40625,289056.96875,294940.5,275726.125,275698.3125,278105.0625,-0.141357421875,0.928466796875,-0.22998046875,-7.415771007537842,-4.241942882537842,0.2746581733226776,60.0,2925416.0,1.0
1136531.7931599,288973.03125,282835.0625,318618.15625,289755.4375,295111.25,275772.625,275822.59375,278235.78125,-0.144775390625,0.92822265625,-0.23046875,-7.202147960662842,-4.150390148162842,0.1525878757238388,60.0,2925417.0,1.0
1136531.7932031,289868.53125,282954.0625,319652.3125,291447.625,295796.90625,275903.875,276140.09375,278897.65625,-0.1435546875,0.929443359375,-0.23095703125,-6.988524913787842,-4.089354991912842,0.03051757626235485,60.0,2925418.0,1.0
1136531.8014658,289933.96875,282935.0,319876.375,291703.6875,296000.5,275918.25,276178.625,279103.375,-0.1416015625,0.93017578125,-0.2314453125,-6.866454601287842,-3.906249761581421,-0.0915527269244194,60.0,2925419.0,1.0
1136531.8056125,289115.625,282816.1875,319042.28125,290276.5625,295489.0,275813.9375,275918.34375,278645.25,-0.1396484375,0.929931640625,-0.232421875,-6.683349132537842,-3.845214605331421,-0.2136230319738388,60.0,2925420.0,1.0
1136531.8056576,288501.75,282743.15625,318244.25,289042.5,294923.40625,275714.9375,275684.46875,278095.3125,-0.13720703125,0.93212890625,-0.232177734375,-6.561278820037842,-3.753661870956421,-0.2746581733226776,60.0,2925421.0,1.0
1136531.8181044,288957.375,282835.40625,318602.59375,289735.03125,295099.28125,275768.875,275815.875,278223.1875,-0.136962890625,0.93359375,-0.233642578125,-6.347655773162842,-3.601073980331421,-0.3967284858226776,60.0,2925422.0,1.0
1136531.8181487,289827.9375,282924.375,319611.71875,291395.6875,295764.5625,275874.09375,276109.15625,278855.5625,-0.13720703125,0.934814453125,-0.231201171875,-6.103515148162842,-3.448486089706421,-0.5187987685203552,60.0,2925423.0,1.0
1136531.8200537,289885.6875,282885.125,319824.875,291653.1875,295953.03125,275868.90625,276129.625,279042.15625,-0.13623046875,0.937255859375,-0.2265625,-5.950927257537842,-3.234863042831421,-0.5493163466453552,60.0,2925424.0,1.0
1136531.8226794,289104.625,282803.75,319029.40625,290269.4375,295477.5625,275800.6875,275902.625,278620.5,-0.13720703125,0.936279296875,-0.2294921875,-5.767821788787842,-3.051757574081421,-0.6103515028953552,60.0,2925425.0,1.0
1136531.8263072,288515.71875,282752.1875,318251.03125,289051.34375,294931.46875,275722.375,275685.90625,278084.40625,-0.135986328125,0.936767578125,-0.23095703125,-5.615233898162842,-2.807616949081421,-0.7019042372703552,60.0,2925426.0,1.0
1136531.8306451,288965.5,282836.65625,318602.75,289733.15625,295100.09375,275769.65625,275811.0625,278210.03125,-0.135498046875,0.93701171875,-0.2294921875,-5.493163585662842,-2.471923589706421,-0.7629393935203552,60.0,2925427.0,1.0
1136531.8306885,289852.4375,282944.3125,319627.5625,291410.4375,295778.15625,275888.40625,276117.0,278858.21875,-0.1357421875,0.9375,-0.23095703125,-5.371093273162842,-2.349853277206421,-0.7324218153953552,60.0,2925428.0,1.0
1136531.8388167,289925.21875,282916.6875,319856.59375,291686.25,295978.3125,275893.3125,276149.65625,279059.84375,-0.135498046875,0.936279296875,-0.230224609375,-5.218505382537842,-2.075195074081421,-0.9155272841453552,60.0,2925429.0,1.0
1136531.8432681,289134.9375,282823.34375,319049.34375,290286.6875,295493.84375,275816.25,275917.90625,278630.875,-0.134033203125,0.93603515625,-0.231201171875,-5.035399913787842,-1.8615721464157104,-1.0375975370407104,60.0,2925430.0,1.0
1136531.8433126,288539.5625,282766.375,318259.71875,289052.59375,294935.40625,275726.40625,275690.1875,278084.875,-0.13623046875,0.93505859375,-0.23291015625,-4.821776866912842,-1.6479490995407104,-1.0681151151657104,60.0,2925431.0,1.0
1136531.8450817,289000.125,282858.75,318619.03125,289751.65625,295109.75,275773.5,275816.59375,278219.34375,-0.137451171875,0.931396484375,-0.232177734375,-4.547118663787842,-1.4038084745407104,-1.0986326932907104,60.0,2925432.0,1.0
1136531.8575897,289877.65625,282960.125,319636.5,291419.90625,295783.15625,275889.03125,276122.46875,278861.0,-0.138671875,0.930908203125,-0.2275390625,-4.272460460662842,-1.2512205839157104,-1.1596678495407104,60.0,2925433.0,1.0
1136531.8606618,289938.09375,282912.40625,319850.15625,291675.0,295971.8125,275881.6875,276146.25,279046.4375,-0.138427734375,0.931640625,-0.230224609375,-4.028319835662842,-0.8544921278953552,-1.1291502714157104,60.0,2925434.0,1.0
1136531.8607049,289149.25,282820.40625,319045.96875,290277.8125,295484.8125,275803.90625,275913.15625,278614.96875,-0.136962890625,0.93017578125,-0.23046875,-3.753661870956421,-0.7324218153953552,-1.1901854276657104,60.0,2925435.0,1.0
1136531.8626116,288551.375,282767.28125,318259.25,289050.09375,294932.8125,275724.6875,275697.4375,278074.40625,-0.13623046875,0.92724609375,-0.232421875,-3.387450933456421,-0.5493163466453552,-1.2512205839157104,60.0,2925436.0,1.0
1136531.8887761,288988.75,282843.0,318598.75,289723.15625,295090.78125,275762.6875,275811.40625,278187.6875,-0.13623046875,0.925048828125,-0.23046875,-3.051757574081421,-0.2746581733226776,-1.2817381620407104,60.0,2925437.0,1.0
1136531.8888202,289877.28125,282948.875,319624.25,291401.125,295768.5,275880.4375,276114.5,278834.8125,-0.138427734375,0.927001953125,-0.22998046875,-2.655029058456421,-0.0610351525247097,-1.4038084745407104,60.0,2925438.0,1.0
1136531.8888336,289976.0,282941.90625,319878.96875,291703.96875,295991.28125,275904.5,276165.75,279056.1875,-0.14111328125,0.92822265625,-0.232177734375,-2.227782964706421,0.03051757626235485,-1.4648436307907104,60.0,2925439.0,1.0
1136531.893814,289187.40625,282845.34375,319072.25,290304.75,295502.9375,275821.625,275923.625,278622.375,-0.140869140625,0.9287109375,-0.234619140625,-1.9531248807907104,0.1831054538488388,-1.4648436307907104,60.0,2925440.0,1.0
1136531.8963288,288592.59375,282793.5625,318286.4375,289068.25,294951.5,275745.34375,275707.53125,278085.3125,-0.141357421875,0.9306640625,-0.2333984375,-1.6784666776657104,0.3051757514476776,-1.4648436307907104,60.0,2925441.0,1.0
1136531.8989236,289025.0625,282868.65625,318620.03125,289731.28125,295105.96875,275784.40625,275823.3125,278198.59375,-0.14111328125,0.930908203125,-0.235107421875,-1.2817381620407104,0.4882812201976776,-1.5869139432907104,60.0,2925442.0,1.0
1136531.9013114,289924.59375,282980.6875,319657.9375,291430.5625,295797.09375,275912.4375,276139.0,278858.15625,-0.14306640625,0.9296875,-0.234130859375,-1.0375975370407104,0.5798339247703552,-1.4953612089157104,60.0,2925443.0,1.0
1136531.9037847,289999.59375,282949.21875,319896.125,291720.0625,296003.09375,275915.9375,276170.9375,279061.09375,-0.14501953125,0.931640625,-0.234375,-0.7324218153953552,0.7629393935203552,-1.5258787870407104,60.0,2925444.0,1.0
1136531.9063411,289171.78125,282825.84375,319061.25,290297.0625,295489.0,275807.84375,275909.84375,278603.0625,-0.145751953125,0.929931640625,-0.236328125,-0.5187987685203552,0.7934569716453552,-1.4953612089157104,60.0,2925445.0,1.0
1136531.908923,288566.65625,282776.03125,318269.28125,289061.8125,294937.1875,275729.4375,275693.03125,278061.78125,-0.14892578125,0.931396484375,-0.2353515625,-0.2136230319738388,0.8239745497703552,-1.6479490995407104,60.0,2925446.0,1.0
1136531.9113353,289000.28125,282860.53125,318606.78125,289723.59375,295100.25,275776.1875,275812.65625,278183.5625,-0.150146484375,0.931640625,-0.23486328125,0.03051757626235485,0.9155272841453552,-1.7700194120407104,60.0,2925447.0,1.0
1136531.9165168,289876.03125,282959.15625,319624.6875,291399.09375,295772.25,275888.84375,276115.5,278829.53125,-0.14990234375,0.93408203125,-0.238037109375,0.1831054538488388,1.1291502714157104,-1.7089842557907104,60.0,2925448.0,1.0
1136531.9165586,289957.65625,282925.1875,319864.28125,291692.6875,295981.375,275895.46875,276152.96875,279037.75,-0.150634765625,0.933349609375,-0.23974609375,0.3051757514476776,1.1901854276657104,-1.7395018339157104,60.0,2925449.0,1.0
1136531.921314,289163.46875,282827.625,319058.125,290296.34375,295490.6875,275809.71875,275909.5,278602.625,-0.14990234375,0.935791015625,-0.23876953125,0.4882812201976776,1.2207030057907104,-1.7089842557907104,60.0,2925450.0,1.0
1136531.9307677,288553.15625,282767.375,318259.96875,289051.78125,294925.75,275722.28125,275684.0,278056.0625,-0.148193359375,0.93798828125,-0.2373046875,0.7019042372703552,1.2817381620407104,-1.6784666776657104,60.0,2925451.0,1.0
1136531.9308121,288973.90625,282835.59375,318583.8125,289703.46875,295073.96875,275757.40625,275798.375,278164.625,-0.149658203125,0.937744140625,-0.23779296875,0.7019042372703552,1.3427733182907104,-1.6784666776657104,60.0,2925452.0,1.0
1136531.9325203,289882.8125,282961.5625,319628.625,291405.15625,295770.71875,275895.28125,276124.78125,278830.6875,-0.152099609375,0.93798828125,-0.238525390625,0.8239745497703552,1.3122557401657104,-1.6479490995407104,60.0,2925453.0,1.0
1136531.9350834,289986.4375,282949.5,319888.71875,291719.0625,295995.9375,275918.34375,276178.15625,279054.65625,-0.1533203125,0.93701171875,-0.23828125,0.8850097060203552,1.3732908964157104,-1.5258787870407104,60.0,2925454.0,1.0
1136531.9494128,289154.15625,282811.8125,319042.90625,290282.46875,295470.3125,275795.40625,275901.8125,278583.40625,-0.150146484375,0.938720703125,-0.23974609375,1.0986326932907104,1.3732908964157104,-1.5563963651657104,60.0,2925455.0,1.0
1136531.9494576,288542.875,282755.9375,318245.03125,289032.125,294911.25,275709.5,275680.4375,278037.03125,-0.15283203125,0.939453125,-0.240966796875,1.0986326932907104,1.3122557401657104,-1.5258787870407104,60.0,2925456.0,1.0
1136531.9514951,288973.75,282838.1875,318577.8125,289689.25,295068.625,275752.84375,275800.78125,278151.8125,-0.15283203125,0.939208984375,-0.2421875,1.0375975370407104,1.2817381620407104,-1.4343260526657104,60.0,2925457.0,1.0
1136531.9537821,289868.6875,282953.0625,319612.4375,291382.625,295755.0625,275878.21875,276111.75,278809.40625,-0.153564453125,0.939208984375,-0.2431640625,1.1291502714157104,1.2512205839157104,-1.4038084745407104,60.0,2925458.0,1.0
1136531.9563398,289946.21875,282923.125,319853.5625,291676.6875,295963.3125,275883.9375,276146.15625,279023.625,-0.151611328125,0.9404296875,-0.244873046875,1.2512205839157104,1.2512205839157104,-1.3732908964157104,60.0,2925459.0,1.0
1136531.9888571,289157.75,282819.6875,319055.25,290294.1875,295482.125,275799.4375,275907.1875,278593.59375,-0.152099609375,0.941650390625,-0.2412109375,1.2817381620407104,1.1901854276657104,-1.2817381620407104,60.0,2925460.0,1.0
1136531.9943691,288547.96875,282760.3125,318257.28125,289040.78125,294924.40625,275716.8125,275685.34375,278040.96875,-0.154052734375,0.94091796875,-0.23828125,1.2817381620407104,1.1901854276657104,-1.2207030057907104,60.0,2925461.0,1.0
1136531.9944225,288966.59375,282836.21875,318574.59375,289675.3125,295064.59375,275754.65625,275792.375,278144.40625,-0.154052734375,0.941162109375,-0.2412109375,1.4038084745407104,1.1596678495407104,-0.9765624403953552,60.0,2925462.0,1.0
1136531.9963423,289863.15625,282952.0,319610.5625,291373.25,295750.875,275880.71875,276105.5625,278806.65625,-0.1552734375,0.940185546875,-0.2421875,1.3122557401657104,1.0986326932907104,-0.8544921278953552,60.0,2925463.0,1.0
1136531.998829,289976.15625,282941.09375,319887.28125,291720.9375,295992.90625,275906.46875,276167.96875,279049.75,-0.155029296875,0.9375,-0.242431640625,1.3732908964157104,1.0681151151657104,-0.7934569716453552,60.0,2925464.0,1.0
1136532.0013439,289178.3125,282829.59375,319078.78125,290333.4375,295500.71875,275815.1875,275924.53125,278612.53125,-0.15625,0.937255859375,-0.242919921875,1.4648436307907104,1.0070799589157104,-0.8239745497703552,60.0,2925465.0,1.0
1136532.0038683,288552.71875,282766.5625,318267.5,289065.1875,294933.34375,275731.125,275696.09375,278060.1875,-0.1572265625,0.9375,-0.24560546875,1.5563963651657104,0.7934569716453552,-0.7629393935203552,60.0,2925466.0,1.0
1136532.0062275,288983.84375,282861.96875,318598.03125,289708.40625,295091.78125,275786.21875,275822.59375,278183.03125,-0.155517578125,0.935546875,-0.245849609375,1.6174315214157104,0.7324218153953552,-0.6713866591453552,60.0,2925467.0,1.0
1136532.0087528,289839.8125,282934.125,319593.40625,291366.4375,295737.8125,275872.84375,276100.65625,278804.6875,-0.15625,0.93359375,-0.24609375,1.6174315214157104,0.6713866591453552,-0.5493163466453552,60.0,2925468.0,1.0
1136532.0113432,289922.34375,282891.1875,319834.0625,291674.375,295938.8125,275867.46875,276128.8125,279006.375,-0.158935546875,0.934326171875,-0.2470703125,1.6784666776657104,0.5798339247703552,-0.5493163466453552,60.0,2925469.0,1.0
1136532.0138992,289180.53125,282833.53125,319077.4375,290338.09375,295493.125,275819.75,275927.65625,278608.59375,-0.15673828125,0.936279296875,-0.245849609375,1.7395018339157104,0.5493163466453552,-0.5187987685203552,60.0,2925470.0,1.0
1136532.0163319,288558.625,282772.90625,318270.25,289066.53125,294934.59375,275735.6875,275703.5,278055.96875,-0.15673828125,0.93505859375,-0.245361328125,1.8005369901657104,0.4577636420726776,-0.3662109076976776,60.0,2925471.0,1.0
1136532.0192795,288957.8125,282838.1875,318567.90625,289679.34375,295052.34375,275757.6875,275796.3125,278143.0625,-0.156005859375,0.935302734375,-0.24267578125,1.7700194120407104,0.2746581733226776,-0.2746581733226776,60.0,2925472.0,1.0
1136532.0193233,289851.96875,282945.46875,319602.96875,291373.34375,295746.5,275883.9375,276115.40625,278807.09375,-0.15576171875,0.93408203125,-0.245361328125,1.8920897245407104,0.3051757514476776,-0.2136230319738388,60.0,2925473.0,1.0
1136532.0263284,289919.21875,282886.65625,319832.125,291663.46875,295941.65625,275866.40625,276132.3125,279004.0625,-0.154541015625,0.92919921875,-0.24755859375,1.9226073026657104,0.0610351525247097,-0.0915527269244194,60.0,2925474.0,1.0
1136532.029475,289154.0625,282806.90625,319052.21875,290301.15625,295475.21875,275795.15625,275905.03125,278587.34375,-0.15576171875,0.9267578125,-0.245361328125,2.014159917831421,-0.0915527269244194,-0.03051757626235485,60.0,2925475.0,1.0
1136532.0295196,288558.96875,282765.21875,318265.0625,289057.59375,294929.6875,275724.25,275692.875,278050.25,-0.155029296875,0.929443359375,-0.25,2.136230230331421,-0.1831054538488388,-0.03051757626235485,60.0,2925476.0,1.0
1136532.0319023,288965.4375,282835.3125,318571.65625,289673.4375,295064.78125,275756.4375,275797.375,278145.75,-0.15576171875,0.93115234375,-0.250244140625,2.441406011581421,-0.2441406100988388,-0.0915527269244194,60.0,2925477.0,1.0
1136532.0319455,289853.21875,282947.34375,319593.84375,291357.5,295738.09375,275872.21875,276099.84375,278789.375,-0.1552734375,0.932861328125,-0.252197265625,2.593993902206421,-0.3967284858226776,-0.1220703050494194,60.0,2925478.0,1.0
1136532.0400905,289955.4375,282923.75,319862.6875,291697.25,295969.75,275884.8125,276150.28125,279023.625,-0.156982421875,0.933349609375,-0.250732421875,2.563476324081421,-0.5187987685203552,-0.1525878757238388,60.0,2925479.0,1.0
1136532.0494207,289172.65625,282825.9375,319072.59375,290322.25,295496.96875,275805.34375,275918.8125,278614.40625,-0.154541015625,0.931884765625,-0.25,2.593993902206421,-0.4882812201976776,-0.1525878757238388,60.0,2925480.0,1.0
1136532.0494654,288558.1875,282770.40625,318270.34375,289060.65625,294937.4375,275728.28125,275701.4375,278068.40625,-0.154052734375,0.928466796875,-0.250244140625,2.502441167831421,-0.6408690810203552,-0.0915527269244194,60.0,2925481.0,1.0
1136532.0519787,288964.15625,282847.40625,318576.21875,289674.875,295071.75,275769.65625,275810.34375,278157.90625,-0.15283203125,0.927001953125,-0.249267578125,2.655029058456421,-0.7019042372703552,0.03051757626235485,60.0,2925482.0,1.0
1136532.0520224,289853.78125,282964.6875,319606.1875,291367.4375,295750.4375,275895.375,276121.46875,278810.40625,-0.1513671875,0.921630859375,-0.2548828125,2.899169683456421,-0.6103515028953552,0.0,60.0,2925483.0,1.0
1136532.0624677,289932.0,282911.21875,319849.8125,291678.125,295959.8125,275885.71875,276151.15625,279016.21875,-0.150390625,0.920654296875,-0.257568359375,3.112792730331421,-0.6713866591453552,0.03051757626235485,60.0,2925484.0,1.0
1136532.0725002,289147.46875,282804.75,319054.09375,290306.96875,295479.15625,275794.25,275910.03125,278586.78125,-0.1474609375,0.922607421875,-0.257568359375,3.356933355331421,-0.7324218153953552,0.03051757626235485,60.0,2925485.0,1.0
1136532.0725433,288518.03125,282739.84375,318236.8125,289031.84375,294906.4375,275700.90625,275671.125,278024.59375,-0.1474609375,0.924072265625,-0.256591796875,3.631591558456421,-0.6103515028953552,0.1831054538488388,60.0,2925486.0,1.0
1136532.0725553,288927.96875,282814.3125,318544.90625,289648.125,295047.78125,275740.875,275779.78125,278123.5,-0.147216796875,0.926025390625,-0.258056640625,3.814697027206421,-0.7629393935203552,0.1831054538488388,60.0,2925487.0,1.0
1136532.0756656,289811.75,282918.1875,319564.5,291325.78125,295720.65625,275859.34375,276086.875,278775.09375,-0.14794921875,0.93408203125,-0.254638671875,3.936767339706421,-0.6103515028953552,0.2136230319738388,60.0,2925488.0,1.0
1136532.0757089,289914.75,282888.4375,319828.34375,291658.625,295942.125,275866.59375,276130.875,279002.90625,-0.148193359375,0.9365234375,-0.254638671875,3.997802495956421,-0.5187987685203552,0.2441406100988388,60.0,2925489.0,1.0
1136532.077674,289151.46875,282799.5625,319052.5625,290300.09375,295478.09375,275795.9375,275906.90625,278587.59375,-0.14599609375,0.9365234375,-0.25439453125,3.845214605331421,-0.4577636420726776,0.3051757514476776,60.0,2925490.0,1.0
1136532.0888157,288539.65625,282746.375,318253.625,289040.625,294921.71875,275718.09375,275689.375,278044.0,-0.145263671875,0.935302734375,-0.257080078125,3.723144292831421,-0.5493163466453552,0.4882812201976776,60.0,2925491.0,1.0
1136532.0931591,288943.4375,282822.28125,318554.46875,289651.625,295056.09375,275756.875,275798.1875,278140.90625,-0.147216796875,0.9345703125,-0.255859375,3.753661870956421,-0.4882812201976776,0.6408690810203552,60.0,2925492.0,1.0
1136532.0932024,289824.96875,282930.53125,319575.0625,291332.46875,295731.84375,275875.25,276103.6875,278794.125,-0.150146484375,0.935546875,-0.253662109375,3.723144292831421,-0.4272460639476776,0.5798339247703552,60.0,2925493.0,1.0
1136532.1094125,289929.6875,282902.8125,319845.875,291671.78125,295963.40625,275883.65625,276151.4375,279028.375,-0.149169921875,0.93603515625,-0.254150390625,3.601073980331421,-0.5798339247703552,0.6408690810203552,60.0,2925494.0,1.0
1136532.1094556,289149.78125,282795.90625,319059.375,290310.0,295489.0,275794.25,275914.6875,278601.09375,-0.1494140625,0.935791015625,-0.255126953125,3.540038824081421,-0.5798339247703552,0.6713866591453552,60.0,2925495.0,1.0
1136532.1120276,288541.28125,282751.0,318263.375,289056.0,294934.0625,275718.4375,275696.875,278057.3125,-0.14794921875,0.935791015625,-0.2568359375,3.601073980331421,-0.6103515028953552,0.8544921278953552,60.0,2925496.0,1.0
1136532.1121622,288944.3125,282830.9375,318566.1875,289662.34375,295071.28125,275760.71875,275805.15625,278153.71875,-0.146484375,0.935302734375,-0.256591796875,3.570556402206421,-0.5493163466453552,0.8239745497703552,60.0,2925497.0,1.0
1136532.1143611,289826.21875,282940.1875,319584.625,291330.59375,295747.03125,275884.09375,276111.90625,278798.15625,-0.147216796875,0.93798828125,-0.256103515625,3.540038824081421,-0.5798339247703552,1.0070799589157104,60.0,2925498.0,1.0
1136532.114403,289919.21875,282898.71875,319839.71875,291655.15625,295959.28125,275879.625,276141.96875,279010.9375,-0.147216796875,0.935546875,-0.255126953125,3.540038824081421,-0.4882812201976776,1.0681151151657104,60.0,2925499.0,1.0
1136532.1225135,289146.5625,282799.03125,319059.46875,290304.28125,295486.0625,275794.0,275904.84375,278593.21875,-0.146240234375,0.93359375,-0.25390625,3.387450933456421,-0.4272460639476776,1.1901854276657104,60.0,2925500.0,1.0
1136532.1331171,288537.875,282750.28125,318262.3125,289046.96875,294935.65625,275721.3125,275690.71875,278055.1875,-0.14599609375,0.930908203125,-0.25390625,3.356933355331421,-0.4882812201976776,1.3122557401657104,60.0,2925501.0,1.0
1136532.133159,288918.21875,282807.78125,318537.84375,289619.875,295047.15625,275743.28125,275781.375,278130.625,-0.146728515625,0.92919921875,-0.254150390625,3.356933355331421,-0.5798339247703552,1.5258787870407104,60.0,2925502.0,1.0
1136532.1393403,289801.1875,282918.65625,319557.09375,291298.9375,295721.28125,275864.15625,276087.34375,278777.84375,-0.145263671875,0.9248046875,-0.25244140625,3.417968511581421,-0.5798339247703552,1.5563963651657104,60.0,2925503.0,1.0
1136532.1393934,289924.40625,282901.03125,319845.0,291674.90625,295964.125,275881.78125,276144.90625,279016.40625,-0.146240234375,0.920166015625,-0.254150390625,3.479003667831421,-0.5187987685203552,1.6479490995407104,60.0,2925504.0,1.0
1136532.1419047,289155.59375,282805.09375,319074.9375,290333.625,295500.71875,275807.5,275917.28125,278604.75,-0.142578125,0.916748046875,-0.257568359375,3.692626714706421,-0.5798339247703552,1.8005369901657104,60.0,2925505.0,1.0
1136532.141948,288522.40625,282737.875,318261.84375,289055.53125,294927.625,275715.40625,275682.75,278049.90625,-0.14306640625,0.919677734375,-0.257080078125,3.967284917831421,-0.4882812201976776,1.8005369901657104,60.0,2925506.0,1.0
1136532.1550913,288909.53125,282801.96875,318539.28125,289630.0625,295045.53125,275742.65625,275779.21875,278129.28125,-0.144287109375,0.920166015625,-0.256103515625,4.150390148162842,-0.4882812201976776,1.8920897245407104,60.0,2925507.0,1.0
1136532.1581594,289793.40625,282910.78125,319555.21875,291299.40625,295720.5625,275861.3125,276087.875,278776.96875,-0.145263671875,0.919921875,-0.255126953125,4.241942882537842,-0.4577636420726776,1.8615721464157104,60.0,2925508.0,1.0
1136532.1582024,289913.3125,282894.25,319841.78125,291669.0,295962.9375,275878.125,276147.59375,279015.84375,-0.14697265625,0.925048828125,-0.25390625,4.486083507537842,-0.3967284858226776,1.8615721464157104,60.0,2925509.0,1.0
1136532.1601708,289137.53125,282795.0,319063.9375,290319.65625,295495.96875,275791.84375,275913.0,278595.09375,-0.147216796875,0.9267578125,-0.25439453125,4.608153820037842,-0.4577636420726776,2.014159917831421,60.0,2925510.0,1.0
1136532.1713178,288498.90625,282723.90625,318242.625,289038.03125,294923.59375,275697.53125,275675.53125,278037.28125,-0.146728515625,0.93115234375,-0.25439453125,4.821776866912842,-0.4577636420726776,2.044677495956421,60.0,2925511.0,1.0
1136532.1744108,288889.25,282797.0625,318523.28125,289615.15625,295042.6875,275731.5,275772.78125,278117.6875,-0.146484375,0.9365234375,-0.255126953125,4.791259288787842,-0.4577636420726776,2.197265386581421,60.0,2925512.0,1.0
1136532.1744545,289774.8125,282903.90625,319538.59375,291289.65625,295716.46875,275851.65625,276082.59375,278762.125,-0.151611328125,0.939697265625,-0.25390625,4.730224132537842,-0.5798339247703552,2.288818120956421,60.0,2925513.0,1.0
1136532.1763233,289916.53125,282895.75,319838.0,291673.65625,295970.625,275880.4375,276149.375,279012.0,-0.152587890625,0.944091796875,-0.253662109375,4.577636241912842,-0.7019042372703552,2.258300542831421,60.0,2925514.0,1.0
1136532.1857864,289133.875,282780.96875,319048.375,290315.125,295496.4375,275788.25,275910.03125,278592.0625,-0.150146484375,0.9462890625,-0.252685546875,4.425048351287842,-0.6713866591453552,2.319335699081421,60.0,2925515.0,1.0
1136532.185832,288506.3125,282720.875,318240.5625,289041.5,294934.9375,275703.15625,275683.375,278047.125,-0.147705078125,0.946533203125,-0.256591796875,4.302978038787842,-0.6408690810203552,2.380370855331421,60.0,2925516.0,1.0
1136532.1875929,288896.21875,282799.03125,318526.78125,289614.25,295061.90625,275742.3125,275783.34375,278135.1875,-0.14697265625,0.947265625,-0.256103515625,4.058837413787842,-0.7324218153953552,2.532958745956421,60.0,2925517.0,1.0
1136532.1913219,289777.9375,282905.875,319539.40625,291284.28125,295723.34375,275856.84375,276081.875,278765.25,-0.144287109375,0.9462890625,-0.256591796875,3.784179449081421,-0.8850097060203552,2.624511480331421,60.0,2925518.0,1.0
1136532.2056423,289892.65625,282876.0,319819.15625,291649.875,295952.9375,275866.3125,276133.1875,278996.0,-0.1435546875,0.947021484375,-0.255859375,3.570556402206421,-0.7629393935203552,2.807616949081421,60.0,2925519.0,1.0
1136532.205689,289135.75,282787.9375,319061.0625,290320.46875,295501.875,275792.46875,275909.3125,278596.625,-0.141357421875,0.9453125,-0.255615234375,3.479003667831421,-0.6408690810203552,2.868652105331421,60.0,2925520.0,1.0
1136532.2076744,288518.3125,282737.59375,318260.15625,289056.625,294945.5,275715.3125,275686.78125,278056.0625,-0.13720703125,0.943115234375,-0.255615234375,3.448486089706421,-0.5798339247703552,2.990722417831421,60.0,2925521.0,1.0
1136532.2100823,288875.65625,282786.59375,318511.84375,289599.75,295042.875,275733.46875,275767.625,278116.78125,-0.134521484375,0.938232421875,-0.257568359375,3.204345464706421,-0.5187987685203552,2.929687261581421,60.0,2925522.0,1.0
1136532.2125847,289754.71875,282892.1875,319520.71875,291256.5625,295707.875,275852.09375,276072.125,278755.40625,-0.13330078125,0.93505859375,-0.256103515625,3.051757574081421,-0.2441406100988388,3.021239995956421,60.0,2925523.0,1.0
1136532.2213145,289888.90625,282877.25,319818.53125,291640.9375,295954.8125,275872.21875,276136.875,279002.90625,-0.135009765625,0.9306640625,-0.257080078125,2.929687261581421,-0.1831054538488388,3.173827886581421,60.0,2925524.0,1.0
1136532.224526,289139.84375,282791.59375,319069.75,290331.5625,295513.5,275802.65625,275922.28125,278611.03125,-0.1337890625,0.92578125,-0.26171875,3.021239995956421,-0.0915527269244194,3.265380620956421,60.0,2925525.0,1.0
1136532.2245694,288528.5,282751.1875,318277.78125,289075.03125,294972.78125,275736.125,275711.1875,278084.25,-0.133544921875,0.9248046875,-0.25927734375,3.204345464706421,0.03051757626235485,3.326415777206421,60.0,2925526.0,1.0
1136532.2348972,288891.125,282810.65625,318530.96875,289608.96875,295072.09375,275758.9375,275795.40625,278143.96875,-0.134521484375,0.922607421875,-0.2587890625,3.326415777206421,0.2441406100988388,3.356933355331421,60.0,2925527.0,1.0
1136532.2419119,289753.53125,282894.15625,319518.5625,291254.15625,295711.96875,275853.1875,276078.125,278759.09375,-0.13427734375,0.922119140625,-0.25634765625,3.479003667831421,0.3967284858226776,3.448486089706421,60.0,2925528.0,1.0
1136532.2419555,289883.625,282864.90625,319806.375,291634.21875,295945.0625,275858.4375,276126.40625,278991.96875,-0.135986328125,0.922119140625,-0.25634765625,3.662109136581421,0.5798339247703552,3.540038824081421,60.0,2925529.0,1.0
1136532.2438171,289137.1875,282773.09375,319056.59375,290321.71875,295496.875,275781.5625,275905.9375,278598.25,-0.13330078125,0.920166015625,-0.256591796875,3.784179449081421,0.6713866591453552,3.479003667831421,60.0,2925530.0,1.0
1136532.2464343,288523.03125,282722.59375,318260.96875,289058.5,294948.34375,275708.0625,275689.8125,278064.3125,-0.133544921875,0.92041015625,-0.253662109375,4.089354991912842,0.9460448622703552,3.540038824081421,60.0,2925531.0,1.0
1136532.2500822,288899.34375,282796.15625,318527.75,289605.21875,295059.65625,275744.0,275786.5625,278133.40625,-0.134521484375,0.920166015625,-0.25390625,4.241942882537842,0.9155272841453552,3.540038824081421,60.0,2925532.0,1.0
1136532.2544159,289763.28125,282896.125,319523.84375,291249.78125,295715.03125,275852.71875,276082.78125,278756.84375,-0.1337890625,0.9228515625,-0.255615234375,4.425048351287842,1.0986326932907104,3.570556402206421,60.0,2925533.0,1.0
1136532.2544583,289897.03125,282878.78125,319823.96875,291643.25,295965.71875,275873.1875,276146.78125,279007.625,-0.135986328125,0.924072265625,-0.2578125,4.608153820037842,1.1901854276657104,3.601073980331421,60.0,2925534.0,1.0
1136532.2675027,289151.65625,282790.34375,319073.9375,290338.96875,295514.3125,275795.3125,275921.9375,278616.03125,-0.13671875,0.923095703125,-0.256591796875,4.699706554412842,1.2512205839157104,3.631591558456421,60.0,2925535.0,1.0
1136532.2707107,288524.75,282737.25,318267.5,289066.90625,294955.96875,275715.5,275699.3125,278075.46875,-0.136474609375,0.922607421875,-0.25634765625,4.974364757537842,1.4343260526657104,3.692626714706421,60.0,2925536.0,1.0
1136532.2707512,288891.84375,282811.09375,318531.3125,289608.25,295068.4375,275757.25,275800.34375,278145.03125,-0.137451171875,0.922607421875,-0.25634765625,5.096435070037842,1.4343260526657104,3.662109136581421,60.0,2925537.0,1.0
1136532.272598,289759.1875,282911.21875,319527.3125,291261.125,295719.3125,275865.78125,276093.78125,278769.375,-0.13916015625,0.9267578125,-0.254638671875,5.096435070037842,1.5258787870407104,3.692626714706421,60.0,2925538.0,1.0
1136532.2762753,289889.875,282883.15625,319819.40625,291647.4375,295955.34375,275871.3125,276138.65625,279001.375,-0.1396484375,0.929931640625,-0.25244140625,5.187987804412842,1.5563963651657104,3.753661870956421,60.0,2925539.0,1.0
1136532.2906612,289145.21875,282788.21875,319072.15625,290339.25,295506.09375,275786.84375,275906.28125,278605.84375,-0.141357421875,0.93359375,-0.252197265625,5.096435070037842,1.5258787870407104,3.662109136581421,60.0,2925540.0,1.0
1136532.2907281,288536.09375,282751.28125,318286.0,289085.3125,294968.75,275727.8125,275705.28125,278086.5625,-0.141357421875,0.934326171875,-0.254638671875,5.035399913787842,1.5258787870407104,3.570556402206421,60.0,2925541.0,1.0
1136532.2926727,288897.46875,282814.5,318539.28125,289617.28125,295075.59375,275756.0,275798.46875,278147.1875,-0.140625,0.936767578125,-0.254150390625,5.035399913787842,1.5258787870407104,3.509521245956421,60.0,2925542.0,1.0
1136532.2950852,289753.8125,282904.0625,319519.1875,291245.3125,295713.40625,275851.65625,276080.53125,278755.25,-0.1416015625,0.93408203125,-0.253662109375,4.974364757537842,1.5869139432907104,3.448486089706421,60.0,2925543.0,1.0
1136532.2975836,289893.90625,282884.59375,319818.4375,291639.59375,295959.09375,275867.3125,276137.9375,278997.09375,-0.138427734375,0.937255859375,-0.25390625,4.852294445037842,1.4953612089157104,3.326415777206421,60.0,2925544.0,1.0
1136532.3068198,289158.28125,282799.28125,319084.3125,290352.9375,295527.34375,275801.40625,275926.03125,278616.90625,-0.13623046875,0.938232421875,-0.252685546875,4.791259288787842,1.5258787870407104,3.295898199081421,60.0,2925545.0,1.0
1136532.3068702,288531.4375,282742.6875,318279.375,289083.4375,294971.78125,275726.46875,275703.0625,278078.875,-0.13720703125,0.938720703125,-0.25146484375,4.791259288787842,1.4953612089157104,3.295898199081421,60.0,2925546.0,1.0
1136532.3086697,288872.71875,282790.875,318511.3125,289589.21875,295054.84375,275739.0,275773.6875,278123.40625,-0.1376953125,0.940185546875,-0.252197265625,4.577636241912842,1.5869139432907104,3.295898199081421,60.0,2925547.0,1.0
1136532.3124289,289746.21875,282897.1875,319513.90625,291241.8125,295712.25,275851.75,276075.25,278748.875,-0.135986328125,0.9404296875,-0.255126953125,4.364013195037842,1.4343260526657104,3.112792730331421,60.0,2925548.0,1.0
1136532.326817,289904.46875,282891.75,319830.6875,291658.625,295967.6875,275873.65625,276140.09375,279001.5625,-0.136474609375,0.939208984375,-0.25634765625,4.241942882537842,1.5258787870407104,3.112792730331421,60.0,2925549.0,1.0
1136532.3268664,289158.625,282797.5,319086.0,290360.625,295524.84375,275798.28125,275919.34375,278615.125,-0.1357421875,0.935302734375,-0.254638671875,4.241942882537842,1.5869139432907104,3.082275152206421,60.0,2925550.0,1.0
1136532.3300282,288523.75,282733.40625,318273.375,289079.5,294963.5625,275714.25,275695.28125,278068.9375,-0.13671875,0.9326171875,-0.25341796875,4.241942882537842,1.6479490995407104,3.082275152206421,60.0,2925551.0,1.0
1136532.3300706,288885.125,282796.34375,318524.625,289601.375,295059.3125,275739.71875,275783.625,278127.5,-0.13671875,0.93212890625,-0.25537109375,4.211425304412842,1.7395018339157104,3.021239995956421,60.0,2925552.0,1.0
1136532.3300827,289765.34375,282904.0625,319526.78125,291252.90625,295714.5625,275857.03125,276088.40625,278756.125,-0.1357421875,0.929443359375,-0.255615234375,4.089354991912842,1.8005369901657104,2.929687261581421,60.0,2925553.0,1.0
1136532.3326953,289905.34375,282877.96875,319828.09375,291655.9375,295956.4375,275861.9375,276141.34375,278996.09375,-0.13720703125,0.929443359375,-0.257568359375,4.150390148162842,1.7089842557907104,2.929687261581421,60.0,2925554.0,1.0
1136532.3386968,289166.59375,282796.25,319095.65625,290370.625,295525.46875,275791.40625,275926.40625,278618.4375,-0.13720703125,0.92919921875,-0.25830078125,4.241942882537842,1.6479490995407104,2.746581792831421,60.0,2925555.0,1.0
1136532.3487834,288529.375,282734.125,318282.40625,289082.8125,294960.96875,275707.71875,275696.34375,278075.28125,-0.13525390625,0.928955078125,-0.25830078125,4.333495616912842,1.6479490995407104,2.655029058456421,60.0,2925556.0,1.0
1136532.3687579,288874.5,282786.9375,318513.90625,289581.15625,295042.15625,275725.6875,275772.53125,278115.71875,-0.13525390625,0.929443359375,-0.25341796875,4.425048351287842,1.6479490995407104,2.563476324081421,60.0,2925557.0,1.0
1136532.3688029,289746.3125,282891.125,319508.28125,291227.96875,295691.34375,275836.09375,276071.5,278737.25,-0.135986328125,0.93017578125,-0.25537109375,4.577636241912842,1.7395018339157104,2.380370855331421,60.0,2925558.0,1.0
1136532.3688164,289926.375,282911.6875,319850.25,291667.40625,295973.84375,275882.6875,276158.40625,279012.71875,-0.133544921875,0.93115234375,-0.254150390625,4.608153820037842,1.7395018339157104,2.319335699081421,60.0,2925559.0,1.0
1136532.3726971,289190.90625,282828.34375,319123.5625,290386.46875,295542.90625,275816.59375,275943.28125,278635.59375,-0.13427734375,0.93212890625,-0.255859375,4.760741710662842,1.8615721464157104,2.136230230331421,60.0,2925560.0,1.0
1136532.3762345,288537.875,282749.21875,318295.65625,289090.5,294964.0,275715.9375,275696.96875,278077.8125,-0.13525390625,0.935546875,-0.25830078125,4.791259288787842,1.8310545682907104,2.044677495956421,60.0,2925561.0,1.0
1136532.3762773,288900.25,282824.875,318546.71875,289609.5,295070.75,275757.59375,275791.125,278141.8125,-0.13525390625,0.93798828125,-0.260986328125,4.882812023162842,1.8310545682907104,1.8920897245407104,60.0,2925562.0,1.0
1136532.3762894,289757.125,282914.34375,319528.75,291240.75,295710.1875,275859.6875,276080.53125,278752.09375,-0.13330078125,0.9404296875,-0.25537109375,4.974364757537842,1.7700194120407104,1.8920897245407104,60.0,2925563.0,1.0
1136532.3793956,289895.6875,282882.15625,319825.59375,291645.40625,295947.3125,275858.8125,276130.5,278984.125,-0.133056640625,0.93994140625,-0.256591796875,4.730224132537842,1.8920897245407104,1.8615721464157104,60.0,2925564.0,1.0
1136532.3794399,289174.0,282805.90625,319108.375,290380.75,295530.65625,275800.78125,275932.3125,278621.125,-0.132080078125,0.941162109375,-0.2587890625,4.669188976287842,1.8615721464157104,1.8310545682907104,60.0,2925565.0,1.0
1136532.387604,288561.84375,282771.75,318321.3125,289120.625,294999.9375,275745.09375,275732.21875,278106.6875,-0.13330078125,0.941650390625,-0.257568359375,4.608153820037842,1.8615721464157104,1.8005369901657104,60.0,2925566.0,1.0
1136532.3907733,288899.53125,282826.375,318546.78125,289607.8125,295081.5625,275763.59375,275806.5,278144.9375,-0.13330078125,0.94189453125,-0.258056640625,4.547118663787842,1.9226073026657104,1.8005369901657104,60.0,2925567.0,1.0
1136532.3908182,289761.9375,282923.3125,319531.25,291239.3125,295726.8125,275874.90625,276105.9375,278759.25,-0.133056640625,0.938232421875,-0.26025390625,4.364013195037842,1.9836424589157104,1.7395018339157104,60.0,2925568.0,1.0
1136532.4013393,289913.3125,282895.59375,319841.3125,291659.4375,295972.25,275879.71875,276157.25,279003.4375,-0.1318359375,0.93896484375,-0.26171875,4.211425304412842,1.9226073026657104,1.7089842557907104,60.0,2925569.0,1.0
1136532.4056592,289180.53125,282806.0,319112.28125,290381.28125,295537.09375,275808.28125,275935.25,278620.5,-0.132080078125,0.93798828125,-0.262451171875,4.211425304412842,1.9836424589157104,1.4343260526657104,60.0,2925570.0,1.0
1136532.4057021,288552.90625,282754.125,318311.125,289107.84375,294989.03125,275733.28125,275714.9375,278092.46875,-0.13232421875,0.933837890625,-0.261474609375,4.180907726287842,2.014159917831421,1.3732908964157104,60.0,2925571.0,1.0
1136532.4144069,288891.03125,282809.84375,318535.34375,289593.875,295065.9375,275750.0,275790.40625,278131.53125,-0.132568359375,0.933837890625,-0.261474609375,4.119872570037842,1.9836424589157104,1.3122557401657104,60.0,2925572.0,1.0
1136532.4144502,289740.21875,282896.21875,319507.03125,291216.4375,295692.9375,275842.34375,276072.40625,278732.0625,-0.13427734375,0.931640625,-0.26171875,4.089354991912842,2.014159917831421,1.1901854276657104,60.0,2925573.0,1.0
1136532.4207091,289887.21875,282871.0,319818.15625,291638.34375,295942.375,275853.09375,276132.3125,278982.25,-0.130859375,0.928466796875,-0.26416015625,4.211425304412842,2.105712652206421,1.0681151151657104,60.0,2925574.0,1.0
1136532.4207518,289168.1875,282797.3125,319104.59375,290378.6875,295526.09375,275796.21875,275931.5,278621.75,-0.12939453125,0.927978515625,-0.263916015625,4.333495616912842,2.105712652206421,1.1291502714157104,60.0,2925575.0,1.0
1136532.4312966,288549.6875,282754.84375,318308.34375,289106.0625,294984.21875,275731.5,275717.8125,278100.40625,-0.12744140625,0.929931640625,-0.26416015625,4.425048351287842,2.227782964706421,1.1291502714157104,60.0,2925576.0,1.0
1136532.4412516,288878.15625,282803.59375,318524.71875,289578.75,295057.71875,275744.625,275786.28125,278137.34375,-0.12451171875,0.931884765625,-0.264404296875,4.425048351287842,2.258300542831421,1.1596678495407104,60.0,2925577.0,1.0
1136532.4412945,289738.96875,282902.1875,319509.09375,291208.28125,295699.5625,275853.625,276086.34375,278758.53125,-0.12646484375,0.932373046875,-0.2626953125,4.394530773162842,2.349853277206421,1.2207030057907104,60.0,2925578.0,1.0
1136532.4413071,289899.71875,282883.96875,319824.40625,291633.9375,295947.46875,275861.40625,276143.125,278997.71875,-0.12451171875,0.9296875,-0.2607421875,4.241942882537842,2.441406011581421,1.1901854276657104,60.0,2925579.0,1.0
1136532.444287,289187.15625,282807.0625,319111.3125,290382.78125,295525.03125,275791.125,275927.65625,278618.0,-0.125,0.93017578125,-0.263427734375,4.241942882537842,2.502441167831421,1.2512205839157104,60.0,2925580.0,1.0
1136532.4443299,288554.40625,282755.3125,318308.53125,289102.9375,294976.96875,275721.9375,275710.375,278085.9375,-0.127197265625,0.929443359375,-0.26708984375,4.302978038787842,2.685546636581421,1.2512205839157104,60.0,2925581.0,1.0
1136532.4514451,288889.96875,282813.5,318532.9375,289581.96875,295061.90625,275750.96875,275793.375,278129.75,-0.13037109375,0.927490234375,-0.269775390625,4.211425304412842,2.716064214706421,1.3122557401657104,60.0,2925582.0,1.0
1136532.4536928,289748.1875,282905.25,319509.875,291206.84375,295691.25,275852.90625,276080.90625,278733.6875,-0.1318359375,0.92578125,-0.27001953125,4.333495616912842,2.807616949081421,1.1901854276657104,60.0,2925583.0,1.0
1136532.4562323,289917.6875,282896.125,319843.5625,291653.0,295955.09375,275876.34375,276154.65625,278994.125,-0.133544921875,0.92919921875,-0.270263671875,4.272460460662842,2.746581792831421,1.1596678495407104,60.0,2925584.0,1.0
1136532.4649861,289204.5,282814.84375,319134.5625,290406.65625,295535.125,275809.1875,275942.84375,278628.46875,-0.134765625,0.9287109375,-0.269775390625,4.180907726287842,2.655029058456421,1.0070799589157104,60.0,2925585.0,1.0
1136532.4680277,288552.90625,282741.34375,318308.875,289109.1875,294964.4375,275717.625,275702.34375,278079.75,-0.136962890625,0.929443359375,-0.269287109375,4.028319835662842,2.655029058456421,1.0681151151657104,60.0,2925586.0,1.0
1136532.4680622,288872.71875,282792.3125,318519.0,289573.9375,295034.625,275735.34375,275775.21875,278111.9375,-0.135986328125,0.927001953125,-0.27099609375,3.997802495956421,2.502441167831421,0.8850097060203552,60.0,2925587.0,1.0
1136532.4738274,289748.90625,282914.8125,319521.59375,291221.6875,295698.40625,275868.0,276090.5625,278742.375,-0.13720703125,0.92626953125,-0.27392578125,4.089354991912842,2.471923589706421,0.9155272841453552,60.0,2925588.0,1.0
1136532.483103,289914.03125,282905.15625,319845.0625,291657.75,295958.375,275889.90625,276160.375,278998.15625,-0.135986328125,0.92578125,-0.272705078125,4.180907726287842,2.380370855331421,0.8544921278953552,60.0,2925589.0,1.0
1136532.483163,289190.09375,282816.375,319127.9375,290407.03125,295534.6875,275816.34375,275946.5,278629.96875,-0.134033203125,0.923583984375,-0.2724609375,4.150390148162842,2.288818120956421,0.7934569716453552,60.0,2925590.0,1.0
1136532.4856587,288549.15625,282753.5,318311.46875,289111.78125,294972.84375,275734.96875,275715.84375,278088.4375,-0.134765625,0.926025390625,-0.27294921875,4.211425304412842,2.197265386581421,0.7019042372703552,60.0,2925591.0,1.0
1136532.485702,288872.0,282804.21875,318517.03125,289563.5625,295041.875,275750.71875,275782.625,278111.6875,-0.1337890625,0.925537109375,-0.274658203125,4.241942882537842,2.166747808456421,0.6408690810203552,60.0,2925592.0,1.0
1136532.4937229,289723.25,282889.78125,319483.59375,291177.34375,295663.78125,275842.71875,276062.9375,278708.46875,-0.131591796875,0.925537109375,-0.2744140625,4.180907726287842,2.136230230331421,0.5798339247703552,60.0,2925593.0,1.0
1136532.4981945,289882.75,282868.5,319801.625,291616.53125,295914.03125,275853.09375,276124.4375,278960.6875,-0.130859375,0.925048828125,-0.274658203125,4.089354991912842,2.105712652206421,0.5798339247703552,60.0,2925594.0,1.0
1136532.4982376,289175.625,282793.75,319106.125,290389.6875,295506.09375,275793.8125,275923.28125,278615.40625,-0.130615234375,0.92529296875,-0.27197265625,4.089354991912842,2.075195074081421,0.6408690810203552,60.0,2925595.0,1.0
1136532.5012754,288543.96875,282744.84375,318299.3125,289102.84375,294951.9375,275723.4375,275703.9375,278080.21875,-0.130615234375,0.92626953125,-0.27392578125,4.211425304412842,2.075195074081421,0.7324218153953552,60.0,2925596.0,1.0
1136532.5100508,288855.53125,282789.0,318499.6875,289555.5,295016.5,275739.34375,275778.25,278100.34375,-0.12939453125,0.92578125,-0.273681640625,4.180907726287842,2.105712652206421,0.8239745497703552,60.0,2925597.0,1.0
1136532.5170232,289710.0,282890.125,319479.5,291176.8125,295658.96875,275850.40625,276079.5625,278715.4375,-0.128173828125,0.927978515625,-0.273193359375,4.180907726287842,2.044677495956421,0.8239745497703552,60.0,2925598.0,1.0
1136532.5170672,289890.15625,282894.0625,319823.4375,291637.8125,295936.03125,275885.375,276163.5,278986.4375,-0.129150390625,0.93017578125,-0.276123046875,4.150390148162842,2.105712652206421,0.8850097060203552,60.0,2925599.0,1.0
1136532.5187899,289179.09375,282808.15625,319117.40625,290403.0,295515.03125,275809.625,275944.28125,278624.34375,-0.129150390625,0.93212890625,-0.27880859375,4.028319835662842,2.075195074081421,0.8850097060203552,60.0,2925600.0,1.0
1136532.5225763,288546.625,282751.0,318305.9375,289113.84375,294954.625,275729.15625,275711.375,278083.53125,-0.127197265625,0.932373046875,-0.280029296875,3.997802495956421,2.075195074081421,0.8850097060203552,60.0,2925601.0,1.0
1136532.5368821,288859.03125,282798.84375,318504.6875,289559.34375,295019.53125,275741.3125,275782.625,278110.34375,-0.126953125,0.93115234375,-0.28076171875,3.997802495956421,2.136230230331421,0.9460448622703552,60.0,2925602.0,1.0
1136532.5369233,289696.15625,282875.09375,319464.46875,291161.78125,295641.4375,275831.1875,276064.625,278708.28125,-0.1259765625,0.93115234375,-0.2802734375,3.814697027206421,2.105712652206421,1.1291502714157104,60.0,2925603.0,1.0
1136532.538712,289879.15625,282870.5625,319800.1875,291611.4375,295909.3125,275851.84375,276133.375,278965.15625,-0.125,0.93212890625,-0.27783203125,3.662109136581421,2.166747808456421,1.1901854276657104,60.0,2925604.0,1.0
1136532.5413402,289211.375,282824.59375,319140.46875,290420.34375,295533.625,275814.8125,275949.8125,278645.4375,-0.124267578125,0.933349609375,-0.273193359375,3.570556402206421,2.258300542831421,1.1901854276657104,60.0,2925605.0,1.0
1136532.5450906,288563.53125,282754.40625,318313.25,289113.03125,294959.96875,275727.46875,275707.0,278093.1875,-0.1259765625,0.939697265625,-0.2783203125,3.509521245956421,2.349853277206421,1.1901854276657104,60.0,2925606.0,1.0
1136532.5536399,288876.0,282803.03125,318516.9375,289563.03125,295026.3125,275749.0,275782.4375,278124.46875,-0.127197265625,0.940673828125,-0.276611328125,3.448486089706421,2.319335699081421,1.4343260526657104,60.0,2925607.0,1.0
1136532.560714,289724.5625,282889.78125,319490.40625,291184.5,295656.71875,275847.4375,276071.3125,278727.34375,-0.130615234375,0.940673828125,-0.27587890625,3.234863042831421,2.258300542831421,1.3732908964157104,60.0,2925608.0,1.0
1136532.5607572,289889.0,282870.375,319809.75,291621.15625,295909.46875,275859.34375,276132.75,278963.65625,-0.132080078125,0.939208984375,-0.27685546875,3.082275152206421,2.197265386581421,1.2817381620407104,60.0,2925609.0,1.0
1136532.5625363,289202.8125,282806.1875,319138.9375,290423.46875,295526.46875,275818.21875,275951.96875,278638.5625,-0.13623046875,0.9365234375,-0.277587890625,2.807616949081421,2.105712652206421,1.3122557401657104,60.0,2925610.0,1.0
1136532.564976,288551.03125,282738.0625,318309.0625,289110.25,294955.25,275730.40625,275712.71875,278084.59375,-0.134765625,0.93701171875,-0.27978515625,2.593993902206421,1.9836424589157104,1.2817381620407104,60.0,2925611.0,1.0
1136532.5738481,288867.4375,282796.875,318512.09375,289557.84375,295023.71875,275752.0625,275785.5,278114.28125,-0.13427734375,0.9345703125,-0.2802734375,2.441406011581421,1.7089842557907104,1.2817381620407104,60.0,2925612.0,1.0
1136532.5770326,289708.65625,282883.78125,319479.59375,291168.9375,295652.71875,275855.0625,276073.21875,278720.09375,-0.131591796875,0.933837890625,-0.278076171875,2.288818120956421,1.5563963651657104,1.1291502714157104,60.0,2925613.0,1.0
1136532.5770785,289878.96875,282867.34375,319809.40625,291619.5625,295911.0,275868.90625,276135.96875,278969.53125,-0.131103515625,0.932373046875,-0.279052734375,2.197265386581421,1.5258787870407104,1.0681151151657104,60.0,2925614.0,1.0
1136532.5787857,289189.375,282795.96875,319127.59375,290411.125,295513.40625,275809.625,275938.8125,278626.03125,-0.1318359375,0.931884765625,-0.275634765625,2.105712652206421,1.5258787870407104,0.9765624403953552,60.0,2925615.0,1.0
1136532.5925488,288570.78125,282755.40625,318330.6875,289130.125,294974.46875,275745.25,275724.96875,278100.6875,-0.13232421875,0.9296875,-0.276611328125,2.044677495956421,1.3427733182907104,0.8850097060203552,60.0,2925616.0,1.0
1136532.5956633,288868.0625,282792.3125,318512.28125,289553.09375,295019.875,275745.96875,275777.71875,278109.28125,-0.13330078125,0.92724609375,-0.276611328125,1.8310545682907104,1.2207030057907104,0.7629393935203552,60.0,2925617.0,1.0
1136532.5957058,289728.40625,282897.90625,319496.75,291183.15625,295666.65625,275860.5,276083.65625,278731.90625,-0.13427734375,0.927734375,-0.277587890625,1.7089842557907104,1.0375975370407104,0.7019042372703552,60.0,2925618.0,1.0
1136532.5976945,289913.6875,282896.375,319840.96875,291651.3125,295941.9375,275883.65625,276156.34375,279003.4375,-0.132568359375,0.927734375,-0.281005859375,1.6174315214157104,0.9765624403953552,0.7629393935203552,60.0,2925619.0,1.0
1136532.6013647,289214.78125,282818.25,319151.71875,290438.59375,295537.71875,275816.875,275951.34375,278653.9375,-0.132568359375,0.9287109375,-0.279541015625,1.5869139432907104,0.8544921278953552,0.7019042372703552,60.0,2925620.0,1.0
1136532.6282057,288581.875,282776.21875,318350.28125,289152.0,294994.59375,275753.75,275741.5,278123.5625,-0.1318359375,0.9296875,-0.2763671875,1.6174315214157104,0.6713866591453552,0.5798339247703552,60.0,2925621.0,1.0
1136532.6282502,288878.25,282821.1875,318532.03125,289569.90625,295045.09375,275763.6875,275803.09375,278131.53125,-0.131591796875,0.931640625,-0.280029296875,1.5563963651657104,0.5798339247703552,0.4272460639476776,60.0,2925622.0,1.0
1136532.6306189,289723.9375,282909.53125,319497.375,291182.96875,295673.1875,275863.625,276091.71875,278733.6875,-0.1298828125,0.93115234375,-0.281494140625,1.5563963651657104,0.5798339247703552,0.3662109076976776,60.0,2925623.0,1.0
1136532.6306617,289902.21875,282893.625,319832.5625,291645.65625,295934.78125,275876.59375,276155.5625,278991.28125,-0.12841796875,0.931396484375,-0.279052734375,1.4343260526657104,0.4882812201976776,0.4272460639476776,60.0,2925624.0,1.0
1136532.6327055,289204.6875,282812.4375,319141.96875,290432.21875,295523.96875,275802.75,275943.75,278640.25,-0.12890625,0.9345703125,-0.277587890625,1.3122557401657104,0.3356933295726776,0.3051757514476776,60.0,2925625.0,1.0
1136532.6350822,288564.96875,282759.25,318329.625,289132.625,294971.875,275733.0,275721.75,278108.375,-0.127685546875,0.934326171875,-0.275146484375,1.1291502714157104,0.3662109076976776,0.3051757514476776,60.0,2925626.0,1.0
1136532.6375882,288871.8125,282812.875,318521.125,289555.875,295032.59375,275755.71875,275794.0,278133.40625,-0.128173828125,0.93310546875,-0.27978515625,0.9460448622703552,0.3051757514476776,0.2746581733226776,60.0,2925627.0,1.0
1136532.6400888,289720.1875,282902.09375,319485.46875,291164.375,295655.9375,275855.9375,276081.53125,278736.0,-0.128662109375,0.933837890625,-0.279296875,0.7934569716453552,0.3051757514476776,0.3662109076976776,60.0,2925628.0,1.0
1136532.6451971,289911.4375,282893.0,319832.75,291642.96875,295926.90625,275874.375,276147.9375,279001.5625,-0.127685546875,0.932861328125,-0.2783203125,0.6713866591453552,0.2746581733226776,0.2441406100988388,60.0,2925629.0,1.0
1136532.6475898,289222.03125,282815.84375,319152.25,290444.75,295530.3125,275811.25,275943.125,278659.46875,-0.126220703125,0.93212890625,-0.276611328125,0.5798339247703552,0.1831054538488388,0.2746581733226776,60.0,2925630.0,1.0
1136532.6500827,288579.625,282758.4375,318339.625,289148.53125,294975.53125,275736.59375,275716.90625,278113.1875,-0.1259765625,0.9326171875,-0.278564453125,0.4577636420726776,0.1525878757238388,0.2746581733226776,60.0,2925631.0,1.0
1136532.6526033,288875.46875,282809.46875,318520.96875,289560.96875,295028.46875,275750.90625,275780.9375,278122.3125,-0.12744140625,0.93408203125,-0.279296875,0.4577636420726776,0.1220703050494194,0.2136230319738388,60.0,2925632.0,1.0
1136532.6552327,289708.40625,282892.8125,319476.53125,291161.78125,295646.71875,275847.1875,276065.96875,278715.1875,-0.128173828125,0.93603515625,-0.279541015625,0.2441406100988388,0.1220703050494194,0.2746581733226776,60.0,2925633.0,1.0
1136532.6592799,289895.6875,282886.8125,319823.78125,291638.96875,295921.09375,275872.75,276143.375,278977.59375,-0.131103515625,0.9375,-0.2783203125,0.0610351525247097,0.1831054538488388,0.3051757514476776,60.0,2925634.0,1.0
1136532.6593232,289219.25,282828.09375,319160.03125,290446.90625,295537.71875,275824.21875,275956.09375,278647.5,-0.131591796875,0.93505859375,-0.27880859375,-0.0915527269244194,0.0915527269244194,0.2746581733226776,60.0,2925635.0,1.0
1136532.6663598,288573.71875,282767.8125,318339.625,289138.875,294978.03125,275744.53125,275725.3125,278107.40625,-0.129638671875,0.930419921875,-0.278076171875,-0.3051757514476776,0.0,0.1525878757238388,60.0,2925636.0,1.0
1136532.6694134,288857.0625,282806.0,318506.90625,289539.59375,295021.6875,275754.75,275783.0,278110.78125,-0.12939453125,0.926513671875,-0.2802734375,-0.4577636420726776,-0.0915527269244194,0.1220703050494194,60.0,2925637.0,1.0
1136532.6694593,289704.8125,282898.0,319475.1875,291156.0625,295651.28125,275862.84375,276074.8125,278713.75,-0.1298828125,0.927978515625,-0.2802734375,-0.4577636420726776,-0.0915527269244194,0.0610351525247097,60.0,2925638.0,1.0
1136532.6774685,289890.875,282880.03125,319816.65625,291629.84375,295913.40625,275872.40625,276138.65625,278972.59375,-0.130615234375,0.928955078125,-0.281982421875,-0.4882812201976776,-0.1831054538488388,0.0,60.0,2925639.0,1.0
1136532.6819326,289207.53125,282803.03125,319139.90625,290431.34375,295518.15625,275810.0,275941.96875,278635.15625,-0.128662109375,0.927978515625,-0.282958984375,-0.4882812201976776,-0.2136230319738388,-0.03051757626235485,60.0,2925640.0,1.0
1136532.6819758,288565.15625,282743.78125,318325.78125,289133.5,294963.75,275734.4375,275714.9375,278099.25,-0.125732421875,0.925537109375,-0.280029296875,-0.4882812201976776,-0.3051757514476776,-0.0610351525247097,60.0,2925641.0,1.0
1136532.6851071,288857.34375,282789.0,318498.0625,289537.4375,295011.65625,275744.09375,275775.75,278108.71875,-0.126220703125,0.92626953125,-0.280029296875,-0.5187987685203552,-0.2136230319738388,-0.0915527269244194,60.0,2925642.0,1.0
1136532.6994543,289712.40625,282890.3125,319473.3125,291158.03125,295647.96875,275852.28125,276075.0,278722.6875,-0.126220703125,0.92578125,-0.278076171875,-0.6103515028953552,-0.2441406100988388,0.0,60.0,2925643.0,1.0
1136532.6994974,289894.625,282877.0625,319817.8125,291633.5,295917.71875,275867.75,276141.5,278983.40625,-0.126220703125,0.92626953125,-0.28125,-0.5798339247703552,-0.2441406100988388,0.0610351525247097,60.0,2925644.0,1.0
1136532.7015055,289210.21875,282811.375,319148.6875,290442.34375,295533.15625,275814.625,275950.0,278648.3125,-0.12548828125,0.92333984375,-0.280029296875,-0.5493163466453552,-0.2136230319738388,0.2136230319738388,60.0,2925645.0,1.0
1136532.7037614,288559.0625,282755.75,318330.96875,289133.34375,294977.875,275734.625,275721.84375,278109.90625,-0.12646484375,0.919921875,-0.279052734375,-0.4882812201976776,-0.2441406100988388,0.1525878757238388,60.0,2925646.0,1.0
1136532.7125932,288849.1875,282805.5625,318506.03125,289534.9375,295030.875,275750.09375,275787.28125,278120.1875,-0.12646484375,0.916748046875,-0.282958984375,-0.3051757514476776,-0.1220703050494194,0.3051757514476776,60.0,2925647.0,1.0
1136532.7225454,289693.65625,282896.125,319467.875,291147.5,295656.0,275849.40625,276074.8125,278718.5,-0.124755859375,0.916748046875,-0.281982421875,-0.2441406100988388,-0.1525878757238388,0.3051757514476776,60.0,2925648.0,1.0
1136532.7225902,289878.4375,282876.53125,319808.25,291625.375,295919.78125,275856.65625,276135.96875,278976.25,-0.124755859375,0.916015625,-0.283203125,0.03051757626235485,-0.1220703050494194,0.4272460639476776,60.0,2925649.0,1.0
1136532.7226031,289199.3125,282805.375,319136.96875,290436.15625,295527.09375,275797.28125,275937.5625,278636.59375,-0.12548828125,0.91650390625,-0.283447265625,0.1831054538488388,-0.0915527269244194,0.3967284858226776,60.0,2925650.0,1.0
1136532.7258049,288558.71875,282752.1875,318324.25,289138.875,294974.5625,275725.0625,275712.625,278101.125,-0.126220703125,0.9169921875,-0.2822265625,0.3356933295726776,-0.03051757626235485,0.4272460639476776,60.0,2925651.0,1.0
1136532.7258509,288844.53125,282799.125,318491.90625,289533.34375,295018.8125,275741.25,275774.84375,278106.6875,-0.125,0.91748046875,-0.28173828125,0.5798339247703552,0.0610351525247097,0.5493163466453552,60.0,2925652.0,1.0
1136532.7362951,289688.71875,282890.3125,319454.8125,291141.15625,295644.9375,275846.28125,276066.59375,278707.21875,-0.12646484375,0.919189453125,-0.277587890625,0.7934569716453552,-0.03051757626235485,0.7019042372703552,60.0,2925653.0,1.0
1136532.740644,289886.9375,282879.125,319814.21875,291637.0,295925.5625,275867.5625,276141.875,278983.21875,-0.125,0.92138671875,-0.27685546875,0.9155272841453552,-0.03051757626235485,0.8239745497703552,60.0,2925654.0,1.0
1136532.7406935,289212.71875,282810.90625,319148.9375,290448.0625,295537.375,275812.65625,275944.71875,278640.78125,-0.125244140625,0.92333984375,-0.27978515625,0.9765624403953552,0.0,0.8850097060203552,60.0,2925655.0,1.0
1136532.7468943,288566.9375,282752.875,318331.9375,289139.3125,294980.1875,275733.0,275712.4375,278103.90625,-0.126953125,0.9228515625,-0.27734375,1.0681151151657104,0.0610351525247097,0.9765624403953552,60.0,2925656.0,1.0
1136532.7469441,288847.5,282795.0,318493.96875,289524.75,295016.5625,275741.875,275768.3125,278101.59375,-0.127685546875,0.922119140625,-0.28125,1.1291502714157104,0.1220703050494194,0.9765624403953552,60.0,2925657.0,1.0
1136532.7527142,289697.9375,282897.1875,319462.21875,291138.0,295642.78125,275850.59375,276064.875,278695.6875,-0.12744140625,0.9248046875,-0.28173828125,1.1596678495407104,0.1220703050494194,0.9765624403953552,60.0,2925658.0,1.0
1136532.7593837,289904.65625,282896.125,319831.03125,291648.875,295933.4375,275880.34375,276150.0,278980.8125,-0.12744140625,0.9248046875,-0.28271484375,1.2207030057907104,0.03051757626235485,0.9460448622703552,60.0,2925659.0,1.0
1136532.7594272,289219.59375,282811.375,319153.25,290457.4375,295536.375,275810.15625,275939.625,278635.53125,-0.12744140625,0.927490234375,-0.28173828125,1.3732908964157104,0.1220703050494194,1.0070799589157104,60.0,2925660.0,1.0
1136532.767552,288573.90625,282754.3125,318334.46875,289152.09375,294982.0625,275731.65625,275713.34375,278099.78125,-0.125732421875,0.930419921875,-0.282958984375,1.3427733182907104,0.1220703050494194,0.9765624403953552,60.0,2925661.0,1.0
1136532.7825235,288863.3125,282807.53125,318505.40625,289542.375,295034.90625,275754.90625,275786.75,278107.46875,-0.127197265625,0.933349609375,-0.280517578125,1.2207030057907104,0.0915527269244194,1.0681151151657104,60.0,2925662.0,1.0
1136532.7825728,289708.21875,282897.8125,319466.15625,291147.21875,295656.90625,275854.4375,276076.59375,278705.0,-0.12548828125,0.932861328125,-0.281494140625,1.0375975370407104,0.0915527269244194,1.1291502714157104,60.0,2925663.0,1.0
1136532.782586,289906.25,282885.84375,319825.40625,291653.0,295933.53125,275871.78125,276149.65625,278981.0625,-0.12646484375,0.93212890625,-0.2822265625,0.8544921278953552,0.0915527269244194,1.1291502714157104,60.0,2925664.0,1.0
1136532.7857967,289229.1875,282812.6875,319159.21875,290473.375,295541.40625,275811.6875,275950.28125,278642.125,-0.126220703125,0.932373046875,-0.28125,0.6713866591453552,0.0,1.1291502714157104,60.0,2925665.0,1.0
1136532.7858407,288577.40625,282755.46875,318337.59375,289160.6875,294978.3125,275731.21875,275717.375,278104.1875,-0.12548828125,0.9345703125,-0.28125,0.5493163466453552,0.0,1.0375975370407104,60.0,2925666.0,1.0
1136532.787507,288861.53125,282808.3125,318503.0625,289540.40625,295023.71875,275750.71875,275782.90625,278113.28125,-0.126220703125,0.934814453125,-0.28173828125,0.3356933295726776,-0.0610351525247097,1.0681151151657104,60.0,2925667.0,1.0
1136532.7912871,289703.9375,282896.5625,319463.75,291146.0625,295644.125,275851.28125,276070.96875,278709.375,-0.125732421875,0.9345703125,-0.280517578125,0.1831054538488388,0.03051757626235485,1.0070799589157104,60.0,2925668.0,1.0
1136532.8056487,289891.78125,282875.65625,319818.25,291643.59375,295918.875,275864.15625,276143.65625,278984.84375,-0.12744140625,0.9365234375,-0.281005859375,0.03051757626235485,0.0610351525247097,1.0070799589157104,60.0,2925669.0,1.0
1136532.8056933,289206.90625,282794.5625,319144.40625,290457.71875,295521.375,275797.21875,275938.90625,278642.75,-0.12744140625,0.9365234375,-0.283935546875,-0.2136230319738388,0.0,1.0070799589157104,60.0,2925670.0,1.0
1136532.8082944,288557.09375,282731.34375,318321.125,289147.375,294959.28125,275713.59375,275705.03125,278106.0625,-0.126708984375,0.935546875,-0.28466796875,-0.4577636420726776,-0.03051757626235485,0.9155272841453552,60.0,2925671.0,1.0
1136532.8083394,288843.125,282779.34375,318483.5,289521.90625,294999.15625,275728.71875,275765.46875,278109.90625,-0.12548828125,0.93115234375,-0.2822265625,-0.4577636420726776,0.0,1.0375975370407104,60.0,2925672.0,1.0
1136532.8188405,289704.375,282881.8125,319453.90625,291133.28125,295626.34375,275839.84375,276064.34375,278705.15625,-0.124267578125,0.92333984375,-0.27685546875,-0.4882812201976776,-0.03051757626235485,0.9155272841453552,60.0,2925673.0,1.0
1136532.8287903,289920.125,282880.03125,319826.84375,291656.75,295918.59375,275866.84375,276150.375,278991.1875,-0.124267578125,0.916748046875,-0.279541015625,-0.7629393935203552,0.03051757626235485,0.9460448622703552,60.0,2925674.0,1.0
1136532.8288347,289234.4375,282800.1875,319154.21875,290471.5625,295524.40625,275798.53125,275945.8125,278648.40625,-0.126220703125,0.9189453125,-0.2841796875,-0.7019042372703552,-0.03051757626235485,0.7934569716453552,60.0,2925675.0,1.0
1136532.8288469,288585.0,282748.15625,318336.40625,289163.28125,294973.125,275725.6875,275718.0,278114.28125,-0.12841796875,0.927734375,-0.28564453125,-0.3662109076976776,-0.0610351525247097,0.7019042372703552,60.0,2925676.0,1.0
1136532.8337758,288871.53125,282812.4375,318503.96875,289545.9375,295024.25,275751.78125,275786.21875,278123.21875,-0.129150390625,0.939208984375,-0.283203125,-0.2441406100988388,-0.1831054538488388,0.6713866591453552,60.0,2925677.0,1.0
1136532.833819,289711.0625,282903.71875,319460.625,291149.09375,295642.34375,275850.125,276070.78125,278711.4375,-0.12890625,0.944091796875,-0.2763671875,-0.5187987685203552,-0.1220703050494194,0.6103515028953552,60.0,2925678.0,1.0
1136532.8338311,289915.0,282891.8125,319826.75,291662.75,295925.125,275869.34375,276146.34375,278987.59375,-0.125732421875,0.93701171875,-0.2705078125,-1.0681151151657104,-0.1220703050494194,0.7019042372703552,60.0,2925679.0,1.0
1136532.8364101,289234.625,282812.875,319158.59375,290479.53125,295534.59375,275807.40625,275944.71875,278647.0625,-0.12451171875,0.9267578125,-0.27734375,-1.5258787870407104,-0.0610351525247097,0.7629393935203552,60.0,2925680.0,1.0
1136532.8475913,288579.28125,282759.25,318338.5625,289162.84375,294982.59375,275740.78125,275723.34375,278116.875,-0.125244140625,0.9169921875,-0.283203125,-1.6479490995407104,-0.0915527269244194,0.8544921278953552,60.0,2925681.0,1.0
1136532.8506474,288852.78125,282811.8125,318494.21875,289530.84375,295022.75,275763.40625,275787.71875,278116.96875,-0.12548828125,0.91162109375,-0.288330078125,-1.3122557401657104,-0.0915527269244194,0.8850097060203552,60.0,2925682.0,1.0
1136532.8506896,289683.4375,282888.25,319437.375,291121.75,295625.78125,275850.75,276061.03125,278696.0625,-0.125732421875,0.9140625,-0.285400390625,-0.8544921278953552,-0.1831054538488388,0.7934569716453552,60.0,2925683.0,1.0
1136532.8526117,289887.9375,282863.40625,319799.65625,291640.03125,295902.59375,275861.9375,276131.9375,278975.71875,-0.12841796875,0.9140625,-0.27978515625,-0.4882812201976776,-0.0610351525247097,0.8239745497703552,60.0,2925684.0,1.0
1136532.8611964,289222.8125,282791.6875,319142.96875,290478.0,295519.59375,275803.03125,275937.03125,278644.0,-0.12744140625,0.919677734375,-0.2783203125,-0.3356933295726776,-0.0915527269244194,0.7629393935203552,60.0,2925685.0,1.0
1136532.8649286,288580.53125,282736.4375,318330.96875,289178.5625,294971.15625,275734.53125,275716.90625,278114.90625,-0.126953125,0.921142578125,-0.277099609375,-0.3356933295726776,-0.2441406100988388,0.7934569716453552,60.0,2925686.0,1.0
1136532.8685955,288861.71875,282786.6875,318486.1875,289543.53125,295007.71875,275749.90625,275777.28125,278112.03125,-0.125,0.92138671875,-0.275390625,-0.3662109076976776,-0.2441406100988388,0.8239745497703552,60.0,2925687.0,1.0
1136532.8755393,289702.03125,282875.03125,319437.125,291134.09375,295620.0625,275843.4375,276061.59375,278702.84375,-0.126953125,0.919189453125,-0.2802734375,-0.3356933295726776,-0.2746581733226776,0.8544921278953552,60.0,2925688.0,1.0
1136532.8755776,289903.84375,282858.46875,319802.53125,291648.78125,295902.25,275858.1875,276136.9375,278976.6875,-0.130126953125,0.921875,-0.280029296875,-0.3967284858226776,-0.3662109076976776,0.9460448622703552,60.0,2925689.0,1.0
1136532.8838319,289234.625,282793.5625,319154.40625,290490.4375,295526.5625,275806.3125,275946.15625,278644.09375,-0.129150390625,0.92041015625,-0.282958984375,-0.2441406100988388,-0.4882812201976776,0.9155272841453552,60.0,2925690.0,1.0
1136532.8880543,288578.8125,282744.03125,318333.375,289176.4375,294970.0,275733.90625,275719.78125,278109.90625,-0.128173828125,0.922607421875,-0.283203125,-0.2136230319738388,-0.6408690810203552,0.8239745497703552,60.0,2925691.0,1.0
1136532.8880883,288847.3125,282793.21875,318478.21875,289527.96875,294999.9375,275745.71875,275775.46875,278098.625,-0.128173828125,0.9228515625,-0.282958984375,-0.0610351525247097,-0.7324218153953552,0.7934569716453552,60.0,2925692.0,1.0
1136532.8961779,289682.03125,282879.5,319425.5,291113.15625,295609.625,275837.15625,276054.34375,278681.28125,-0.1279296875,0.91845703125,-0.281494140625,-0.0610351525247097,-0.7324218153953552,0.7934569716453552,60.0,2925693.0,1.0
1136532.8992665,289894.90625,282872.4375,319801.34375,291642.28125,295900.09375,275858.625,276134.1875,278969.375,-0.1279296875,0.917724609375,-0.28125,0.0915527269244194,-0.8544921278953552,0.6713866591453552,60.0,2925694.0,1.0
1136532.8993004,289229.625,282806.09375,319153.59375,290488.65625,295525.9375,275805.34375,275943.21875,278646.34375,-0.12744140625,0.918212890625,-0.28125,0.2136230319738388,-0.8239745497703552,0.6408690810203552,60.0,2925695.0,1.0
1136532.9049292,288579.4375,282759.3125,318335.71875,289179.5625,294972.9375,275732.75,275715.3125,278113.90625,-0.129150390625,0.920166015625,-0.28076171875,0.4577636420726776,-0.9155272841453552,0.6713866591453552,60.0,2925696.0,1.0
1136532.911711,288834.34375,282793.03125,318467.40625,289517.59375,294992.71875,275736.84375,275760.71875,278094.78125,-0.127685546875,0.92529296875,-0.2841796875,0.5493163466453552,-1.0681151151657104,0.6408690810203552,60.0,2925697.0,1.0
1136532.911731,289677.46875,282887.28125,319422.71875,291112.4375,295608.09375,275840.84375,276050.84375,278687.46875,-0.12744140625,0.937255859375,-0.28125,0.6103515028953552,-1.0681151151657104,0.5187987685203552,60.0,2925698.0,1.0
1136532.9204943,289898.65625,282878.59375,319804.125,291653.25,295900.90625,275864.0,276134.1875,278975.96875,-0.125732421875,0.9423828125,-0.280029296875,0.5187987685203552,-1.0375975370407104,0.5493163466453552,60.0,2925699.0,1.0
1136532.9205159,289231.21875,282805.8125,319148.875,290491.15625,295518.40625,275803.46875,275935.34375,278643.3125,-0.123779296875,0.943359375,-0.277099609375,0.1525878757238388,-1.0986326932907104,0.4882812201976776,60.0,2925700.0,1.0
1136532.922395,288575.78125,282747.875,318323.09375,289169.53125,294954.34375,275724.34375,275702.0,278107.65625,-0.123291015625,0.93896484375,-0.27783203125,-0.2746581733226776,-1.1596678495407104,0.5798339247703552,60.0,2925701.0,1.0
1136532.9311494,288861.875,282809.40625,318483.40625,289537.625,295000.65625,275756.6875,275773.5,278118.3125,-0.123291015625,0.93017578125,-0.28076171875,-0.5798339247703552,-1.1596678495407104,0.6713866591453552,60.0,2925702.0,1.0
1136532.9342352,289689.4375,282886.03125,319422.4375,291117.71875,295602.5625,275843.4375,276048.0,278689.96875,-0.124267578125,0.923583984375,-0.2861328125,-0.8239745497703552,-1.0986326932907104,0.6713866591453552,60.0,2925703.0,1.0
1136532.9342548,289905.09375,282871.1875,319799.5625,291649.5,295891.15625,275861.125,276129.34375,278963.46875,-0.12548828125,0.91943359375,-0.28466796875,-0.6408690810203552,-1.0986326932907104,0.6103515028953552,60.0,2925704.0,1.0
1136532.9361685,289246.78125,282802.0625,319153.78125,290504.65625,295516.53125,275806.3125,275938.375,278636.5,-0.124755859375,0.9208984375,-0.286865234375,-0.4577636420726776,-1.1596678495407104,0.5187987685203552,60.0,2925705.0,1.0
1136532.9499027,288580.4375,282741.90625,318321.21875,289176.25,294952.90625,275727.65625,275705.03125,278097.1875,-0.124755859375,0.92578125,-0.283447265625,-0.1831054538488388,-1.1596678495407104,0.3356933295726776,60.0,2925706.0,1.0
1136532.9529646,288836.84375,282785.25,318456.9375,289516.71875,294978.03125,275740.625,275758.84375,278085.03125,-0.125732421875,0.931884765625,-0.280517578125,-0.2746581733226776,-1.1596678495407104,0.2746581733226776,60.0,2925707.0,1.0
1136532.9529845,289687.90625,282881.28125,319416.71875,291121.90625,295598.78125,275844.9375,276050.21875,278679.875,-0.126953125,0.936279296875,-0.280029296875,-0.4272460639476776,-1.1901854276657104,0.2746581733226776,60.0,2925708.0,1.0
1136532.9548875,289908.84375,282873.21875,319802.78125,291665.78125,295891.78125,275863.8125,276133.09375,278969.53125,-0.126953125,0.938232421875,-0.28125,-0.7324218153953552,-1.2512205839157104,0.3051757514476776,60.0,2925709.0,1.0
1136532.9586508,289241.0625,282801.25,319152.96875,290507.0625,295514.46875,275802.3125,275937.46875,278640.0,-0.127197265625,0.936279296875,-0.28125,-1.2512205839157104,-1.3732908964157104,0.2441406100988388,60.0,2925710.0,1.0
1136532.9673731,288590.1875,282754.0625,318338.03125,289197.25,294967.3125,275736.125,275716.125,278112.84375,-0.128173828125,0.9345703125,-0.282470703125,-1.3732908964157104,-1.4648436307907104,0.2746581733226776,60.0,2925711.0,1.0
1136532.9717581,288837.21875,282788.84375,318461.59375,289518.6875,294982.34375,275739.28125,275760.0,278089.0625,-0.129150390625,0.931640625,-0.28369140625,-1.5563963651657104,-1.5563963651657104,0.2746581733226776,60.0,2925712.0,1.0
1136532.9717931,289681.40625,282880.21875,319412.625,291108.78125,295595.40625,275835.1875,276045.5,278678.34375,-0.132080078125,0.929443359375,-0.2802734375,-1.7395018339157104,-1.5869139432907104,0.1525878757238388,60.0,2925713.0,1.0
1136532.9812197,289915.375,282880.84375,319809.03125,291673.28125,295902.5,275864.625,276140.4375,278987.0625,-0.130859375,0.925537109375,-0.28076171875,-1.7395018339157104,-1.6479490995407104,0.1831054538488388,60.0,2925714.0,1.0
1136532.9842866,289242.6875,282801.4375,319156.28125,290518.5,295522.53125,275802.3125,275943.84375,278661.28125,-0.132080078125,0.92431640625,-0.282470703125,-1.6479490995407104,-1.6479490995407104,0.1525878757238388,60.0,2925715.0,1.0
1136532.9843178,288571.84375,282737.875,318321.75,289181.15625,294958.5625,275722.90625,275709.125,278117.9375,-0.130859375,0.9228515625,-0.28369140625,-1.5869139432907104,-1.8005369901657104,0.1220703050494194,60.0,2925716.0,1.0
1136532.9930152,288836.78125,282788.03125,318462.21875,289518.84375,294985.375,275739.96875,275766.53125,278104.625,-0.13134765625,0.92236328125,-0.281005859375,-1.5563963651657104,-1.8615721464157104,0.03051757626235485,60.0,2925717.0,1.0
1136532.993042,289679.875,282877.625,319413.25,291113.5,295598.78125,275836.28125,276051.65625,278693.53125,-0.1318359375,0.92041015625,-0.279296875,-1.6174315214157104,-2.044677495956421,0.03051757626235485,60.0,2925718.0,1.0
1136532.9948635,289894.71875,282859.46875,319794.375,291657.03125,295889.1875,275851.21875,276129.875,278979.65625,-0.13134765625,0.91943359375,-0.2783203125,-1.6174315214157104,-2.105712652206421,-0.03051757626235485,60.0,2925719.0,1.0
1136533.0011611,289232.3125,282784.0,319149.21875,290510.03125,295514.75,275788.8125,275935.96875,278649.46875,-0.129638671875,0.9169921875,-0.2802734375,-1.4953612089157104,-2.227782964706421,-0.03051757626235485,60.0,2925720.0,1.0
1136533.0049344,288575.34375,282731.96875,318326.0625,289185.625,294961.5,275718.71875,275710.5625,278117.0625,-0.129638671875,0.91650390625,-0.283935546875,-1.2817381620407104,-2.197265386581421,-0.03051757626235485,60.0,2925721.0,1.0
1136533.0144044,288820.6875,282768.8125,318445.6875,289495.6875,294974.46875,275722.90625,275756.25,278091.375,-0.127685546875,0.916259765625,-0.281005859375,-1.1596678495407104,-2.319335699081421,-0.1525878757238388,60.0,2925722.0,1.0
1136533.0144541,289665.3125,282858.03125,319392.21875,291085.71875,295580.75,275815.8125,276037.4375,278672.8125,-0.1279296875,0.91455078125,-0.281005859375,-0.9765624403953552,-2.349853277206421,-0.03051757626235485,60.0,2925723.0,1.0
1136533.0170029,289894.53125,282848.1875,319782.59375,291640.75,295876.59375,275834.65625,276118.96875,278964.53125,-0.124755859375,0.91650390625,-0.2802734375,-0.8239745497703552,-2.380370855331421,0.03051757626235485,60.0,2925724.0,1.0
1136533.0170462,289244.0,282786.9375,319150.375,290503.9375,295511.0,275786.46875,275933.46875,278647.59375,-0.123779296875,0.915771484375,-0.28173828125,-0.7934569716453552,-2.441406011581421,0.03051757626235485,60.0,2925725.0,1.0
1136533.0275515,288582.125,282732.59375,318323.1875,289177.59375,294950.59375,275714.5,275703.5,278112.03125,-0.12255859375,0.918701171875,-0.283935546875,-0.6713866591453552,-2.502441167831421,0.1220703050494194,60.0,2925726.0,1.0
1136533.030691,288834.34375,282775.875,318447.5625,289501.25,294968.65625,275727.03125,275750.96875,278089.96875,-0.123046875,0.921142578125,-0.281982421875,-0.5187987685203552,-2.319335699081421,0.2441406100988388,60.0,2925727.0,1.0
1136533.0307367,289673.96875,282870.625,319398.5625,291099.03125,295583.59375,275830.1875,276038.96875,278678.6875,-0.12451171875,0.920654296875,-0.28369140625,-0.3662109076976776,-2.319335699081421,0.2441406100988388,60.0,2925728.0,1.0
1136533.036231,289901.96875,282864.75,319793.125,291661.59375,295883.09375,275853.0,276126.125,278975.0,-0.125732421875,0.921630859375,-0.281982421875,-0.2441406100988388,-2.197265386581421,0.1525878757238388,60.0,2925729.0,1.0
1136533.0401696,289237.9375,282790.09375,319150.84375,290510.1875,295511.625,275794.96875,275935.78125,278650.0,-0.125244140625,0.923828125,-0.280517578125,-0.2136230319738388,-2.105712652206421,0.1525878757238388,60.0,2925730.0,1.0
1136533.0519399,288572.46875,282735.375,318323.09375,289179.90625,294950.15625,275720.75,275706.90625,278112.40625,-0.125,0.925537109375,-0.27978515625,-0.1220703050494194,-2.105712652206421,0.1831054538488388,60.0,2925731.0,1.0
1136533.0519829,288816.46875,282771.84375,318436.8125,289489.875,294956.84375,275722.90625,275744.71875,278081.46875,-0.127197265625,0.927978515625,-0.27880859375,-0.1525878757238388,-2.258300542831421,0.1220703050494194,60.0,2925732.0,1.0
1136533.0656879,289654.5625,282856.0625,319382.84375,291078.65625,295564.46875,275817.0625,276028.6875,278661.8125,-0.129638671875,0.931640625,-0.27685546875,-0.1525878757238388,-2.258300542831421,0.0915527269244194,60.0,2925733.0,1.0
