Time,FZ,C3,CZ,C4,PZ,PO7,OZ,PO8,AccX,AccY,AccZ,Gyro1,Gyro2,Gyro3,Battery,Counter,Validation
469498.2510681,268337.09375,268920.1875,610941.6875,514214.0625,269932.03125,256787.84375,232362.9375,241073.328125,-0.09765625,0.819580078125,-0.565185546875,0.5493163466453552,2.319335699081421,0.6103515028953552,100.0,2337.0,1.0
469498.2537511,269170.09375,269261.28125,610108.125,513896.84375,269205.5,256805.546875,232181.078125,240963.53125,-0.099365234375,0.81787109375,-0.566650390625,0.5798339247703552,2.349853277206421,0.5493163466453552,100.0,2338.0,1.0
469498.2562802,268557.28125,268800.21875,607368.875,513649.8125,268490.59375,256757.453125,232110.453125,240912.390625,-0.096923828125,0.818115234375,-0.56689453125,0.7019042372703552,2.471923589706421,0.5798339247703552,100.0,2339.0,1.0
469498.2637406,267443.375,268251.625,606550.8125,513823.96875,268807.1875,256734.734375,232277.46875,241014.21875,-0.096923828125,0.817138671875,-0.56591796875,0.8239745497703552,2.593993902206421,0.5493163466453552,100.0,2340.0,1.0
469498.2637537,267243.09375,268285.59375,608667.1875,514136.46875,269687.5,256735.71875,232422.390625,241102.5625,-0.09814453125,0.814697265625,-0.567626953125,0.8544921278953552,2.716064214706421,0.5493163466453552,100.0,2341.0,1.0
469498.2660608,268322.6875,268915.46875,610758.125,514148.625,269922.90625,256779.4375,232356.140625,241067.515625,-0.0986328125,0.813720703125,-0.56787109375,0.9155272841453552,2.807616949081421,0.5493163466453552,100.0,2342.0,1.0
469498.2687555,269160.0,269254.40625,609916.4375,513831.21875,269192.1875,256798.75,232173.578125,240959.328125,-0.10205078125,0.810791015625,-0.570068359375,1.0681151151657104,2.960204839706421,0.5493163466453552,100.0,2343.0,1.0
469498.271254,268572.0625,268808.53125,607199.3125,513606.8125,268498.03125,256770.421875,232126.1875,240930.453125,-0.102294921875,0.811279296875,-0.5712890625,1.2512205839157104,3.204345464706421,0.4577636420726776,100.0,2344.0,1.0
469498.2737415,267437.125,268245.625,606375.125,513766.75,268805.125,256734.921875,232277.109375,241016.09375,-0.1044921875,0.81298828125,-0.5693359375,1.3427733182907104,3.265380620956421,0.5493163466453552,100.0,2345.0,1.0
469498.277523,267218.96875,268272.0,608483.375,514071.71875,269679.71875,256728.390625,232413.8125,241092.8125,-0.103759765625,0.81591796875,-0.570556640625,1.5258787870407104,3.143310308456421,0.4882812201976776,100.0,2346.0,1.0
469498.2775415,268297.5625,268893.8125,610564.5625,514079.96875,269909.5625,256764.0625,232342.28125,241050.796875,-0.1044921875,0.818115234375,-0.571533203125,1.6479490995407104,3.173827886581421,0.6103515028953552,100.0,2347.0,1.0
469498.2974637,269157.65625,269241.625,609729.25,513772.75,269188.25,256795.09375,232171.25,240952.4375,-0.105224609375,0.82177734375,-0.570556640625,1.6784666776657104,3.204345464706421,0.7934569716453552,100.0,2348.0,1.0
469498.2999893,268575.8125,268804.59375,607010.0,513554.0625,268498.65625,256776.234375,232131.640625,240925.53125,-0.1083984375,0.8193359375,-0.573486328125,1.7089842557907104,3.295898199081421,0.8544921278953552,100.0,2349.0,1.0
469498.3000061,267454.71875,268259.46875,606198.8125,513732.59375,268824.53125,256760.3125,232299.359375,241024.953125,-0.113525390625,0.8193359375,-0.572509765625,1.6479490995407104,3.265380620956421,0.8239745497703552,100.0,2350.0,1.0
469498.3024998,267223.15625,268277.1875,608305.0,514032.03125,269692.21875,256745.828125,232430.078125,241100.140625,-0.115966796875,0.81884765625,-0.576171875,1.8005369901657104,3.326415777206421,0.9460448622703552,100.0,2351.0,1.0
469498.3050127,268307.125,268903.125,610388.0,514046.78125,269923.34375,256785.609375,232365.265625,241066.4375,-0.114990234375,0.820068359375,-0.574951171875,1.7700194120407104,3.204345464706421,0.9460448622703552,100.0,2352.0,1.0
469498.3073779,269167.21875,269245.09375,609536.8125,513733.6875,269194.15625,256808.765625,232187.34375,240959.78125,-0.11376953125,0.82373046875,-0.571533203125,1.6784666776657104,2.868652105331421,0.8850097060203552,100.0,2353.0,1.0
469498.3099822,268567.03125,268791.09375,606795.25,513490.40625,268486.5625,256767.375,232126.1875,240910.59375,-0.107177734375,0.824951171875,-0.57275390625,1.6784666776657104,2.777099370956421,0.9460448622703552,100.0,2354.0,1.0
469498.3137815,267428.4375,268240.71875,605979.6875,513658.65625,268806.125,256739.125,232279.34375,240999.296875,-0.10546875,0.826904296875,-0.572265625,1.4953612089157104,2.777099370956421,1.0070799589157104,100.0,2355.0,1.0
469498.3138055,267207.34375,268270.65625,608103.375,513970.6875,269691.78125,256735.1875,232419.796875,241090.21875,-0.102783203125,0.828857421875,-0.57275390625,1.3122557401657104,2.899169683456421,1.0375975370407104,100.0,2356.0,1.0
469498.3591566,268293.09375,268891.84375,610189.4375,513979.46875,269921.09375,256772.734375,232355.15625,241051.140625,-0.102783203125,0.831787109375,-0.572265625,1.0070799589157104,3.021239995956421,1.0375975370407104,100.0,2357.0,1.0
469498.3734152,269153.625,269227.40625,609334.125,513659.125,269179.9375,256791.421875,232164.984375,240933.84375,-0.1005859375,0.834716796875,-0.57177734375,0.7324218153953552,3.051757574081421,1.2207030057907104,100.0,2358.0,1.0
469498.3734546,268578.84375,268795.9375,606609.3125,513437.9375,268488.90625,256769.34375,232116.078125,240902.90625,-0.098388671875,0.834716796875,-0.569091796875,0.3967284858226776,3.082275152206421,1.3122557401657104,100.0,2359.0,1.0
469498.378724,267454.625,268264.65625,605802.6875,513621.28125,268820.59375,256755.84375,232289.625,241009.3125,-0.0966796875,0.83349609375,-0.570068359375,0.03051757626235485,3.173827886581421,1.3732908964157104,100.0,2360.0,1.0
469498.3811417,267217.09375,268287.28125,607916.0,513920.71875,269695.96875,256743.859375,232421.859375,241081.8125,-0.097900390625,0.834716796875,-0.569580078125,-0.2441406100988388,3.265380620956421,1.5563963651657104,100.0,2361.0,1.0
469498.3837958,268295.25,268890.5,610003.8125,513926.875,269925.40625,256779.359375,232353.90625,241044.625,-0.096435546875,0.83349609375,-0.569580078125,-0.6713866591453552,3.326415777206421,1.6784666776657104,100.0,2362.0,1.0
469498.3862671,269160.0,269228.65625,609152.1875,513607.78125,269184.40625,256796.96875,232169.375,240938.3125,-0.094970703125,0.832275390625,-0.568603515625,-0.7629393935203552,3.387450933456421,1.8310545682907104,100.0,2363.0,1.0
469498.3886421,268578.65625,268792.34375,606422.0,513380.96875,268486.65625,256771.671875,232124.125,240909.265625,-0.093994140625,0.83203125,-0.56884765625,-0.9460448622703552,3.540038824081421,1.7700194120407104,100.0,2364.0,1.0
469498.3912934,267433.53125,268242.21875,605596.5,513551.75,268809.875,256747.34375,232285.859375,241005.8125,-0.0947265625,0.830322265625,-0.56689453125,-1.2512205839157104,3.692626714706421,1.8310545682907104,100.0,2365.0,1.0
469498.393769,267211.53125,268279.875,607727.3125,513871.46875,269706.4375,256753.96875,232435.890625,241096.203125,-0.09814453125,0.826904296875,-0.569091796875,-1.4953612089157104,3.784179449081421,1.8615721464157104,100.0,2366.0,1.0
469498.3962748,268292.375,268898.125,609815.25,513875.46875,269929.5,256784.09375,232361.59375,241047.390625,-0.099853515625,0.82666015625,-0.569580078125,-1.5563963651657104,3.784179449081421,1.9226073026657104,100.0,2367.0,1.0
469498.3986442,269166.34375,269237.3125,608971.3125,513563.90625,269187.78125,256804.921875,232182.15625,240942.515625,-0.098876953125,0.828125,-0.56982421875,-1.6174315214157104,3.814697027206421,1.9226073026657104,100.0,2368.0,1.0
469498.401237,268587.15625,268800.40625,606239.4375,513340.90625,268488.375,256776.9375,232130.75,240908.28125,-0.10009765625,0.828125,-0.5703125,-1.8615721464157104,3.723144292831421,1.9226073026657104,100.0,2369.0,1.0
469498.40378,267427.1875,268241.34375,605397.0,513496.40625,268800.40625,256743.59375,232284.609375,240996.609375,-0.10205078125,0.82763671875,-0.569091796875,-1.9531248807907104,3.723144292831421,1.9226073026657104,100.0,2370.0,1.0
469498.411298,267196.0625,268275.84375,607518.75,513811.90625,269698.125,256747.890625,232433.03125,241093.34375,-0.102783203125,0.827392578125,-0.56884765625,-2.258300542831421,3.723144292831421,1.8310545682907104,100.0,2371.0,1.0
469498.4138104,268283.96875,268894.1875,609616.875,513821.84375,269929.34375,256781.953125,232358.28125,241053.5625,-0.1044921875,0.827392578125,-0.56982421875,-2.380370855331421,3.753661870956421,1.7700194120407104,100.0,2372.0,1.0
469498.4161661,269161.96875,269232.40625,608778.3125,513501.65625,269181.4375,256799.03125,232166.59375,240929.546875,-0.10498046875,0.82373046875,-0.568115234375,-2.563476324081421,3.601073980331421,1.4953612089157104,100.0,2373.0,1.0
469498.4213172,268585.625,268798.0625,606045.75,513274.9375,268478.96875,256776.046875,232121.890625,240899.421875,-0.1044921875,0.82177734375,-0.57080078125,-2.593993902206421,3.570556402206421,1.4343260526657104,100.0,2374.0,1.0
469498.4213588,267426.65625,268244.28125,605198.625,513438.5625,268799.21875,256753.421875,232286.140625,240993.84375,-0.1044921875,0.820068359375,-0.572509765625,-2.716064214706421,3.326415777206421,1.4648436307907104,100.0,2375.0,1.0
469498.4250948,267189.09375,268273.4375,607316.75,513752.0,269698.03125,256758.53125,232436.34375,241080.828125,-0.104736328125,0.820556640625,-0.56982421875,-2.716064214706421,3.143310308456421,1.4343260526657104,100.0,2376.0,1.0
469498.4251346,268278.625,268891.3125,609412.3125,513762.75,269931.65625,256793.484375,232363.296875,241040.59375,-0.10498046875,0.8212890625,-0.571533203125,-2.624511480331421,3.082275152206421,1.4038084745407104,100.0,2377.0,1.0
469498.4251448,269161.96875,269230.0,608578.375,513445.625,269188.875,256809.84375,232176.515625,240934.46875,-0.105712890625,0.82177734375,-0.569580078125,-2.716064214706421,2.929687261581421,1.1596678495407104,100.0,2378.0,1.0
469498.4273927,268592.53125,268804.15625,605866.875,513221.375,268491.5,256787.671875,232129.5,240907.921875,-0.10693359375,0.822509765625,-0.570068359375,-2.716064214706421,2.899169683456421,1.1291502714157104,100.0,2379.0,1.0
469498.4387095,267445.875,268258.75,605025.125,513394.1875,268815.78125,256769.96875,232298.203125,241012.4375,-0.105712890625,0.822265625,-0.569091796875,-2.807616949081421,2.746581792831421,1.0070799589157104,100.0,2380.0,1.0
469498.43875,267194.1875,268274.5,607111.25,513698.90625,269699.5625,256766.03125,232440.8125,241095.5,-0.105712890625,0.822265625,-0.569580078125,-2.685546636581421,2.685546636581421,0.8239745497703552,100.0,2381.0,1.0
469498.4412655,268262.34375,268874.5,609202.25,513696.125,269920.75,256786.6875,232360.078125,241039.34375,-0.1044921875,0.822509765625,-0.571044921875,-2.624511480331421,2.532958745956421,0.7934569716453552,100.0,2382.0,1.0
469498.4437977,269156.0625,269221.21875,608401.9375,513390.28125,269186.375,256807.34375,232178.046875,240934.828125,-0.103271484375,0.822509765625,-0.56982421875,-2.532958745956421,2.441406011581421,0.7629393935203552,100.0,2383.0,1.0
469498.4486845,268595.90625,268801.65625,605696.875,513170.25,268494.0,256787.9375,232138.4375,240910.78125,-0.10205078125,0.8232421875,-0.5673828125,-2.441406011581421,2.227782964706421,0.6713866591453552,100.0,2384.0,1.0
469498.4511645,267442.9375,268252.3125,604845.1875,513333.6875,268817.5625,256767.640625,232305.09375,241009.390625,-0.101806640625,0.824951171875,-0.5703125,-2.410888433456421,2.227782964706421,0.6408690810203552,100.0,2385.0,1.0
469498.4536526,267180.15625,268263.0625,606921.5,513629.15625,269697.21875,256754.59375,232436.875,241079.578125,-0.10205078125,0.825927734375,-0.569091796875,-2.471923589706421,2.136230230331421,0.6103515028953552,100.0,2386.0,1.0
469498.4561756,268261.96875,268873.78125,609025.0625,513640.59375,269930.0625,256788.125,232368.203125,241038.625,-0.1025390625,0.824462890625,-0.57177734375,-2.410888433456421,2.075195074081421,0.6713866591453552,100.0,2387.0,1.0
469498.4613046,269167.3125,269228.125,608236.0625,513339.03125,269200.5,256815.390625,232190.5625,240939.125,-0.099609375,0.8271484375,-0.570556640625,-2.258300542831421,2.014159917831421,0.5798339247703552,100.0,2388.0,1.0
469498.4638224,268599.0625,268800.21875,605522.375,513111.21875,268495.96875,256785.171875,232135.03125,240900.046875,-0.0986328125,0.829345703125,-0.568115234375,-2.166747808456421,1.9226073026657104,0.5187987685203552,100.0,2389.0,1.0
469498.4661491,267430.3125,268238.375,604647.375,513265.625,268802.53125,256757.453125,232290.96875,240989.015625,-0.0966796875,0.829345703125,-0.5703125,-2.136230230331421,2.014159917831421,0.4882812201976776,100.0,2390.0,1.0
469498.4713537,267173.71875,268261.1875,606730.25,513575.0625,269694.90625,256760.21875,232439.734375,241081.28125,-0.098876953125,0.8291015625,-0.56982421875,-2.136230230331421,1.9226073026657104,0.3967284858226776,100.0,2391.0,1.0
469498.4713944,268265.28125,268883.1875,608848.9375,513589.46875,269933.1875,256793.484375,232372.140625,241038.359375,-0.0966796875,0.831298828125,-0.569091796875,-2.075195074081421,1.8615721464157104,0.4882812201976776,100.0,2392.0,1.0
469498.4761672,269164.28125,269225.875,608075.125,513277.875,269198.34375,256811.0,232183.3125,240928.484375,-0.09716796875,0.828369140625,-0.567138671875,-2.105712652206421,1.8615721464157104,0.4272460639476776,100.0,2393.0,1.0
469498.4813292,268602.0,268800.46875,605376.125,513057.84375,268502.03125,256793.65625,232140.40625,240903.71875,-0.095947265625,0.830322265625,-0.56982421875,-2.105712652206421,1.8920897245407104,0.4272460639476776,100.0,2394.0,1.0
469498.4837002,267433.625,268248.75,604492.5,513215.375,268810.75,256771.125,232301.609375,240998.125,-0.098388671875,0.829833984375,-0.56640625,-2.136230230331421,1.8920897245407104,0.3356933295726776,100.0,2395.0,1.0
469498.4837355,267162.71875,268258.21875,606551.1875,513508.46875,269687.59375,256759.5,232433.65625,241067.859375,-0.098876953125,0.830322265625,-0.5693359375,-2.105712652206421,1.8005369901657104,0.3967284858226776,100.0,2396.0,1.0
469498.487689,268256.96875,268883.53125,608677.0,513528.3125,269933.8125,256793.921875,232368.03125,241031.75,-0.0986328125,0.829345703125,-0.5654296875,-2.044677495956421,1.7700194120407104,0.3356933295726776,100.0,2397.0,1.0
469498.487728,269167.3125,269240.46875,607916.625,513223.25,269205.84375,256815.5625,232186.984375,240925.796875,-0.101318359375,0.82861328125,-0.562744140625,-2.136230230331421,1.7089842557907104,0.3051757514476776,100.0,2398.0,1.0
469498.487738,268610.75,268820.0625,605217.75,513004.375,268509.5625,256801.078125,232147.203125,240897.546875,-0.1015625,0.8310546875,-0.56298828125,-2.105712652206421,1.6784666776657104,0.3356933295726776,100.0,2399.0,1.0
469498.4911649,267444.09375,268264.3125,604326.3125,513162.1875,268818.0,256780.34375,232308.75,240995.0,-0.10107421875,0.83203125,-0.562744140625,-2.105712652206421,1.6174315214157104,0.3051757514476776,100.0,2400.0,1.0
469498.5225301,267183.03125,268279.40625,606391.9375,513464.65625,269703.84375,256779.265625,232451.625,241074.390625,-0.101318359375,0.83154296875,-0.557861328125,-2.105712652206421,1.4953612089157104,0.3662109076976776,100.0,2401.0,1.0
469498.5263842,268270.375,268892.5625,608515.1875,513476.71875,269941.21875,256805.015625,232369.640625,241028.4375,-0.101806640625,0.83154296875,-0.559814453125,-2.227782964706421,1.4343260526657104,0.3356933295726776,100.0,2402.0,1.0
469498.5264246,269178.6875,269243.6875,607760.875,513164.96875,269207.1875,256818.875,232177.6875,240918.375,-0.102294921875,0.8310546875,-0.558349609375,-2.288818120956421,1.4648436307907104,0.2746581733226776,100.0,2403.0,1.0
469498.5264347,268620.9375,268819.0,605071.875,512941.0,268509.0,256798.9375,232138.796875,240894.859375,-0.1025390625,0.8310546875,-0.55615234375,-2.349853277206421,1.4038084745407104,0.3356933295726776,100.0,2404.0,1.0
469498.5288521,267453.21875,268261.90625,604187.4375,513103.90625,268822.125,256778.1875,232303.21875,240993.125,-0.10205078125,0.82958984375,-0.555419921875,-2.288818120956421,1.3122557401657104,0.3967284858226776,100.0,2405.0,1.0
469498.5311942,267181.0625,268271.90625,606243.375,513403.9375,269704.46875,256767.734375,232441.078125,241070.28125,-0.1015625,0.829345703125,-0.55810546875,-2.258300542831421,1.2207030057907104,0.4272460639476776,100.0,2406.0,1.0
469498.5338055,268268.875,268893.375,608371.9375,513418.15625,269950.875,256800.8125,232370.359375,241025.046875,-0.10205078125,0.827392578125,-0.559326171875,-2.075195074081421,1.0986326932907104,0.3662109076976776,100.0,2407.0,1.0
469498.5361573,269186.8125,269248.78125,607638.75,513116.59375,269232.75,256827.015625,232193.15625,240924.1875,-0.10302734375,0.829345703125,-0.55908203125,-2.105712652206421,0.9460448622703552,0.4882812201976776,100.0,2408.0,1.0
469498.5386851,268620.78125,268816.75,604940.5,512886.5625,268525.75,256801.078125,232142.8125,240896.65625,-0.104248046875,0.828369140625,-0.55908203125,-2.105712652206421,0.9765624403953552,0.4577636420726776,100.0,2409.0,1.0
469498.5475274,267444.625,268258.84375,604029.5625,513042.5625,268825.34375,256778.1875,232301.6875,240994.375,-0.102294921875,0.8310546875,-0.55712890625,-2.105712652206421,0.9765624403953552,0.4577636420726776,100.0,2410.0,1.0
469498.5500409,267176.125,268273.53125,606080.1875,513349.0625,269713.5,256776.578125,232443.84375,241070.109375,-0.10400390625,0.831787109375,-0.55517578125,-2.044677495956421,0.8239745497703552,0.3967284858226776,100.0,2411.0,1.0
469498.5525844,268261.28125,268881.125,608213.625,513364.78125,269961.96875,256805.734375,232373.3125,241023.515625,-0.102783203125,0.83251953125,-0.555419921875,-2.136230230331421,0.8544921278953552,0.3967284858226776,100.0,2412.0,1.0
469498.5526379,269173.40625,269236.25,607474.0625,513055.625,269231.78125,256824.5,232185.015625,240917.9375,-0.10400390625,0.834716796875,-0.55224609375,-2.227782964706421,0.8239745497703552,0.4577636420726776,100.0,2413.0,1.0
469498.5549389,268614.96875,268811.03125,604773.75,512828.0,268521.71875,256801.171875,232139.234375,240892.625,-0.104248046875,0.8369140625,-0.554931640625,-2.227782964706421,0.7019042372703552,0.3356933295726776,100.0,2414.0,1.0
469498.5599871,267436.40625,268245.25,603842.25,512980.4375,268813.28125,256771.84375,232295.25,240984.890625,-0.102783203125,0.8369140625,-0.555908203125,-2.258300542831421,0.6713866591453552,0.3356933295726776,100.0,2415.0,1.0
469498.562507,267174.25,268261.96875,605886.375,513295.9375,269708.59375,256774.890625,232446.171875,241076.71875,-0.1025390625,0.8369140625,-0.55224609375,-2.441406011581421,0.6408690810203552,0.4272460639476776,100.0,2416.0,1.0
469498.5650442,268261.96875,268873.875,608020.75,513309.09375,269956.59375,256802.875,232374.015625,241028.53125,-0.104736328125,0.837158203125,-0.554931640625,-2.624511480331421,0.5798339247703552,0.4272460639476776,100.0,2417.0,1.0
469498.5675062,269180.65625,269230.8125,607285.5625,512999.28125,269226.15625,256818.609375,232184.75,240911.9375,-0.104248046875,0.839111328125,-0.552978515625,-2.807616949081421,0.5493163466453552,0.5493163466453552,100.0,2418.0,1.0
469498.5675469,268634.09375,268815.0625,604584.9375,512778.90625,268524.75,256803.046875,232145.765625,240888.875,-0.103759765625,0.840576171875,-0.554443359375,-2.929687261581421,0.5798339247703552,0.4272460639476776,100.0,2419.0,1.0
469498.5699198,267449.46875,268245.1875,603637.6875,512931.53125,268815.0625,256773.71875,232306.25,240986.328125,-0.104736328125,0.841796875,-0.55322265625,-3.051757574081421,0.5493163466453552,0.4272460639476776,100.0,2420.0,1.0
469498.597547,267158.34375,268247.6875,605643.4375,513220.9375,269685.78125,256758.171875,232437.234375,241052.84375,-0.103759765625,0.84130859375,-0.55126953125,-3.143310308456421,0.5187987685203552,0.4272460639476776,100.0,2421.0,1.0
469498.6000923,268251.4375,268871.375,607790.625,513243.5625,269942.125,256793.484375,232372.6875,241012.078125,-0.103515625,0.839599609375,-0.550048828125,-3.234863042831421,0.5493163466453552,0.3967284858226776,100.0,2422.0,1.0
469498.6001333,269174.375,269216.5,607074.1875,512937.15625,269215.96875,256808.234375,232177.328125,240897.1875,-0.103515625,0.8388671875,-0.550537109375,-3.387450933456421,0.4272460639476776,0.4577636420726776,100.0,2423.0,1.0
469498.6024414,268624.34375,268806.46875,604371.0,512713.46875,268509.0,256794.375,232135.21875,240874.125,-0.103515625,0.83984375,-0.548828125,-3.387450933456421,0.4577636420726776,0.5493163466453552,100.0,2424.0,1.0
469498.6049933,267438.28125,268243.65625,603422.5625,512867.78125,268804.6875,256777.5625,232301.609375,240971.3125,-0.103515625,0.83984375,-0.551513671875,-3.448486089706421,0.3662109076976776,0.5493163466453552,100.0,2425.0,1.0
469498.6074087,267160.65625,268259.9375,605440.0625,513180.78125,269698.21875,256787.046875,232455.828125,241063.484375,-0.100341796875,0.838623046875,-0.548828125,-3.692626714706421,0.4272460639476776,0.5187987685203552,100.0,2426.0,1.0
469498.6100152,268254.5625,268886.40625,607585.5625,513207.625,269962.25,256828.0,232394.9375,241027.453125,-0.101806640625,0.839599609375,-0.5478515625,-3.753661870956421,0.3662109076976776,0.6103515028953552,100.0,2427.0,1.0
469498.6125588,269170.71875,269236.25,606866.5,512890.84375,269231.15625,256835.328125,232195.203125,240903.53125,-0.1025390625,0.83837890625,-0.54736328125,-3.814697027206421,0.3662109076976776,0.5493163466453552,100.0,2428.0,1.0
469498.6150517,268614.4375,268813.90625,604152.5625,512657.65625,268514.125,256808.765625,232141.03125,240871.078125,-0.101318359375,0.837158203125,-0.549072265625,-3.784179449081421,0.4272460639476776,0.5187987685203552,100.0,2429.0,1.0
469498.6175793,267422.625,268239.71875,603179.5625,512803.84375,268797.875,256780.34375,232296.6875,240964.78125,-0.098876953125,0.8359375,-0.55078125,-3.906249761581421,0.4272460639476776,0.5493163466453552,100.0,2430.0,1.0
469498.6199774,267140.28125,268243.125,605177.25,513111.78125,269682.03125,256779.625,232445.28125,241057.578125,-0.098876953125,0.836669921875,-0.54638671875,-3.936767339706421,0.5187987685203552,0.6103515028953552,100.0,2431.0,1.0
469498.6200184,268232.125,268863.15625,607319.1875,513131.34375,269937.03125,256808.953125,232373.9375,241009.03125,-0.09814453125,0.836669921875,-0.549072265625,-3.936767339706421,0.7019042372703552,0.5798339247703552,100.0,2432.0,1.0
469498.6226022,269173.84375,269240.625,606622.625,512830.3125,269220.4375,256829.875,232188.59375,240899.6875,-0.09814453125,0.837646484375,-0.550048828125,-3.936767339706421,0.8544921278953552,0.6408690810203552,100.0,2433.0,1.0
469498.6226446,268624.09375,268824.0,603916.8125,512597.84375,268505.34375,256809.671875,232137.984375,240868.578125,-0.09765625,0.8349609375,-0.549072265625,-3.875732183456421,0.9460448622703552,0.7019042372703552,100.0,2434.0,1.0
469498.648735,267438.53125,268257.59375,602944.5,512754.125,268797.4375,256797.234375,232302.234375,240970.0625,-0.09814453125,0.833984375,-0.54638671875,-3.875732183456421,1.0681151151657104,0.5798339247703552,100.0,2435.0,1.0
469498.6512794,267136.09375,268247.21875,604928.0625,513052.5,269671.21875,256783.109375,232438.3125,241042.828125,-0.099853515625,0.834716796875,-0.54833984375,-3.753661870956421,1.1596678495407104,0.5493163466453552,100.0,2436.0,1.0
469498.6538,268221.3125,268866.28125,607073.9375,513068.9375,269926.03125,256810.734375,232363.828125,240995.71875,-0.101318359375,0.83447265625,-0.546630859375,-3.845214605331421,1.2817381620407104,0.5798339247703552,100.0,2437.0,1.0
469498.6562429,269171.15625,269245.0,606399.5625,512771.75,269216.75,256837.375,232182.78125,240892.1875,-0.101318359375,0.8359375,-0.545166015625,-3.723144292831421,1.3122557401657104,0.5493163466453552,100.0,2438.0,1.0
469498.6562824,268622.28125,268825.6875,603699.0,512541.96875,268506.5,256822.359375,232138.609375,240866.4375,-0.102294921875,0.83544921875,-0.54345703125,-3.662109136581421,1.3732908964157104,0.4577636420726776,100.0,2439.0,1.0
469498.6586396,267432.28125,268246.875,602714.75,512696.46875,268791.375,256803.9375,232302.046875,240967.015625,-0.1015625,0.834716796875,-0.544921875,-3.631591558456421,1.4953612089157104,0.4577636420726776,100.0,2440.0,1.0
469498.6612798,267136.71875,268243.5625,604692.125,512997.9375,269663.0,256789.734375,232435.4375,241040.78125,-0.10400390625,0.833740234375,-0.54248046875,-3.570556402206421,1.6479490995407104,0.3662109076976776,100.0,2441.0,1.0
469498.6637928,268229.34375,268863.4375,606846.3125,513019.6875,269923.78125,256816.546875,232362.21875,240992.234375,-0.1025390625,0.83251953125,-0.5419921875,-3.601073980331421,1.6479490995407104,0.2746581733226776,100.0,2442.0,1.0
469498.6663052,269172.59375,269238.125,606175.125,512718.71875,269212.65625,256837.015625,232172.859375,240881.453125,-0.103515625,0.830810546875,-0.541748046875,-3.479003667831421,1.7395018339157104,0.1525878757238388,100.0,2443.0,1.0
469498.6700585,268623.625,268819.09375,603473.4375,512489.21875,268499.0,256815.5625,232121.453125,240851.5,-0.103515625,0.83154296875,-0.5439453125,-3.417968511581421,1.8310545682907104,0.03051757626235485,100.0,2444.0,1.0
469498.6701,267421.90625,268240.78125,602469.3125,512634.5,268777.40625,256787.671875,232276.65625,240941.71875,-0.101318359375,0.831298828125,-0.542724609375,-3.387450933456421,1.8920897245407104,0.03051757626235485,100.0,2445.0,1.0
469498.6989981,267130.71875,268242.3125,604451.4375,512943.0625,269661.21875,256786.515625,232423.46875,241023.25,-0.102294921875,0.832763671875,-0.54150390625,-3.326415777206421,2.044677495956421,0.0,100.0,2446.0,1.0
469498.7287137,268227.90625,268866.46875,606618.625,512969.34375,269925.75,256818.515625,232358.828125,240986.234375,-0.100341796875,0.834716796875,-0.541015625,-3.387450933456421,2.105712652206421,0.0,100.0,2447.0,1.0
469498.7287561,269169.1875,269242.25,605953.4375,512661.34375,269209.96875,256834.96875,232173.484375,240879.3125,-0.099609375,0.834228515625,-0.5439453125,-3.265380620956421,2.166747808456421,-0.03051757626235485,100.0,2448.0,1.0
469498.7436534,268633.1875,268835.4375,603267.625,512440.15625,268507.21875,256829.328125,232139.15625,240864.46875,-0.098388671875,0.833740234375,-0.5419921875,-3.234863042831421,2.319335699081421,0.0,100.0,2449.0,1.0
469498.7477584,267427.1875,268256.0,602254.125,512579.0,268777.15625,256800.359375,232292.21875,240951.734375,-0.09716796875,0.832275390625,-0.541748046875,-3.051757574081421,2.502441167831421,-0.1831054538488388,100.0,2450.0,1.0
469498.754998,267123.03125,268252.0625,604218.4375,512881.375,269655.3125,256794.640625,232434.8125,241033.890625,-0.0986328125,0.833740234375,-0.5439453125,-3.051757574081421,2.624511480331421,-0.1831054538488388,100.0,2451.0,1.0
469498.7574609,268218.625,268879.59375,606387.75,512909.875,269926.125,256829.0625,232370.171875,241000.359375,-0.10302734375,0.83251953125,-0.541748046875,-2.960204839706421,2.716064214706421,-0.2136230319738388,100.0,2452.0,1.0
469498.7600062,269166.34375,269246.90625,605736.25,512601.625,269211.40625,256846.671875,232181.265625,240884.21875,-0.103271484375,0.834716796875,-0.5419921875,-2.929687261581421,2.807616949081421,-0.1220703050494194,100.0,2453.0,1.0
469498.7650082,268628.5625,268827.9375,603041.25,512374.78125,268499.0,256831.75,232140.84375,240856.859375,-0.103515625,0.8349609375,-0.543212890625,-2.777099370956421,2.960204839706421,-0.2746581733226776,100.0,2454.0,1.0
469498.7674737,267436.75,268255.71875,602032.0,512530.4375,268780.09375,256819.671875,232309.46875,240956.28125,-0.101806640625,0.834228515625,-0.541748046875,-2.655029058456421,3.021239995956421,-0.3051757514476776,100.0,2455.0,1.0
469498.7699845,267130.0,268246.25,603988.0625,512828.34375,269651.71875,256807.25,232445.28125,241027.984375,-0.100341796875,0.832275390625,-0.544189453125,-2.532958745956421,3.082275152206421,-0.2746581733226776,100.0,2456.0,1.0
469498.7725015,268216.75,268862.625,606155.75,512845.875,269911.53125,256825.84375,232361.5,240975.328125,-0.098876953125,0.832275390625,-0.542724609375,-2.502441167831421,3.204345464706421,-0.2746581733226776,100.0,2457.0,1.0
469498.7749593,269164.28125,269233.125,605510.8125,512541.34375,269198.25,256840.234375,232171.96875,240866.171875,-0.10107421875,0.83154296875,-0.542724609375,-2.258300542831421,3.265380620956421,-0.3051757514476776,100.0,2458.0,1.0
469498.7773025,268618.375,268809.15625,602805.5,512308.8125,268476.125,256816.90625,232124.3125,240840.421875,-0.101806640625,0.83203125,-0.54296875,-2.105712652206421,3.387450933456421,-0.4272460639476776,100.0,2459.0,1.0
469498.7799615,267403.6875,268214.15625,601767.375,512443.0,268736.46875,256779.71875,232271.296875,240925.359375,-0.1005859375,0.830322265625,-0.54638671875,-1.8615721464157104,3.448486089706421,-0.4577636420726776,100.0,2460.0,1.0
469498.7824993,267110.96875,268217.46875,603731.4375,512757.34375,269625.0,256782.9375,232425.609375,241015.390625,-0.098388671875,0.830810546875,-0.546142578125,-1.7089842557907104,3.479003667831421,-0.3356933295726776,100.0,2461.0,1.0
469498.7849881,268207.625,268840.4375,605907.125,512787.3125,269900.625,256819.671875,232365.703125,240977.75,-0.100341796875,0.830810546875,-0.54638671875,-1.6174315214157104,3.631591558456421,-0.2136230319738388,100.0,2462.0,1.0
469498.7874938,269166.96875,269223.8125,605268.0,512493.34375,269197.53125,256848.46875,232186.53125,240875.1875,-0.100830078125,0.830078125,-0.54541015625,-1.4038084745407104,3.601073980331421,-0.2136230319738388,100.0,2463.0,1.0
469498.7900035,268617.03125,268798.0625,602552.8125,512250.875,268465.75,256818.515625,232126.8125,240836.125,-0.102294921875,0.830810546875,-0.54443359375,-1.1596678495407104,3.753661870956421,-0.2136230319738388,100.0,2464.0,1.0
469498.7923796,267406.4375,268221.75,601514.8125,512385.15625,268730.65625,256787.046875,232278.71875,240924.015625,-0.1025390625,0.833251953125,-0.546630859375,-1.0986326932907104,3.845214605331421,-0.1831054538488388,100.0,2465.0,1.0
469498.7950024,267114.1875,268214.5,603489.375,512703.53125,269627.40625,256800.28125,232444.390625,241027.71875,-0.10400390625,0.83251953125,-0.54541015625,-0.8239745497703552,3.906249761581421,-0.1831054538488388,100.0,2466.0,1.0
469498.7950226,268193.84375,268821.75,605656.1875,512717.5625,269888.03125,256818.25,232364.984375,240977.125,-0.10400390625,0.8359375,-0.544189453125,-0.6713866591453552,3.906249761581421,-0.1831054538488388,100.0,2467.0,1.0
469498.7975423,269143.1875,269198.53125,605015.5,512410.90625,269175.1875,256830.40625,232168.390625,240859.015625,-0.10546875,0.8359375,-0.54248046875,-0.5493163466453552,3.875732183456421,-0.1831054538488388,100.0,2468.0,1.0
469498.7975626,268609.96875,268791.375,602323.3125,512181.21875,268460.28125,256818.515625,232123.859375,240831.46875,-0.10595703125,0.838134765625,-0.54296875,-0.4272460639476776,3.906249761581421,-0.0915527269244194,100.0,2469.0,1.0
469498.8050903,267405.03125,268213.625,601298.0625,512319.25,268730.03125,256790.171875,232279.25,240923.65625,-0.10693359375,0.83740234375,-0.544189453125,-0.3051757514476776,3.845214605331421,-0.0610351525247097,100.0,2470.0,1.0
469498.8051161,267103.90625,268209.78125,603269.125,512628.875,269616.9375,256782.484375,232423.1875,241008.765625,-0.1083984375,0.837158203125,-0.54052734375,-0.3051757514476776,3.784179449081421,-0.0915527269244194,100.0,2471.0,1.0
469498.8051216,268201.09375,268835.96875,605471.5,512662.59375,269895.8125,256817.078125,232358.46875,240970.234375,-0.10888671875,0.83935546875,-0.54052734375,-0.2746581733226776,3.875732183456421,-0.03051757626235485,100.0,2472.0,1.0
469498.8074307,269165.53125,269219.875,604859.125,512368.625,269190.9375,256841.5,232175.890625,240867.78125,-0.110595703125,0.8388671875,-0.54345703125,-0.2136230319738388,3.753661870956421,-0.0610351525247097,100.0,2473.0,1.0
469498.8074554,268617.5625,268798.4375,602163.375,512126.3125,268461.375,256815.203125,232118.046875,240833.078125,-0.109375,0.839599609375,-0.544677734375,-0.03051757626235485,3.692626714706421,0.03051757626235485,100.0,2474.0,1.0
469498.8099559,267403.9375,268214.5,601137.0625,512258.46875,268725.90625,256783.015625,232267.890625,240910.515625,-0.10791015625,0.839599609375,-0.5439453125,-0.03051757626235485,3.662109136581421,-0.03051757626235485,100.0,2475.0,1.0
469498.8099811,267099.4375,268217.28125,603119.75,512565.125,269619.1875,256783.203125,232421.3125,240997.328125,-0.109130859375,0.837646484375,-0.546630859375,-0.03051757626235485,3.448486089706421,-0.0610351525247097,100.0,2476.0,1.0
469498.8117098,268188.9375,268830.53125,605320.375,512590.78125,269893.75,256811.625,232356.59375,240955.125,-0.108154296875,0.837158203125,-0.5478515625,0.0610351525247097,3.387450933456421,0.03051757626235485,100.0,2477.0,1.0
469498.8375732,269150.59375,269216.59375,604712.0,512297.625,269192.625,256837.5625,232179.921875,240851.6875,-0.10595703125,0.8369140625,-0.5458984375,0.1831054538488388,3.356933355331421,0.0610351525247097,100.0,2478.0,1.0
469498.8376162,268610.84375,268806.90625,602025.5625,512065.34375,268473.78125,256822.0,232133.0625,240822.71875,-0.105712890625,0.834716796875,-0.546875,0.3051757514476776,3.295898199081421,0.0915527269244194,100.0,2479.0,1.0
469498.8437738,267404.3125,268213.25,601003.6875,512207.40625,268742.71875,256794.015625,232289.0,240914.171875,-0.102294921875,0.834716796875,-0.54541015625,0.3662109076976776,3.295898199081421,0.1220703050494194,100.0,2480.0,1.0
469498.8462857,267107.84375,268226.21875,602995.5625,512528.5625,269643.6875,256798.40625,232446.890625,241008.859375,-0.102783203125,0.834228515625,-0.544677734375,0.5187987685203552,3.356933355331421,0.2746581733226776,100.0,2481.0,1.0
469498.8478671,268203.25,268853.40625,605211.125,512566.5625,269930.6875,256838.453125,232390.734375,240977.75,-0.1005859375,0.832275390625,-0.547607421875,0.6713866591453552,3.356933355331421,0.3051757514476776,100.0,2482.0,1.0
469498.8549803,269138.8125,269210.3125,604573.9375,512243.625,269199.40625,256835.6875,232182.421875,240847.03125,-0.098388671875,0.830322265625,-0.551025390625,0.7629393935203552,3.295898199081421,0.4577636420726776,100.0,2483.0,1.0
469498.8550207,268609.6875,268800.84375,601885.5,512014.65625,268478.0,256819.328125,232130.65625,240819.21875,-0.099365234375,0.83154296875,-0.549072265625,0.9155272841453552,3.387450933456421,0.6103515028953552,100.0,2484.0,1.0
469498.8589492,267412.53125,268224.78125,600867.6875,512155.03125,268750.0625,256793.296875,232284.609375,240908.09375,-0.101806640625,0.829833984375,-0.546142578125,1.0375975370407104,3.387450933456421,0.7324218153953552,100.0,2485.0,1.0
469498.8589896,267114.90625,268234.0,602862.25,512471.34375,269651.28125,256796.25,232445.28125,241004.390625,-0.1015625,0.828125,-0.547607421875,1.2207030057907104,3.479003667831421,0.8239745497703552,100.0,2486.0,1.0
469498.8589984,268207.1875,268861.71875,605079.75,512505.6875,269933.71875,256829.25,232384.125,240969.703125,-0.100830078125,0.828369140625,-0.549072265625,1.4953612089157104,3.387450933456421,0.9765624403953552,100.0,2487.0,1.0
469498.8590075,269154.1875,269231.875,604463.1875,512195.625,269215.5,256838.90625,232190.203125,240851.0625,-0.103759765625,0.827392578125,-0.54931640625,1.8005369901657104,3.417968511581421,0.9765624403953552,100.0,2488.0,1.0
469498.8613129,268605.5625,268798.34375,601764.0625,511946.71875,268478.25,256807.515625,232127.703125,240806.796875,-0.104248046875,0.827880859375,-0.54833984375,2.014159917831421,3.417968511581421,0.9155272841453552,100.0,2489.0,1.0
469498.8613544,267401.875,268221.75,600740.5625,512084.40625,268744.4375,256778.46875,232277.90625,240891.375,-0.104736328125,0.82763671875,-0.5478515625,2.136230230331421,3.387450933456421,0.9460448622703552,100.0,2490.0,1.0
469498.8636433,267097.375,268236.5,602728.3125,512393.03125,269636.96875,256773.359375,232426.765625,240979.625,-0.10498046875,0.82861328125,-0.549072265625,2.075195074081421,3.265380620956421,1.0681151151657104,100.0,2491.0,1.0
469498.866226,268183.125,268842.15625,604946.0,512423.875,269917.71875,256807.875,232363.828125,240939.5625,-0.10595703125,0.826904296875,-0.5498046875,2.258300542831421,3.173827886581421,1.1291502714157104,100.0,2492.0,1.0
469498.8662661,269143.0,269216.03125,604330.3125,512123.46875,269207.65625,256830.140625,232181.171875,240829.234375,-0.1064453125,0.828125,-0.547119140625,2.349853277206421,3.143310308456421,1.0986326932907104,100.0,2493.0,1.0
469498.8686827,268613.25,268804.875,601633.4375,511885.1875,268478.96875,256810.734375,232132.09375,240797.328125,-0.1064453125,0.82861328125,-0.547607421875,2.349853277206421,3.021239995956421,1.0986326932907104,100.0,2494.0,1.0
469498.8712693,267418.4375,268231.5,600610.375,512021.71875,268747.1875,256783.203125,232286.40625,240887.09375,-0.10595703125,0.828369140625,-0.5498046875,2.471923589706421,2.868652105331421,0.9765624403953552,100.0,2495.0,1.0
469498.8749681,267123.65625,268247.0625,602616.8125,512341.34375,269653.59375,256793.03125,232440.984375,240978.109375,-0.105224609375,0.8310546875,-0.55078125,2.471923589706421,2.807616949081421,0.8544921278953552,100.0,2496.0,1.0
469498.8750086,268201.28125,268866.5625,604828.9375,512374.6875,269934.6875,256824.78125,232376.53125,240938.3125,-0.107177734375,0.829833984375,-0.5498046875,2.563476324081421,2.777099370956421,0.7934569716453552,100.0,2497.0,1.0
469498.8973846,269133.0,269208.8125,604185.625,512051.9375,269198.0,256818.515625,232167.484375,240805.546875,-0.107177734375,0.831787109375,-0.55029296875,2.624511480331421,2.746581792831421,0.6408690810203552,100.0,2498.0,1.0
469498.8999118,268611.75,268803.25,601488.25,511819.3125,268468.25,256802.421875,232120.015625,240777.5625,-0.1083984375,0.831298828125,-0.55126953125,2.685546636581421,2.685546636581421,0.5798339247703552,100.0,2499.0,1.0
469498.8999426,267417.90625,268238.03125,600470.875,511962.53125,268742.90625,256784.625,232282.46875,240874.84375,-0.10693359375,0.830078125,-0.55224609375,2.655029058456421,2.502441167831421,0.5493163466453552,100.0,2500.0,1.0
469498.902288,267116.9375,268242.9375,602475.8125,512281.09375,269647.875,256792.59375,232438.84375,240968.453125,-0.106201171875,0.828125,-0.552490234375,2.716064214706421,2.380370855331421,0.5187987685203552,100.0,2501.0,1.0
469498.9050394,268191.8125,268852.53125,604689.9375,512312.65625,269926.65625,256815.125,232367.9375,240925.53125,-0.105712890625,0.8291015625,-0.5556640625,2.563476324081421,2.319335699081421,0.3662109076976776,100.0,2502.0,1.0
469498.9074566,269141.84375,269225.34375,604059.5,512009.5625,269209.6875,256827.375,232177.859375,240815.5625,-0.106201171875,0.82861328125,-0.555419921875,2.655029058456421,2.166747808456421,0.3051757514476776,100.0,2503.0,1.0
469498.9100038,268608.34375,268808.875,601337.5625,511768.15625,268473.875,256802.953125,232122.96875,240782.5625,-0.10546875,0.830322265625,-0.555419921875,2.655029058456421,2.105712652206421,0.2136230319738388,100.0,2504.0,1.0
469498.9124147,267415.03125,268226.65625,600309.6875,511907.625,268744.34375,256778.8125,232280.59375,240875.640625,-0.105712890625,0.830322265625,-0.5556640625,2.716064214706421,2.075195074081421,0.1220703050494194,100.0,2505.0,1.0
469498.9124278,267108.375,268231.40625,602307.8125,512219.03125,269642.59375,256779.359375,232434.28125,240964.15625,-0.104248046875,0.83154296875,-0.559326171875,2.655029058456421,1.9836424589157104,0.0610351525247097,100.0,2506.0,1.0
469498.9225108,268185.90625,268839.46875,604515.3125,512254.71875,269923.78125,256811.28125,232371.078125,240925.265625,-0.103759765625,0.830078125,-0.558837890625,2.685546636581421,1.8920897245407104,-0.0610351525247097,100.0,2507.0,1.0
469498.9248968,269150.78125,269226.3125,603889.375,511966.90625,269217.75,256839.796875,232193.859375,240819.765625,-0.103759765625,0.83154296875,-0.556640625,2.655029058456421,1.8310545682907104,-0.0610351525247097,100.0,2508.0,1.0
469498.9249114,268616.9375,268803.625,601165.8125,511725.34375,268478.15625,256814.5,232135.21875,240784.71875,-0.102783203125,0.832275390625,-0.5595703125,2.655029058456421,1.7700194120407104,-0.0610351525247097,100.0,2509.0,1.0
469498.947503,267416.8125,268229.09375,600129.375,511851.03125,268735.40625,256777.03125,232278.53125,240866.875,-0.1044921875,0.834228515625,-0.559326171875,2.593993902206421,1.7089842557907104,-0.1831054538488388,100.0,2510.0,1.0
469498.9500639,267120.0625,268247.9375,602147.1875,512172.90625,269647.6875,256789.375,232444.75,240965.578125,-0.103271484375,0.8330078125,-0.55908203125,2.410888433456421,1.8005369901657104,-0.2746581733226776,100.0,2511.0,1.0
469498.9500875,268186.4375,268845.1875,604352.5625,512205.96875,269926.46875,256816.8125,232378.3125,240926.515625,-0.103759765625,0.832763671875,-0.556884765625,2.441406011581421,1.7089842557907104,-0.2136230319738388,100.0,2512.0,1.0
469498.9524298,269119.125,269195.84375,603685.875,511885.71875,269190.84375,256813.859375,232166.421875,240797.234375,-0.103271484375,0.833251953125,-0.556640625,2.471923589706421,1.7089842557907104,-0.3051757514476776,100.0,2513.0,1.0
469498.9524535,268599.84375,268791.09375,600964.125,511647.28125,268457.78125,256796.078125,232117.875,240767.734375,-0.103515625,0.83203125,-0.55712890625,2.410888433456421,1.6174315214157104,-0.3051757514476776,100.0,2514.0,1.0
469498.9539672,267418.34375,268229.96875,599941.0625,511787.03125,268730.9375,256776.765625,232277.90625,240861.78125,-0.10400390625,0.831787109375,-0.55810546875,2.136230230331421,1.6784666776657104,-0.3051757514476776,100.0,2515.0,1.0
469498.9611648,267105.6875,268225.0625,601945.75,512093.59375,269631.6875,256776.765625,232430.265625,240948.859375,-0.103515625,0.831298828125,-0.561767578125,2.197265386581421,1.6479490995407104,-0.3051757514476776,100.0,2516.0,1.0
469498.9637723,268172.75,268835.625,604157.0625,512128.1875,269915.375,256807.875,232366.953125,240910.78125,-0.101806640625,0.831787109375,-0.5634765625,2.166747808456421,1.6174315214157104,-0.2746581733226776,100.0,2517.0,1.0
469498.9663253,269119.125,269202.71875,603504.375,511827.53125,269195.40625,256822.71875,232176.875,240798.9375,-0.10302734375,0.83251953125,-0.561279296875,2.075195074081421,1.6784666776657104,-0.1831054538488388,100.0,2518.0,1.0
469498.9663681,268592.6875,268784.46875,600767.25,511583.4375,268453.9375,256799.03125,232121.265625,240765.5,-0.10400390625,0.831787109375,-0.56005859375,2.075195074081421,1.6479490995407104,-0.1831054538488388,100.0,2519.0,1.0
469498.9725415,267409.03125,268219.25,599740.6875,511720.78125,268722.4375,256774.890625,232278.359375,240855.171875,-0.10400390625,0.832275390625,-0.55859375,1.9836424589157104,1.7089842557907104,-0.0915527269244194,100.0,2520.0,1.0
469498.9975777,267111.9375,268225.25,601765.125,512039.6875,269633.125,256782.75,232435.71875,240946.1875,-0.10205078125,0.83154296875,-0.559814453125,2.014159917831421,1.7700194120407104,-0.1220703050494194,100.0,2521.0,1.0
469498.9976199,268175.0,268830.0625,603971.25,512074.09375,269910.125,256810.203125,232362.21875,240906.3125,-0.10302734375,0.83056640625,-0.562255859375,1.8920897245407104,1.7395018339157104,-0.0610351525247097,100.0,2522.0,1.0
469499.0000682,269117.78125,269188.25,603304.75,511768.78125,269182.0625,256818.78125,232166.0625,240791.515625,-0.103515625,0.830078125,-0.56396484375,1.8310545682907104,1.7700194120407104,-0.1220703050494194,100.0,2523.0,1.0
469499.0001094,268603.25,268780.53125,600574.6875,511530.4375,268450.8125,256803.140625,232117.78125,240762.0,-0.10400390625,0.83056640625,-0.564453125,1.8615721464157104,1.7089842557907104,0.0,100.0,2524.0,1.0
469499.0025423,267419.5,268219.96875,599545.6875,511667.125,268718.59375,256778.90625,232271.203125,240849.796875,-0.105224609375,0.830078125,-0.5654296875,1.9836424589157104,1.7395018339157104,0.0,100.0,2525.0,1.0
469499.0050547,267105.15625,268219.875,601561.5625,511973.53125,269617.84375,256770.328125,232417.109375,240926.515625,-0.10693359375,0.828857421875,-0.563232421875,1.8005369901657104,1.7089842557907104,0.0610351525247097,100.0,2526.0,1.0
469499.0074231,268162.21875,268827.125,603773.1875,512008.46875,269900.375,256794.640625,232350.953125,240884.671875,-0.105224609375,0.828857421875,-0.56201171875,1.8005369901657104,1.6784666776657104,0.0915527269244194,100.0,2527.0,1.0
469499.0100165,269115.03125,269198.875,603117.9375,511719.15625,269188.0625,256819.59375,232169.71875,240784.171875,-0.102294921875,0.826416015625,-0.561767578125,1.7700194120407104,1.7395018339157104,0.1525878757238388,100.0,2528.0,1.0
469499.0125212,268590.46875,268774.09375,600375.8125,511475.625,268444.1875,256795.890625,232108.390625,240746.53125,-0.1005859375,0.821044921875,-0.56396484375,1.6784666776657104,1.7089842557907104,0.2441406100988388,100.0,2529.0,1.0
469499.0150677,267412.0,268213.625,599351.875,511614.125,268713.75,256769.515625,232262.53125,240835.5,-0.09814453125,0.81884765625,-0.5625,1.7700194120407104,1.8005369901657104,0.2746581733226776,100.0,2530.0,1.0
469499.0151087,267107.03125,268220.5,601371.375,511931.40625,269623.28125,256772.921875,232419.171875,240925.359375,-0.0947265625,0.81884765625,-0.564208984375,1.8920897245407104,1.8920897245407104,0.3967284858226776,100.0,2531.0,1.0
469499.0175761,268173.125,268831.5,603595.75,511974.40625,269917.25,256809.21875,232366.59375,240895.484375,-0.095703125,0.821044921875,-0.568603515625,1.9836424589157104,2.014159917831421,0.5798339247703552,100.0,2532.0,1.0
469499.0236712,269116.8125,269188.59375,602933.875,511673.9375,269195.46875,256828.078125,232176.875,240784.453125,-0.09521484375,0.824951171875,-0.567626953125,2.014159917831421,2.166747808456421,0.7019042372703552,100.0,2533.0,1.0
469499.0275421,268589.3125,268765.15625,600184.625,511421.4375,268446.34375,256797.59375,232111.609375,240738.9375,-0.0986328125,0.824951171875,-0.566650390625,2.014159917831421,2.319335699081421,0.7934569716453552,100.0,2534.0,1.0
469499.0275848,267416.90625,268211.1875,599165.875,511559.84375,268720.65625,256774.703125,232266.546875,240826.296875,-0.099609375,0.822509765625,-0.56396484375,2.044677495956421,2.441406011581421,0.8544921278953552,100.0,2535.0,1.0
469499.0475298,267122.21875,268224.78125,601200.8125,511881.15625,269637.34375,256780.875,232427.671875,240919.71875,-0.095947265625,0.81982421875,-0.56494140625,2.136230230331421,2.471923589706421,0.8239745497703552,100.0,2536.0,1.0
469499.0501062,268175.53125,268825.875,603414.9375,511916.21875,269922.28125,256809.21875,232364.8125,240886.1875,-0.095703125,0.81884765625,-0.566650390625,2.227782964706421,2.532958745956421,0.9155272841453552,100.0,2537.0,1.0
469499.0501477,269107.0625,269172.0625,602743.0625,511604.71875,269190.5625,256820.125,232168.03125,240768.0,-0.09619140625,0.820556640625,-0.5673828125,2.288818120956421,2.655029058456421,1.0375975370407104,100.0,2538.0,1.0
469499.054913,268599.9375,268767.75,600013.0,511368.0625,268455.8125,256807.078125,232119.84375,240741.625,-0.0986328125,0.82177734375,-0.5673828125,2.410888433456421,2.838134527206421,0.9460448622703552,100.0,2539.0,1.0
469499.0565011,267437.28125,268226.75,599006.5625,511514.6875,268735.03125,256790.796875,232283.265625,240840.328125,-0.103271484375,0.825927734375,-0.566650390625,2.349853277206421,2.929687261581421,0.9460448622703552,100.0,2540.0,1.0
469499.0653715,267116.84375,268219.53125,601029.0625,511818.75,269633.5,256779.796875,232426.5,240921.15625,-0.10693359375,0.826904296875,-0.564208984375,2.166747808456421,2.838134527206421,0.9155272841453552,100.0,2541.0,1.0
469499.0940025,268171.6875,268816.5625,603250.125,511855.6875,269920.3125,256812.96875,232368.5625,240888.0625,-0.110107421875,0.82666015625,-0.56201171875,2.136230230331421,2.838134527206421,0.9155272841453552,100.0,2542.0,1.0
469499.1002629,269111.09375,269174.125,602584.8125,511553.5,269195.03125,256830.5,232179.296875,240778.015625,-0.11181640625,0.826416015625,-0.5654296875,2.197265386581421,2.746581792831421,0.7629393935203552,100.0,2543.0,1.0
469499.1125537,268587.4375,268757.46875,599837.4375,511302.0,268445.34375,256802.6875,232112.6875,240730.265625,-0.111083984375,0.82568359375,-0.565673828125,2.075195074081421,2.471923589706421,0.6713866591453552,100.0,2544.0,1.0
469499.1125944,267417.09375,268205.375,598828.375,511440.65625,268719.03125,256779.359375,232270.9375,240819.765625,-0.1083984375,0.82763671875,-0.567626953125,2.044677495956421,2.349853277206421,0.6103515028953552,100.0,2545.0,1.0
469499.1150574,267105.6875,268205.5625,600864.1875,511752.4375,269624.53125,256776.5,232424.171875,240908.453125,-0.10595703125,0.826171875,-0.56640625,1.9836424589157104,2.319335699081421,0.4272460639476776,100.0,2546.0,1.0
469499.1175809,268154.6875,268800.125,603086.375,511789.875,269907.96875,256803.046875,232353.375,240871.265625,-0.103759765625,0.828125,-0.568359375,1.9836424589157104,2.227782964706421,0.3356933295726776,100.0,2547.0,1.0
469499.1199117,269097.3125,269157.21875,602422.25,511489.5625,269185.03125,256823.34375,232163.296875,240759.953125,-0.1025390625,0.82958984375,-0.567138671875,1.8310545682907104,2.197265386581421,0.2746581733226776,100.0,2548.0,1.0
469499.1224088,268585.625,268752.84375,599674.6875,511246.375,268439.0,256802.6875,232112.59375,240724.640625,-0.1015625,0.829833984375,-0.56494140625,1.7700194120407104,2.288818120956421,0.1831054538488388,100.0,2549.0,1.0
469499.1250608,267421.90625,268207.625,598661.9375,511387.03125,268714.5625,256783.640625,232277.015625,240816.09375,-0.101318359375,0.829833984375,-0.56640625,1.6174315214157104,2.288818120956421,0.2441406100988388,100.0,2550.0,1.0
469499.1274865,267117.03125,268217.625,600708.875,511703.96875,269630.53125,256788.296875,232434.109375,240904.25,-0.100830078125,0.8310546875,-0.566162109375,1.4953612089157104,2.288818120956421,0.3356933295726776,100.0,2551.0,1.0
469499.129902,268156.21875,268809.15625,602930.125,511735.4375,269912.53125,256810.921875,232365.703125,240865.0,-0.1005859375,0.8291015625,-0.567626953125,1.3122557401657104,2.288818120956421,0.3356933295726776,100.0,2552.0,1.0
469499.1325369,269090.25,269163.84375,602261.1875,511431.375,269186.8125,256825.40625,232176.078125,240751.640625,-0.101318359375,0.828857421875,-0.569091796875,1.2512205839157104,2.319335699081421,0.2746581733226776,100.0,2553.0,1.0
469499.1349046,268577.0625,268756.6875,599514.25,511185.65625,268442.5,256806.171875,232118.578125,240717.484375,-0.103271484375,0.8271484375,-0.568115234375,1.3427733182907104,2.441406011581421,0.2136230319738388,100.0,2554.0,1.0
469499.1375292,267417.09375,268209.6875,598500.1875,511331.75,268718.3125,256788.75,232277.109375,240817.53125,-0.10107421875,0.826904296875,-0.568115234375,1.1901854276657104,2.502441167831421,0.3356933295726776,100.0,2555.0,1.0
469499.1400182,267106.125,268208.96875,600533.625,511642.90625,269624.8125,256780.96875,232425.34375,240903.890625,-0.099609375,0.82666015625,-0.56689453125,1.0986326932907104,2.532958745956421,0.3662109076976776,100.0,2556.0,1.0
469499.1425737,268143.53125,268792.78125,602751.5625,511671.0625,269903.9375,256799.390625,232351.21875,240858.5625,-0.100341796875,0.8271484375,-0.56591796875,0.9460448622703552,2.624511480331421,0.3051757514476776,100.0,2557.0,1.0
469499.1473826,269075.78125,269140.84375,602076.5625,511363.78125,269171.6875,256808.6875,232155.421875,240739.5625,-0.1025390625,0.826416015625,-0.569091796875,0.9765624403953552,2.532958745956421,0.2136230319738388,100.0,2558.0,1.0
469499.1512941,268565.4375,268730.84375,599325.5,511123.25,268425.875,256787.9375,232101.515625,240704.703125,-0.102294921875,0.826416015625,-0.568359375,0.8850097060203552,2.593993902206421,0.2441406100988388,100.0,2559.0,1.0
469499.1513335,267397.875,268185.0,598305.4375,511261.5,268695.34375,256763.359375,232257.4375,240795.4375,-0.102783203125,0.826416015625,-0.56787109375,0.8544921278953552,2.685546636581421,0.3662109076976776,100.0,2560.0,1.0
469499.1513438,267095.40625,268198.5,600348.375,511581.65625,269614.53125,256768.09375,232419.078125,240887.796875,-0.10009765625,0.824951171875,-0.566162109375,0.8544921278953552,2.746581792831421,0.3967284858226776,100.0,2561.0,1.0
469499.1536055,268142.34375,268798.15625,602577.75,511626.28125,269912.0,256804.125,232362.046875,240855.171875,-0.100830078125,0.82470703125,-0.566162109375,0.8239745497703552,2.655029058456421,0.3662109076976776,100.0,2562.0,1.0
469499.1563376,269083.8125,269156.21875,601909.8125,511328.8125,269189.9375,256823.703125,232173.296875,240744.75,-0.102294921875,0.825439453125,-0.568359375,0.8544921278953552,2.746581792831421,0.3356933295726776,100.0,2563.0,1.0
469499.1563923,268570.78125,268737.4375,599146.6875,511079.375,268433.5625,256795.984375,232108.84375,240702.375,-0.10400390625,0.825439453125,-0.564697265625,0.7934569716453552,2.655029058456421,0.3967284858226776,100.0,2564.0,1.0
469499.1577314,267408.78125,268192.15625,598131.75,511221.34375,268707.5,256776.9375,232270.046875,240797.40625,-0.105712890625,0.826171875,-0.566650390625,0.6713866591453552,2.532958745956421,0.3356933295726776,100.0,2565.0,1.0
469499.164918,267090.9375,268196.28125,600171.8125,511533.65625,269617.125,256775.515625,232424.984375,240885.921875,-0.106201171875,0.82421875,-0.565673828125,0.7019042372703552,2.502441167831421,0.3051757514476776,100.0,2566.0,1.0
469499.1674089,268130.03125,268789.3125,602398.125,511572.09375,269909.21875,256806.71875,232365.265625,240853.921875,-0.1044921875,0.82421875,-0.5634765625,0.6713866591453552,2.563476324081421,0.3051757514476776,100.0,2567.0,1.0
469499.1700092,269068.96875,269145.9375,601723.5625,511269.0,269181.34375,256819.234375,232171.96875,240740.1875,-0.106201171875,0.821533203125,-0.56640625,0.6103515028953552,2.441406011581421,0.3662109076976776,100.0,2568.0,1.0
469499.1724614,268573.21875,268748.0,598971.6875,511031.1875,268436.3125,256802.609375,232116.171875,240704.875,-0.10498046875,0.8203125,-0.5673828125,0.4882812201976776,2.288818120956421,0.3051757514476776,100.0,2569.0,1.0
469499.174918,267412.53125,268196.8125,597951.1875,511169.03125,268705.71875,256779.984375,232272.640625,240792.046875,-0.10498046875,0.8212890625,-0.565673828125,0.4577636420726776,2.319335699081421,0.3051757514476776,100.0,2570.0,1.0
469499.1775321,267081.09375,268180.90625,599973.6875,511464.53125,269599.15625,256760.40625,232407.28125,240866.078125,-0.1064453125,0.822265625,-0.56298828125,0.5187987685203552,2.288818120956421,0.2746581733226776,100.0,2571.0,1.0
469499.1775758,268126.4375,268783.59375,602205.3125,511509.5,269897.59375,256799.390625,232354.796875,240840.328125,-0.10693359375,0.821044921875,-0.564697265625,0.4272460639476776,2.105712652206421,0.1831054538488388,100.0,2572.0,1.0
469499.1798369,269057.25,269133.0,601481.0,511206.59375,269160.96875,256816.28125,232163.203125,240727.140625,-0.106689453125,0.819091796875,-0.567626953125,0.5798339247703552,2.075195074081421,0.3356933295726776,100.0,2573.0,1.0
469499.2000369,268634.90625,268788.5,599073.0,511006.0625,268504.71875,256798.125,232119.921875,240700.140625,-0.1044921875,0.817138671875,-0.5673828125,0.4882812201976776,2.075195074081421,0.2746581733226776,100.0,2574.0,1.0
469499.2000513,267451.0625,268234.0,598182.625,511134.09375,268775.0,256779.796875,232273.078125,240788.65625,-0.10546875,0.819580078125,-0.56689453125,0.5493163466453552,2.075195074081421,0.2441406100988388,100.0,2575.0,1.0
469499.2025457,267021.0,268148.78125,599711.5625,511385.40625,269549.4375,256773.546875,232408.359375,240864.109375,-0.104248046875,0.821533203125,-0.564453125,0.4882812201976776,2.075195074081421,0.1525878757238388,100.0,2576.0,1.0
469499.2075118,268057.78125,268732.875,601667.5,511418.9375,269805.15625,256798.578125,232346.125,240826.5625,-0.10595703125,0.819580078125,-0.56640625,0.6408690810203552,1.9836424589157104,0.1831054538488388,100.0,2577.0,1.0
469499.2124677,269078.53125,269153.46875,601219.5625,511169.40625,269166.0625,256828.078125,232179.921875,240737.15625,-0.10693359375,0.8193359375,-0.5654296875,0.5798339247703552,1.8310545682907104,0.2441406100988388,100.0,2578.0,1.0
469499.2148364,268608.71875,268777.59375,598832.6875,510944.625,268492.375,256796.875,232121.796875,240694.59375,-0.106201171875,0.8212890625,-0.56787109375,0.6103515028953552,1.7700194120407104,0.2746581733226776,100.0,2579.0,1.0
469499.2174729,267396.0625,268193.78125,597825.0,511048.4375,268724.5,256759.328125,232256.546875,240762.8125,-0.10693359375,0.822509765625,-0.56982421875,0.6408690810203552,1.7700194120407104,0.3051757514476776,100.0,2580.0,1.0
469499.2199545,267024.40625,268147.71875,599530.875,511325.9375,269544.875,256756.734375,232398.078125,240846.671875,-0.107177734375,0.823486328125,-0.5673828125,0.5187987685203552,1.5869139432907104,0.2746581733226776,100.0,2581.0,1.0
469499.2199698,268063.3125,268731.90625,601512.75,511361.96875,269801.84375,256787.046875,232337.71875,240816.8125,-0.106689453125,0.824462890625,-0.56640625,0.5798339247703552,1.5258787870407104,0.2746581733226776,100.0,2582.0,1.0
469499.2224608,269069.78125,269139.6875,601044.9375,511096.0,269150.40625,256807.15625,232160.34375,240711.046875,-0.105712890625,0.82568359375,-0.565673828125,0.5493163466453552,1.6174315214157104,0.4577636420726776,100.0,2583.0,1.0
469499.2262471,268606.46875,268771.25,598669.5,510880.15625,268486.125,256788.390625,232113.21875,240679.9375,-0.10546875,0.82470703125,-0.56640625,0.3967284858226776,1.5258787870407104,0.4272460639476776,100.0,2584.0,1.0
469499.2324767,267409.40625,268199.03125,597668.5,511000.6875,268733.15625,256767.546875,232263.328125,240770.40625,-0.107421875,0.827392578125,-0.565673828125,0.3967284858226776,1.3732908964157104,0.4577636420726776,100.0,2585.0,1.0
469499.2324949,267052.9375,268168.5625,599387.375,511291.71875,269569.125,256776.234375,232415.0625,240870.640625,-0.10693359375,0.82958984375,-0.5654296875,0.3051757514476776,1.3122557401657104,0.5187987685203552,100.0,2586.0,1.0
469499.2750842,268072.8125,268740.40625,601369.125,511312.375,269814.96875,256798.125,232342.1875,240814.9375,-0.105712890625,0.829833984375,-0.565673828125,0.1831054538488388,1.1901854276657104,0.5798339247703552,100.0,2587.0,1.0
469499.2751244,269058.59375,269132.71875,600886.6875,511032.96875,269148.1875,256804.03125,232151.578125,240693.96875,-0.108154296875,0.83154296875,-0.5673828125,0.0610351525247097,1.1596678495407104,0.6713866591453552,100.0,2588.0,1.0
469499.278975,268606.90625,268772.0625,598512.9375,510826.625,268489.25,256789.90625,232109.5625,240675.28125,-0.10888671875,0.832763671875,-0.566162109375,-0.0915527269244194,1.0986326932907104,0.7629393935203552,100.0,2589.0,1.0
469499.2790158,267405.1875,268193.125,597501.5625,510940.59375,268729.03125,256763.078125,232253.234375,240761.46875,-0.107177734375,0.832275390625,-0.566162109375,-0.2136230319738388,1.0681151151657104,0.7324218153953552,100.0,2590.0,1.0
469499.2790245,267031.3125,268152.375,599205.9375,511220.0,269551.21875,256764.515625,232398.515625,240851.59375,-0.106689453125,0.832275390625,-0.563232421875,-0.3051757514476776,1.0681151151657104,0.7934569716453552,100.0,2591.0,1.0
469499.2790338,268061.1875,268736.90625,601202.3125,511253.875,269812.03125,256797.859375,232342.453125,240818.515625,-0.105712890625,0.831787109375,-0.56396484375,-0.5187987685203552,0.9155272841453552,0.8544921278953552,100.0,2592.0,1.0
469499.2826506,269049.125,269126.1875,600724.0625,510972.875,269146.5625,256803.578125,232149.609375,240697.625,-0.106201171875,0.831298828125,-0.563720703125,-0.5493163466453552,0.9460448622703552,1.0375975370407104,100.0,2593.0,1.0
469499.2826928,268591.625,268760.4375,598336.8125,510759.1875,268480.5,256783.828125,232101.234375,240664.015625,-0.10546875,0.83056640625,-0.563232421875,-0.7324218153953552,0.8850097060203552,1.0375975370407104,100.0,2594.0,1.0
469499.2827036,267403.21875,268196.28125,597334.1875,510884.71875,268730.03125,256765.9375,232256.0,240754.578125,-0.105712890625,0.828369140625,-0.56591796875,-0.8239745497703552,0.7934569716453552,1.0681151151657104,100.0,2595.0,1.0
469499.2849773,267035.40625,268159.15625,599051.75,511168.25,269557.84375,256770.0625,232405.21875,240845.953125,-0.107177734375,0.830810546875,-0.56396484375,-0.9155272841453552,0.8544921278953552,1.1291502714157104,100.0,2596.0,1.0
469499.2850125,268070.125,268741.75,601059.25,511207.125,269819.90625,256803.046875,232349.703125,240822.09375,-0.105224609375,0.831298828125,-0.56298828125,-0.9155272841453552,0.7934569716453552,1.0070799589157104,100.0,2597.0,1.0
469499.2875019,269060.65625,269129.78125,600573.0,510930.25,269153.28125,256811.28125,232161.328125,240708.8125,-0.10546875,0.829345703125,-0.561767578125,-0.9155272841453552,0.8239745497703552,0.9765624403953552,100.0,2598.0,1.0
469499.2875423,268605.5625,268769.375,598174.3125,510713.15625,268486.65625,256796.25,232114.296875,240670.625,-0.103271484375,0.828125,-0.5625,-1.0375975370407104,0.7934569716453552,1.0070799589157104,100.0,2599.0,1.0
469499.2900532,267404.9375,268193.59375,597166.875,510825.09375,268726.28125,256769.34375,232255.46875,240751.359375,-0.102783203125,0.82666015625,-0.5625,-1.0986326932907104,0.8239745497703552,1.0681151151657104,100.0,2600.0,1.0
469499.2937828,267014.75,268131.0,598882.3125,511090.90625,269539.34375,256752.625,232383.5,240822.890625,-0.101318359375,0.826416015625,-0.562744140625,-1.1901854276657104,0.9155272841453552,1.0375975370407104,100.0,2601.0,1.0
469499.3002056,268043.28125,268710.375,600888.125,511129.53125,269801.03125,256781.234375,232327.53125,240795.53125,-0.101318359375,0.826416015625,-0.5654296875,-1.1901854276657104,1.0375975370407104,1.1901854276657104,100.0,2602.0,1.0
469499.300245,269045.71875,269113.75,600386.6875,510858.8125,269139.5,256800.8125,232148.890625,240692.265625,-0.10009765625,0.8271484375,-0.564453125,-1.1901854276657104,1.0070799589157104,1.0681151151657104,100.0,2603.0,1.0
469499.3225478,268603.96875,268755.875,597976.9375,510643.6875,268470.21875,256787.671875,232104.640625,240663.125,-0.103515625,0.828125,-0.559814453125,-1.2512205839157104,1.1291502714157104,1.0681151151657104,100.0,2604.0,1.0
469499.3250908,267421.375,268193.21875,597017.8125,510770.71875,268725.90625,256765.59375,232255.5625,240753.15625,-0.10400390625,0.82568359375,-0.5615234375,-1.2817381620407104,1.2207030057907104,1.0986326932907104,100.0,2605.0,1.0
469499.3251308,267032.8125,268144.40625,598786.375,511050.5625,269559.1875,256763.703125,232401.296875,240839.25,-0.103759765625,0.827392578125,-0.564208984375,-1.2512205839157104,1.2817381620407104,1.0681151151657104,100.0,2606.0,1.0
469499.3274052,268040.25,268714.90625,600742.5625,511085.0,269813.90625,256802.515625,232347.5625,240808.9375,-0.103515625,0.828857421875,-0.5625,-1.4038084745407104,1.2207030057907104,0.9460448622703552,100.0,2607.0,1.0
469499.3300305,269051.8125,269125.3125,600195.625,510820.90625,269153.5625,256833.625,232178.671875,240711.84375,-0.103515625,0.824951171875,-0.559814453125,-1.4038084745407104,1.3427733182907104,0.7934569716453552,100.0,2608.0,1.0
469499.3324738,268620.78125,268770.4375,597812.5625,510599.78125,268478.34375,256801.625,232120.828125,240670.90625,-0.102294921875,0.826171875,-0.561767578125,-1.3732908964157104,1.4343260526657104,0.7629393935203552,100.0,2609.0,1.0
469499.3375134,267433.09375,268208.53125,596900.3125,510722.53125,268735.84375,256769.078125,232261.375,240749.9375,-0.102783203125,0.826416015625,-0.5625,-1.3732908964157104,1.4343260526657104,0.6103515028953552,100.0,2610.0,1.0
469499.3400563,267030.65625,268151.46875,598656.8125,511000.5,269564.65625,256763.171875,232397.265625,240829.515625,-0.102783203125,0.826416015625,-0.560546875,-1.4038084745407104,1.4343260526657104,0.5493163466453552,100.0,2611.0,1.0
469499.3400975,268031.9375,268714.125,600589.6875,511032.875,269813.03125,256801.078125,232342.375,240803.3125,-0.103271484375,0.82763671875,-0.5615234375,-1.4648436307907104,1.4648436307907104,0.4882812201976776,100.0,2612.0,1.0
469499.3425653,269014.625,269093.1875,600000.0,510741.6875,269122.0,256805.1875,232146.921875,240681.1875,-0.10302734375,0.826171875,-0.562255859375,-1.4038084745407104,1.4343260526657104,0.4272460639476776,100.0,2613.0,1.0
469499.3486635,268588.9375,268742.71875,597602.875,510524.34375,268451.0,256780.078125,232092.84375,240642.296875,-0.103271484375,0.826171875,-0.562255859375,-1.3427733182907104,1.5563963651657104,0.3967284858226776,100.0,2614.0,1.0
469499.3538345,267425.5,268195.71875,596713.1875,510662.28125,268728.96875,256763.890625,232251.53125,240735.546875,-0.102783203125,0.826416015625,-0.56005859375,-1.3732908964157104,1.6479490995407104,0.3662109076976776,100.0,2615.0,1.0
469499.3538763,267035.6875,268149.6875,598505.1875,510956.15625,269576.4375,256772.734375,232406.390625,240832.09375,-0.1025390625,0.82666015625,-0.560302734375,-1.2512205839157104,1.6479490995407104,0.2136230319738388,100.0,2616.0,1.0
469499.3563216,268029.0,268712.15625,600432.25,510987.375,269823.84375,256810.640625,232351.84375,240802.6875,-0.102294921875,0.8271484375,-0.56005859375,-1.1291502714157104,1.6479490995407104,0.1220703050494194,100.0,2617.0,1.0
469499.3598848,269016.3125,269098.125,599842.4375,510694.65625,269131.1875,256817.0,232156.21875,240681.0,-0.102783203125,0.82568359375,-0.562255859375,-1.2817381620407104,1.7395018339157104,0.1220703050494194,100.0,2618.0,1.0
469499.3725541,268605.5625,268758.375,597472.375,510480.0625,268466.8125,256796.4375,232105.71875,240648.375,-0.103271484375,0.82470703125,-0.5634765625,-1.2817381620407104,1.8310545682907104,0.1831054538488388,100.0,2619.0,1.0
469499.3725951,267425.03125,268198.5,596568.5625,510599.15625,268727.53125,256768.453125,232249.296875,240730.0,-0.103759765625,0.824951171875,-0.565185546875,-1.1901854276657104,1.8920897245407104,0.1220703050494194,100.0,2620.0,1.0
469499.3750718,267027.375,268150.59375,598332.5625,510887.0625,269566.0,256772.109375,232404.421875,240822.359375,-0.10205078125,0.823974609375,-0.56298828125,-1.1596678495407104,1.9531248807907104,0.0915527269244194,100.0,2621.0,1.0
469499.3751133,268008.25,268702.75,600255.3125,510909.59375,269806.75,256797.421875,232339.515625,240784.09375,-0.10302734375,0.825439453125,-0.56298828125,-1.1291502714157104,1.8615721464157104,0.0610351525247097,100.0,2622.0,1.0
469499.3975449,269010.9375,269099.375,599680.0,510637.34375,269131.90625,256816.734375,232159.0,240680.203125,-0.1044921875,0.82421875,-0.562255859375,-1.0070799589157104,2.044677495956421,-0.03051757626235485,100.0,2623.0,1.0
469499.4001298,268598.0625,268753.0,597291.5,510422.75,268464.59375,256796.171875,232105.796875,240641.484375,-0.103271484375,0.8232421875,-0.564208984375,-0.7934569716453552,2.044677495956421,-0.03051757626235485,100.0,2624.0,1.0
469499.4001689,267424.6875,268197.0,596387.75,510550.0625,268729.59375,256769.4375,232254.21875,240726.15625,-0.103759765625,0.824951171875,-0.56201171875,-0.7629393935203552,2.044677495956421,-0.03051757626235485,100.0,2625.0,1.0
469499.4024923,267016.8125,268138.0625,598161.875,510827.59375,269562.84375,256765.59375,232396.546875,240809.75,-0.1044921875,0.826171875,-0.5654296875,-0.7019042372703552,2.197265386581421,-0.03051757626235485,100.0,2626.0,1.0
469499.4050178,268005.75,268693.375,600086.25,510858.0,269807.5625,256797.0625,232336.015625,240780.953125,-0.10595703125,0.82568359375,-0.5625,-0.7019042372703552,2.258300542831421,0.1220703050494194,100.0,2627.0,1.0
469499.4075236,269029.46875,269111.875,599532.9375,510599.25,269148.375,256831.84375,232172.671875,240693.96875,-0.107421875,0.822998046875,-0.56298828125,-0.6103515028953552,2.166747808456421,0.0915527269244194,100.0,2628.0,1.0
469499.4099222,268617.65625,268770.71875,597157.4375,510379.75,268476.84375,256807.078125,232114.5625,240653.015625,-0.106689453125,0.822998046875,-0.56201171875,-0.5187987685203552,2.166747808456421,0.1831054538488388,100.0,2629.0,1.0
469499.4123756,267438.1875,268210.75,596242.9375,510500.09375,268735.5625,256777.203125,232257.078125,240734.015625,-0.107421875,0.822265625,-0.561279296875,-0.4272460639476776,2.136230230331421,0.1220703050494194,100.0,2630.0,1.0
469499.4150499,267023.25,268142.09375,597996.875,510771.625,269565.09375,256767.015625,232398.703125,240812.15625,-0.107177734375,0.820556640625,-0.560546875,-0.3051757514476776,2.105712652206421,0.2746581733226776,100.0,2631.0,1.0
469499.4225763,268015.59375,268703.375,599936.5625,510806.59375,269819.375,256803.40625,232344.515625,240778.453125,-0.10791015625,0.822998046875,-0.562744140625,-0.1525878757238388,2.105712652206421,0.3967284858226776,100.0,2632.0,1.0
469499.4226185,269008.53125,269095.25,599356.125,510520.9375,269133.53125,256809.578125,232147.734375,240662.859375,-0.10595703125,0.82421875,-0.563232421875,-0.0610351525247097,2.105712652206421,0.4272460639476776,100.0,2633.0,1.0
469499.4288272,268612.0,268764.28125,596980.3125,510317.25,268472.28125,256794.5625,232101.515625,240638.984375,-0.106689453125,0.824462890625,-0.5634765625,0.0915527269244194,2.075195074081421,0.4577636420726776,100.0,2634.0,1.0
469499.4288697,267450.09375,268218.8125,596080.0,510452.53125,268739.96875,256775.421875,232254.578125,240727.21875,-0.107177734375,0.824462890625,-0.564697265625,0.1220703050494194,2.136230230331421,0.6103515028953552,100.0,2635.0,1.0
469499.4324928,267037.28125,268155.78125,597846.0625,510729.96875,269573.0625,256768.09375,232397.09375,240807.953125,-0.108154296875,0.82177734375,-0.564453125,0.0610351525247097,2.166747808456421,0.6103515028953552,100.0,2636.0,1.0
469499.4977561,268000.8125,268688.375,599758.6875,510743.375,269802.90625,256780.15625,232322.34375,240761.015625,-0.106201171875,0.8203125,-0.56298828125,0.1220703050494194,2.105712652206421,0.6408690810203552,100.0,2637.0,1.0
469499.4977684,269011.65625,269093.65625,599197.4375,510473.53125,269134.5,256808.59375,232148.171875,240661.15625,-0.10595703125,0.822021484375,-0.564453125,0.2136230319738388,2.105712652206421,0.7629393935203552,100.0,2638.0,1.0
469499.4977705,268614.25,268764.28125,596826.5625,510266.65625,268475.21875,256798.3125,232107.328125,240635.765625,-0.1044921875,0.822998046875,-0.564208984375,0.3356933295726776,2.044677495956421,0.7629393935203552,100.0,2639.0,1.0
469499.5050093,267443.65625,268210.65625,595915.6875,510390.9375,268735.3125,256774.078125,232252.421875,240719.09375,-0.106201171875,0.82421875,-0.563720703125,0.3356933295726776,2.136230230331421,0.7934569716453552,100.0,2640.0,1.0
469499.5075414,267033.4375,268147.46875,597679.3125,510672.03125,269572.15625,256772.03125,232396.734375,240801.53125,-0.10595703125,0.826416015625,-0.56298828125,0.4272460639476776,2.136230230331421,0.8850097060203552,100.0,2641.0,1.0
469499.5097945,268006.625,268693.28125,599602.625,510695.625,269814.625,256797.0625,232332.625,240765.5,-0.1064453125,0.823974609375,-0.56201171875,0.3051757514476776,2.258300542831421,0.8239745497703552,100.0,2642.0,1.0
469499.5123022,269005.84375,269089.09375,599026.875,510415.78125,269131.8125,256813.0625,232148.453125,240657.046875,-0.106201171875,0.82470703125,-0.564697265625,0.4882812201976776,2.166747808456421,0.9765624403953552,100.0,2643.0,1.0
469499.5148683,268615.78125,268759.90625,596652.5625,510211.84375,268470.125,256801.265625,232106.34375,240634.515625,-0.1044921875,0.825439453125,-0.563232421875,0.4882812201976776,2.136230230331421,0.9155272841453552,100.0,2644.0,1.0
469499.5175134,267450.53125,268208.6875,595742.3125,510339.625,268731.46875,256776.234375,232255.5625,240718.109375,-0.10400390625,0.827392578125,-0.564453125,0.3356933295726776,2.075195074081421,1.0681151151657104,100.0,2645.0,1.0
469499.524873,267031.21875,268140.5625,597493.1875,510613.90625,269560.1875,256768.0,232396.375,240797.328125,-0.104248046875,0.82958984375,-0.562255859375,0.3051757514476776,2.136230230331421,1.0681151151657104,100.0,2646.0,1.0
469499.5274649,268016.28125,268697.75,599427.3125,510647.96875,269813.5625,256805.90625,232343.171875,240768.078125,-0.1025390625,0.826904296875,-0.560546875,0.3356933295726776,2.197265386581421,1.1291502714157104,100.0,2647.0,1.0
469499.5299785,269019.875,269090.4375,598863.0625,510367.6875,269134.5,256819.953125,232155.59375,240655.609375,-0.103515625,0.82568359375,-0.564208984375,0.3051757514476776,2.288818120956421,1.2207030057907104,100.0,2648.0,1.0
469499.5325173,268610.75,268743.1875,596478.875,510146.3125,268456.1875,256789.90625,232091.40625,240617.25,-0.103759765625,0.827392578125,-0.565673828125,0.3051757514476776,2.288818120956421,1.3427733182907104,100.0,2649.0,1.0
469499.5349666,267442.75,268191.71875,595571.625,510276.5,268717.5,256766.921875,232240.890625,240708.265625,-0.103271484375,0.826904296875,-0.5654296875,0.2441406100988388,2.197265386581421,1.3427733182907104,100.0,2650.0,1.0
469499.5373095,267028.71875,268128.0625,597335.125,510556.25,269553.90625,256761.296875,232388.0625,240791.0625,-0.103271484375,0.827392578125,-0.564453125,0.1525878757238388,2.319335699081421,1.3122557401657104,100.0,2651.0,1.0
469499.5399743,268005.125,268676.90625,599275.4375,510585.3125,269806.59375,256795.453125,232335.390625,240755.65625,-0.105224609375,0.828125,-0.563232421875,0.0915527269244194,2.319335699081421,1.3122557401657104,100.0,2652.0,1.0
469499.542509,269012.46875,269084.09375,598719.75,510313.3125,269135.5,256817.625,232159.4375,240654.890625,-0.10302734375,0.8271484375,-0.56689453125,-0.03051757626235485,2.380370855331421,1.3122557401657104,100.0,2653.0,1.0
469499.5449801,268624.4375,268760.4375,596352.375,510108.125,268474.5,256807.515625,232117.25,240633.171875,-0.10302734375,0.8251953125,-0.565673828125,0.0,2.380370855331421,1.2207030057907104,100.0,2654.0,1.0
469499.5475067,267457.3125,268211.1875,595444.0625,510233.75,268735.75,256786.859375,232270.046875,240720.25,-0.103515625,0.824951171875,-0.56396484375,-0.1220703050494194,2.410888433456421,1.2512205839157104,100.0,2655.0,1.0
469499.5499244,267024.59375,268130.5625,597189.8125,510501.875,269554.09375,256769.25,232402.09375,240789.984375,-0.10400390625,0.82373046875,-0.564453125,-0.1525878757238388,2.532958745956421,1.1901854276657104,100.0,2656.0,1.0
469499.5538538,267996.90625,268678.34375,599124.75,510532.03125,269805.59375,256799.46875,232343.171875,240758.96875,-0.102783203125,0.823486328125,-0.566650390625,-0.1831054538488388,2.410888433456421,1.2512205839157104,100.0,2657.0,1.0
469499.553878,269008.625,269081.21875,598572.0625,510260.03125,269135.40625,256820.296875,232163.296875,240658.390625,-0.10205078125,0.823974609375,-0.56787109375,-0.2746581733226776,2.441406011581421,1.2207030057907104,100.0,2658.0,1.0
469499.5538831,268620.9375,268751.3125,596193.625,510045.71875,268462.625,256800.90625,232104.015625,240618.234375,-0.103271484375,0.8232421875,-0.562255859375,-0.2441406100988388,2.349853277206421,1.0681151151657104,100.0,2659.0,1.0
469499.5562401,267461.53125,268206.28125,595281.6875,510176.53125,268728.34375,256783.921875,232257.25,240705.40625,-0.10205078125,0.820556640625,-0.562255859375,-0.2136230319738388,2.441406011581421,0.9765624403953552,100.0,2660.0,1.0
469499.5587674,267047.65625,268151.125,597052.3125,510470.15625,269578.59375,256793.21875,232414.4375,240800.0,-0.101318359375,0.818603515625,-0.5634765625,-0.0610351525247097,2.532958745956421,1.0375975370407104,100.0,2661.0,1.0
469499.562593,267995.375,268674.15625,598967.25,510481.5,269810.875,256801.703125,232334.5,240746.09375,-0.100341796875,0.822509765625,-0.566162109375,0.0,2.471923589706421,0.9460448622703552,100.0,2662.0,1.0
469499.5626232,269007.1875,269073.875,598410.5625,510205.5,269134.3125,256815.65625,232149.78125,240640.953125,-0.100830078125,0.821533203125,-0.565185546875,0.0915527269244194,2.502441167831421,0.8850097060203552,100.0,2663.0,1.0
469499.5626296,268629.71875,268755.40625,596048.0,510002.625,268475.21875,256809.9375,232110.625,240620.828125,-0.1005859375,0.81982421875,-0.56689453125,0.0915527269244194,2.441406011581421,0.8850097060203552,100.0,2664.0,1.0
469499.5673988,267468.125,268208.6875,595135.8125,510134.4375,268740.75,256794.203125,232265.921875,240714.265625,-0.099853515625,0.8193359375,-0.5673828125,0.0610351525247097,2.441406011581421,0.8850097060203552,100.0,2665.0,1.0
469499.5700589,267032.375,268132.0,596879.25,510404.25,269567.6875,256782.484375,232405.21875,240792.21875,-0.1015625,0.81982421875,-0.568115234375,0.1525878757238388,2.471923589706421,0.8239745497703552,100.0,2666.0,1.0
469499.5701017,267979.5625,268658.40625,598798.6875,510411.84375,269798.71875,256788.390625,232324.21875,240737.0625,-0.1025390625,0.8212890625,-0.567138671875,0.0610351525247097,2.593993902206421,0.8544921278953552,100.0,2667.0,1.0
469499.5716055,269009.4375,269076.03125,598264.25,510150.25,269135.9375,256816.1875,232150.6875,240640.59375,-0.102783203125,0.822998046875,-0.56884765625,0.1831054538488388,2.563476324081421,0.8239745497703552,100.0,2668.0,1.0
469499.5787959,268625.875,268750.78125,595893.25,509939.875,268467.09375,256801.53125,232101.78125,240613.953125,-0.103759765625,0.82373046875,-0.568603515625,0.2441406100988388,2.532958745956421,0.7019042372703552,100.0,2669.0,1.0
469499.5813306,267451.5,268194.21875,594962.1875,510058.96875,268716.96875,256772.203125,232243.21875,240696.65625,-0.103515625,0.82470703125,-0.56787109375,0.1525878757238388,2.502441167831421,0.7019042372703552,100.0,2670.0,1.0
469499.5836103,267024.15625,268124.3125,596713.3125,510338.625,269552.125,256768.265625,232388.6875,240780.421875,-0.104248046875,0.82470703125,-0.563720703125,0.1220703050494194,2.410888433456421,0.6713866591453552,100.0,2671.0,1.0
469499.5887139,267991.09375,268666.1875,598653.0,510366.875,269806.5,256798.671875,232331.90625,240746.890625,-0.105224609375,0.824951171875,-0.564208984375,0.0915527269244194,2.380370855331421,0.6103515028953552,100.0,2672.0,1.0
469499.5887548,269023.90625,269091.5,598124.125,510109.5625,269151.5,256836.046875,232167.046875,240656.6875,-0.103271484375,0.825439453125,-0.566162109375,0.0610351525247097,2.349853277206421,0.5493163466453552,100.0,2673.0,1.0
469499.5911419,268632.9375,268758.625,595742.6875,509888.8125,268472.53125,256811.984375,232108.65625,240609.484375,-0.105224609375,0.823486328125,-0.566162109375,0.0,2.319335699081421,0.5187987685203552,100.0,2674.0,1.0
469499.5937485,267450.78125,268195.46875,594804.625,509998.96875,268716.53125,256772.65625,232242.859375,240682.078125,-0.10400390625,0.824951171875,-0.56787109375,-0.0915527269244194,2.288818120956421,0.5493163466453552,100.0,2675.0,1.0
469499.5987282,267021.46875,268126.875,596559.5,510282.21875,269557.3125,256772.03125,232394.5,240772.640625,-0.102294921875,0.824462890625,-0.56884765625,-0.03051757626235485,2.258300542831421,0.5798339247703552,100.0,2676.0,1.0
469499.5987686,267983.84375,268668.59375,598500.4375,510315.46875,269813.5625,256801.625,232336.203125,240743.765625,-0.09912109375,0.826171875,-0.569580078125,-0.0915527269244194,2.319335699081421,0.5187987685203552,100.0,2677.0,1.0
469499.6012341,269002.0,269074.15625,597958.625,510046.34375,269144.15625,256822.1875,232155.15625,240643.625,-0.09765625,0.82373046875,-0.568115234375,-0.03051757626235485,2.288818120956421,0.5187987685203552,100.0,2678.0,1.0
469499.6050312,268618.71875,268746.9375,595582.625,509831.59375,268466.90625,256802.609375,232102.40625,240608.84375,-0.09912109375,0.825439453125,-0.569091796875,-0.1831054538488388,2.471923589706421,0.5493163466453552,100.0,2679.0,1.0
469499.6113556,267448.1875,268197.96875,594654.4375,509953.28125,268719.9375,256777.921875,232248.3125,240686.09375,-0.09912109375,0.825927734375,-0.56884765625,-0.1831054538488388,2.441406011581421,0.6103515028953552,100.0,2680.0,1.0
469499.6113956,267013.59375,268127.59375,596403.25,510232.5,269556.875,256775.78125,232394.3125,240772.734375,-0.1005859375,0.826171875,-0.5673828125,-0.3356933295726776,2.441406011581421,0.7629393935203552,100.0,2681.0,1.0
469499.6475666,267974.53125,268672.1875,598342.5625,510261.21875,269811.59375,256806.453125,232336.5625,240740.28125,-0.10107421875,0.826904296875,-0.567626953125,-0.5187987685203552,2.349853277206421,0.7934569716453552,100.0,2682.0,1.0
469499.6476088,268999.6875,269084.875,597808.875,509993.875,269148.09375,256833.171875,232161.859375,240640.859375,-0.101806640625,0.82861328125,-0.56689453125,-0.5187987685203552,2.410888433456421,0.8239745497703552,100.0,2683.0,1.0
469499.6514057,268617.5625,268755.96875,595431.125,509775.53125,268470.75,256815.921875,232106.15625,240605.453125,-0.103271484375,0.828857421875,-0.565185546875,-0.6713866591453552,2.410888433456421,0.8544921278953552,100.0,2684.0,1.0
469499.651445,267438.1875,268196.625,594489.5625,509886.5,268714.28125,256782.3125,232245.640625,240682.609375,-0.10498046875,0.82763671875,-0.564453125,-0.7934569716453552,2.349853277206421,0.8850097060203552,100.0,2685.0,1.0
469499.6514547,267012.25,268135.03125,596241.5625,510175.28125,269557.65625,256785.25,232401.734375,240776.671875,-0.1044921875,0.82666015625,-0.565185546875,-0.9460448622703552,2.349853277206421,0.8544921278953552,100.0,2686.0,1.0
469499.6589718,267975.96875,268678.875,598188.6875,510209.71875,269819.0,256816.734375,232344.609375,240740.453125,-0.105224609375,0.824951171875,-0.56494140625,-1.0681151151657104,2.380370855331421,0.9155272841453552,100.0,2687.0,1.0
469499.6590128,268992.09375,269077.8125,597643.9375,509927.1875,269142.8125,256824.59375,232153.0,240624.234375,-0.103271484375,0.82568359375,-0.567626953125,-1.1596678495407104,2.380370855331421,0.9460448622703552,100.0,2688.0,1.0
469499.6590215,268622.28125,268756.0625,595271.875,509719.21875,268468.0625,256806.171875,232102.40625,240596.515625,-0.103759765625,0.824951171875,-0.5673828125,-1.1901854276657104,2.288818120956421,0.9765624403953552,100.0,2689.0,1.0
469499.6590311,267452.6875,268205.03125,594334.6875,509843.59375,268715.28125,256780.703125,232245.8125,240672.859375,-0.100830078125,0.828369140625,-0.569091796875,-1.1596678495407104,2.227782964706421,0.9765624403953552,100.0,2690.0,1.0
469499.6612245,267017.15625,268133.96875,596077.3125,510126.375,269552.40625,256780.25,232391.28125,240759.6875,-0.0986328125,0.826416015625,-0.570068359375,-1.1901854276657104,2.136230230331421,1.0070799589157104,100.0,2691.0,1.0
469499.6612603,267976.0625,268674.0625,598023.5625,510156.34375,269812.75,256807.078125,232332.890625,240724.8125,-0.099365234375,0.823974609375,-0.56884765625,-1.2207030057907104,2.197265386581421,1.1291502714157104,100.0,2692.0,1.0
469499.6636294,269001.90625,269084.53125,597495.75,509883.8125,269146.21875,256826.109375,232153.28125,240620.390625,-0.099609375,0.823974609375,-0.5712890625,-1.2207030057907104,2.197265386581421,1.1901854276657104,100.0,2693.0,1.0
469499.66621,268633.375,268763.65625,595124.25,509671.5625,268470.21875,256811.71875,232102.671875,240589.546875,-0.099365234375,0.823486328125,-0.57080078125,-1.2207030057907104,2.136230230331421,1.2512205839157104,100.0,2694.0,1.0
469499.6686428,267453.9375,268202.25,594170.375,509786.09375,268711.53125,256780.96875,232244.921875,240667.234375,-0.0986328125,0.822021484375,-0.570068359375,-1.1901854276657104,2.166747808456421,1.1901854276657104,100.0,2695.0,1.0
469499.6725192,267005.28125,268119.03125,595898.5,510063.875,269545.96875,256773.1875,232387.25,240749.125,-0.100341796875,0.8203125,-0.567138671875,-1.1901854276657104,2.075195074081421,1.1291502714157104,100.0,2696.0,1.0
469499.7000954,267963.71875,268660.5625,597850.375,510098.46875,269810.5,256801.078125,232330.125,240720.609375,-0.101806640625,0.82177734375,-0.56982421875,-1.0986326932907104,2.105712652206421,1.1596678495407104,100.0,2697.0,1.0
469499.7001358,268994.9375,269073.0,597334.125,509829.71875,269146.65625,256822.1875,232152.03125,240619.3125,-0.10302734375,0.8212890625,-0.568359375,-1.0681151151657104,2.227782964706421,1.0986326932907104,100.0,2698.0,1.0
469499.7075028,268617.09375,268744.96875,594959.0,509609.4375,268460.375,256800.640625,232092.75,240578.625,-0.10400390625,0.82421875,-0.56884765625,-1.0070799589157104,2.136230230331421,1.0681151151657104,100.0,2699.0,1.0
469499.7075421,267438.90625,268187.34375,594004.875,509725.5625,268702.40625,256775.15625,232237.234375,240661.515625,-0.105224609375,0.824951171875,-0.56689453125,-0.9765624403953552,2.014159917831421,1.0070799589157104,100.0,2700.0,1.0
469499.7099644,266992.75,268111.0625,595735.8125,510008.53125,269541.5625,256774.53125,232392.796875,240752.4375,-0.10595703125,0.82666015625,-0.56494140625,-0.9460448622703552,1.8310545682907104,0.9155272841453552,100.0,2701.0,1.0
469499.7099999,267949.0625,268652.15625,597686.6875,510041.25,269805.78125,256804.5625,232338.890625,240719.0,-0.105224609375,0.8271484375,-0.564208984375,-1.0681151151657104,1.7700194120407104,0.8850097060203552,100.0,2702.0,1.0
469499.7125456,268987.96875,269069.59375,597171.6875,509772.9375,269143.0,256821.640625,232152.109375,240616.09375,-0.10693359375,0.828857421875,-0.563720703125,-1.1291502714157104,1.6174315214157104,0.7934569716453552,100.0,2703.0,1.0
469499.7150471,268622.375,268747.8125,594802.375,509558.8125,268463.0625,256803.578125,232095.96875,240584.53125,-0.10693359375,0.830078125,-0.5654296875,-1.2512205839157104,1.5563963651657104,0.7324218153953552,100.0,2704.0,1.0
469499.7175118,267452.59375,268192.59375,593853.9375,509682.21875,268709.8125,256781.140625,232243.9375,240672.421875,-0.105712890625,0.83056640625,-0.5625,-1.3427733182907104,1.4953612089157104,0.7324218153953552,100.0,2705.0,1.0
469499.7200155,266992.5,268102.40625,595569.25,509952.03125,269535.125,256765.5,232380.28125,240743.046875,-0.10498046875,0.829345703125,-0.564208984375,-1.4343260526657104,1.3427733182907104,0.5798339247703552,100.0,2706.0,1.0
469499.7224484,267941.1875,268635.875,597515.6875,509981.1875,269796.21875,256789.015625,232321.453125,240704.421875,-0.104248046875,0.828857421875,-0.564453125,-1.5258787870407104,1.3732908964157104,0.5493163466453552,100.0,2707.0,1.0
469499.7274715,268982.6875,269056.53125,597010.0,509715.71875,269136.84375,256815.46875,232149.4375,240606.265625,-0.102783203125,0.830078125,-0.56396484375,-1.6784666776657104,1.2512205839157104,0.5187987685203552,100.0,2708.0,1.0
469499.7275109,268621.3125,268736.65625,594644.25,509500.09375,268458.84375,256800.640625,232099.8125,240578.625,-0.10205078125,0.8310546875,-0.562744140625,-1.8920897245407104,1.2512205839157104,0.4882812201976776,100.0,2709.0,1.0
469499.7300729,267446.0625,268180.625,593684.8125,509619.8125,268701.875,256773.984375,232246.796875,240663.484375,-0.101806640625,0.830078125,-0.563232421875,-1.8920897245407104,1.1901854276657104,0.4272460639476776,100.0,2710.0,1.0
469499.7336639,266992.0625,268098.90625,595400.875,509895.875,269532.0,256763.265625,232385.375,240740.1875,-0.1005859375,0.829345703125,-0.563720703125,-1.9836424589157104,1.2207030057907104,0.5187987685203552,100.0,2711.0,1.0
469499.7424792,267953.4375,268644.46875,597362.125,509934.0625,269802.375,256795.265625,232329.765625,240709.25,-0.099609375,0.826904296875,-0.562744140625,-2.044677495956421,1.2207030057907104,0.4577636420726776,100.0,2712.0,1.0
469499.7425197,268996.1875,269067.90625,596867.3125,509668.4375,269145.6875,256823.609375,232155.15625,240607.59375,-0.100341796875,0.8271484375,-0.562744140625,-2.044677495956421,1.1291502714157104,0.4882812201976776,100.0,2713.0,1.0
469499.7475157,268626.0625,268748.0,594495.375,509446.71875,268460.65625,256804.03125,232097.671875,240570.859375,-0.099853515625,0.825439453125,-0.562744140625,-2.044677495956421,1.0986326932907104,0.5493163466453552,100.0,2714.0,1.0
469499.7500941,267455.90625,268199.5,593537.375,509573.21875,268708.75,256785.53125,232250.8125,240660.4375,-0.099853515625,0.82568359375,-0.56396484375,-2.105712652206421,1.1596678495407104,0.5187987685203552,100.0,2715.0,1.0
469499.7501343,266993.03125,268112.59375,595251.1875,509845.90625,269538.0,256777.5625,232395.65625,240736.4375,-0.1015625,0.82470703125,-0.56298828125,-2.044677495956421,1.1596678495407104,0.5493163466453552,100.0,2716.0,1.0
469499.7725654,267947.625,268651.71875,597210.625,509883.1875,269809.625,256805.90625,232345.328125,240706.3125,-0.1025390625,0.826171875,-0.56201171875,-1.9836424589157104,1.1901854276657104,0.5798339247703552,100.0,2717.0,1.0
469499.7749978,268982.6875,269064.84375,596704.6875,509610.6875,269142.65625,256817.890625,232155.328125,240599.46875,-0.1015625,0.825927734375,-0.563232421875,-1.8615721464157104,1.1596678495407104,0.5187987685203552,100.0,2718.0,1.0
469499.7773767,268621.75,268748.625,594336.9375,509396.71875,268459.125,256801.34375,232102.40625,240568.796875,-0.101318359375,0.823486328125,-0.56494140625,-1.7700194120407104,1.1596678495407104,0.6103515028953552,100.0,2719.0,1.0
469499.7791252,267464.90625,268214.34375,593387.0625,509535.65625,268715.90625,256793.84375,232264.40625,240666.703125,-0.103759765625,0.823486328125,-0.562744140625,-1.7395018339157104,1.2512205839157104,0.6103515028953552,100.0,2720.0,1.0
469499.7863145,266992.9375,268120.71875,595092.0,509801.5625,269539.78125,256773.8125,232395.203125,240737.515625,-0.10546875,0.82421875,-0.559814453125,-1.7395018339157104,1.1901854276657104,0.6408690810203552,100.0,2721.0,1.0
469499.7863564,267940.75,268650.53125,597046.625,509828.75,269804.4375,256798.40625,232333.703125,240695.671875,-0.1044921875,0.822998046875,-0.56201171875,-1.7395018339157104,1.0986326932907104,0.6713866591453552,100.0,2722.0,1.0
469499.7888032,268983.6875,269070.40625,596552.1875,509558.03125,269142.5625,256817.078125,232150.859375,240586.40625,-0.1044921875,0.822265625,-0.559326171875,-1.5869139432907104,1.0375975370407104,0.6713866591453552,100.0,2723.0,1.0
469499.7913016,268627.125,268754.34375,594189.5,509345.84375,268461.71875,256799.734375,232098.109375,240556.546875,-0.10302734375,0.822265625,-0.55908203125,-1.5563963651657104,1.0375975370407104,0.7629393935203552,100.0,2724.0,1.0
469499.791344,267443.90625,268184.1875,593208.1875,509462.96875,268694.34375,256768.8125,232238.390625,240637.1875,-0.10400390625,0.823974609375,-0.5576171875,-1.6174315214157104,1.0070799589157104,0.7934569716453552,100.0,2725.0,1.0
469499.7937992,266983.1875,268098.5625,594919.5,509740.6875,269531.5625,256762.015625,232385.640625,240720.609375,-0.102294921875,0.8251953125,-0.561767578125,-1.6479490995407104,1.0986326932907104,0.7934569716453552,100.0,2726.0,1.0
469499.7961653,267935.125,268641.59375,596885.3125,509775.28125,269807.03125,256790.265625,232332.359375,240692.625,-0.102783203125,0.8251953125,-0.559814453125,-1.5563963651657104,0.9765624403953552,0.8239745497703552,100.0,2727.0,1.0
469499.8014195,268979.375,269063.875,596397.5,509506.96875,269148.1875,256809.75,232148.625,240588.109375,-0.1025390625,0.826416015625,-0.559326171875,-1.5258787870407104,0.9155272841453552,0.8239745497703552,100.0,2728.0,1.0
469499.8159312,268624.625,268749.625,594031.5,509289.09375,268463.15625,256791.25,232092.390625,240553.421875,-0.10302734375,0.8271484375,-0.5576171875,-1.4953612089157104,1.0070799589157104,0.8544921278953552,100.0,2729.0,1.0
469499.8159849,267449.625,268193.0625,593055.9375,509405.03125,268698.90625,256763.984375,232238.21875,240638.265625,-0.10302734375,0.827880859375,-0.558837890625,-1.4343260526657104,1.0070799589157104,0.7629393935203552,100.0,2730.0,1.0
469499.8474133,266988.125,268110.09375,594767.9375,509685.34375,269533.625,256757.890625,232388.78125,240726.59375,-0.10107421875,0.826416015625,-0.559814453125,-1.4648436307907104,0.8850097060203552,0.8239745497703552,100.0,2731.0,1.0
469499.8500392,267942.8125,268652.15625,596743.125,509727.90625,269814.53125,256794.375,232338.53125,240697.71875,-0.101318359375,0.828369140625,-0.557861328125,-1.4648436307907104,0.9460448622703552,0.8850097060203552,100.0,2732.0,1.0
469499.852579,268985.65625,269068.15625,596262.25,509452.96875,269151.5,256807.25,232149.96875,240584.359375,-0.102783203125,0.827880859375,-0.5595703125,-1.5869139432907104,1.0375975370407104,0.8850097060203552,100.0,2733.0,1.0
469499.8549544,268640.09375,268763.46875,593906.5625,509243.21875,268472.4375,256798.671875,232099.71875,240551.625,-0.100830078125,0.825927734375,-0.5595703125,-1.5869139432907104,1.0986326932907104,0.8850097060203552,100.0,2734.0,1.0
469499.8549945,267459.65625,268201.53125,592921.4375,509355.15625,268701.34375,256771.125,232239.828125,240630.046875,-0.10205078125,0.82763671875,-0.560791015625,-1.6174315214157104,1.0986326932907104,0.8544921278953552,100.0,2735.0,1.0
469499.8574143,266984.53125,268103.03125,594619.5625,509623.375,269526.65625,256754.859375,232377.421875,240704.96875,-0.101806640625,0.828125,-0.557861328125,-1.5869139432907104,1.0070799589157104,0.9460448622703552,100.0,2736.0,1.0
469499.8600148,267934.5625,268641.6875,596589.625,509657.4375,269798.625,256781.59375,232320.28125,240669.46875,-0.102294921875,0.826171875,-0.559814453125,-1.6174315214157104,0.9765624403953552,0.9460448622703552,100.0,2737.0,1.0
469499.8628083,268989.3125,269067.90625,596120.25,509393.6875,269142.65625,256805.109375,232141.109375,240565.9375,-0.103271484375,0.827880859375,-0.56103515625,-1.6174315214157104,1.0681151151657104,0.8544921278953552,100.0,2738.0,1.0
469499.8650383,268638.65625,268755.15625,593757.5625,509180.28125,268457.15625,256790.0,232087.296875,240531.421875,-0.103271484375,0.828125,-0.56103515625,-1.4953612089157104,1.0986326932907104,0.8544921278953552,100.0,2739.0,1.0
469499.8674043,267456.78125,268190.8125,592762.75,509295.59375,268687.125,256762.90625,232230.34375,240609.03125,-0.103515625,0.828857421875,-0.559326171875,-1.4038084745407104,1.1291502714157104,0.7934569716453552,100.0,2740.0,1.0
469499.8699159,266987.03125,268102.03125,594463.4375,509578.125,269521.71875,256757.453125,232377.0625,240689.671875,-0.1015625,0.82666015625,-0.55859375,-1.4038084745407104,1.2207030057907104,0.7934569716453552,100.0,2741.0,1.0
469499.8750331,267929.65625,268637.21875,596431.5625,509615.15625,269797.46875,256783.5625,232318.765625,240658.46875,-0.1025390625,0.826904296875,-0.5615234375,-1.3732908964157104,1.2512205839157104,0.7934569716453552,100.0,2742.0,1.0
469499.8775748,268977.96875,269062.4375,595959.3125,509346.75,269141.9375,256805.640625,232137.09375,240555.46875,-0.101318359375,0.8291015625,-0.5615234375,-1.3732908964157104,1.3122557401657104,0.7629393935203552,100.0,2743.0,1.0
469499.8799945,268623.71875,268750.0625,593592.6875,509130.28125,268455.5625,256787.9375,232083.8125,240523.734375,-0.101318359375,0.830322265625,-0.561767578125,-1.2817381620407104,1.3732908964157104,0.7934569716453552,100.0,2744.0,1.0
469499.8814896,267451.6875,268193.125,592602.875,509255.28125,268694.28125,256769.875,232235.796875,240616.1875,-0.101806640625,0.830810546875,-0.557861328125,-1.2512205839157104,1.4343260526657104,0.7324218153953552,100.0,2745.0,1.0
469499.8886762,266968.625,268090.5,594290.6875,509523.5,269514.5625,256751.28125,232371.875,240691.109375,-0.102783203125,0.82958984375,-0.559326171875,-1.1596678495407104,1.4343260526657104,0.6713866591453552,100.0,2746.0,1.0
469499.8887172,267904.09375,268618.90625,596250.3125,509550.78125,269781.90625,256766.484375,232310.90625,240653.5625,-0.101318359375,0.829833984375,-0.558349609375,-1.1596678495407104,1.4343260526657104,0.7019042372703552,100.0,2747.0,1.0
469499.8912377,268967.40625,269053.0625,595797.75,509290.25,269137.53125,256799.03125,232141.03125,240557.4375,-0.10205078125,0.82763671875,-0.55712890625,-1.1291502714157104,1.5258787870407104,0.6408690810203552,100.0,2748.0,1.0
469499.8938042,268625.4375,268750.0625,593443.5625,509077.625,268458.59375,256790.265625,232093.640625,240528.46875,-0.102294921875,0.82861328125,-0.55859375,-1.1291502714157104,1.5563963651657104,0.7629393935203552,100.0,2749.0,1.0
469499.8938477,267438.71875,268184.65625,592435.1875,509188.0625,268683.0,256759.421875,232232.484375,240607.421875,-0.103515625,0.828369140625,-0.557861328125,-0.9155272841453552,1.4953612089157104,0.6103515028953552,100.0,2750.0,1.0
469499.8961982,266964.875,268089.34375,594124.0,509462.875,269513.25,256753.421875,232378.21875,240687.4375,-0.10400390625,0.831298828125,-0.55908203125,-0.8544921278953552,1.5563963651657104,0.5493163466453552,100.0,2751.0,1.0
469499.8986814,267907.65625,268623.375,596096.125,509496.78125,269787.09375,256779.0,232320.46875,240647.46875,-0.10498046875,0.8330078125,-0.560302734375,-0.7934569716453552,1.6174315214157104,0.6408690810203552,100.0,2752.0,1.0
469499.902558,268959.8125,269047.78125,595631.9375,509229.4375,269130.46875,256799.921875,232133.78125,240543.3125,-0.1044921875,0.833251953125,-0.559326171875,-0.7934569716453552,1.6174315214157104,0.5493163466453552,100.0,2753.0,1.0
469499.9025992,268611.5625,268733.96875,593266.1875,509011.21875,268442.75,256784.09375,232077.1875,240512.03125,-0.106201171875,0.83056640625,-0.556396484375,-0.7019042372703552,1.5869139432907104,0.5187987685203552,100.0,2754.0,1.0
469499.9225955,267437.125,268175.875,592260.4375,509128.3125,268670.5,256757.1875,232221.3125,240595.34375,-0.105712890625,0.830322265625,-0.557373046875,-0.7324218153953552,1.4343260526657104,0.4882812201976776,100.0,2755.0,1.0
469499.9226359,266968.625,268088.4375,593952.3125,509414.34375,269507.78125,256752.4375,232372.40625,240682.875,-0.103515625,0.825439453125,-0.553955078125,-0.7629393935203552,1.4953612089157104,0.5493163466453552,100.0,2756.0,1.0
469499.9249147,267912.59375,268624.96875,595924.625,509454.46875,269791.90625,256783.375,232321.625,240650.421875,-0.100830078125,0.82470703125,-0.555419921875,-0.6408690810203552,1.4343260526657104,0.5187987685203552,100.0,2757.0,1.0
469499.9287917,268971.59375,269054.9375,595464.875,509188.9375,269138.8125,256807.34375,232142.546875,240545.8125,-0.1005859375,0.8232421875,-0.5595703125,-0.3967284858226776,1.4343260526657104,0.5493163466453552,100.0,2758.0,1.0
469499.9288261,268637.6875,268755.34375,593109.3125,508981.25,268460.125,256803.046875,232095.96875,240523.375,-0.09814453125,0.824951171875,-0.5615234375,-0.3051757514476776,1.6784666776657104,0.5798339247703552,100.0,2759.0,1.0
469499.928836,267460.71875,268196.0,592106.0625,509101.78125,268694.8125,256782.03125,232244.03125,240608.671875,-0.098388671875,0.8271484375,-0.560546875,-0.2441406100988388,1.7395018339157104,0.7324218153953552,100.0,2760.0,1.0
469499.9322833,266966.9375,268084.78125,593776.875,509364.375,269512.78125,256759.953125,232372.234375,240666.96875,-0.101318359375,0.8271484375,-0.562255859375,-0.1220703050494194,1.8005369901657104,0.7019042372703552,100.0,2761.0,1.0
469499.9474712,267927.96875,268635.625,595767.25,509418.1875,269810.15625,256804.03125,232332.890625,240643.90625,-0.099853515625,0.823974609375,-0.56201171875,-0.03051757626235485,1.8615721464157104,0.6713866591453552,100.0,2762.0,1.0
469499.9550462,268990.125,269067.28125,595311.5625,509155.6875,269161.875,256828.625,232155.59375,240542.25,-0.0986328125,0.82177734375,-0.5625,0.0610351525247097,1.8615721464157104,0.7019042372703552,100.0,2763.0,1.0
469499.9550629,268636.15625,268750.5,592938.25,508927.78125,268462.4375,256801.34375,232086.21875,240498.796875,-0.09814453125,0.8193359375,-0.561767578125,0.1220703050494194,1.8920897245407104,0.8850097060203552,100.0,2764.0,1.0
469499.9550656,267455.25,268191.1875,591927.25,509039.46875,268687.5625,256774.703125,232229.625,240578.71875,-0.09716796875,0.819580078125,-0.563720703125,0.3356933295726776,2.014159917831421,0.9460448622703552,100.0,2765.0,1.0
469499.9575002,266982.5625,268101.5,593625.875,509324.65625,269530.40625,256777.65625,232389.125,240673.5,-0.100830078125,0.820556640625,-0.561279296875,0.4577636420726776,2.075195074081421,0.7934569716453552,100.0,2766.0,1.0
469499.9575152,267919.90625,268631.6875,595607.0625,509361.21875,269812.125,256807.515625,232338.609375,240645.6875,-0.10595703125,0.8232421875,-0.561279296875,0.6103515028953552,2.258300542831421,0.7629393935203552,100.0,2767.0,1.0
469499.9599058,268965.15625,269051.8125,595146.1875,509083.8125,269151.59375,256823.171875,232152.5625,240536.34375,-0.110595703125,0.826171875,-0.559814453125,0.7324218153953552,2.166747808456421,0.7019042372703552,100.0,2768.0,1.0
469499.96374,268614.25,268737.09375,592777.5,508860.1875,268453.75,256801.96875,232090.875,240500.046875,-0.113037109375,0.826416015625,-0.560546875,0.7019042372703552,2.105712652206421,0.6408690810203552,100.0,2769.0,1.0
469499.9975247,267424.6875,268167.125,591757.0,508967.03125,268668.6875,256767.015625,232223.375,240579.96875,-0.11376953125,0.8251953125,-0.55908203125,0.6408690810203552,1.9226073026657104,0.3662109076976776,100.0,2770.0,1.0
469499.9975666,266946.0,268075.75,593446.4375,509247.59375,269504.84375,256761.296875,232376.609375,240674.125,-0.11376953125,0.82421875,-0.56005859375,0.7629393935203552,1.8615721464157104,0.2746581733226776,100.0,2771.0,1.0
469500.0000993,267884.25,268607.375,595425.5625,509287.84375,269787.90625,256787.484375,232322.796875,240642.296875,-0.1123046875,0.82568359375,-0.56201171875,0.6408690810203552,1.6784666776657104,0.1220703050494194,100.0,2772.0,1.0
469500.0001405,268942.09375,269033.46875,594971.8125,509021.03125,269134.6875,256806.453125,232140.671875,240533.21875,-0.1123046875,0.82666015625,-0.5625,0.7629393935203552,1.4648436307907104,-0.03051757626235485,100.0,2773.0,1.0
469500.0038607,268603.25,268723.875,592604.0625,508800.03125,268442.75,256789.1875,232082.734375,240496.90625,-0.11083984375,0.826904296875,-0.56494140625,0.7019042372703552,1.2817381620407104,0.0610351525247097,100.0,2774.0,1.0
469500.0039019,267425.59375,268164.09375,591584.875,508912.84375,268663.59375,256761.390625,232224.625,240574.609375,-0.10986328125,0.828369140625,-0.56494140625,0.7934569716453552,1.1291502714157104,-0.1220703050494194,100.0,2775.0,1.0
469500.003912,266948.25,268072.09375,593273.5,509196.8125,269499.46875,256757.265625,232375.359375,240661.328125,-0.1083984375,0.829345703125,-0.56103515625,0.7934569716453552,1.0986326932907104,-0.2441406100988388,100.0,2776.0,1.0
469500.0061924,267884.78125,268603.6875,595253.4375,509234.53125,269782.71875,256782.390625,232316.359375,240628.515625,-0.10693359375,0.830322265625,-0.563720703125,0.6408690810203552,1.0986326932907104,-0.1831054538488388,100.0,2777.0,1.0
469500.0062295,268946.84375,269035.71875,594807.0625,508971.5,269134.59375,256808.234375,232138.796875,240527.046875,-0.105224609375,0.829833984375,-0.565185546875,0.6103515028953552,1.0986326932907104,-0.3051757514476776,100.0,2778.0,1.0
469500.0087853,268614.6875,268735.75,592447.5625,508758.90625,268449.1875,256793.84375,232085.859375,240496.109375,-0.10546875,0.830078125,-0.56689453125,0.5798339247703552,1.0681151151657104,-0.3051757514476776,100.0,2779.0,1.0
469500.0112384,267435.78125,268171.25,591425.3125,508868.25,268668.25,256764.96875,232225.0625,240574.15625,-0.106201171875,0.831298828125,-0.5634765625,0.5187987685203552,1.0681151151657104,-0.0610351525247097,100.0,2780.0,1.0
469500.0112783,266953.6875,268072.4375,593117.1875,509150.3125,269503.59375,256758.4375,232374.46875,240663.5625,-0.107177734375,0.8291015625,-0.566650390625,0.4577636420726776,1.0375975370407104,-0.1220703050494194,100.0,2781.0,1.0
469500.0162625,267891.03125,268609.15625,595112.1875,509195.375,269794.59375,256790.078125,232327.265625,240635.3125,-0.106201171875,0.827880859375,-0.567138671875,0.4577636420726776,0.9765624403953552,0.0,100.0,2782.0,1.0
469500.0225257,268947.90625,269038.65625,594667.1875,508926.90625,269144.34375,256813.15625,232147.90625,240527.84375,-0.105224609375,0.826904296875,-0.567138671875,0.4272460639476776,0.9765624403953552,0.03051757626235485,100.0,2783.0,1.0
469500.0262675,268611.75,268732.875,592301.5,508705.96875,268451.09375,256797.953125,232091.578125,240494.328125,-0.104248046875,0.825927734375,-0.565185546875,0.4577636420726776,0.9765624403953552,0.1525878757238388,100.0,2784.0,1.0
469500.0263094,267447.9375,268182.0625,591296.3125,508829.8125,268682.1875,256782.75,232244.375,240583.734375,-0.103759765625,0.826171875,-0.566650390625,0.5798339247703552,0.9765624403953552,0.2746581733226776,100.0,2785.0,1.0
469500.0498763,266972.375,268092.90625,593002.1875,509117.59375,269526.65625,256782.75,232398.078125,240673.40625,-0.104736328125,0.825927734375,-0.564208984375,0.4272460639476776,1.0070799589157104,0.4577636420726776,100.0,2786.0,1.0
469500.0525411,267893.8125,268614.0625,594989.25,509147.8125,269804.6875,256798.84375,232331.90625,240626.28125,-0.10546875,0.82568359375,-0.5634765625,0.5187987685203552,1.0986326932907104,0.5798339247703552,100.0,2787.0,1.0
469500.052583,268932.4375,269027.3125,594527.9375,508862.15625,269137.0,256804.921875,232134.59375,240501.390625,-0.105224609375,0.8271484375,-0.565185546875,0.4272460639476776,1.0986326932907104,0.6103515028953552,100.0,2788.0,1.0
469500.0548957,268604.0625,268731.71875,592170.5,508649.71875,268451.15625,256798.84375,232088.28125,240478.234375,-0.108642578125,0.8271484375,-0.564208984375,0.3662109076976776,1.0986326932907104,0.6408690810203552,100.0,2789.0,1.0
469500.0575057,267420.21875,268169.625,591148.9375,508758.28125,268669.21875,256768.1875,232225.609375,240554.484375,-0.108642578125,0.828125,-0.56201171875,0.3051757514476776,1.0070799589157104,0.7019042372703552,100.0,2790.0,1.0
469500.0623901,266936.71875,268075.9375,592842.125,509041.15625,269507.4375,256762.1875,232379.5625,240643.1875,-0.10693359375,0.827392578125,-0.56396484375,0.2136230319738388,1.0375975370407104,0.7629393935203552,100.0,2791.0,1.0
469500.0648842,267864.9375,268604.875,594831.4375,509081.5625,269795.84375,256789.015625,232329.140625,240619.3125,-0.109375,0.826904296875,-0.56396484375,0.0915527269244194,0.9765624403953552,0.8239745497703552,100.0,2792.0,1.0
469500.067463,268924.84375,269035.09375,594383.1875,508812.71875,269143.09375,256809.578125,232144.421875,240515.15625,-0.109619140625,0.82666015625,-0.564697265625,0.03051757626235485,0.8850097060203552,0.8544921278953552,100.0,2793.0,1.0
469500.0698737,268587.15625,268723.25,592006.0,508586.4375,268438.75,256784.265625,232075.9375,240476.0,-0.10888671875,0.82666015625,-0.564208984375,0.03051757626235485,0.9460448622703552,0.8850097060203552,100.0,2794.0,1.0
469500.0724259,267410.65625,268160.875,590980.3125,508696.03125,268654.75,256757.1875,232218.359375,240559.3125,-0.109375,0.82666015625,-0.56298828125,-0.0915527269244194,0.8850097060203552,0.8850097060203552,100.0,2795.0,1.0
469500.0775223,266927.5,268067.625,592676.9375,508978.84375,269494.46875,256756.828125,232375.265625,240649.4375,-0.1064453125,0.825439453125,-0.56298828125,-0.1525878757238388,0.9460448622703552,0.8850097060203552,100.0,2796.0,1.0
469500.0825536,267856.4375,268598.59375,594677.3125,509022.46875,269788.0625,256790.0,232327.890625,240622.0,-0.10546875,0.8251953125,-0.564208984375,-0.1220703050494194,0.8239745497703552,0.9460448622703552,100.0,2797.0,1.0
469500.0826078,268922.875,269036.15625,594244.375,508761.84375,269145.0625,256817.171875,232153.984375,240521.59375,-0.105712890625,0.824951171875,-0.56201171875,-0.1831054538488388,0.8850097060203552,1.0070799589157104,100.0,2798.0,1.0
469500.0850123,268587.78125,268724.40625,591870.0,508534.5,268440.96875,256789.640625,232089.4375,240478.046875,-0.1064453125,0.826904296875,-0.5625,-0.1220703050494194,1.0681151151657104,0.9460448622703552,100.0,2799.0,1.0
469500.0887075,267403.21875,268153.53125,590830.75,508637.46875,268649.28125,256754.40625,232219.890625,240551.359375,-0.105712890625,0.824951171875,-0.564453125,-0.0610351525247097,1.0070799589157104,1.0070799589157104,100.0,2800.0,1.0
469500.1200417,266923.84375,268059.9375,592525.8125,508924.125,269490.15625,256752.359375,232374.375,240635.671875,-0.10400390625,0.82421875,-0.564208984375,-0.2441406100988388,1.0681151151657104,1.0375975370407104,100.0,2801.0,1.0
469500.120084,267848.21875,268584.03125,594521.9375,508964.90625,269781.90625,256780.421875,232322.078125,240601.34375,-0.10400390625,0.824951171875,-0.564697265625,-0.2441406100988388,1.1291502714157104,0.9460448622703552,100.0,2802.0,1.0
469500.1224843,268912.40625,269018.1875,594085.8125,508700.0625,269135.40625,256803.9375,232143.4375,240497.265625,-0.103271484375,0.8232421875,-0.56640625,-0.2136230319738388,1.2512205839157104,1.0375975370407104,100.0,2803.0,1.0
469500.1250239,268592.96875,268722.59375,591725.0625,508485.3125,268443.46875,256792.953125,232089.625,240465.265625,-0.103271484375,0.820556640625,-0.564697265625,-0.1220703050494194,1.2512205839157104,1.0375975370407104,100.0,2804.0,1.0
469500.1274317,267424.78125,268165.875,590697.0625,508601.71875,268662.0,256768.265625,232230.703125,240548.5,-0.102294921875,0.822021484375,-0.566162109375,-0.1831054538488388,1.4343260526657104,1.0375975370407104,100.0,2805.0,1.0
469500.1300642,266938.03125,268069.3125,592382.75,508886.125,269496.5,256759.5,232383.140625,240635.21875,-0.10107421875,0.822509765625,-0.567138671875,-0.2136230319738388,1.2512205839157104,1.0070799589157104,100.0,2806.0,1.0
469500.1324865,267865.03125,268605.5,594388.625,508937.90625,269795.75,256793.921875,232339.59375,240610.8125,-0.102294921875,0.822998046875,-0.566162109375,-0.1525878757238388,1.4038084745407104,0.9460448622703552,100.0,2807.0,1.0
469500.1349593,268938.96875,269045.09375,593966.25,508680.5625,269156.59375,256822.546875,232161.046875,240506.921875,-0.100830078125,0.822021484375,-0.563720703125,-0.3051757514476776,1.4343260526657104,0.8850097060203552,100.0,2808.0,1.0
469500.1375501,268608.34375,268739.15625,591598.0625,508452.0625,268452.15625,256801.265625,232094.359375,240455.515625,-0.098388671875,0.822021484375,-0.564453125,-0.2136230319738388,1.5869139432907104,0.8850097060203552,100.0,2809.0,1.0
469500.1423759,267415.65625,268159.78125,590547.0625,508554.875,268650.625,256759.15625,232220.234375,240521.859375,-0.1015625,0.822509765625,-0.565185546875,-0.2441406100988388,1.6479490995407104,0.8239745497703552,100.0,2810.0,1.0
469500.1450133,266929.09375,268061.96875,592235.875,508844.46875,269492.5,256759.0625,232377.0625,240612.78125,-0.104736328125,0.823974609375,-0.56591796875,-0.2441406100988388,1.7700194120407104,0.7324218153953552,100.0,2811.0,1.0
469500.1500808,267848.21875,268587.34375,594240.375,508883.4375,269785.03125,256784.90625,232326.453125,240580.234375,-0.102783203125,0.82763671875,-0.564208984375,-0.3051757514476776,1.8310545682907104,0.7324218153953552,100.0,2812.0,1.0
469500.1501212,268915.1875,269022.84375,593818.8125,508615.03125,269140.0625,256807.421875,232142.8125,240477.15625,-0.10302734375,0.826904296875,-0.56298828125,-0.2441406100988388,1.8310545682907104,0.6713866591453552,100.0,2813.0,1.0
469500.1524316,268595.90625,268724.3125,591456.5,508393.75,268443.40625,256795.984375,232084.703125,240443.0,-0.1025390625,0.826416015625,-0.5615234375,-0.3662109076976776,1.9531248807907104,0.6713866591453552,100.0,2814.0,1.0
469500.1548876,267419.3125,268161.125,590415.75,508500.96875,268653.125,256764.875,232222.828125,240522.484375,-0.103515625,0.82666015625,-0.5673828125,-0.4272460639476776,1.9226073026657104,0.7019042372703552,100.0,2815.0,1.0
469500.1573897,266928.84375,268062.25,592095.125,508782.15625,269490.15625,256757.265625,232373.484375,240610.640625,-0.103515625,0.827392578125,-0.5673828125,-0.4882812201976776,1.9226073026657104,0.5798339247703552,100.0,2816.0,1.0
469500.1598589,267849.46875,268590.71875,594093.125,508827.28125,269787.1875,256787.84375,232325.65625,240584.171875,-0.104736328125,0.828369140625,-0.564697265625,-0.5798339247703552,1.9226073026657104,0.5493163466453552,100.0,2817.0,1.0
469500.1636284,268908.21875,269020.875,593662.5625,508554.875,269136.84375,256805.109375,232139.328125,240474.921875,-0.105224609375,0.829833984375,-0.5615234375,-0.6103515028953552,1.9836424589157104,0.5798339247703552,100.0,2818.0,1.0
469500.1636605,268589.40625,268718.3125,591302.9375,508331.1875,268438.90625,256792.671875,232079.609375,240444.15625,-0.104248046875,0.830322265625,-0.564208984375,-0.7019042372703552,2.105712652206421,0.5493163466453552,100.0,2819.0,1.0
469500.1758196,267409.9375,268149.5,590248.1875,508433.28125,268644.1875,256760.671875,232215.328125,240521.953125,-0.10400390625,0.830078125,-0.5634765625,-0.8239745497703552,2.105712652206421,0.5493163466453552,100.0,2820.0,1.0
469500.1758505,266917.46875,268052.6875,591926.8125,508716.25,269482.84375,256757.546875,232369.375,240611.4375,-0.104248046875,0.830322265625,-0.5634765625,-0.8544921278953552,2.075195074081421,0.7324218153953552,100.0,2821.0,1.0
469500.2162407,267834.15625,268576.4375,593932.625,508761.59375,269781.625,256784.359375,232319.9375,240581.578125,-0.10546875,0.830810546875,-0.565673828125,-0.9460448622703552,2.105712652206421,0.6103515028953552,100.0,2822.0,1.0
469500.2162537,268899.375,269010.0625,593505.25,508495.0625,269135.21875,256804.390625,232136.203125,240474.734375,-0.107421875,0.831787109375,-0.5634765625,-1.0375975370407104,2.105712652206421,0.6713866591453552,100.0,2823.0,1.0
469500.2186043,268583.40625,268714.28125,591142.5,508271.90625,268434.28125,256786.515625,232071.109375,240437.71875,-0.106689453125,0.831298828125,-0.562255859375,-1.0375975370407104,2.075195074081421,0.6713866591453552,100.0,2824.0,1.0
469500.2236916,267417.90625,268160.875,590103.4375,508390.4375,268653.3125,256771.046875,232223.8125,240530.625,-0.1064453125,0.82861328125,-0.562255859375,-1.2207030057907104,2.105712652206421,0.8239745497703552,100.0,2825.0,1.0
469500.2262265,266924.375,268061.34375,591777.6875,508678.4375,269494.1875,256770.0625,232376.4375,240620.65625,-0.10498046875,0.828125,-0.561279296875,-1.3122557401657104,2.166747808456421,0.7629393935203552,100.0,2826.0,1.0
469500.2287477,267833.90625,268580.09375,593775.375,508714.65625,269781.90625,256784.359375,232309.734375,240574.25,-0.10546875,0.82861328125,-0.562255859375,-1.2207030057907104,2.136230230331421,0.8850097060203552,100.0,2827.0,1.0
469500.2310533,268909.75,269025.4375,593372.875,508452.59375,269141.65625,256810.5625,232131.375,240472.0625,-0.104248046875,0.826416015625,-0.56298828125,-1.3122557401657104,2.075195074081421,0.9155272841453552,100.0,2828.0,1.0
469500.2337603,268592.34375,268729.21875,591007.625,508227.1875,268439.90625,256795.71875,232070.84375,240433.53125,-0.10546875,0.8271484375,-0.56298828125,-1.3122557401657104,2.014159917831421,0.7629393935203552,100.0,2829.0,1.0
469500.2360155,267408.9375,268157.90625,589940.6875,508326.78125,268637.9375,256763.796875,232202.53125,240506.03125,-0.106689453125,0.826171875,-0.562744140625,-1.1596678495407104,2.014159917831421,0.9460448622703552,100.0,2830.0,1.0
469500.2385094,266917.9375,268057.6875,591615.5625,508617.375,269482.75,256765.046875,232365.078125,240604.296875,-0.106689453125,0.824951171875,-0.55859375,-1.3122557401657104,1.9531248807907104,0.9155272841453552,100.0,2831.0,1.0
469500.2435996,267839.1875,268586.4375,593628.0,508670.46875,269789.3125,256795.53125,232316.265625,240584.078125,-0.10791015625,0.825927734375,-0.560791015625,-1.3122557401657104,1.8920897245407104,0.9460448622703552,100.0,2832.0,1.0
469500.2462487,268904.375,269020.0625,593216.5,508398.40625,269143.09375,256810.296875,232125.296875,240474.734375,-0.106201171875,0.826416015625,-0.561767578125,-1.1596678495407104,1.8920897245407104,0.9460448622703552,100.0,2833.0,1.0
469500.2486973,268579.28125,268712.875,590844.5,508162.8125,268430.875,256785.796875,232056.265625,240430.03125,-0.10546875,0.8232421875,-0.5615234375,-1.1901854276657104,1.9531248807907104,0.9765624403953552,100.0,2834.0,1.0
469500.251148,267406.90625,268150.5,589785.9375,508276.8125,268639.90625,256765.671875,232199.40625,240510.234375,-0.10693359375,0.824951171875,-0.55859375,-1.1596678495407104,1.9531248807907104,1.0986326932907104,100.0,2835.0,1.0
469500.2511635,266902.46875,268044.71875,591442.9375,508564.96875,269479.71875,256761.03125,232353.28125,240595.625,-0.10595703125,0.8251953125,-0.56005859375,-1.0375975370407104,1.9531248807907104,1.0681151151657104,100.0,2836.0,1.0
469500.2562098,267813.78125,268571.25,593449.125,508611.8125,269781.8125,256787.046875,232300.796875,240568.96875,-0.105224609375,0.82470703125,-0.5595703125,-1.0681151151657104,1.9531248807907104,1.2207030057907104,100.0,2837.0,1.0
469500.2587688,268889.4375,269012.28125,593051.5625,508347.625,269143.71875,256810.015625,232119.75,240466.15625,-0.104736328125,0.825439453125,-0.56298828125,-1.0375975370407104,1.9226073026657104,1.2207030057907104,100.0,2838.0,1.0
469500.2612719,268589.84375,268726.0,590703.875,508131.875,268451.875,256806.453125,232071.5625,240440.5,-0.1044921875,0.8251953125,-0.56298828125,-1.0681151151657104,1.8920897245407104,1.2512205839157104,100.0,2839.0,1.0
469500.2612911,267410.75,268156.65625,589630.1875,508234.96875,268649.5625,256779.4375,232212.28125,240521.234375,-0.104736328125,0.824951171875,-0.561279296875,-0.9460448622703552,1.8310545682907104,1.3427733182907104,100.0,2840.0,1.0
469500.2636503,266907.1875,268047.6875,591288.0,508519.90625,269487.5,256772.921875,232364.8125,240613.5,-0.103759765625,0.82666015625,-0.56298828125,-0.9155272841453552,1.9226073026657104,1.2512205839157104,100.0,2841.0,1.0
469500.2660575,267806.375,268557.65625,593294.75,508556.03125,269782.625,256785.703125,232304.546875,240575.234375,-0.103271484375,0.829345703125,-0.5595703125,-0.7934569716453552,1.9226073026657104,1.2207030057907104,100.0,2842.0,1.0
469500.2687565,268871.75,268990.125,592898.625,508281.65625,269132.53125,256799.734375,232116.890625,240458.640625,-0.101318359375,0.827880859375,-0.5595703125,-0.7324218153953552,1.9531248807907104,1.2512205839157104,100.0,2843.0,1.0
469500.2710632,268565.625,268696.875,590539.75,508055.8125,268426.5,256781.140625,232052.78125,240421.0,-0.101318359375,0.82568359375,-0.561279296875,-0.8239745497703552,1.9226073026657104,1.2512205839157104,100.0,2844.0,1.0
469500.2761209,267394.03125,268134.40625,589468.125,508166.03125,268627.9375,256754.234375,232191.359375,240504.25,-0.101318359375,0.824951171875,-0.56005859375,-0.8850097060203552,1.9226073026657104,1.2512205839157104,100.0,2845.0,1.0
469500.2761455,266892.34375,268034.0,591124.875,508456.6875,269469.6875,256752.265625,232353.90625,240600.53125,-0.1025390625,0.824951171875,-0.559326171875,-0.7934569716453552,1.8615721464157104,1.2817381620407104,100.0,2846.0,1.0
469500.2786955,267809.40625,268566.78125,593144.8125,508511.6875,269783.25,256787.046875,232313.765625,240579.34375,-0.102783203125,0.824951171875,-0.560302734375,-0.7324218153953552,2.014159917831421,1.2512205839157104,100.0,2847.0,1.0
469500.2823355,268884.71875,269008.25,592756.5,508242.3125,269139.96875,256803.40625,232126.8125,240467.59375,-0.100341796875,0.82568359375,-0.56201171875,-0.7324218153953552,2.044677495956421,1.2207030057907104,100.0,2848.0,1.0
469500.2823658,268578.5,268712.3125,590401.0,508010.84375,268428.90625,256778.28125,232061.1875,240428.34375,-0.102294921875,0.826416015625,-0.56201171875,-0.7324218153953552,2.014159917831421,1.1901854276657104,100.0,2849.0,1.0
469500.2973912,267402.34375,268143.53125,589320.75,508114.71875,268623.53125,256750.65625,232197.078125,240503.703125,-0.102294921875,0.824951171875,-0.56298828125,-0.6408690810203552,1.9531248807907104,1.2512205839157104,100.0,2850.0,1.0
469500.2999324,266893.25,268031.3125,590969.75,508396.875,269459.78125,256747.609375,232347.640625,240588.015625,-0.099365234375,0.828125,-0.55859375,-0.7019042372703552,2.014159917831421,1.0681151151657104,100.0,2851.0,1.0
469500.2999726,267800.65625,268552.03125,592989.125,508441.5,269765.8125,256773.359375,232294.0,240561.203125,-0.099853515625,0.82763671875,-0.56103515625,-0.7324218153953552,1.9226073026657104,1.0070799589157104,100.0,2852.0,1.0
469500.302362,268885.0625,268997.53125,592615.6875,508178.90625,269131.1875,256797.6875,232111.25,240458.203125,-0.10009765625,0.828369140625,-0.56005859375,-0.7324218153953552,2.136230230331421,0.9460448622703552,100.0,2853.0,1.0
469500.3098981,268590.09375,268708.46875,590264.0625,507955.03125,268426.9375,256783.640625,232048.765625,240422.609375,-0.1015625,0.8271484375,-0.560791015625,-0.6408690810203552,2.075195074081421,0.8850097060203552,100.0,2854.0,1.0
469500.3148961,267416.1875,268139.40625,589179.0625,508060.625,268619.78125,256755.65625,232183.046875,240500.125,-0.1015625,0.827392578125,-0.5595703125,-0.6713866591453552,2.136230230331421,0.8239745497703552,100.0,2855.0,1.0
