Time,FZ,C3,CZ,C4,PZ,PO7,OZ,PO8,AccX,AccY,AccZ,Gyro1,Gyro2,Gyro3,Battery,Counter,Validation
911100.2642102,303069.65625,307265.96875,486340.09375,453237.78125,391895.3125,306692.875,291401.21875,310387.875,-0.016357421875,0.86572265625,-0.5146484375,1.0986326932907104,0.7934569716453552,0.5798339247703552,80.0,12214.0,1.0
911100.2692103,302574.6875,306666.03125,481573.1875,451275.3125,387106.40625,304857.96875,288776.5,308668.125,-0.017822265625,0.864990234375,-0.51220703125,0.9765624403953552,0.6713866591453552,0.7019042372703552,80.0,12215.0,1.0
911100.2702816,301997.90625,306499.75,477720.90625,450530.90625,383799.6875,304457.40625,287256.0625,307787.28125,-0.015625,0.861083984375,-0.509033203125,0.8850097060203552,0.4577636420726776,0.7934569716453552,80.0,12216.0,1.0
911100.2716222,302108.34375,306988.8125,480109.6875,452035.625,386630.46875,306065.65625,288965.25,308975.875,-0.0166015625,0.860595703125,-0.50634765625,0.7019042372703552,0.4272460639476776,0.9460448622703552,80.0,12217.0,1.0
911100.3093475,302741.96875,307450.59375,485381.46875,453684.8125,391742.40625,307447.28125,291532.375,310585.1875,-0.014404296875,0.85986328125,-0.509765625,0.5187987685203552,0.4272460639476776,0.8850097060203552,80.0,12218.0,1.0
911100.3093645,303050.25,307259.53125,486308.0,453209.0,392102.46875,306702.25,291408.8125,310383.65625,-0.013427734375,0.86181640625,-0.5126953125,0.4272460639476776,0.2746581733226776,0.8544921278953552,80.0,12219.0,1.0
911100.3093672,302552.0625,306658.53125,481551.375,451242.65625,387311.6875,304867.625,288787.5,308656.25,-0.008544921875,0.863525390625,-0.51806640625,0.5798339247703552,0.1525878757238388,0.9460448622703552,80.0,12220.0,1.0
911100.3093697,301972.34375,306488.5625,477691.65625,450493.875,383997.96875,304455.8125,287269.90625,307770.46875,-0.0068359375,0.86279296875,-0.521484375,0.8544921278953552,0.1831054538488388,0.9460448622703552,80.0,12221.0,1.0
911100.3093721,302086.78125,306972.875,480067.5625,452001.75,386820.65625,306054.9375,288973.90625,308953.0625,-0.0048828125,0.860595703125,-0.522705078125,1.0070799589157104,0.1525878757238388,1.1291502714157104,80.0,12222.0,1.0
911100.3093744,302724.8125,307431.0,485339.625,453652.375,391924.09375,307438.0625,291535.25,310559.53125,-0.00439453125,0.860595703125,-0.520263671875,1.2207030057907104,0.3356933295726776,1.1596678495407104,80.0,12223.0,1.0
911100.3093773,303035.9375,307242.28125,486285.125,453178.40625,392284.75,306690.0,291411.59375,310368.03125,-0.004150390625,0.8583984375,-0.51708984375,1.5258787870407104,0.4577636420726776,1.0986326932907104,80.0,12224.0,1.0
911100.3116515,302542.59375,306642.625,481544.03125,451216.03125,387497.0,304859.5625,288791.96875,308651.0625,-0.00830078125,0.859130859375,-0.513427734375,1.5563963651657104,0.6713866591453552,1.0070799589157104,80.0,12225.0,1.0
911100.3116642,301963.3125,306470.59375,477681.84375,450466.875,384179.125,304450.8125,287270.625,307766.28125,-0.014892578125,0.85986328125,-0.511474609375,1.4648436307907104,0.7324218153953552,0.8850097060203552,80.0,12226.0,1.0
911100.3128515,302073.5625,306953.21875,480040.21875,451974.125,386988.90625,306042.34375,288969.0,308951.625,-0.01806640625,0.861328125,-0.514404296875,1.4648436307907104,0.7629393935203552,0.7629393935203552,80.0,12227.0,1.0
911100.314008,302712.5625,307415.90625,485312.53125,453626.625,392089.3125,307428.40625,291532.28125,310562.125,-0.01806640625,0.861083984375,-0.516845703125,1.3732908964157104,0.7324218153953552,0.6713866591453552,80.0,12228.0,1.0
911100.3153402,303028.6875,307230.5625,486257.5,453152.21875,392450.59375,306687.9375,291409.625,310365.875,-0.017578125,0.863525390625,-0.515380859375,1.3732908964157104,0.5798339247703552,0.6713866591453552,80.0,12229.0,1.0
911100.3165385,302536.78125,306632.6875,481511.21875,451191.71875,387660.71875,304853.75,288791.78125,308645.5,-0.015625,0.861572265625,-0.5185546875,1.4038084745407104,0.4272460639476776,0.6103515028953552,80.0,12230.0,1.0
911100.3179569,301953.65625,306460.03125,477628.28125,450443.0,384328.96875,304444.71875,287267.59375,307754.84375,-0.0146484375,0.861083984375,-0.513916015625,1.4343260526657104,0.1831054538488388,0.5798339247703552,80.0,12231.0,1.0
911100.3327782,302061.84375,306941.0625,479974.84375,451951.75,387130.53125,306037.3125,288970.78125,308936.34375,-0.014404296875,0.861083984375,-0.515625,1.3732908964157104,0.03051757626235485,0.4577636420726776,80.0,12232.0,1.0
911100.3346732,302701.65625,307405.0625,485232.25,453600.875,392223.875,307417.59375,291535.25,310541.5625,-0.01220703125,0.86083984375,-0.5126953125,1.3732908964157104,-0.0915527269244194,0.4577636420726776,80.0,12233.0,1.0
911100.3346862,303020.46875,307220.625,486178.8125,453123.53125,392583.8125,306680.96875,291410.78125,310344.0625,-0.01318359375,0.86083984375,-0.5126953125,1.3122557401657104,-0.1525878757238388,0.3967284858226776,80.0,12234.0,1.0
911100.3346879,302526.9375,306621.875,481432.71875,451157.375,387798.21875,304847.9375,288788.5625,308628.15625,-0.014892578125,0.859375,-0.514892578125,1.1901854276657104,-0.0915527269244194,0.3662109076976776,80.0,12235.0,1.0
911100.3346896,301935.96875,306440.28125,477539.3125,450403.21875,384469.34375,304428.1875,287258.28125,307743.40625,-0.01220703125,0.858642578125,-0.516357421875,1.2512205839157104,-0.0610351525247097,0.3662109076976776,80.0,12236.0,1.0
911100.3404861,302036.375,306911.71875,479865.96875,451908.3125,387265.90625,306011.59375,288953.875,308927.125,-0.01220703125,0.85986328125,-0.51513671875,1.1901854276657104,0.03051757626235485,0.3967284858226776,80.0,12237.0,1.0
911100.3430316,302679.1875,307378.875,485129.25,453564.9375,392368.1875,307403.03125,291521.65625,310543.15625,-0.01123046875,0.859619140625,-0.516357421875,1.1291502714157104,0.03051757626235485,0.4882812201976776,80.0,12238.0,1.0
911100.3430438,303001.5,307201.125,486091.0,453091.4375,392738.3125,306673.8125,291400.40625,310353.28125,-0.010498046875,0.85986328125,-0.517333984375,1.1901854276657104,0.03051757626235485,0.4577636420726776,80.0,12239.0,1.0
911100.3579914,302508.875,306604.96875,481361.03125,451127.25,387952.4375,304847.40625,288778.65625,308634.875,-0.0107421875,0.859619140625,-0.52001953125,1.2512205839157104,0.1220703050494194,0.4272460639476776,80.0,12240.0,1.0
911100.3605081,301921.84375,306429.8125,477476.46875,450378.28125,384625.09375,304437.84375,287255.0625,307752.6875,-0.0107421875,0.85888671875,-0.517578125,1.2207030057907104,0.03051757626235485,0.6103515028953552,80.0,12241.0,1.0
911100.3605254,302024.125,306903.9375,479807.9375,451880.40625,387418.59375,306009.78125,288949.15625,308937.0625,-0.010986328125,0.8583984375,-0.520263671875,1.1901854276657104,0.1831054538488388,0.6713866591453552,80.0,12242.0,1.0
911100.3615901,302670.15625,307370.125,485089.125,453531.40625,392517.3125,307394.4375,291512.71875,310550.9375,-0.011474609375,0.859375,-0.52001953125,1.2512205839157104,0.3356933295726776,0.7934569716453552,80.0,12243.0,1.0
911100.3841833,302999.46875,307196.03125,486082.59375,453059.5,392893.25,306672.9375,291392.5625,310361.9375,-0.011962890625,0.857666015625,-0.519287109375,1.1901854276657104,0.3662109076976776,0.7324218153953552,80.0,12244.0,1.0
911100.384211,302508.625,306598.71875,481375.96875,451095.6875,388117.5,304844.09375,288774.375,308645.59375,-0.013671875,0.85888671875,-0.517333984375,1.1596678495407104,0.4272460639476776,0.8544921278953552,80.0,12245.0,1.0
911100.3866734,301919.59375,306417.9375,477493.09375,450345.125,384791.375,304421.9375,287252.46875,307757.6875,-0.015625,0.85986328125,-0.5166015625,1.0375975370407104,0.3967284858226776,0.8850097060203552,80.0,12246.0,1.0
911100.3866966,302021.34375,306892.5,479810.0,451852.53125,387582.5,306001.46875,288949.40625,308937.59375,-0.015380859375,0.859375,-0.517333984375,1.0375975370407104,0.4272460639476776,1.0070799589157104,80.0,12247.0,1.0
911100.3892699,302660.53125,307354.90625,485069.53125,453501.09375,392676.0,307382.1875,291511.1875,310544.4375,-0.0146484375,0.8583984375,-0.51708984375,1.0681151151657104,0.4577636420726776,1.1291502714157104,80.0,12248.0,1.0
911100.3893026,302984.96875,307181.1875,486053.09375,453024.65625,393054.375,306657.53125,291392.46875,310351.84375,-0.015380859375,0.85986328125,-0.51953125,1.0986326932907104,0.5187987685203552,1.1291502714157104,80.0,12249.0,1.0
911100.39053,302496.53125,306588.25,481340.46875,451062.34375,388284.0625,304835.4375,288777.84375,308635.0625,-0.0146484375,0.862060546875,-0.519775390625,0.9765624403953552,0.4577636420726776,1.2512205839157104,80.0,12250.0,1.0
911100.3917594,301906.28125,306406.75,477449.1875,450312.21875,384951.40625,304415.84375,287252.125,307748.5625,-0.0146484375,0.860595703125,-0.51806640625,0.9460448622703552,0.4577636420726776,1.3122557401657104,80.0,12251.0,1.0
911100.4079063,302005.96875,306874.09375,479758.40625,451817.65625,387734.46875,305989.75,288949.25,308927.0625,-0.015625,0.85986328125,-0.517578125,0.7934569716453552,0.4577636420726776,1.2817381620407104,80.0,12252.0,1.0
911100.4104759,302648.34375,307336.21875,485005.34375,453470.0625,392822.1875,307372.0,291511.375,310531.625,-0.01513671875,0.860107421875,-0.519287109375,0.6408690810203552,0.4272460639476776,1.3427733182907104,80.0,12253.0,1.0
911100.4105075,302980.875,307168.9375,485990.96875,453001.5625,393200.90625,306651.03125,291396.40625,310340.9375,-0.01416015625,0.861083984375,-0.51904296875,0.4272460639476776,0.4577636420726776,1.3122557401657104,80.0,12254.0,1.0
911100.4129485,302497.625,306581.28125,481281.4375,451037.3125,388428.0,304834.34375,288780.8125,308628.15625,-0.01171875,0.861083984375,-0.519287109375,0.4272460639476776,0.4577636420726776,1.3122557401657104,80.0,12255.0,1.0
911100.4129782,301906.46875,306399.59375,477375.53125,450280.84375,385085.78125,304415.84375,287248.4375,307738.03125,-0.01318359375,0.86181640625,-0.518798828125,0.2746581733226776,0.4577636420726776,1.4038084745407104,80.0,12256.0,1.0
911100.4140839,302005.875,306870.78125,479660.3125,451785.8125,387856.53125,305984.03125,288934.9375,308913.625,-0.015869140625,0.862060546875,-0.523681640625,0.1525878757238388,0.5187987685203552,1.4648436307907104,80.0,12257.0,1.0
911100.4328963,302653.1875,307340.34375,484925.9375,453443.5,392954.9375,307370.21875,291503.0625,310531.09375,-0.015625,0.860595703125,-0.5234375,0.2136230319738388,0.5798339247703552,1.4343260526657104,80.0,12258.0,1.0
911100.435578,302989.625,307176.28125,485938.5625,452973.21875,393346.28125,306654.9375,291386.46875,310346.46875,-0.013671875,0.856201171875,-0.518798828125,0.2136230319738388,0.4882812201976776,1.4953612089157104,80.0,12259.0,1.0
911100.4356202,302506.46875,306588.96875,481256.40625,451013.625,388583.5625,304840.34375,288769.96875,308632.46875,-0.01416015625,0.855712890625,-0.51953125,0.1831054538488388,0.3051757514476776,1.4343260526657104,80.0,12260.0,1.0
911100.4367791,301914.6875,306405.40625,477362.28125,450258.46875,385245.46875,304417.90625,287239.40625,307738.03125,-0.01318359375,0.856201171875,-0.523193359375,0.3662109076976776,0.3967284858226776,1.5258787870407104,80.0,12261.0,1.0
911100.4378698,302012.21875,306872.21875,479652.625,451763.28125,388018.15625,305992.53125,288927.6875,308910.96875,-0.01220703125,0.859619140625,-0.52587890625,0.3967284858226776,0.4882812201976776,1.6784666776657104,80.0,12262.0,1.0
911100.459307,302659.625,307339.90625,484918.78125,453424.03125,393112.65625,307376.09375,291497.875,310521.28125,-0.015625,0.859375,-0.523193359375,0.5187987685203552,0.4882812201976776,1.6174315214157104,80.0,12263.0,1.0
911100.4593484,302992.5625,307173.96875,485952.0625,452955.53125,393509.09375,306654.78125,291388.1875,310333.96875,-0.01513671875,0.858642578125,-0.523193359375,0.5187987685203552,0.5187987685203552,1.6479490995407104,80.0,12264.0,1.0
911100.4617101,302502.34375,306583.0625,481278.9375,450991.71875,388752.65625,304839.1875,288778.375,308620.90625,-0.016357421875,0.859375,-0.5244140625,0.6103515028953552,0.5187987685203552,1.7395018339157104,80.0,12265.0,1.0
911100.4617506,301903.0625,306394.875,477369.96875,450234.875,385413.21875,304414.0625,287248.53125,307728.0,-0.014892578125,0.860595703125,-0.521728515625,0.6408690810203552,0.6103515028953552,1.8920897245407104,80.0,12266.0,1.0
911100.462916,301993.4375,306857.09375,479642.25,451737.8125,388176.40625,305976.09375,288933.9375,308898.4375,-0.01611328125,0.85888671875,-0.52001953125,0.4882812201976776,0.4882812201976776,1.7700194120407104,80.0,12267.0,1.0
911100.4642156,302638.25,307325.0625,484909.59375,453393.90625,393270.8125,307362.15625,291501.09375,310509.375,-0.015625,0.860107421875,-0.52099609375,0.4272460639476776,0.3967284858226776,1.8310545682907104,80.0,12268.0,1.0
911100.4653861,302975.9375,307162.15625,485955.90625,452925.84375,393671.375,306652.09375,291392.65625,310325.28125,-0.016357421875,0.8603515625,-0.52001953125,0.3967284858226776,0.4577636420726776,1.8005369901657104,80.0,12269.0,1.0
911100.5093963,302489.40625,306573.9375,481295.5625,450961.5625,388916.71875,304838.03125,288780.625,308608.75,-0.01708984375,0.85986328125,-0.5224609375,0.2441406100988388,0.3662109076976776,1.6784666776657104,80.0,12270.0,1.0
911100.5094377,301886.59375,306382.15625,477388.5,450202.875,385573.96875,304407.53125,287245.59375,307715.0625,-0.016845703125,0.859375,-0.52294921875,0.1525878757238388,0.4272460639476776,1.6479490995407104,80.0,12271.0,1.0
911100.5094486,301968.3125,306838.59375,479646.03125,451696.59375,388327.5,305963.65625,288924.28125,308884.40625,-0.0185546875,0.859375,-0.522705078125,0.0610351525247097,0.4272460639476776,1.4953612089157104,80.0,12272.0,1.0
911100.5118341,302610.4375,307302.0,484894.5625,453353.40625,393414.0625,307352.3125,291487.15625,310491.0625,-0.01611328125,0.856689453125,-0.52392578125,0.1220703050494194,0.3356933295726776,1.4343260526657104,80.0,12273.0,1.0
911100.5118685,302957.625,307144.375,485934.28125,452892.5,393821.46875,306650.46875,291381.28125,310309.8125,-0.015869140625,0.858642578125,-0.5263671875,0.0915527269244194,0.3662109076976776,1.5869139432907104,80.0,12274.0,1.0
911100.5118772,302473.65625,306556.0625,481264.28125,450927.15625,389068.25,304838.90625,288768.46875,308591.0625,-0.013916015625,0.85791015625,-0.52783203125,0.1525878757238388,0.4577636420726776,1.5869139432907104,80.0,12275.0,1.0
911100.5118865,301870.875,306364.375,477332.625,450167.90625,385718.34375,304407.15625,287233.78125,307695.375,-0.012939453125,0.859375,-0.527587890625,0.2441406100988388,0.4577636420726776,1.7089842557907104,80.0,12276.0,1.0
911100.5144755,301954.75,306819.625,479551.78125,451667.34375,388462.53125,305950.34375,288914.375,308866.34375,-0.013671875,0.855712890625,-0.523681640625,0.2746581733226776,0.5187987685203552,1.6479490995407104,80.0,12277.0,1.0
911100.5145134,302604.71875,307290.53125,484788.96875,453329.96875,393550.59375,307339.4375,291482.21875,310480.0625,-0.012451171875,0.856689453125,-0.525390625,0.1525878757238388,0.7324218153953552,1.7089842557907104,80.0,12278.0,1.0
911100.5145224,302956.8125,307139.34375,485853.90625,452868.09375,393957.65625,306641.4375,291375.375,310295.5,-0.01220703125,0.857666015625,-0.5244140625,0.1525878757238388,0.7629393935203552,1.6479490995407104,80.0,12279.0,1.0
911100.5145315,302475.53125,306555.4375,481224.78125,450907.40625,389209.78125,304830.59375,288765.6875,308581.3125,-0.013671875,0.857666015625,-0.52392578125,0.0,0.8239745497703552,1.5563963651657104,80.0,12280.0,1.0
911100.5166836,301874.4375,306362.78125,477309.09375,450153.6875,385860.25,304400.71875,287232.0,307689.3125,-0.011474609375,0.85791015625,-0.522705078125,0.0,1.0375975370407104,1.4953612089157104,80.0,12281.0,1.0
911100.5167156,301960.09375,306820.1875,479526.03125,451656.4375,388599.5,305966.0625,288908.75,308858.03125,-0.0126953125,0.856201171875,-0.523193359375,-0.0610351525247097,1.0681151151657104,1.6479490995407104,80.0,12282.0,1.0
911100.5192707,302608.9375,307293.5,484767.59375,453316.71875,393685.40625,307363.5,291478.28125,310470.9375,-0.01123046875,0.855712890625,-0.5244140625,-0.0915527269244194,1.0681151151657104,1.7395018339157104,80.0,12283.0,1.0
911100.5330082,302961.46875,307143.75,485862.5625,452858.34375,394109.09375,306656.375,291383.53125,310292.5625,-0.01220703125,0.85595703125,-0.524169921875,-0.0915527269244194,1.0681151151657104,1.6784666776657104,80.0,12284.0,1.0
911100.5355413,302485.8125,306562.9375,481254.0,450903.46875,389375.375,304849.5625,288777.125,308581.59375,-0.010986328125,0.85595703125,-0.52099609375,-0.1525878757238388,1.1596678495407104,1.6784666776657104,80.0,12285.0,1.0
911100.5355771,301881.875,306366.96875,477337.25,450143.6875,386026.34375,304409.9375,287242.1875,307685.1875,-0.01123046875,0.855712890625,-0.523193359375,-0.1220703050494194,1.1291502714157104,1.5869139432907104,80.0,12286.0,1.0
911100.5355875,301959.75,306814.1875,479549.5625,451638.5625,388760.4375,305955.0625,288919.1875,308850.78125,-0.0126953125,0.857421875,-0.524169921875,-0.2136230319738388,1.2512205839157104,1.4648436307907104,80.0,12287.0,1.0
911100.5580167,302609.90625,307287.40625,484808.09375,453304.125,393854.84375,307353.3125,291490.28125,310466.46875,-0.01318359375,0.859130859375,-0.523681640625,-0.3051757514476776,1.3732908964157104,1.5258787870407104,80.0,12288.0,1.0
911100.5604847,302967.0,307142.5625,485923.5625,452846.46875,394287.28125,306666.03125,291390.40625,310288.71875,-0.012451171875,0.857421875,-0.522705078125,-0.3356933295726776,1.3732908964157104,1.4343260526657104,80.0,12289.0,1.0
911100.5605312,302486.96875,306559.8125,481330.96875,450886.375,389564.8125,304864.75,288785.0,308576.5,-0.010986328125,0.857177734375,-0.521728515625,-0.4882812201976776,1.5869139432907104,1.4648436307907104,80.0,12290.0,1.0
911100.5618333,301879.8125,306364.46875,477417.09375,450125.25,386226.09375,304430.78125,287255.0625,307682.875,-0.009521484375,0.859375,-0.521240234375,-0.5493163466453552,1.5869139432907104,1.4343260526657104,80.0,12291.0,1.0
911100.5630087,301952.40625,306812.65625,479611.875,451619.0,388964.90625,305978.9375,288933.5,308854.71875,-0.009033203125,0.85888671875,-0.51953125,-0.6713866591453552,1.6174315214157104,1.4343260526657104,80.0,12292.0,1.0
911100.5641203,302599.53125,307284.46875,484851.46875,453280.875,394056.90625,307377.71875,291501.8125,310473.625,-0.011962890625,0.859375,-0.52490234375,-0.6713866591453552,1.6479490995407104,1.3427733182907104,80.0,12293.0,1.0
911100.5655078,302961.09375,307143.65625,485988.0,452826.59375,394503.75,306698.40625,291408.75,310302.65625,-0.012451171875,0.85986328125,-0.525634765625,-0.7019042372703552,1.8005369901657104,1.4343260526657104,80.0,12294.0,1.0
911100.580865,302486.0,306562.9375,481415.125,450866.8125,389793.6875,304896.5,288806.0,308593.5625,-0.0107421875,0.859619140625,-0.525146484375,-0.8239745497703552,1.8310545682907104,1.4343260526657104,80.0,12295.0,1.0
911100.5809069,301868.1875,306356.40625,477481.03125,450096.125,386449.25,304448.9375,287265.625,307694.21875,-0.010009765625,0.862060546875,-0.5234375,-0.8544921278953552,1.8920897245407104,1.4343260526657104,80.0,12296.0,1.0
911100.5809169,301932.21875,306795.5,479637.0625,451585.28125,389174.03125,305983.15625,288937.71875,308858.75,-0.01123046875,0.862548828125,-0.523193359375,-0.9155272841453552,1.9531248807907104,1.3427733182907104,80.0,12297.0,1.0
911100.6354484,302578.8125,307268.1875,484859.6875,453247.53125,394263.25,307375.75,291507.71875,310472.71875,-0.009765625,0.86279296875,-0.5263671875,-0.9460448622703552,2.014159917831421,1.4343260526657104,80.0,12298.0,1.0
911100.637943,302946.25,307135.59375,486004.03125,452797.28125,394716.90625,306701.53125,291418.75,310303.46875,-0.01220703125,0.861083984375,-0.523681640625,-1.1291502714157104,2.136230230331421,1.3732908964157104,80.0,12299.0,1.0
911100.637984,302474.90625,306558.03125,481439.875,450840.34375,390016.3125,304905.625,288819.59375,308599.1875,-0.01123046875,0.861328125,-0.52392578125,-1.2207030057907104,2.288818120956421,1.4343260526657104,80.0,12300.0,1.0
911100.6392853,301848.625,306347.03125,477484.5,450065.625,386660.15625,304452.84375,287275.0,307695.75,-0.011962890625,0.86083984375,-0.52099609375,-1.4343260526657104,2.288818120956421,1.4038084745407104,80.0,12301.0,1.0
911100.6405913,301906.0,306782.71875,479604.8125,451548.875,389362.40625,305975.1875,288940.46875,308850.78125,-0.01220703125,0.861083984375,-0.523681640625,-1.5258787870407104,2.380370855331421,1.4648436307907104,80.0,12302.0,1.0
911100.6417918,302557.875,307260.25,484824.75,453215.15625,394442.6875,307366.8125,291513.34375,310466.375,-0.011474609375,0.85986328125,-0.5205078125,-1.6174315214157104,2.319335699081421,1.4648436307907104,80.0,12303.0,1.0
911100.6428885,302929.0,307128.625,485996.3125,452770.1875,394903.3125,306692.875,291429.375,310300.0625,-0.011962890625,0.861083984375,-0.519775390625,-1.6479490995407104,2.441406011581421,1.4953612089157104,80.0,12304.0,1.0
911100.6441403,302455.59375,306548.28125,481451.0625,450813.0625,390203.625,304893.0,288830.0625,308591.59375,-0.011962890625,0.862060546875,-0.51953125,-1.9226073026657104,2.471923589706421,1.3732908964157104,80.0,12305.0,1.0
911100.6455897,301834.3125,306334.96875,477485.9375,450039.34375,386845.59375,304437.46875,287286.0,307687.875,-0.013427734375,0.86279296875,-0.517822265625,-2.044677495956421,2.532958745956421,1.3732908964157104,80.0,12306.0,1.0
911100.6467955,301888.5625,306764.84375,479573.96875,451517.5,389537.5625,305961.875,288944.40625,308841.40625,-0.011474609375,0.860595703125,-0.520751953125,-2.136230230331421,2.410888433456421,1.3122557401657104,80.0,12307.0,1.0
911100.6480235,302538.5625,307242.09375,484776.375,453182.53125,394613.90625,307360.65625,291507.96875,310452.59375,-0.011474609375,0.861328125,-0.5185546875,-2.136230230331421,2.471923589706421,1.2817381620407104,80.0,12308.0,1.0
911100.6491899,302919.71875,307117.375,485963.59375,452740.5,395083.71875,306696.09375,291423.125,310287.1875,-0.01220703125,0.863037109375,-0.520263671875,-2.227782964706421,2.532958745956421,1.2817381620407104,80.0,12309.0,1.0
911100.6542898,302455.25,306541.9375,481437.03125,450791.96875,390394.15625,304901.59375,288825.3125,308584.71875,-0.009765625,0.860107421875,-0.517822265625,-2.258300542831421,2.532958745956421,1.2817381620407104,80.0,12310.0,1.0
911100.6555328,301825.90625,306324.5,477451.78125,450013.9375,387028.4375,304441.15625,287275.1875,307678.21875,-0.009521484375,0.861572265625,-0.5166015625,-2.319335699081421,2.471923589706421,1.2817381620407104,80.0,12311.0,1.0
911100.6567562,301869.25,306745.25,479500.09375,451482.09375,389703.65625,305947.28125,288926.25,308830.59375,-0.01171875,0.862548828125,-0.519775390625,-2.471923589706421,2.471923589706421,1.2512205839157104,80.0,12312.0,1.0
911100.6578597,302520.59375,307219.46875,484691.15625,453147.5625,394774.84375,307335.25,291490.90625,310447.25,-0.0126953125,0.861572265625,-0.521240234375,-2.471923589706421,2.441406011581421,1.2207030057907104,80.0,12313.0,1.0
911100.6844718,302909.96875,307103.15625,485909.15625,452712.875,395258.6875,306681.6875,291413.46875,310291.5,-0.01318359375,0.86083984375,-0.52001953125,-2.441406011581421,2.471923589706421,1.2207030057907104,80.0,12314.0,1.0
911100.6845128,302442.0,306530.3125,481401.53125,450759.875,390575.21875,304887.71875,288817.09375,308586.6875,-0.012451171875,0.859619140625,-0.51806640625,-2.380370855331421,2.441406011581421,1.0681151151657104,80.0,12315.0,1.0
911100.6845219,301810.4375,306313.40625,477418.625,449980.96875,387203.40625,304422.09375,287269.0,307678.9375,-0.012451171875,0.861083984375,-0.517333984375,-2.410888433456421,2.380370855331421,0.9765624403953552,80.0,12316.0,1.0
911100.6845303,301857.1875,306736.84375,479449.78125,451452.78125,389867.1875,305935.21875,288922.0625,308827.625,-0.0126953125,0.859619140625,-0.519287109375,-2.349853277206421,2.349853277206421,0.9460448622703552,80.0,12317.0,1.0
911100.6845392,302510.125,307214.46875,484633.84375,453120.9375,394935.5,307337.125,291490.53125,310441.59375,-0.011962890625,0.859130859375,-0.520751953125,-2.319335699081421,2.349853277206421,1.0070799589157104,80.0,12318.0,1.0
911100.6869237,302904.96875,307102.6875,485880.90625,452692.21875,395429.28125,306689.5625,291418.03125,310285.5,-0.01171875,0.859130859375,-0.5205078125,-2.258300542831421,2.319335699081421,1.0375975370407104,80.0,12319.0,1.0
911100.6869642,302450.6875,306537.65625,481409.46875,450750.3125,390762.0625,304908.75,288831.59375,308591.25,-0.009765625,0.856689453125,-0.51953125,-2.197265386581421,2.197265386581421,1.1291502714157104,80.0,12320.0,1.0
911100.6869728,301809.0,306311.4375,477413.53125,449965.5,387382.21875,304434.71875,287277.78125,307681.78125,-0.009521484375,0.857421875,-0.516845703125,-2.136230230331421,2.319335699081421,1.0681151151657104,80.0,12321.0,1.0
911100.6869824,301845.46875,306730.40625,479410.78125,451437.03125,390031.15625,305936.21875,288924.5625,308831.46875,-0.01123046875,0.85693359375,-0.517333984375,-2.227782964706421,2.288818120956421,0.8850097060203552,80.0,12322.0,1.0
911100.6879873,302500.125,307210.71875,484590.21875,453106.71875,395096.875,307336.6875,291492.875,310449.03125,-0.010498046875,0.857421875,-0.515380859375,-2.197265386581421,2.197265386581421,0.8239745497703552,80.0,12323.0,1.0
911100.6893576,302905.21875,307106.0,485861.21875,452679.25,395601.9375,306703.78125,291427.78125,310300.875,-0.010986328125,0.8583984375,-0.5185546875,-2.197265386581421,2.258300542831421,0.8544921278953552,80.0,12324.0,1.0
911100.6905975,302448.0,306535.6875,481388.75,450729.75,390931.9375,304912.5,288835.875,308602.59375,-0.011474609375,0.857421875,-0.519775390625,-2.014159917831421,2.258300542831421,0.7324218153953552,80.0,12325.0,1.0
911100.7080175,301808.125,306306.4375,477373.84375,449944.3125,387544.03125,304431.65625,287278.9375,307690.65625,-0.011962890625,0.856689453125,-0.518798828125,-1.9531248807907104,2.319335699081421,0.6713866591453552,80.0,12326.0,1.0
911100.7105503,301841.28125,306718.78125,479334.96875,451407.1875,390175.125,305933.34375,288920.625,308833.4375,-0.012451171875,0.857421875,-0.517333984375,-1.8005369901657104,2.136230230331421,0.6713866591453552,80.0,12327.0,1.0
911100.7105858,302492.0625,307192.90625,484486.34375,453067.46875,395217.40625,307329.15625,291480.875,310440.09375,-0.0107421875,0.859375,-0.51611328125,-1.9531248807907104,2.075195074081421,0.6713866591453552,80.0,12328.0,1.0
911100.7105956,302905.40625,307095.0,485781.65625,452648.59375,395725.21875,306694.90625,291420.28125,310286.84375,-0.0087890625,0.860595703125,-0.5185546875,-2.044677495956421,2.044677495956421,0.6408690810203552,80.0,12329.0,1.0
911100.7116597,302458.28125,306530.75,481347.15625,450709.34375,391068.46875,304911.25,288839.1875,308589.4375,-0.010009765625,0.860595703125,-0.51611328125,-2.136230230331421,1.9226073026657104,0.7019042372703552,80.0,12330.0,1.0
911100.7130462,301809.71875,306290.96875,477307.9375,449914.34375,387665.375,304420.84375,287274.8125,307666.5,-0.00830078125,0.86328125,-0.51806640625,-2.258300542831421,1.9836424589157104,0.7629393935203552,80.0,12331.0,1.0
911100.7330338,301837.34375,306697.34375,479224.71875,451374.375,390275.25,305911.625,288912.9375,308803.03125,-0.010009765625,0.862548828125,-0.520751953125,-2.197265386581421,1.8920897245407104,0.6713866591453552,80.0,12332.0,1.0
911100.7356891,302491.8125,307176.09375,484358.21875,453041.53125,395312.875,307307.1875,291476.0625,310410.75,-0.00927734375,0.860595703125,-0.51953125,-2.197265386581421,1.9531248807907104,0.7019042372703552,80.0,12333.0,1.0
911100.7357294,302906.75,307078.90625,485669.625,452623.5625,395826.15625,306672.75,291415.1875,310259.84375,-0.0107421875,0.859130859375,-0.515869140625,-2.044677495956421,2.014159917831421,0.6103515028953552,80.0,12334.0,1.0
911100.7357391,302453.0,306508.9375,481246.75,450679.125,391162.4375,304883.71875,288824.6875,308559.0625,-0.009765625,0.859375,-0.514404296875,-2.075195074081421,2.014159917831421,0.5798339247703552,80.0,12335.0,1.0
911100.736723,301801.59375,306269.34375,477198.6875,449887.53125,387751.46875,304391.78125,287260.15625,307639.84375,-0.01025390625,0.858154296875,-0.515869140625,-2.075195074081421,2.075195074081421,0.6103515028953552,80.0,12336.0,1.0
911100.7380331,301822.3125,306671.40625,479081.6875,451342.4375,390344.0,305871.75,288888.34375,308771.75,-0.01025390625,0.8603515625,-0.513427734375,-2.105712652206421,2.044677495956421,0.5493163466453552,80.0,12337.0,1.0
911100.7580079,302478.75,307154.90625,484214.1875,453010.34375,395378.96875,307269.90625,291451.375,310384.84375,-0.00927734375,0.8623046875,-0.513427734375,-2.136230230331421,1.9226073026657104,0.5798339247703552,80.0,12338.0,1.0
911100.7606674,302899.3125,307066.84375,485559.84375,452595.21875,395900.03125,306649.3125,291393.09375,310242.59375,-0.0107421875,0.86328125,-0.51318359375,-2.227782964706421,1.9226073026657104,0.4882812201976776,80.0,12339.0,1.0
911100.7607086,302454.34375,306503.3125,481161.03125,450653.46875,391250.125,304863.78125,288806.1875,308549.125,-0.009765625,0.86328125,-0.5146484375,-2.258300542831421,1.9226073026657104,0.4577636420726776,80.0,12340.0,1.0
911100.7607195,301800.5,306259.5,477087.90625,449854.09375,387829.875,304366.84375,287229.5,307625.71875,-0.0087890625,0.862548828125,-0.513916015625,-2.319335699081421,1.8920897245407104,0.4882812201976776,80.0,12341.0,1.0
911100.76179,301816.34375,306657.90625,478935.6875,451307.65625,390406.0625,305840.09375,288852.78125,308762.1875,-0.00830078125,0.863037109375,-0.519287109375,-2.410888433456421,1.8615721464157104,0.3967284858226776,80.0,12342.0,1.0
911100.7628943,302475.8125,307142.3125,484064.0625,452976.8125,395431.71875,307234.5625,291416.5,310380.0,-0.009765625,0.861572265625,-0.516845703125,-2.380370855331421,1.9531248807907104,0.5493163466453552,80.0,12343.0,1.0
911100.7641388,302904.59375,307062.28125,485433.15625,452565.96875,395958.125,306616.40625,291366.28125,310240.625,-0.0107421875,0.862060546875,-0.514404296875,-2.380370855331421,1.8615721464157104,0.6408690810203552,80.0,12344.0,1.0
911100.7843646,302461.9375,306503.9375,481053.71875,450627.8125,391311.125,304842.3125,288787.0625,308546.28125,-0.0107421875,0.86181640625,-0.515869140625,-2.319335699081421,1.7700194120407104,0.7629393935203552,80.0,12345.0,1.0
911100.7844048,301800.875,306252.4375,476979.0,449826.09375,387883.53125,304345.125,287213.9375,307617.15625,-0.01171875,0.858642578125,-0.515380859375,-2.471923589706421,1.8310545682907104,0.6408690810203552,80.0,12346.0,1.0
911100.7844147,301809.1875,306646.71875,478809.0,451274.6875,390444.84375,305821.40625,288837.84375,308741.8125,-0.012939453125,0.858154296875,-0.5166015625,-2.471923589706421,1.8005369901657104,0.5493163466453552,80.0,12347.0,1.0
911100.7853965,302470.71875,307137.3125,483928.0,452947.65625,395467.65625,307226.4375,291406.21875,310353.625,-0.013427734375,0.86083984375,-0.513427734375,-2.532958745956421,1.7395018339157104,0.5493163466453552,80.0,12348.0,1.0
911100.7880154,302909.4375,307063.625,485322.65625,452545.34375,396005.15625,306613.90625,291360.28125,310209.6875,-0.013427734375,0.860595703125,-0.514892578125,-2.349853277206421,1.6784666776657104,0.6408690810203552,80.0,12349.0,1.0
911100.7891509,302470.875,306508.15625,480969.78125,450610.03125,391367.71875,304839.8125,288784.375,308511.5625,-0.013427734375,0.862060546875,-0.515625,-2.441406011581421,1.5869139432907104,0.6103515028953552,80.0,12350.0,1.0
911100.8118569,301800.875,306251.71875,476873.0625,449803.65625,387929.65625,304334.46875,287211.53125,307580.03125,-0.012939453125,0.8623046875,-0.5166015625,-2.319335699081421,1.5869139432907104,0.5798339247703552,80.0,12351.0,1.0
911100.8118986,301801.59375,306638.15625,478654.125,451249.8125,390475.53125,305800.75,288835.5,308709.625,-0.012451171875,0.8603515625,-0.5185546875,-2.197265386581421,1.5869139432907104,0.5187987685203552,80.0,12352.0,1.0
911100.8119083,302464.28125,307128.53125,483752.5625,452926.28125,395495.71875,307206.9375,291408.90625,310333.78125,-0.01123046875,0.863037109375,-0.516357421875,-2.075195074081421,1.6479490995407104,0.5493163466453552,80.0,12353.0,1.0
911100.8128941,302915.9375,307063.1875,485170.125,452533.15625,396045.3125,306617.21875,291372.53125,310207.90625,-0.01025390625,0.86572265625,-0.51513671875,-2.075195074081421,1.6174315214157104,0.5187987685203552,80.0,12354.0,1.0
911100.8143038,302481.96875,306512.15625,480841.84375,450599.3125,391414.1875,304847.9375,288796.25,308521.9375,-0.010009765625,0.86572265625,-0.51171875,-2.319335699081421,1.5258787870407104,0.5187987685203552,80.0,12355.0,1.0
911100.816694,301815.96875,306258.875,476754.40625,449795.0,387973.90625,304336.53125,287215.28125,307596.6875,-0.010009765625,0.8623046875,-0.51220703125,-2.410888433456421,1.4648436307907104,0.6408690810203552,80.0,12356.0,1.0
911100.8167341,301803.0,306630.53125,478508.59375,451229.34375,390496.09375,305788.875,288814.78125,308712.28125,-0.010498046875,0.861083984375,-0.5126953125,-2.593993902206421,1.6174315214157104,0.6713866591453552,80.0,12357.0,1.0
911100.8180028,302452.375,307108.59375,483596.8125,452892.3125,395499.21875,307180.75,291367.25,310320.71875,-0.010498046875,0.8603515625,-0.5126953125,-2.685546636581421,1.6174315214157104,0.6103515028953552,80.0,12358.0,1.0
911100.8329564,302902.90625,307040.21875,485038.34375,452491.875,396046.28125,306581.625,291319.34375,310184.84375,-0.01025390625,0.861083984375,-0.5126953125,-2.777099370956421,1.6784666776657104,0.6408690810203552,80.0,12359.0,1.0
911100.8355634,302464.71875,306484.53125,480729.625,450556.75,391411.34375,304809.3125,288734.5625,308489.125,-0.01123046875,0.85986328125,-0.51318359375,-2.685546636581421,1.6174315214157104,0.5798339247703552,80.0,12360.0,1.0
911100.8356051,301783.25,306221.0625,476620.3125,449747.15625,387952.1875,304290.75,287147.59375,307549.5625,-0.00927734375,0.860595703125,-0.5126953125,-2.655029058456421,1.6174315214157104,0.5187987685203552,80.0,12361.0,1.0
911100.8368178,301768.78125,306595.3125,478336.21875,451187.78125,390457.90625,305741.3125,288760.21875,308666.6875,-0.01025390625,0.86181640625,-0.51416015625,-2.563476324081421,1.7395018339157104,0.3967284858226776,80.0,12362.0,1.0
911100.8580583,302419.65625,307075.96875,483400.5625,452854.3125,395449.3125,307140.34375,291327.65625,310277.8125,-0.009033203125,0.8603515625,-0.516845703125,-2.471923589706421,1.8005369901657104,0.4272460639476776,80.0,12363.0,1.0
911100.8605619,302876.15625,307016.34375,484864.78125,452463.34375,396001.84375,306549.71875,291297.15625,310145.65625,-0.007568359375,0.860595703125,-0.512451171875,-2.349853277206421,1.8310545682907104,0.3662109076976776,80.0,12364.0,1.0
911100.8606033,302441.125,306459.25,480577.0,450527.59375,391368.5,304774.1875,288718.5625,308447.75,-0.007080078125,0.862548828125,-0.510986328125,-2.197265386581421,1.7700194120407104,0.3051757514476776,80.0,12365.0,1.0
911100.8606138,301762.5,306196.90625,476467.25,449718.1875,387906.75,304259.03125,287135.34375,307512.0,-0.007080078125,0.86474609375,-0.514892578125,-2.319335699081421,1.8310545682907104,0.2746581733226776,80.0,12366.0,1.0
911100.8615779,301745.25,306574.5625,478161.78125,451152.625,390396.75,305711.875,288742.0,308629.0625,-0.00732421875,0.865234375,-0.513916015625,-2.410888433456421,1.8920897245407104,0.2136230319738388,80.0,12367.0,1.0
911100.8680663,302405.71875,307066.84375,483236.15625,452828.21875,395392.09375,307120.03125,291311.28125,310251.25,-0.0068359375,0.863037109375,-0.512451171875,-2.563476324081421,1.9531248807907104,0.1525878757238388,80.0,12368.0,1.0
911100.8681087,302871.96875,307013.375,484734.78125,452442.78125,395964.375,306529.96875,291281.59375,310134.03125,-0.006103515625,0.86279296875,-0.513916015625,-2.471923589706421,2.044677495956421,0.1831054538488388,80.0,12369.0,1.0
911100.8692613,302443.53125,306466.65625,480482.34375,450508.46875,391350.375,304767.21875,288705.34375,308451.9375,-0.0087890625,0.86083984375,-0.515625,-2.563476324081421,2.166747808456421,0.1525878757238388,80.0,12370.0,1.0
911100.909296,301765.09375,306196.75,476376.59375,449693.6875,387888.09375,304252.5,287115.875,307518.0,-0.011474609375,0.861328125,-0.513916015625,-2.471923589706421,2.105712652206421,0.0610351525247097,80.0,12371.0,1.0
911100.9093384,301742.21875,306563.3125,478075.59375,451124.65625,390382.53125,305700.71875,288720.71875,308633.875,-0.01171875,0.8642578125,-0.513427734375,-2.441406011581421,2.258300542831421,0.0610351525247097,80.0,12372.0,1.0
911100.911897,302409.28125,307061.65625,483169.28125,452801.21875,395385.125,307113.96875,291291.6875,310257.25,-0.01171875,0.864501953125,-0.5107421875,-2.471923589706421,2.380370855331421,0.03051757626235485,80.0,12373.0,1.0
911100.9119381,302886.34375,307019.90625,484718.25,452420.875,395974.21875,306547.125,291270.34375,310138.4375,-0.012451171875,0.86572265625,-0.509033203125,-2.502441167831421,2.380370855331421,0.03051757626235485,80.0,12374.0,1.0
911100.9119479,302460.25,306474.96875,480502.96875,450484.6875,391374.3125,304790.90625,288699.53125,308447.65625,-0.01025390625,0.8662109375,-0.5078125,-2.532958745956421,2.380370855331421,-0.1220703050494194,80.0,12375.0,1.0
911100.9128753,301774.75,306206.5,476403.59375,449664.71875,387919.0,304272.15625,287112.71875,307507.28125,-0.00927734375,0.864501953125,-0.50927734375,-2.532958745956421,2.349853277206421,-0.0915527269244194,80.0,12376.0,1.0
911100.914152,301751.4375,306574.75,478091.21875,451095.59375,390414.53125,305718.15625,288720.28125,308620.21875,-0.008056640625,0.86376953125,-0.509521484375,-2.593993902206421,2.380370855331421,0.0,80.0,12377.0,1.0
911100.9154108,302419.28125,307070.875,483182.34375,452774.3125,395423.3125,307130.96875,291294.28125,310236.875,-0.007080078125,0.86572265625,-0.51123046875,-2.532958745956421,2.410888433456421,0.0915527269244194,80.0,12378.0,1.0
911100.9167921,302898.6875,307032.34375,484759.1875,452394.59375,396030.8125,306567.96875,291277.5625,310120.0,-0.007568359375,0.866455078125,-0.5087890625,-2.563476324081421,2.410888433456421,0.0,80.0,12379.0,1.0
911100.91785,302473.3125,306484.09375,480570.5,450459.375,391441.75,304810.5,288706.84375,308431.90625,-0.007568359375,0.86572265625,-0.512451171875,-2.563476324081421,2.471923589706421,-0.03051757626235485,80.0,12380.0,1.0
911100.9192747,301789.15625,306213.5625,476467.5,449642.5625,387985.4375,304287.28125,287119.09375,307497.15625,-0.009521484375,0.86572265625,-0.510986328125,-2.593993902206421,2.532958745956421,0.0610351525247097,80.0,12381.0,1.0
911100.9342204,301756.96875,306572.15625,478109.46875,451064.3125,390463.09375,305721.8125,288714.625,308607.6875,-0.0107421875,0.86474609375,-0.50927734375,-2.593993902206421,2.593993902206421,-0.03051757626235485,80.0,12382.0,1.0
911100.934263,302418.59375,307065.5,483178.84375,452740.96875,395462.8125,307128.625,291281.96875,310226.5,-0.01025390625,0.8623046875,-0.5087890625,-2.655029058456421,2.685546636581421,-0.03051757626235485,80.0,12383.0,1.0
911100.9650995,302897.625,307029.03125,484756.96875,452366.4375,396072.46875,306566.15625,291266.3125,310113.3125,-0.01025390625,0.86181640625,-0.507568359375,-2.716064214706421,2.716064214706421,0.03051757626235485,80.0,12384.0,1.0
911100.9651403,302476.78125,306484.625,480571.03125,450438.625,391489.84375,304815.75,288702.9375,308430.9375,-0.013427734375,0.861572265625,-0.507080078125,-2.807616949081421,2.746581792831421,0.0610351525247097,80.0,12385.0,1.0
911100.9651488,301787.375,306207.8125,476431.75,449618.3125,388018.625,304286.90625,287106.65625,307487.34375,-0.013671875,0.86181640625,-0.50927734375,-2.655029058456421,2.838134527206421,0.0610351525247097,80.0,12386.0,1.0
911100.9651566,301750.8125,306566.625,478042.5,451044.46875,390484.5625,305710.46875,288701.9375,308596.15625,-0.015625,0.864990234375,-0.509765625,-2.593993902206421,2.746581792831421,0.1220703050494194,80.0,12387.0,1.0
911100.965166,302412.15625,307059.25,483100.0625,452725.75,395484.28125,307113.6875,291279.71875,310218.8125,-0.0107421875,0.864501953125,-0.511962890625,-2.685546636581421,2.593993902206421,0.1220703050494194,80.0,12388.0,1.0
911100.984427,302891.90625,307018.46875,484677.03125,452353.09375,396085.96875,306544.25,291263.8125,310098.71875,-0.00927734375,0.865966796875,-0.5107421875,-2.532958745956421,2.563476324081421,0.1220703050494194,80.0,12389.0,1.0
911100.9844677,302471.6875,306474.4375,480480.09375,450429.5,391489.75,304786.875,288694.25,308410.8125,-0.01171875,0.862548828125,-0.5087890625,-2.624511480331421,2.441406011581421,0.2441406100988388,80.0,12390.0,1.0
911100.9844766,301765.1875,306187.1875,476316.21875,449597.6875,388000.46875,304253.46875,287091.375,307467.125,-0.0126953125,0.85888671875,-0.509033203125,-2.593993902206421,2.563476324081421,0.1831054538488388,80.0,12391.0,1.0
911100.9844857,301721.125,306539.34375,477891.9375,451019.25,390445.75,305673.625,288681.8125,308573.71875,-0.01220703125,0.860595703125,-0.505859375,-2.441406011581421,2.563476324081421,0.2441406100988388,80.0,12392.0,1.0
911100.9869608,302378.15625,307027.875,482913.21875,452694.625,395423.65625,307065.40625,291248.96875,310190.09375,-0.0126953125,0.86376953125,-0.5078125,-2.258300542831421,2.563476324081421,0.2746581733226776,80.0,12393.0,1.0
911100.9869992,302864.0,306992.46875,484499.65625,452324.75,396028.84375,306504.5625,291235.5625,310078.78125,-0.012451171875,0.86865234375,-0.5078125,-2.136230230331421,2.563476324081421,0.2136230319738388,80.0,12394.0,1.0
911100.9870079,302441.75,306445.1875,480324.4375,450396.78125,391434.84375,304750.125,288667.6875,308396.6875,-0.012939453125,0.869873046875,-0.508056640625,-2.227782964706421,2.532958745956421,0.1525878757238388,80.0,12395.0,1.0
911100.987017,301744.0,306164.03125,476167.46875,449572.8125,387941.625,304216.46875,287068.28125,307457.75,-0.01318359375,0.873046875,-0.506103515625,-2.349853277206421,2.471923589706421,0.1525878757238388,80.0,12396.0,1.0
911100.9880271,301698.9375,306514.84375,477737.4375,450988.21875,390369.46875,305636.53125,288647.65625,308565.3125,-0.014892578125,0.871337890625,-0.5078125,-2.471923589706421,2.288818120956421,0.2441406100988388,80.0,12397.0,1.0
911100.9891404,302367.34375,307018.75,482782.78125,452667.0,395350.78125,307048.25,291217.59375,310192.53125,-0.016845703125,0.869384765625,-0.508544921875,-2.502441167831421,2.319335699081421,0.1525878757238388,80.0,12398.0,1.0
911100.9903555,302865.53125,306999.34375,484405.78125,452300.625,395966.8125,306497.78125,291210.0,310085.84375,-0.018798828125,0.865966796875,-0.508544921875,-2.563476324081421,2.380370855331421,0.3051757514476776,80.0,12399.0,1.0
911100.9916198,302449.6875,306455.21875,480261.9375,450369.625,391381.65625,304749.5,288642.75,308399.90625,-0.02099609375,0.864990234375,-0.51025390625,-2.563476324081421,2.136230230331421,0.2136230319738388,80.0,12400.0,1.0
911101.0078524,301747.75,306171.25,476118.1875,449542.34375,387891.84375,304216.5625,287043.875,307450.6875,-0.023681640625,0.8642578125,-0.509033203125,-2.563476324081421,2.044677495956421,0.2441406100988388,80.0,12401.0,1.0
911101.010548,301701.1875,306523.15625,477694.71875,450955.5,390330.78125,305642.25,288634.625,308549.40625,-0.0234375,0.86669921875,-0.50830078125,-2.502441167831421,1.8615721464157104,0.2441406100988388,80.0,12402.0,1.0
911101.0105786,302366.71875,307021.875,482752.46875,452632.59375,395322.4375,307051.90625,291212.84375,310162.125,-0.02294921875,0.86669921875,-0.51025390625,-2.471923589706421,1.6174315214157104,0.2441406100988388,80.0,12403.0,1.0
911101.0105889,302866.96875,307001.65625,484410.53125,452269.34375,395962.59375,306510.65625,291218.46875,310050.53125,-0.023681640625,0.865966796875,-0.50830078125,-2.441406011581421,1.3122557401657104,0.2136230319738388,80.0,12404.0,1.0
911101.011623,302459.25,306468.71875,480310.21875,450347.15625,391407.125,304775.09375,288663.40625,308368.53125,-0.0205078125,0.866943359375,-0.509033203125,-2.349853277206421,1.0070799589157104,0.1831054538488388,80.0,12405.0,1.0
911101.0128019,301764.9375,306190.9375,476198.125,449523.03125,387935.03125,304244.4375,287067.21875,307424.46875,-0.01904296875,0.869140625,-0.505126953125,-2.227782964706421,0.8850097060203552,0.2441406100988388,80.0,12406.0,1.0
911101.0343734,301706.625,306536.65625,477794.40625,450932.34375,390390.40625,305653.6875,288659.46875,308532.0625,-0.018798828125,0.870361328125,-0.50244140625,-2.319335699081421,0.7629393935203552,0.3051757514476776,80.0,12407.0,1.0
911101.0344138,302367.34375,307031.53125,482876.46875,452610.25,395402.90625,307065.6875,291236.53125,310162.3125,-0.01611328125,0.87109375,-0.50390625,-2.349853277206421,0.7019042372703552,0.2746581733226776,80.0,12408.0,1.0
911101.0344243,302870.96875,307013.375,484569.03125,452252.25,396062.28125,306527.8125,291235.28125,310063.6875,-0.014404296875,0.87255859375,-0.503662109375,-2.410888433456421,0.6103515028953552,0.3356933295726776,80.0,12409.0,1.0
911101.0354638,302467.03125,306480.78125,480492.0,450334.9375,391522.46875,304788.125,288677.875,308393.125,-0.013671875,0.874755859375,-0.4990234375,-2.471923589706421,0.6103515028953552,0.3967284858226776,80.0,12410.0,1.0
911101.0367854,301762.78125,306196.03125,476363.53125,449501.03125,388049.90625,304249.53125,287072.78125,307450.3125,-0.01220703125,0.874267578125,-0.4990234375,-2.502441167831421,0.6408690810203552,0.5493163466453552,80.0,12411.0,1.0
911101.0392039,301701.4375,306537.5625,477919.3125,450904.28125,390491.34375,305661.8125,288653.84375,308553.15625,-0.0107421875,0.874755859375,-0.50244140625,-2.532958745956421,0.6713866591453552,0.6103515028953552,80.0,12412.0,1.0
911101.0392392,302363.15625,307031.90625,482969.71875,452583.96875,395492.5,307064.53125,291225.375,310177.3125,-0.00927734375,0.875732421875,-0.501953125,-2.685546636581421,0.7019042372703552,0.6408690810203552,80.0,12413.0,1.0
911101.0592352,302865.96875,307014.71875,484646.09375,452225.4375,396156.34375,306519.0625,291229.28125,310076.75,-0.007568359375,0.874755859375,-0.498046875,-2.777099370956421,0.7934569716453552,0.6713866591453552,80.0,12414.0,1.0
911101.0592788,302458.71875,306475.5,480554.75,450307.75,391615.53125,304776.96875,288676.375,308400.0,-0.0068359375,0.876220703125,-0.49951171875,-2.777099370956421,0.8239745497703552,0.7934569716453552,80.0,12415.0,1.0
911101.0605956,301747.9375,306180.1875,476395.53125,449470.625,388127.59375,304230.15625,287071.5,307447.53125,-0.00830078125,0.87353515625,-0.499755859375,-2.899169683456421,0.9460448622703552,0.9155272841453552,80.0,12416.0,1.0
911101.0616449,301690.09375,306522.375,477914.75,450878.875,390552.59375,305641.25,288653.46875,308542.875,-0.007568359375,0.871826171875,-0.498046875,-3.051757574081421,1.0681151151657104,0.9460448622703552,80.0,12417.0,1.0
911101.0628823,302352.875,307018.125,482932.8125,452558.125,395541.0625,307043.25,291227.5,310157.1875,-0.008544921875,0.86962890625,-0.498046875,-3.051757574081421,1.1291502714157104,1.1291502714157104,80.0,12418.0,1.0
911101.0643143,302866.15625,307009.4375,484610.96875,452207.65625,396205.15625,306498.21875,291241.0,310055.0,-0.005126953125,0.865966796875,-0.499267578125,-3.234863042831421,1.1596678495407104,1.1291502714157104,80.0,12419.0,1.0
911101.0843892,302458.375,306467.65625,480511.65625,450287.625,391656.9375,304747.1875,288683.0,308364.78125,-0.0068359375,0.8642578125,-0.501953125,-3.204345464706421,1.3122557401657104,1.0681151151657104,80.0,12420.0,1.0
911101.084429,301744.1875,306168.75,476329.71875,449451.9375,388156.75,304201.8125,287072.40625,307405.15625,-0.0087890625,0.861083984375,-0.50244140625,-3.051757574081421,1.5258787870407104,0.9765624403953552,80.0,12421.0,1.0
911101.084439,301678.1875,306505.375,477823.1875,450856.34375,390572.625,305611.9375,288651.59375,308500.65625,-0.008056640625,0.859375,-0.501953125,-2.899169683456421,1.5258787870407104,0.9155272841453552,80.0,12422.0,1.0
911101.0854118,302338.84375,307005.78125,482849.65625,452534.5,395570.8125,307023.84375,291230.09375,310126.8125,-0.009033203125,0.857666015625,-0.501708984375,-2.746581792831421,1.5869139432907104,0.9765624403953552,80.0,12423.0,1.0
911101.0879277,302852.84375,306996.40625,484549.53125,452179.75,396244.3125,306497.78125,291238.78125,310028.8125,-0.009765625,0.857177734375,-0.501708984375,-2.563476324081421,1.7395018339157104,1.0070799589157104,80.0,12424.0,1.0
911101.087962,302447.8125,306458.96875,480484.21875,450258.03125,391705.125,304752.90625,288679.40625,308345.8125,-0.0107421875,0.85546875,-0.501953125,-2.410888433456421,1.7395018339157104,0.9460448622703552,80.0,12425.0,1.0
911101.0903036,301739.28125,306163.125,476329.90625,449422.625,388215.40625,304198.0625,287070.0,307395.34375,-0.0107421875,0.854736328125,-0.5009765625,-2.319335699081421,1.7700194120407104,0.8239745497703552,80.0,12426.0,1.0
911101.1092236,301673.09375,306493.125,477838.65625,450831.9375,390642.96875,305599.78125,288650.71875,308497.09375,-0.012451171875,0.853759765625,-0.50244140625,-2.105712652206421,1.7395018339157104,0.6103515028953552,80.0,12427.0,1.0
911101.1092384,302334.90625,306990.3125,482876.65625,452512.78125,395650.3125,306996.84375,291230.09375,310126.4375,-0.01171875,0.85498046875,-0.5009765625,-1.8920897245407104,1.8005369901657104,0.6713866591453552,80.0,12428.0,1.0
911101.1115852,302856.21875,306988.875,484608.71875,452164.90625,396338.03125,306465.40625,291243.15625,310038.75,-0.01318359375,0.855712890625,-0.50390625,-1.6479490995407104,1.7089842557907104,0.4882812201976776,80.0,12429.0,1.0
911101.1115983,302458.375,306457.09375,480578.96875,450250.0625,391815.90625,304731.625,288686.90625,308363.0625,-0.013671875,0.855712890625,-0.504150390625,-1.4038084745407104,1.7700194120407104,0.4272460639476776,80.0,12430.0,1.0
911101.1128139,301744.53125,306158.375,476435.6875,449409.90625,388326.875,304187.5,287070.875,307406.5,-0.0166015625,0.856201171875,-0.501220703125,-1.2207030057907104,1.8310545682907104,0.4272460639476776,80.0,12431.0,1.0
911101.1142411,301675.53125,306493.75,477950.5,450806.09375,390749.71875,305587.4375,288646.34375,308502.71875,-0.015380859375,0.85791015625,-0.501708984375,-1.0070799589157104,1.7395018339157104,0.3356933295726776,80.0,12432.0,1.0
911101.1342533,302337.75,306989.5,482998.25,452481.9375,395762.59375,306988.25,291228.84375,310131.625,-0.013671875,0.85986328125,-0.501708984375,-0.7629393935203552,1.6174315214157104,0.2441406100988388,80.0,12433.0,1.0
911101.1342714,302855.34375,306982.09375,484724.78125,452135.65625,396451.21875,306453.34375,291242.34375,310039.53125,-0.015380859375,0.8623046875,-0.500732421875,-0.6713866591453552,1.5258787870407104,0.1525878757238388,80.0,12434.0,1.0
911101.1367464,302449.5,306445.65625,480679.125,450221.46875,391926.78125,304723.65625,288689.59375,308366.75,-0.013671875,0.8642578125,-0.50048828125,-0.5798339247703552,1.5563963651657104,0.0610351525247097,80.0,12435.0,1.0
911101.1367668,301738.1875,306147.5625,476509.34375,449378.28125,388429.71875,304186.59375,287073.125,307414.8125,-0.012939453125,0.8642578125,-0.500732421875,-0.4882812201976776,1.5563963651657104,0.0915527269244194,80.0,12436.0,1.0
911101.1379515,301671.9375,306480.96875,477981.25,450779.28125,390837.78125,305581.625,288644.71875,308515.0625,-0.010498046875,0.864013671875,-0.501953125,-0.3967284858226776,1.6479490995407104,0.0915527269244194,80.0,12437.0,1.0
911101.1392314,302335.625,306978.6875,482993.78125,452467.09375,395838.0625,306976.46875,291222.3125,310143.78125,-0.01123046875,0.864990234375,-0.503173828125,-0.3356933295726776,1.6784666776657104,0.1525878757238388,80.0,12438.0,1.0
911101.1580198,302850.59375,306971.625,484704.3125,452121.09375,396523.0,306438.6875,291235.09375,310051.6875,-0.011474609375,0.8662109375,-0.5029296875,-0.3051757514476776,1.5869139432907104,0.1220703050494194,80.0,12439.0,1.0
911101.1606718,302446.03125,306433.84375,480640.84375,450200.90625,391991.9375,304707.5625,288675.125,308372.8125,-0.011474609375,0.867431640625,-0.5009765625,-0.3051757514476776,1.6479490995407104,0.0915527269244194,80.0,12440.0,1.0
911101.1607136,301730.3125,306133.4375,476455.0,449358.40625,388490.15625,304167.75,287059.1875,307419.46875,-0.0126953125,0.8701171875,-0.50244140625,-0.3051757514476776,1.7089842557907104,0.1525878757238388,80.0,12441.0,1.0
911101.1607238,301655.59375,306467.46875,477910.625,450756.125,390890.28125,305565.625,288628.09375,308510.25,-0.01220703125,0.870361328125,-0.50390625,-0.2441406100988388,1.7089842557907104,0.0610351525247097,80.0,12442.0,1.0
911101.161598,302318.625,306968.21875,482917.15625,452441.96875,395887.78125,306960.28125,291207.40625,310139.5,-0.01318359375,0.872314453125,-0.50341796875,-0.1220703050494194,1.7700194120407104,0.0915527269244194,80.0,12443.0,1.0
911101.1629799,302842.0,306963.9375,484634.75,452099.8125,396576.5625,306425.96875,291226.0625,310051.0,-0.017333984375,0.872802734375,-0.503173828125,-0.1220703050494194,1.7395018339157104,0.0915527269244194,80.0,12444.0,1.0
911101.1856354,302440.40625,306433.5,480592.125,450185.6875,392057.5625,304703.71875,288677.1875,308379.53125,-0.01806640625,0.873046875,-0.502197265625,-0.1831054538488388,1.7089842557907104,0.2136230319738388,80.0,12445.0,1.0
911101.185676,301724.25,306131.375,476414.125,449339.65625,388553.53125,304162.46875,287057.5625,307420.8125,-0.01953125,0.872314453125,-0.500732421875,-0.1525878757238388,1.7395018339157104,0.1831054538488388,80.0,12446.0,1.0
911101.1880867,301657.46875,306464.875,477891.3125,450735.90625,390951.15625,305563.46875,288623.96875,308510.0625,-0.020263671875,0.869873046875,-0.499267578125,-0.2441406100988388,1.5258787870407104,0.1831054538488388,80.0,12447.0,1.0
911101.1881278,302325.34375,306972.34375,482927.53125,452421.5,395960.53125,306969.84375,291207.84375,310139.59375,-0.0185546875,0.865966796875,-0.502197265625,-0.3967284858226776,1.4038084745407104,0.2136230319738388,80.0,12448.0,1.0
911101.1891476,302849.6875,306971.53125,484671.0625,452082.90625,396662.5625,306437.15625,291230.28125,310051.0,-0.016845703125,0.866943359375,-0.5029296875,-0.3967284858226776,1.3122557401657104,0.3356933295726776,80.0,12449.0,1.0
911101.191776,302449.59375,306438.3125,480639.34375,450167.71875,392145.8125,304713.46875,288679.40625,308376.21875,-0.013427734375,0.86669921875,-0.50439453125,-0.3051757514476776,1.1596678495407104,0.3967284858226776,80.0,12450.0,1.0
911101.1930423,301736.0625,306138.1875,476470.625,449319.78125,388645.71875,304174.4375,287060.4375,307417.78125,-0.010986328125,0.8681640625,-0.50830078125,-0.3051757514476776,1.2207030057907104,0.5798339247703552,80.0,12451.0,1.0
911101.2093344,301665.875,306474.34375,477948.96875,450718.46875,391053.09375,305584.03125,288633.53125,308515.15625,-0.0107421875,0.8701171875,-0.50634765625,-0.2136230319738388,1.1291502714157104,0.6408690810203552,80.0,12452.0,1.0
911101.2093765,302325.6875,306977.875,482984.375,452401.9375,396063.375,306990.6875,291215.78125,310145.03125,-0.00830078125,0.869873046875,-0.507080078125,-0.0610351525247097,1.2207030057907104,0.7629393935203552,80.0,12453.0,1.0
911101.2116801,302851.75,306977.71875,484739.4375,452063.53125,396776.375,306462.71875,291242.15625,310063.15625,-0.008056640625,0.869873046875,-0.505859375,0.0,1.4038084745407104,0.8544921278953552,80.0,12454.0,1.0
911101.2117109,302452.5625,306443.875,480716.21875,450149.21875,392270.4375,304742.71875,288695.9375,308394.46875,-0.008056640625,0.869140625,-0.505615234375,-0.0915527269244194,1.6174315214157104,0.9460448622703552,80.0,12455.0,1.0
911101.2130404,301742.125,306147.84375,476546.28125,449305.65625,388773.21875,304207.0625,287078.84375,307438.0625,-0.00732421875,0.86865234375,-0.5048828125,-0.2746581733226776,1.7700194120407104,0.9155272841453552,80.0,12456.0,1.0
911101.2192812,301677.125,306486.6875,478029.09375,450712.75,391182.625,305613.28125,288652.5,308535.1875,-0.013427734375,0.86767578125,-0.505126953125,-0.2441406100988388,1.8920897245407104,1.0070799589157104,80.0,12457.0,1.0
911101.2193231,302338.75,306988.4375,483059.9375,452398.78125,396190.3125,307020.625,291234.5625,310161.40625,-0.017578125,0.8671875,-0.5048828125,-0.2746581733226776,1.9531248807907104,0.9155272841453552,80.0,12458.0,1.0
911101.2543254,302858.375,306980.84375,484810.15625,452057.875,396902.0,306500.09375,291259.875,310073.4375,-0.02001953125,0.8662109375,-0.506103515625,-0.2746581733226776,1.9836424589157104,0.9155272841453552,80.0,12459.0,1.0
911101.254372,302462.03125,306450.84375,480790.53125,450148.40625,392399.1875,304778.125,288714.8125,308400.8125,-0.0205078125,0.867431640625,-0.507568359375,-0.1831054538488388,1.8310545682907104,0.7934569716453552,80.0,12460.0,1.0
911101.2567778,301747.03125,306152.40625,476620.84375,449300.3125,388902.125,304230.78125,287098.0625,307440.21875,-0.021240234375,0.86767578125,-0.5078125,-0.1525878757238388,1.6479490995407104,0.6408690810203552,80.0,12461.0,1.0
911101.2568184,301677.84375,306487.21875,478088.5625,450695.9375,391302.4375,305626.6875,288666.4375,308526.40625,-0.01953125,0.867919921875,-0.504638671875,-0.1220703050494194,1.5258787870407104,0.6103515028953552,80.0,12462.0,1.0
911101.2568285,302341.59375,306990.3125,483126.8125,452384.21875,396316.75,307035.90625,291252.0,310150.5,-0.015869140625,0.868408203125,-0.503173828125,-0.1525878757238388,1.4953612089157104,0.4577636420726776,80.0,12463.0,1.0
911101.2593116,302862.5,306991.75,484888.75,452046.625,397038.34375,306512.96875,291283.5625,310064.5625,-0.013427734375,0.867919921875,-0.50439453125,-0.1525878757238388,1.4648436307907104,0.4882812201976776,80.0,12464.0,1.0
911101.2593463,302458.8125,306456.65625,480862.3125,450126.4375,392533.3125,304785.90625,288733.21875,308389.625,-0.012939453125,0.866943359375,-0.503662109375,-0.1525878757238388,1.4648436307907104,0.5187987685203552,80.0,12465.0,1.0
911101.259355,301745.625,306157.9375,476668.75,449279.46875,389029.09375,304240.4375,287108.875,307430.1875,-0.010498046875,0.86767578125,-0.505126953125,-0.2441406100988388,1.5563963651657104,0.5187987685203552,80.0,12466.0,1.0
911101.2593642,301678.03125,306490.34375,478114.375,450677.96875,391423.21875,305632.21875,288671.71875,308525.6875,-0.007080078125,0.867431640625,-0.510498046875,-0.2746581733226776,1.6479490995407104,0.5493163466453552,80.0,12467.0,1.0
911101.2655033,302343.9375,306993.71875,483127.25,452368.125,396434.59375,307038.40625,291253.875,310163.28125,-0.009521484375,0.8671875,-0.50830078125,-0.4272460639476776,1.6784666776657104,0.4577636420726776,80.0,12468.0,1.0
911101.2655448,302865.78125,306990.75,484866.5,452032.9375,397152.34375,306509.84375,291279.28125,310083.34375,-0.00830078125,0.86865234375,-0.51123046875,-0.3662109076976776,1.8920897245407104,0.5493163466453552,80.0,12469.0,1.0
911101.2843306,302461.6875,306453.0625,480829.21875,450116.84375,392643.625,304777.0625,288724.84375,308410.1875,-0.010009765625,0.86572265625,-0.506591796875,-0.3356933295726776,2.105712652206421,0.4882812201976776,80.0,12470.0,1.0
911101.2843737,301738.09375,306143.90625,476624.6875,449263.8125,389126.8125,304221.46875,287093.59375,307444.5,-0.008544921875,0.86572265625,-0.509033203125,-0.3662109076976776,2.319335699081421,0.5493163466453552,80.0,12471.0,1.0
911101.285766,301664.0,306472.65625,478057.0,450660.0,391507.1875,305617.5625,288650.625,308531.96875,-0.00830078125,0.86669921875,-0.507080078125,-0.2136230319738388,2.410888433456421,0.5187987685203552,80.0,12472.0,1.0
911101.2858075,302328.1875,306977.96875,483076.03125,452349.1875,396518.71875,307029.3125,291237.78125,310166.21875,-0.009521484375,0.86767578125,-0.505859375,-0.3967284858226776,2.410888433456421,0.6713866591453552,80.0,12473.0,1.0
911101.2858176,302850.3125,306975.5625,484819.71875,452009.0625,397235.125,306508.6875,291267.21875,310078.34375,-0.00830078125,0.8671875,-0.50634765625,-0.3662109076976776,2.624511480331421,0.6713866591453552,80.0,12474.0,1.0
911101.2917442,302449.5,306441.34375,480791.21875,450092.8125,392727.6875,304789.375,288718.5625,308401.6875,-0.00830078125,0.8681640625,-0.50537109375,-0.4272460639476776,2.716064214706421,0.8544921278953552,80.0,12475.0,1.0
911101.2930413,301732.375,306138.71875,476598.3125,449241.375,389214.875,304233.09375,287093.5,307437.1875,-0.011474609375,0.8681640625,-0.506103515625,-0.5493163466453552,2.807616949081421,0.8850097060203552,80.0,12476.0,1.0
911101.2941423,301660.9375,306466.46875,478037.59375,450635.6875,391598.46875,305618.53125,288657.0625,308523.375,-0.01171875,0.8681640625,-0.50537109375,-0.6408690810203552,2.899169683456421,0.8850097060203552,80.0,12477.0,1.0
911101.3245538,302322.1875,306966.34375,483068.0625,452327.90625,396614.03125,307029.46875,291247.8125,310157.125,-0.01220703125,0.865966796875,-0.5068359375,-0.7019042372703552,2.838134527206421,0.8850097060203552,80.0,12478.0,1.0
911101.3245944,302840.03125,306962.25,484821.53125,451988.3125,397336.875,306510.28125,291278.46875,310072.09375,-0.012939453125,0.8642578125,-0.506591796875,-0.7629393935203552,2.899169683456421,0.8544921278953552,80.0,12479.0,1.0
911101.3246043,302443.78125,306430.71875,480800.25,450071.96875,392836.3125,304783.5625,288731.8125,308399.1875,-0.015380859375,0.861572265625,-0.507080078125,-0.7629393935203552,2.899169683456421,0.8544921278953552,80.0,12480.0,1.0
911101.3366459,301727.8125,306129.0625,476607.0,449217.96875,389325.65625,304229.6875,287102.28125,307433.875,-0.016845703125,0.86279296875,-0.5068359375,-0.6408690810203552,2.990722417831421,0.7629393935203552,80.0,12481.0,1.0
911101.3505278,301662.375,306467.375,478064.3125,450615.65625,391721.59375,305633.75,288665.09375,308524.625,-0.01611328125,0.86669921875,-0.50439453125,-0.4272460639476776,2.990722417831421,0.6103515028953552,80.0,12482.0,1.0
911101.3516329,302329.34375,306976.375,483113.5625,452305.53125,396753.59375,307054.25,291256.65625,310162.03125,-0.016845703125,0.869384765625,-0.5029296875,-0.4272460639476776,2.990722417831421,0.5798339247703552,80.0,12483.0,1.0
911101.3528978,302857.65625,306984.40625,484901.71875,451971.25,397503.53125,306546.21875,291296.96875,310087.65625,-0.01611328125,0.870361328125,-0.50341796875,-0.4882812201976776,2.807616949081421,0.6408690810203552,80.0,12484.0,1.0
911101.3541606,302468.125,306460.40625,480927.9375,450058.5625,393035.25,304834.1875,288760.15625,308426.28125,-0.0146484375,0.8701171875,-0.50244140625,-0.7324218153953552,2.777099370956421,0.5187987685203552,80.0,12485.0,1.0
911101.355599,301758.5625,306163.40625,476782.9375,449210.4375,389560.15625,304294.25,287139.71875,307475.625,-0.01611328125,0.86572265625,-0.50537109375,-0.8239745497703552,2.624511480331421,0.4577636420726776,80.0,12486.0,1.0
911101.3567552,301678.75,306489.8125,478219.0,450598.125,391957.15625,305691.21875,288695.40625,308566.5625,-0.016845703125,0.863037109375,-0.505859375,-0.9765624403953552,2.716064214706421,0.4577636420726776,80.0,12487.0,1.0
911101.3592061,302331.3125,306983.875,483221.84375,452277.03125,396971.5625,307091.96875,291274.34375,310194.03125,-0.0166015625,0.8623046875,-0.51025390625,-0.9460448622703552,2.807616949081421,0.3967284858226776,80.0,12488.0,1.0
911101.3592468,302850.875,306980.125,484962.15625,451946.75,397703.1875,306557.125,291307.4375,310112.59375,-0.0146484375,0.861328125,-0.5078125,-0.9155272841453552,2.716064214706421,0.3051757514476776,80.0,12489.0,1.0
911101.3604954,302451.03125,306443.40625,480928.03125,450036.125,393204.65625,304818.4375,288762.1875,308438.25,-0.0166015625,0.86181640625,-0.508056640625,-0.7324218153953552,2.624511480331421,0.3356933295726776,80.0,12490.0,1.0
911101.361652,301730.40625,306131.84375,476711.21875,449175.9375,389682.21875,304255.8125,287130.0625,307464.4375,-0.015380859375,0.86376953125,-0.509521484375,-0.6103515028953552,2.624511480331421,0.3662109076976776,80.0,12491.0,1.0
911101.3630156,301655.5,306461.5625,478115.28125,450561.5625,392048.28125,305642.96875,288680.3125,308538.5625,-0.015625,0.866943359375,-0.506591796875,-0.5493163466453552,2.471923589706421,0.3967284858226776,80.0,12492.0,1.0
911101.384474,302320.84375,306965.5625,483123.6875,452257.09375,397067.84375,307050.9375,291270.4375,310169.90625,-0.014892578125,0.869384765625,-0.506591796875,-0.5493163466453552,2.502441167831421,0.3356933295726776,80.0,12493.0,1.0
911101.3845143,302850.3125,306972.4375,484883.84375,451930.75,397810.09375,306531.9375,291313.0625,310093.0,-0.017333984375,0.868408203125,-0.50732421875,-0.6103515028953552,2.441406011581421,0.3662109076976776,80.0,12494.0,1.0
911101.3845233,302452.09375,306440.8125,480858.5625,450016.90625,393311.40625,304804.75,288768.1875,308421.53125,-0.018798828125,0.869873046875,-0.507080078125,-0.6408690810203552,2.380370855331421,0.3967284858226776,80.0,12495.0,1.0
911101.3845316,301734.53125,306135.125,476650.625,449161.8125,389791.8125,304253.5625,287137.5,307455.6875,-0.017333984375,0.870849609375,-0.50390625,-0.7629393935203552,2.380370855331421,0.3967284858226776,80.0,12496.0,1.0
911101.3845406,301659.59375,306464.5,478067.90625,450548.15625,392164.3125,305640.1875,288688.71875,308539.90625,-0.017578125,0.869873046875,-0.504638671875,-0.7324218153953552,2.319335699081421,0.4882812201976776,80.0,12497.0,1.0
911101.3853863,302320.6875,306970.8125,483071.46875,452243.3125,397179.25,307043.34375,291274.1875,310178.40625,-0.01611328125,0.868896484375,-0.5048828125,-0.7324218153953552,2.319335699081421,0.4882812201976776,80.0,12498.0,1.0
911101.3868768,302842.625,306972.875,484827.34375,451914.5625,397917.21875,306518.96875,291312.1875,310106.34375,-0.017578125,0.86962890625,-0.50732421875,-0.7629393935203552,2.105712652206421,0.5493163466453552,80.0,12499.0,1.0
911101.3869186,302440.5,306435.90625,480789.96875,449996.25,393412.09375,304788.65625,288761.125,308432.71875,-0.017578125,0.868408203125,-0.505859375,-0.8850097060203552,2.136230230331421,0.7019042372703552,80.0,12500.0,1.0
911101.3930256,301719.59375,306128.78125,476561.3125,449134.46875,389884.34375,304231.3125,287122.375,307462.375,-0.01904296875,0.86767578125,-0.507568359375,-0.9765624403953552,1.9836424589157104,0.6713866591453552,80.0,12501.0,1.0
911101.3941439,301638.40625,306452.96875,477966.5,450520.8125,392253.5625,305622.3125,288672.71875,308542.25,-0.017822265625,0.86865234375,-0.5048828125,-0.9460448622703552,1.9836424589157104,0.6713866591453552,80.0,12502.0,1.0
911101.4093181,302290.625,306951.4375,482969.90625,452208.4375,397265.25,307035.8125,291259.875,310173.46875,-0.017822265625,0.868896484375,-0.506103515625,-1.0375975370407104,2.014159917831421,0.7324218153953552,80.0,12503.0,1.0
911101.409366,302812.875,306952.40625,484730.15625,451880.3125,398003.40625,306520.84375,291301.625,310097.03125,-0.01904296875,0.8671875,-0.509033203125,-1.0070799589157104,1.9531248807907104,0.7934569716453552,80.0,12504.0,1.0
911101.4117457,302412.0625,306419.1875,480708.625,449966.65625,393500.96875,304793.40625,288756.03125,308423.78125,-0.017333984375,0.86767578125,-0.50927734375,-1.0986326932907104,1.8615721464157104,0.8239745497703552,80.0,12505.0,1.0
911101.4117857,301685.625,306111.90625,476495.75,449109.25,389969.375,304226.125,287121.40625,307451.65625,-0.0166015625,0.868896484375,-0.50537109375,-1.1596678495407104,1.8615721464157104,1.0375975370407104,80.0,12506.0,1.0
911101.4128975,301600.25,306439.40625,477904.8125,450495.59375,392332.0625,305609.0625,288672.71875,308530.1875,-0.016845703125,0.86767578125,-0.5078125,-1.1596678495407104,1.8310545682907104,1.0375975370407104,80.0,12507.0,1.0
911101.4330349,302256.03125,306941.59375,482909.09375,452187.34375,397345.1875,307019.375,291261.40625,310162.3125,-0.01513671875,0.8681640625,-0.50927734375,-1.2207030057907104,1.7700194120407104,1.0681151151657104,80.0,12508.0,1.0
911101.4356378,302784.625,306945.4375,484673.09375,451862.8125,398089.3125,306506.1875,291304.84375,310085.125,-0.01513671875,0.867919921875,-0.5068359375,-1.3122557401657104,1.7700194120407104,1.1596678495407104,80.0,12509.0,1.0
911101.4356782,302390.96875,306418.28125,480655.875,449954.84375,393591.53125,304779.09375,288759.96875,308413.6875,-0.0146484375,0.8662109375,-0.50341796875,-1.2512205839157104,1.6479490995407104,1.1291502714157104,80.0,12510.0,1.0
911101.436709,301673.09375,306114.125,476436.65625,449097.875,390058.4375,304218.78125,287120.875,307442.34375,-0.0146484375,0.866455078125,-0.504150390625,-1.3122557401657104,1.7089842557907104,1.2207030057907104,80.0,12511.0,1.0
911101.438002,301597.8125,306439.40625,477841.34375,450477.625,392417.09375,305609.34375,288665.90625,308522.40625,-0.01513671875,0.86767578125,-0.50537109375,-1.3732908964157104,1.7089842557907104,1.2207030057907104,80.0,12512.0,1.0
911101.4391357,302262.21875,306945.4375,482858.21875,452170.625,397429.78125,307026.53125,291253.15625,310158.90625,-0.0146484375,0.8671875,-0.506103515625,-1.4343260526657104,1.6174315214157104,1.2817381620407104,80.0,12513.0,1.0
911101.4593701,302792.40625,306951.15625,484644.03125,451848.40625,398178.5625,306515.65625,291298.5,310088.09375,-0.013916015625,0.867431640625,-0.5087890625,-1.4038084745407104,1.6479490995407104,1.2817381620407104,80.0,12514.0,1.0
911101.459413,302400.6875,306425.4375,480641.03125,449940.375,393682.28125,304782.78125,288754.0625,308420.1875,-0.01513671875,0.8671875,-0.5048828125,-1.4953612089157104,1.7395018339157104,1.1596678495407104,80.0,12515.0,1.0
911101.4594229,301685.8125,306121.71875,476431.5625,449088.3125,390153.125,304226.5625,287116.3125,307451.46875,-0.01611328125,0.86865234375,-0.5087890625,-1.5563963651657104,1.6784666776657104,1.0986326932907104,80.0,12516.0,1.0
911101.4604568,301604.09375,306448.15625,477830.875,450470.28125,392513.625,305620.25,288660.09375,308531.875,-0.012451171875,0.869873046875,-0.508544921875,-1.6479490995407104,1.7395018339157104,1.0986326932907104,80.0,12517.0,1.0
911101.4617732,302259.0,306949.8125,482832.125,452152.75,397521.59375,307023.5,291244.40625,310161.6875,-0.009521484375,0.86962890625,-0.50830078125,-1.7700194120407104,1.8615721464157104,1.2207030057907104,80.0,12518.0,1.0
911101.4630231,302791.6875,306959.5625,484621.78125,451836.34375,398276.625,306508.875,291297.78125,310093.71875,-0.0087890625,0.870849609375,-0.505859375,-1.8615721464157104,1.8920897245407104,1.1901854276657104,80.0,12519.0,1.0
911101.4843749,302396.6875,306430.28125,480610.28125,449923.75,393778.84375,304779.1875,288752.53125,308419.125,-0.0107421875,0.869873046875,-0.50537109375,-1.9226073026657104,2.075195074081421,1.2512205839157104,80.0,12520.0,1.0
911101.4844176,301674.1875,306122.71875,476378.5625,449060.96875,390240.09375,304222.46875,287112.8125,307443.6875,-0.01123046875,0.870849609375,-0.504150390625,-1.9836424589157104,2.075195074081421,1.1291502714157104,80.0,12521.0,1.0
911101.4844276,301590.40625,306443.59375,477758.28125,450443.71875,392593.65625,305607.28125,288659.90625,308521.3125,-0.009521484375,0.8701171875,-0.50537109375,-2.166747808456421,2.105712652206421,1.2207030057907104,80.0,12522.0,1.0
911101.4854657,302247.28125,306943.46875,482752.46875,452139.59375,397603.5625,307014.375,291247.625,310156.03125,-0.007568359375,0.868408203125,-0.50146484375,-2.258300542831421,2.258300542831421,1.2207030057907104,80.0,12523.0,1.0
911101.4866275,302769.59375,306947.125,484540.15625,451818.28125,398357.625,306502.0625,291295.5625,310087.03125,-0.0087890625,0.86865234375,-0.5029296875,-2.197265386581421,2.258300542831421,1.1596678495407104,80.0,12524.0,1.0
911101.4916033,302371.1875,306415.4375,480543.5625,449903.90625,393870.03125,304775.09375,288752.625,308416.8125,-0.010009765625,0.868896484375,-0.5009765625,-2.166747808456421,2.288818120956421,1.2512205839157104,80.0,12525.0,1.0
911101.4942825,301646.0,306106.96875,476311.21875,449034.59375,390331.75,304216.28125,287111.46875,307438.6875,-0.00927734375,0.8681640625,-0.505859375,-2.319335699081421,2.410888433456421,1.0986326932907104,80.0,12526.0,1.0
911101.4943234,301561.0625,306431.96875,477673.4375,450412.78125,392678.9375,305610.0625,288656.53125,308512.75,-0.008544921875,0.8671875,-0.503662109375,-2.471923589706421,2.532958745956421,1.1291502714157104,80.0,12527.0,1.0
911101.5093115,302216.53125,306930.5,482657.4375,452106.0,397689.84375,307014.0,291244.9375,310146.03125,-0.0078125,0.8671875,-0.5029296875,-2.471923589706421,2.593993902206421,1.0986326932907104,80.0,12528.0,1.0
911101.5093522,302744.375,306934.71875,484453.0625,451785.8125,398449.46875,306499.46875,291297.875,310080.03125,-0.0087890625,0.8681640625,-0.50390625,-2.380370855331421,2.746581792831421,0.9765624403953552,80.0,12529.0,1.0
911101.5118291,302355.28125,306407.28125,480475.1875,449881.28125,393966.5,304781.15625,288759.59375,308414.5625,-0.01025390625,0.867919921875,-0.49951171875,-2.410888433456421,2.868652105331421,0.9155272841453552,80.0,12530.0,1.0
911101.5118696,301632.15625,306097.6875,476255.15625,449016.25,390423.21875,304213.5,287114.4375,307438.5,-0.009033203125,0.869140625,-0.50537109375,-2.410888433456421,2.899169683456421,0.9765624403953552,80.0,12531.0,1.0
911101.5129292,301545.53125,306422.6875,477632.03125,450388.75,392765.40625,305591.53125,288653.03125,308512.75,-0.010009765625,0.8681640625,-0.502685546875,-2.441406011581421,3.112792730331421,0.9765624403953552,80.0,12532.0,1.0
911101.5142606,302210.25,306924.15625,482629.53125,452079.15625,397773.1875,307002.125,291239.9375,310146.46875,-0.01171875,0.868408203125,-0.501953125,-2.471923589706421,3.234863042831421,0.9460448622703552,80.0,12533.0,1.0
911101.534298,302748.59375,306930.875,484427.40625,451766.25,398536.09375,306495.4375,291294.28125,310079.5,-0.010986328125,0.869873046875,-0.5009765625,-2.441406011581421,3.204345464706421,0.9460448622703552,80.0,12534.0,1.0
911101.5343396,302363.59375,306404.4375,480441.75,449861.25,394048.9375,304771.9375,288755.75,308408.84375,-0.010009765625,0.869140625,-0.499267578125,-2.502441167831421,3.173827886581421,0.8850097060203552,80.0,12535.0,1.0
911101.5353823,301645.21875,306098.5625,476214.5,448997.3125,390505.1875,304212.0,287115.6875,307432.25,-0.009033203125,0.870361328125,-0.499755859375,-2.319335699081421,3.234863042831421,0.7629393935203552,80.0,12536.0,1.0
911101.5367496,301570.09375,306427.59375,477578.9375,450374.09375,392844.25,305597.1875,288658.65625,308505.125,-0.009033203125,0.87060546875,-0.50048828125,-2.349853277206421,3.295898199081421,0.7934569716453552,80.0,12537.0,1.0
911101.5578972,302233.96875,306926.84375,482575.71875,452067.8125,397856.0625,307009.8125,291252.1875,310139.21875,-0.0087890625,0.869873046875,-0.501708984375,-2.410888433456421,3.417968511581421,0.7324218153953552,80.0,12538.0,1.0
911101.5606202,302776.21875,306934.875,484389.59375,451759.4375,398626.03125,306499.28125,291310.75,310074.3125,-0.01025390625,0.8701171875,-0.501708984375,-2.441406011581421,3.356933355331421,0.8239745497703552,80.0,12539.0,1.0
911101.5606614,302388.375,306409.71875,480428.40625,449853.90625,394147.5625,304778.5625,288774.625,308405.28125,-0.01123046875,0.870849609375,-0.498779296875,-2.441406011581421,3.448486089706421,0.8850097060203552,80.0,12540.0,1.0
911101.5606711,301663.4375,306100.09375,476214.3125,448980.0625,390597.28125,304218.4375,287121.59375,307421.25,-0.009521484375,0.87109375,-0.49951171875,-2.441406011581421,3.479003667831421,0.8850097060203552,80.0,12541.0,1.0
911101.5616199,301581.46875,306426.25,477585.1875,450354.0625,392931.625,305593.6875,288656.15625,308495.46875,-0.011962890625,0.870849609375,-0.497314453125,-2.502441167831421,3.601073980331421,0.8850097060203552,80.0,12542.0,1.0
911101.5628701,302241.03125,306930.78125,482581.4375,452046.53125,397941.09375,307001.75,291244.0625,310131.71875,-0.012451171875,0.87109375,-0.496337890625,-2.624511480331421,3.417968511581421,0.8850097060203552,80.0,12543.0,1.0
911101.56414,302776.65625,306939.1875,484401.5625,451737.90625,398716.4375,306493.84375,291302.0625,310071.5625,-0.01318359375,0.86962890625,-0.4970703125,-2.563476324081421,3.448486089706421,0.8850097060203552,80.0,12544.0,1.0
911101.5828608,302393.53125,306408.375,480437.625,449833.53125,394238.5625,304767.03125,288761.5625,308406.34375,-0.01220703125,0.872314453125,-0.498291015625,-2.563476324081421,3.356933355331421,0.9765624403953552,80.0,12545.0,1.0
911101.5856368,301669.09375,306095.25,476216.90625,448959.84375,390685.09375,304203.84375,287106.84375,307425.5625,-0.01171875,0.8701171875,-0.499755859375,-2.532958745956421,3.265380620956421,0.9765624403953552,80.0,12546.0,1.0
911101.585678,301580.9375,306416.59375,477571.34375,450331.71875,393010.75,305587.625,288637.21875,308495.9375,-0.011962890625,0.868408203125,-0.49755859375,-2.502441167831421,3.265380620956421,0.9460448622703552,80.0,12547.0,1.0
911101.585688,302237.34375,306918.53125,482560.59375,452025.53125,398022.53125,307003.0,291227.5,310131.8125,-0.011962890625,0.868408203125,-0.494384765625,-2.563476324081421,3.265380620956421,0.9460448622703552,80.0,12548.0,1.0
911101.5867895,302775.9375,306929.15625,484382.25,451716.34375,398801.4375,306503.21875,291289.1875,310068.59375,-0.013916015625,0.86962890625,-0.498046875,-2.502441167831421,3.295898199081421,1.0375975370407104,80.0,12549.0,1.0
911101.5878795,302390.5,306398.25,480425.5625,449816.1875,394328.34375,304776.5,288754.875,308402.59375,-0.013671875,0.871826171875,-0.500732421875,-2.410888433456421,3.295898199081421,1.0070799589157104,80.0,12550.0,1.0
911101.6093412,301667.5625,306089.09375,476207.15625,448944.8125,390777.625,304210.5625,287106.75,307420.90625,-0.01220703125,0.87060546875,-0.49658203125,-2.502441167831421,3.265380620956421,0.9460448622703552,80.0,12551.0,1.0
911101.6093814,301572.78125,306407.375,477560.5,450306.59375,393100.0625,305585.28125,288639.34375,308486.09375,-0.011474609375,0.871337890625,-0.498779296875,-2.410888433456421,3.112792730331421,0.9460448622703552,80.0,12552.0,1.0
911101.6117063,302231.53125,306909.5,482548.625,451999.9375,398111.59375,306994.59375,291231.4375,310120.71875,-0.010009765625,0.86962890625,-0.497802734375,-2.319335699081421,3.112792730331421,0.9460448622703552,80.0,12553.0,1.0
911101.6117479,302770.75,306922.0,484375.28125,451695.96875,398893.09375,306494.8125,291295.1875,310059.3125,-0.010498046875,0.86962890625,-0.500244140625,-2.471923589706421,3.051757574081421,1.0681151151657104,80.0,12554.0,1.0
911101.6128969,302383.96875,306390.84375,480421.1875,449792.75,394415.6875,304775.53125,288756.46875,308391.3125,-0.0087890625,0.868896484375,-0.495849609375,-2.471923589706421,2.929687261581421,1.0681151151657104,80.0,12555.0,1.0
911101.61426,301665.875,306082.9375,476200.09375,448921.65625,390856.65625,304206.0,287101.5625,307409.90625,-0.01123046875,0.868408203125,-0.494384765625,-2.349853277206421,2.929687261581421,1.1901854276657104,80.0,12556.0,1.0
911101.6154739,301577.625,306411.125,477548.53125,450290.03125,393174.0,305583.59375,288633.8125,308481.28125,-0.01123046875,0.868408203125,-0.495361328125,-2.319335699081421,2.929687261581421,1.0681151151657104,80.0,12557.0,1.0
911101.634396,302229.84375,306914.3125,482535.125,451979.90625,398183.28125,306997.46875,291227.34375,310120.46875,-0.01171875,0.86767578125,-0.494873046875,-2.288818120956421,2.929687261581421,1.0375975370407104,80.0,12558.0,1.0
911101.6344363,302769.25,306924.25,484363.40625,451679.25,398968.28125,306489.46875,291293.65625,310061.53125,-0.010498046875,0.8701171875,-0.496337890625,-2.227782964706421,2.929687261581421,1.0375975370407104,80.0,12559.0,1.0
911101.6344468,302383.0,306397.09375,480417.40625,449779.78125,394492.03125,304764.34375,288756.03125,308394.53125,-0.009033203125,0.869384765625,-0.4970703125,-2.197265386581421,2.777099370956421,0.9765624403953552,80.0,12560.0,1.0
911101.6353843,301663.625,306091.40625,476196.78125,448907.375,390927.65625,304199.5625,287099.15625,307413.3125,-0.00830078125,0.870361328125,-0.497314453125,-2.136230230331421,2.685546636581421,0.9155272841453552,80.0,12561.0,1.0
911101.6592,301574.59375,306415.875,477521.8125,450269.3125,393233.46875,305579.5625,288621.65625,308477.5,-0.010009765625,0.869140625,-0.498291015625,-2.136230230331421,2.685546636581421,0.8544921278953552,80.0,12562.0,1.0
911101.6592417,302229.65625,306921.46875,482502.03125,451968.3125,398244.4375,306998.53125,291218.9375,310117.3125,-0.011474609375,0.87109375,-0.49560546875,-2.014159917831421,2.716064214706421,0.8544921278953552,80.0,12563.0,1.0
911101.6618206,302766.71875,306928.90625,484342.46875,451669.40625,399031.5,306497.40625,291291.875,310058.40625,-0.01123046875,0.870361328125,-0.496337890625,-1.9226073026657104,2.593993902206421,0.7934569716453552,80.0,12564.0,1.0
911101.6618611,302381.9375,306400.6875,480403.84375,449770.84375,394557.9375,304774.625,288757.46875,308390.6875,-0.011962890625,0.8701171875,-0.493896484375,-1.9226073026657104,2.624511480331421,0.6713866591453552,80.0,12565.0,1.0
911101.666784,301658.625,306094.0,476174.0,448894.21875,390989.53125,304212.625,287097.34375,307402.9375,-0.01025390625,0.8701171875,-0.4931640625,-1.9836424589157104,2.593993902206421,0.7019042372703552,80.0,12566.0,1.0
911101.6680242,301569.84375,306417.75,477496.40625,450256.15625,393294.875,305593.34375,288622.375,308465.96875,-0.0107421875,0.87060546875,-0.495849609375,-1.9531248807907104,2.441406011581421,0.7019042372703552,80.0,12567.0,1.0
911101.6692884,302228.59375,306921.75,482479.0625,451951.21875,398309.34375,307012.5,291219.90625,310107.59375,-0.011474609375,0.871337890625,-0.495361328125,-1.8615721464157104,2.471923589706421,0.7324218153953552,80.0,12568.0,1.0
911101.6704095,302775.125,306934.0,484326.21875,451654.84375,399105.71875,306509.84375,291292.5,310054.90625,-0.01220703125,0.87158203125,-0.49462890625,-1.8310545682907104,2.471923589706421,0.7324218153953552,80.0,12569.0,1.0
911101.6715165,302389.78125,306403.90625,480393.09375,449756.8125,394634.625,304771.0625,288756.46875,308390.4375,-0.010498046875,0.870849609375,-0.497802734375,-1.8615721464157104,2.288818120956421,0.7629393935203552,80.0,12570.0,1.0
911101.7191314,301655.65625,306085.0625,476155.21875,448870.15625,391056.21875,304190.90625,287090.375,307399.4375,-0.010498046875,0.86962890625,-0.49658203125,-1.8005369901657104,2.258300542831421,0.8544921278953552,80.0,12571.0,1.0
911101.7218449,301561.0,306403.4375,477474.6875,450224.9375,393353.53125,305569.1875,288607.4375,308461.40625,-0.01123046875,0.87109375,-0.49609375,-1.8615721464157104,2.288818120956421,0.8544921278953552,80.0,12572.0,1.0
911101.7218872,302221.53125,306911.28125,482452.9375,451924.125,398364.78125,306991.46875,291204.53125,310105.34375,-0.00927734375,0.87109375,-0.49609375,-1.8005369901657104,2.044677495956421,0.7324218153953552,80.0,12573.0,1.0
911101.7218978,302763.78125,306918.625,484288.375,451626.21875,399157.21875,306491.15625,291276.59375,310050.53125,-0.0107421875,0.869384765625,-0.49658203125,-1.7700194120407104,2.075195074081421,0.7019042372703552,80.0,12574.0,1.0
911101.7266451,302382.0,306388.15625,480348.03125,449726.59375,394686.9375,304762.84375,288743.5,308388.03125,-0.010498046875,0.8681640625,-0.494384765625,-1.7395018339157104,2.166747808456421,0.7324218153953552,80.0,12575.0,1.0
911101.7266856,301659.5,306079.625,476112.03125,448849.59375,391118.4375,304189.28125,287087.0625,307405.4375,-0.011474609375,0.868408203125,-0.494140625,-1.7089842557907104,2.166747808456421,0.7019042372703552,80.0,12576.0,1.0
911101.7280242,301567.34375,306404.34375,477424.25,450211.4375,393427.125,305571.4375,288617.4375,308476.625,-0.010986328125,0.871337890625,-0.492919921875,-1.7089842557907104,2.136230230331421,0.7019042372703552,80.0,12577.0,1.0
911101.7291925,302224.3125,306911.1875,482392.59375,451908.3125,398442.46875,306997.03125,291218.03125,310123.0625,-0.01220703125,0.873291015625,-0.49462890625,-1.6174315214157104,2.044677495956421,0.7019042372703552,80.0,12578.0,1.0
911101.7305132,302769.9375,306926.46875,484236.96875,451617.1875,399246.25,306513.6875,291300.46875,310074.5,-0.011962890625,0.873046875,-0.4931640625,-1.5563963651657104,1.9836424589157104,0.7934569716453552,80.0,12579.0,1.0
911101.7316519,302387.1875,306396.3125,480301.375,449719.1875,394777.34375,304785.8125,288771.9375,308409.90625,-0.011474609375,0.87451171875,-0.493408203125,-1.4648436307907104,1.9836424589157104,0.7934569716453552,80.0,12580.0,1.0
911101.7329914,301658.53125,306083.5625,476059.625,448834.75,391192.5625,304201.71875,287107.1875,307417.6875,-0.0107421875,0.873291015625,-0.49658203125,-1.4953612089157104,1.8920897245407104,0.7934569716453552,80.0,12581.0,1.0
911101.734265,301551.25,306394.0625,477359.625,450180.96875,393469.65625,305565.78125,288616.09375,308467.59375,-0.010498046875,0.874755859375,-0.49462890625,-1.4648436307907104,1.8615721464157104,0.7629393935203552,80.0,12582.0,1.0
911101.7354859,302205.15625,306896.96875,482326.34375,451875.125,398467.4375,306988.15625,291206.59375,310102.5,-0.0107421875,0.8759765625,-0.4951171875,-1.4953612089157104,1.8005369901657104,0.6408690810203552,80.0,12583.0,1.0
911101.7366624,302751.34375,306909.6875,484173.9375,451580.90625,399258.15625,306490.1875,291278.75,310047.40625,-0.00927734375,0.874267578125,-0.4921875,-1.5563963651657104,1.8615721464157104,0.5493163466453552,80.0,12584.0,1.0
911101.739291,302375.40625,306384.125,480235.9375,449683.9375,394778.84375,304755.40625,288739.75,308381.59375,-0.009521484375,0.874755859375,-0.491455078125,-1.5869139432907104,1.8310545682907104,0.6103515028953552,80.0,12585.0,1.0
911101.7393341,301652.8125,306073.71875,475981.9375,448802.75,391193.90625,304175.15625,287074.46875,307393.625,-0.010009765625,0.872802734375,-0.494384765625,-1.4953612089157104,1.8615721464157104,0.5798339247703552,80.0,12586.0,1.0
911101.7592896,301557.0625,306393.15625,477277.09375,450160.75,393481.375,305551.3125,288592.0625,308455.96875,-0.0107421875,0.872314453125,-0.495361328125,-1.5869139432907104,1.8005369901657104,0.7019042372703552,80.0,12587.0,1.0
911101.7593316,302211.59375,306900.5625,482240.78125,451857.875,398486.125,306974.5,291187.1875,310097.9375,-0.01025390625,0.87255859375,-0.49365234375,-1.5258787870407104,1.7700194120407104,0.6713866591453552,80.0,12588.0,1.0
911101.7593405,302752.5,306911.71875,484095.4375,451563.71875,399288.71875,306479.625,291265.3125,310049.03125,-0.009033203125,0.872314453125,-0.491455078125,-1.6174315214157104,1.7395018339157104,0.7324218153953552,80.0,12589.0,1.0
911101.7593493,302370.75,306383.34375,480176.65625,449666.4375,394820.96875,304753.8125,288736.71875,308386.5,-0.00830078125,0.869873046875,-0.490966796875,-1.6174315214157104,1.8005369901657104,0.7629393935203552,80.0,12590.0,1.0
911101.7618059,301646.1875,306075.9375,475941.4375,448784.34375,391236.8125,304181.875,287076.0625,307399.0,-0.008544921875,0.87109375,-0.493896484375,-1.4648436307907104,1.7395018339157104,0.8544921278953552,80.0,12591.0,1.0
911101.7618484,301550.15625,306400.0625,477243.125,450141.96875,393526.875,305565.78125,288598.5,308459.71875,-0.0087890625,0.87158203125,-0.493408203125,-1.4953612089157104,1.6479490995407104,0.7934569716453552,80.0,12592.0,1.0
911101.7630681,302203.125,306905.8125,482213.53125,451840.0,398536.28125,306979.78125,291196.5625,310097.65625,-0.007568359375,0.8720703125,-0.493896484375,-1.4953612089157104,1.8005369901657104,0.8850097060203552,80.0,12593.0,1.0
911101.7640868,302744.03125,306915.40625,484072.46875,451543.71875,399338.25,306477.75,291274.1875,310044.09375,-0.00927734375,0.869873046875,-0.496826171875,-1.3427733182907104,1.7700194120407104,0.9155272841453552,80.0,12594.0,1.0
911101.7828963,302365.125,306386.09375,480146.4375,449646.21875,394868.8125,304748.96875,288744.125,308380.40625,-0.0107421875,0.87060546875,-0.496337890625,-1.3122557401657104,1.7700194120407104,0.9155272841453552,80.0,12595.0,1.0
911101.7855113,301639.65625,306070.3125,475906.9375,448765.75,391287.5,304173.375,287082.96875,307393.375,-0.01220703125,0.87451171875,-0.494140625,-1.1291502714157104,1.7395018339157104,0.9155272841453552,80.0,12596.0,1.0
911101.7855432,301540.59375,306388.34375,477200.90625,450118.125,393568.28125,305549.53125,288594.5625,308452.5625,-0.010986328125,0.874755859375,-0.494873046875,-1.1901854276657104,1.8920897245407104,0.9765624403953552,80.0,12597.0,1.0
911101.785554,302198.09375,306889.28125,482169.09375,451816.21875,398568.09375,306970.1875,291185.65625,310091.40625,-0.0126953125,0.8759765625,-0.494873046875,-1.0986326932907104,1.7395018339157104,0.8544921278953552,80.0,12598.0,1.0
911101.786625,302744.90625,306901.4375,484036.25,451527.0,399368.84375,306474.0,291262.90625,310038.90625,-0.011962890625,0.87255859375,-0.49365234375,-1.2207030057907104,1.6784666776657104,0.8239745497703552,80.0,12599.0,1.0
911101.7880056,302359.9375,306376.09375,480118.09375,449635.125,394900.71875,304753.0,288732.4375,308376.40625,-0.01123046875,0.8720703125,-0.494873046875,-1.2207030057907104,1.7089842557907104,0.8544921278953552,80.0,12600.0,1.0
911101.8129431,301620.625,306062.71875,475868.3125,448752.78125,391315.6875,304173.90625,287067.40625,307388.71875,-0.01025390625,0.872314453125,-0.4931640625,-1.0375975370407104,1.6479490995407104,0.8544921278953552,80.0,12601.0,1.0
911101.8129835,301516.28125,306382.78125,477161.21875,450108.625,393602.53125,305547.5625,288583.65625,308450.875,-0.009765625,0.87255859375,-0.49267578125,-1.0375975370407104,1.7089842557907104,0.8239745497703552,80.0,12602.0,1.0
911101.8156073,302163.15625,306886.34375,482123.125,451800.65625,398606.53125,306969.65625,291176.53125,310090.78125,-0.00732421875,0.87060546875,-0.495849609375,-0.9460448622703552,1.5563963651657104,0.7934569716453552,80.0,12603.0,1.0
911101.8156509,302705.125,306896.25,483980.75,451504.28125,399406.1875,306471.9375,291254.6875,310036.9375,-0.006591796875,0.87060546875,-0.497802734375,-1.0070799589157104,1.5869139432907104,0.7934569716453552,80.0,12604.0,1.0
911101.8166748,302328.5625,306367.34375,480062.9375,449608.59375,394937.46875,304748.0,288725.375,308374.34375,-0.006591796875,0.871337890625,-0.495849609375,-0.9460448622703552,1.6784666776657104,0.7629393935203552,80.0,12605.0,1.0
911101.8180405,301602.28125,306056.28125,475820.28125,448722.75,391348.125,304167.125,287060.78125,307384.15625,-0.008056640625,0.869384765625,-0.494873046875,-0.8850097060203552,1.6784666776657104,0.8544921278953552,80.0,12606.0,1.0
911101.8192126,301503.9375,306377.0,477107.9375,450075.5625,393625.6875,305537.375,288576.6875,308440.59375,-0.009033203125,0.866455078125,-0.494140625,-0.8850097060203552,1.8615721464157104,0.8544921278953552,80.0,12607.0,1.0
911101.8342125,302155.71875,306885.0,482071.53125,451773.65625,398627.5625,306963.0625,291175.21875,310078.625,-0.009521484375,0.866455078125,-0.495361328125,-0.8850097060203552,2.044677495956421,0.8239745497703552,80.0,12608.0,1.0
911101.8342537,302703.25,306902.34375,483939.4375,451485.40625,399434.71875,306470.0625,291260.78125,310029.09375,-0.010009765625,0.865234375,-0.4931640625,-0.7324218153953552,2.075195074081421,0.7934569716453552,80.0,12609.0,1.0
911101.8355892,302329.09375,306374.3125,480026.90625,449590.6875,394965.71875,304744.875,288733.21875,308363.78125,-0.009521484375,0.865234375,-0.49169921875,-0.6103515028953552,1.9836424589157104,0.7629393935203552,80.0,12610.0,1.0
911101.8380154,301612.5,306062.4375,475785.15625,448704.40625,391375.5,304170.59375,287069.625,307373.875,-0.00927734375,0.86865234375,-0.4931640625,-0.4882812201976776,1.9836424589157104,0.6408690810203552,80.0,12611.0,1.0
911101.8380571,301516.71875,306381.0,477076.5625,450051.875,393652.875,305547.8125,288582.5,308431.65625,-0.00927734375,0.87158203125,-0.494140625,-0.3662109076976776,1.9531248807907104,0.6713866591453552,80.0,12612.0,1.0
911101.8580379,302176.1875,306888.46875,482050.0,451750.25,398659.5625,306975.375,291182.0,310074.84375,-0.00830078125,0.873291015625,-0.4931640625,-0.2746581733226776,1.8615721464157104,0.5798339247703552,80.0,12613.0,1.0
911101.8604917,302719.4375,306899.375,483919.59375,451458.84375,399464.59375,306478.5625,291263.71875,310028.46875,-0.007080078125,0.87255859375,-0.493408203125,-0.2441406100988388,1.8920897245407104,0.6713866591453552,80.0,12614.0,1.0
911101.8605331,302340.78125,306371.71875,480013.65625,449565.75,394996.5625,304750.5,288730.8125,308370.59375,-0.0068359375,0.872802734375,-0.49462890625,-0.2441406100988388,1.8310545682907104,0.7324218153953552,80.0,12615.0,1.0
911101.8616734,301617.3125,306059.6875,475774.59375,448681.78125,391404.46875,304173.375,287061.6875,307386.9375,-0.008056640625,0.873291015625,-0.494873046875,-0.3662109076976776,1.9531248807907104,0.7934569716453552,80.0,12616.0,1.0
911101.8630022,301515.9375,306377.96875,477065.71875,450035.125,393677.09375,305546.46875,288570.34375,308448.1875,-0.0078125,0.8720703125,-0.492919921875,-0.3967284858226776,2.044677495956421,0.7934569716453552,80.0,12617.0,1.0
911101.8640919,302167.78125,306883.5625,482035.78125,451731.375,398677.625,306970.28125,291163.5,310088.0,-0.008544921875,0.8740234375,-0.494384765625,-0.4272460639476776,2.105712652206421,0.7324218153953552,80.0,12618.0,1.0
911101.8930475,302715.9375,306895.0,483912.875,451442.3125,399485.3125,306483.03125,291246.71875,310041.15625,-0.01025390625,0.87451171875,-0.494873046875,-0.5493163466453552,2.105712652206421,0.7629393935203552,80.0,12619.0,1.0
911101.8956845,302340.875,306364.46875,480008.28125,449548.21875,395019.53125,304742.90625,288717.40625,308376.5625,-0.01220703125,0.874755859375,-0.49755859375,-0.4882812201976776,2.166747808456421,0.8239745497703552,80.0,12620.0,1.0
911101.8957253,301611.15625,306044.46875,475765.65625,448658.8125,391424.40625,304150.75,287049.34375,307379.0625,-0.01416015625,0.874755859375,-0.49658203125,-0.4577636420726776,2.105712652206421,0.7324218153953552,80.0,12621.0,1.0
911101.8957351,301517.28125,306365.625,477056.34375,450012.6875,393702.46875,305530.5625,288567.03125,308435.84375,-0.014892578125,0.875,-0.492919921875,-0.4882812201976776,2.014159917831421,0.7019042372703552,80.0,12622.0,1.0
911101.8966929,302177.28125,306872.84375,482026.75,451712.9375,398707.65625,306959.03125,291167.34375,310075.3125,-0.01611328125,0.876953125,-0.497314453125,-0.3356933295726776,1.8920897245407104,0.6713866591453552,80.0,12623.0,1.0
911101.901776,302724.53125,306889.28125,483901.78125,451423.375,399517.6875,306464.6875,291251.03125,310021.5625,-0.016845703125,0.87548828125,-0.4951171875,-0.3967284858226776,1.8920897245407104,0.6103515028953552,80.0,12624.0,1.0
911101.9028546,302345.8125,306360.34375,479988.625,449527.5625,395052.25,304735.21875,288720.1875,308354.03125,-0.019775390625,0.87548828125,-0.495361328125,-0.3967284858226776,1.7089842557907104,0.5493163466453552,80.0,12625.0,1.0
911101.905541,301620.53125,306046.71875,475743.125,448642.09375,391460.6875,304155.75,287054.09375,307362.78125,-0.020751953125,0.875244140625,-0.49169921875,-0.6103515028953552,1.5563963651657104,0.5187987685203552,80.0,12626.0,1.0
911101.9055812,301520.5,306365.09375,477022.90625,449990.53125,393733.78125,305528.0625,288567.84375,308419.9375,-0.020263671875,0.8740234375,-0.493408203125,-0.6713866591453552,1.3427733182907104,0.5493163466453552,80.0,12627.0,1.0
911101.9067046,302176.75,306870.96875,481980.625,451690.25,398737.78125,306954.375,291166.1875,310062.53125,-0.017333984375,0.874267578125,-0.492919921875,-0.6408690810203552,1.2512205839157104,0.5798339247703552,80.0,12628.0,1.0
911101.9093233,302725.25,306881.0625,483842.0625,451401.0,399546.3125,306461.46875,291247.71875,310016.03125,-0.017578125,0.874755859375,-0.4951171875,-0.6408690810203552,1.0986326932907104,0.4272460639476776,80.0,12629.0,1.0
911101.9093627,302348.5,306349.34375,479919.25,449506.3125,395074.96875,304729.65625,288713.03125,308351.71875,-0.014404296875,0.872314453125,-0.49462890625,-0.5798339247703552,1.0375975370407104,0.4882812201976776,80.0,12630.0,1.0
911101.9343396,301618.75,306036.96875,475665.53125,448618.84375,391478.125,304149.15625,287042.71875,307363.40625,-0.012451171875,0.8720703125,-0.495361328125,-0.5798339247703552,0.9155272841453552,0.5187987685203552,80.0,12631.0,1.0
911101.934381,301522.46875,306360.09375,476952.53125,449970.84375,393754.34375,305531.1875,288558.4375,308425.375,-0.013916015625,0.875244140625,-0.496826171875,-0.4577636420726776,0.7934569716453552,0.4577636420726776,80.0,12632.0,1.0
911101.9343908,302176.03125,306865.59375,481926.53125,451669.3125,398758.28125,306961.53125,291155.625,310070.75,-0.01123046875,0.87646484375,-0.494140625,-0.3967284858226776,0.7934569716453552,0.5187987685203552,80.0,12633.0,1.0
911101.9355109,302724.53125,306883.46875,483812.21875,451383.75,399567.59375,306464.78125,291237.6875,310025.875,-0.009033203125,0.87646484375,-0.49609375,-0.3967284858226776,0.8239745497703552,0.6408690810203552,80.0,12634.0,1.0
911101.9367187,302346.34375,306356.0625,479908.78125,449489.75,395094.90625,304726.71875,288703.90625,308359.75,-0.006103515625,0.87548828125,-0.497314453125,-0.3967284858226776,0.8239745497703552,0.8850097060203552,80.0,12635.0,1.0
911101.9378434,301619.90625,306041.875,475670.09375,448604.1875,391502.09375,304146.625,287038.625,307369.03125,-0.00634765625,0.8759765625,-0.499267578125,-0.5187987685203552,0.9765624403953552,0.9460448622703552,80.0,12636.0,1.0
911101.9392856,301511.8125,306358.21875,476960.40625,449949.65625,393769.71875,305520.46875,288551.03125,308422.71875,-0.005126953125,0.87353515625,-0.496337890625,-0.5798339247703552,1.1291502714157104,1.0681151151657104,80.0,12637.0,1.0
911101.9417316,302157.59375,306866.125,481937.53125,451647.5,398774.90625,306948.84375,291149.28125,310061.09375,-0.005859375,0.87109375,-0.49755859375,-0.6408690810203552,1.2207030057907104,1.2512205839157104,80.0,12638.0,1.0
911101.9417702,302703.875,306882.5,483819.96875,451364.4375,399588.40625,306463.0,291235.46875,310012.71875,-0.005126953125,0.8720703125,-0.496826171875,-0.6103515028953552,1.4648436307907104,1.4343260526657104,80.0,12639.0,1.0
911101.9591921,302330.25,306354.09375,479915.3125,449471.53125,395119.6875,304735.46875,288705.0625,308348.0625,-0.005615234375,0.872802734375,-0.494873046875,-0.6103515028953552,1.5563963651657104,1.4038084745407104,80.0,12640.0,1.0
911101.959233,301612.03125,306042.0625,475665.15625,448584.6875,391523.09375,304150.75,287038.625,307354.21875,-0.004638671875,0.87158203125,-0.4951171875,-0.6713866591453552,1.7089842557907104,1.5258787870407104,80.0,12641.0,1.0
911101.9618104,301520.5625,306362.6875,476944.3125,449937.34375,393793.40625,305526.28125,288554.875,308410.625,-0.0068359375,0.873291015625,-0.493408203125,-0.6713866591453552,1.7089842557907104,1.5563963651657104,80.0,12642.0,1.0
911101.9618534,302179.875,306869.15625,481910.15625,451635.96875,398793.21875,306954.375,291152.0625,310049.03125,-0.0078125,0.874267578125,-0.491943359375,-0.7629393935203552,1.8310545682907104,1.5869139432907104,80.0,12643.0,1.0
911101.9628651,302731.6875,306882.21875,483785.125,451348.625,399601.46875,306463.34375,291235.28125,309999.40625,-0.007568359375,0.873779296875,-0.48974609375,-0.7629393935203552,1.8310545682907104,1.5563963651657104,80.0,12644.0,1.0
911101.9642991,302359.3125,306357.6875,479878.375,449456.21875,395137.1875,304733.0625,288706.15625,308336.15625,-0.00634765625,0.869873046875,-0.491943359375,-0.8239745497703552,1.9836424589157104,1.4648436307907104,80.0,12645.0,1.0
911101.9842635,301629.75,306041.96875,475631.71875,448565.90625,391539.0,304152.375,287035.65625,307341.5,-0.007568359375,0.868896484375,-0.490966796875,-0.8850097060203552,1.9531248807907104,1.4343260526657104,80.0,12646.0,1.0
911101.9843048,301524.34375,306355.53125,476913.28125,449911.03125,393806.46875,305513.75,288547.90625,308397.9375,-0.007080078125,0.867919921875,-0.491943359375,-0.9460448622703552,1.9836424589157104,1.3427733182907104,80.0,12647.0,1.0
911101.9843151,302175.40625,306856.375,481873.78125,451603.0625,398808.34375,306929.78125,291143.8125,310038.125,-0.00732421875,0.866455078125,-0.493896484375,-0.9460448622703552,2.014159917831421,1.2512205839157104,80.0,12648.0,1.0
911101.9853483,302721.125,306868.1875,483744.4375,451312.9375,399617.375,306434.65625,291227.6875,309986.4375,-0.0068359375,0.865478515625,-0.492919921875,-0.8850097060203552,2.044677495956421,1.0986326932907104,80.0,12649.0,1.0
911101.9865869,302341.34375,306337.5625,479837.71875,449412.78125,395147.84375,304703.5625,288696.65625,308319.0,-0.006103515625,0.86376953125,-0.497314453125,-0.7934569716453552,2.258300542831421,1.0375975370407104,80.0,12650.0,1.0
911102.0080271,301614.375,306021.59375,475589.96875,448524.53125,391546.34375,304119.0,287023.9375,307324.0625,-0.006591796875,0.86376953125,-0.49560546875,-0.7019042372703552,2.380370855331421,0.8850097060203552,80.0,12651.0,1.0
911102.010647,301507.53125,306336.84375,476873.25,449866.875,393815.3125,305494.4375,288535.8125,308379.96875,-0.00634765625,0.86279296875,-0.491455078125,-0.7629393935203552,2.441406011581421,0.7629393935203552,80.0,12652.0,1.0
911102.010687,302157.4375,306836.09375,481840.6875,451558.71875,398821.75,306930.40625,291137.9375,310021.125,-0.005615234375,0.864501953125,-0.49365234375,-0.5798339247703552,2.471923589706421,0.6713866591453552,80.0,12653.0,1.0
911102.010697,302708.25,306852.09375,483715.65625,451272.1875,399628.75,306444.40625,291223.84375,309975.96875,-0.00634765625,0.8642578125,-0.49658203125,-0.5798339247703552,2.532958745956421,0.5187987685203552,80.0,12654.0,1.0
911102.0116603,302332.3125,306324.5,479818.84375,449376.84375,395161.78125,304714.0,288694.59375,308315.40625,-0.0087890625,0.865234375,-0.490234375,-0.5493163466453552,2.532958745956421,0.3662109076976776,80.0,12655.0,1.0
911102.012838,301609.09375,306009.0,475581.5,448491.0,391566.09375,304129.03125,287022.15625,307325.875,-0.009765625,0.864501953125,-0.49267578125,-0.3356933295726776,2.593993902206421,0.3967284858226776,80.0,12656.0,1.0
911102.0341527,301508.875,306326.8125,476868.5,449836.9375,393834.4375,305508.40625,288531.71875,308387.03125,-0.0078125,0.865478515625,-0.49462890625,-0.2746581733226776,2.685546636581421,0.3967284858226776,80.0,12657.0,1.0
911102.0341627,302163.9375,306831.875,481838.0,451530.125,398837.65625,306937.65625,291130.21875,310029.34375,-0.0107421875,0.86865234375,-0.492919921875,-0.2136230319738388,2.716064214706421,0.3356933295726776,80.0,12658.0,1.0
911102.0341644,302714.96875,306845.03125,483726.8125,451245.0,399650.8125,306437.4375,291217.21875,309984.8125,-0.01123046875,0.86962890625,-0.49267578125,-0.2746581733226776,2.838134527206421,0.3662109076976776,80.0,12659.0,1.0
911102.0341662,302335.53125,306313.3125,479824.28125,449350.46875,395177.34375,304696.65625,288681.1875,308318.5625,-0.010498046875,0.871337890625,-0.49072265625,-0.1525878757238388,2.777099370956421,0.3051757514476776,80.0,12660.0,1.0
911102.0352576,301608.71875,306001.75,475583.53125,448465.5,391576.75,304108.8125,287009.375,307326.3125,-0.0107421875,0.872314453125,-0.492919921875,-0.0915527269244194,2.746581792831421,0.3356933295726776,80.0,12661.0,1.0
911102.0365107,301514.5,306327.1875,476870.125,449823.96875,393849.1875,305485.875,288523.21875,308390.96875,-0.010009765625,0.875244140625,-0.4951171875,-0.1831054538488388,2.777099370956421,0.3662109076976776,80.0,12662.0,1.0
911102.0377543,302166.625,306832.6875,481830.59375,451522.875,398850.90625,306906.71875,291119.3125,310033.46875,-0.011474609375,0.875,-0.49609375,-0.1525878757238388,2.807616949081421,0.3967284858226776,80.0,12663.0,1.0
911102.0667973,302708.71875,306844.59375,483701.875,451228.28125,399656.1875,306404.0625,291201.5,309982.5,-0.010009765625,0.873291015625,-0.494384765625,-0.2136230319738388,2.655029058456421,0.4272460639476776,80.0,12664.0,1.0
911102.0668124,302332.03125,306320.03125,479802.65625,449335.4375,395189.6875,304675.125,288674.40625,308320.25,-0.011474609375,0.875732421875,-0.494873046875,-0.3356933295726776,2.624511480331421,0.5493163466453552,80.0,12665.0,1.0
911102.0817475,301612.84375,306012.03125,475563.875,448453.875,391592.375,304103.1875,287006.25,307330.78125,-0.01123046875,0.876708984375,-0.496826171875,-0.3662109076976776,2.563476324081421,0.5493163466453552,80.0,12666.0,1.0
911102.0828427,301514.6875,306334.25,476848.46875,449805.71875,393853.59375,305475.40625,288512.40625,308382.21875,-0.0107421875,0.880615234375,-0.494384765625,-0.4272460639476776,2.380370855331421,0.5493163466453552,80.0,12667.0,1.0
911102.0840138,302166.4375,306845.46875,481820.5625,451505.4375,398853.5,306895.0,291108.0625,310020.78125,-0.013916015625,0.882080078125,-0.49365234375,-0.4577636420726776,2.441406011581421,0.7019042372703552,80.0,12668.0,1.0
911102.0867317,302712.90625,306862.03125,483706.96875,451224.15625,399674.6875,306408.09375,291201.03125,309981.25,-0.014892578125,0.88232421875,-0.494384765625,-0.6408690810203552,2.410888433456421,0.7629393935203552,80.0,12669.0,1.0
911102.0867513,302334.90625,306331.21875,479796.03125,449333.21875,395206.03125,304682.53125,288671.1875,308317.90625,-0.013916015625,0.882080078125,-0.493408203125,-0.8544921278953552,2.227782964706421,0.7934569716453552,80.0,12670.0,1.0
911102.0878008,301611.25,306022.5625,475544.84375,448447.71875,391603.125,304114.4375,286998.46875,307325.6875,-0.015869140625,0.881591796875,-0.49267578125,-1.0070799589157104,2.197265386581421,0.8850097060203552,80.0,12671.0,1.0
911102.0891596,301511.90625,306343.09375,476827.8125,449799.03125,393869.9375,305489.25,288508.65625,308384.34375,-0.014892578125,0.879150390625,-0.490234375,-1.2512205839157104,2.014159917831421,1.0681151151657104,80.0,12672.0,1.0
911102.0917985,302161.8125,306848.6875,481791.78125,451494.09375,398873.0625,306899.21875,291107.53125,310026.9375,-0.015380859375,0.875,-0.48974609375,-1.4038084745407104,1.8005369901657104,1.0986326932907104,80.0,12673.0,1.0
911102.0918214,302705.75,306861.40625,483664.3125,451206.90625,399683.1875,306401.65625,291192.09375,309977.5,-0.012451171875,0.87255859375,-0.4931640625,-1.4953612089157104,1.7395018339157104,1.2207030057907104,80.0,12674.0,1.0
911102.0918287,302337.125,306337.03125,479763.59375,449319.09375,395222.03125,304682.28125,288668.59375,308314.875,-0.010009765625,0.871826171875,-0.495361328125,-1.4648436307907104,1.7089842557907104,1.3427733182907104,80.0,12675.0,1.0
911102.1092428,301610.0625,306020.34375,475522.46875,448427.34375,391622.4375,304104.78125,286999.71875,307317.53125,-0.008056640625,0.87109375,-0.500732421875,-1.3122557401657104,1.4648436307907104,1.4343260526657104,80.0,12676.0,1.0
911102.1092788,301505.75,306333.25,476802.78125,449771.125,393885.6875,305472.90625,288508.65625,308367.625,-0.00537109375,0.87255859375,-0.50244140625,-1.0986326932907104,1.5258787870407104,1.4648436307907104,80.0,12677.0,1.0
911102.1092869,302161.53125,306838.15625,481758.15625,451471.375,398889.4375,306893.65625,291109.125,310008.34375,-0.004638671875,0.87353515625,-0.498779296875,-1.0070799589157104,1.6174315214157104,1.5563963651657104,80.0,12678.0,1.0
911102.1343727,302710.6875,306850.40625,483630.4375,451189.46875,399708.03125,306400.6875,291201.03125,309965.15625,-0.0029296875,0.87255859375,-0.49462890625,-0.9460448622703552,1.8005369901657104,1.5563963651657104,80.0,12679.0,1.0
911102.1343846,302334.53125,306322.34375,479729.6875,449297.09375,395243.40625,304677.0,288671.90625,308301.75,-0.002197265625,0.871826171875,-0.495849609375,-1.0375975370407104,1.8920897245407104,1.6479490995407104,80.0,12680.0,1.0
911102.1343862,301607.84375,306009.15625,475488.78125,448409.1875,391648.90625,304102.75,287001.78125,307310.40625,-0.004150390625,0.86865234375,-0.496337890625,-1.0986326932907104,2.105712652206421,1.6174315214157104,80.0,12681.0,1.0
911102.134388,301506.90625,306328.09375,476776.15625,449755.9375,393923.5,305475.84375,288515.625,308371.21875,-0.010498046875,0.868408203125,-0.493896484375,-1.0375975370407104,2.197265386581421,1.5258787870407104,80.0,12682.0,1.0
911102.1365868,302163.40625,306832.4375,481741.375,451453.21875,398929.84375,306891.78125,291111.8125,310014.15625,-0.0126953125,0.8701171875,-0.496337890625,-0.9155272841453552,2.258300542831421,1.4343260526657104,80.0,12683.0,1.0
911102.136599,302709.59375,306843.15625,483611.40625,451167.46875,399739.875,306395.3125,291192.8125,309966.21875,-0.0166015625,0.870849609375,-0.495361328125,-0.8239745497703552,2.166747808456421,1.2817381620407104,80.0,12684.0,1.0
911102.136601,302338.65625,306317.625,479713.4375,449281.34375,395271.75,304672.0,288662.875,308303.625,-0.01708984375,0.86962890625,-0.498291015625,-0.7324218153953552,2.014159917831421,1.1291502714157104,80.0,12685.0,1.0
911102.1390762,301613.46875,306006.84375,475481.34375,448399.53125,391677.78125,304097.03125,286994.4375,307311.03125,-0.013427734375,0.867431640625,-0.498046875,-0.7019042372703552,1.7700194120407104,0.9765624403953552,80.0,12686.0,1.0
911102.1390887,301511.1875,306324.3125,476768.8125,449745.0,393949.78125,305465.75,288505.5,308365.65625,-0.013916015625,0.86865234375,-0.494140625,-0.6408690810203552,1.6174315214157104,0.9460448622703552,80.0,12687.0,1.0
911102.1403904,302159.75,306826.25,481736.09375,451435.0,398951.3125,306880.875,291100.28125,309999.75,-0.011474609375,0.869873046875,-0.495361328125,-0.5798339247703552,1.5563963651657104,0.8239745497703552,80.0,12688.0,1.0
911102.1590619,302707.8125,306841.46875,483622.3125,451150.21875,399764.46875,306388.96875,291188.09375,309949.96875,-0.007080078125,0.870849609375,-0.493408203125,-0.5798339247703552,1.4953612089157104,0.6713866591453552,80.0,12689.0,1.0
911102.1590768,302327.5625,306307.4375,479722.0,449254.78125,395297.15625,304663.5,288659.46875,308284.3125,-0.005859375,0.871337890625,-0.4970703125,-0.4882812201976776,1.4953612089157104,0.6713866591453552,80.0,12690.0,1.0
911102.1617209,301597.65625,305993.0625,475473.9375,448361.71875,391698.5,304091.84375,286991.125,307291.875,-0.005859375,0.873291015625,-0.4970703125,-0.6103515028953552,1.5258787870407104,0.6103515028953552,80.0,12691.0,1.0
911102.161737,301497.40625,306316.46875,476754.0625,449708.53125,393970.625,305470.125,288504.0,308353.5,-0.005859375,0.875,-0.498779296875,-0.6408690810203552,1.5563963651657104,0.5798339247703552,80.0,12692.0,1.0
911102.1629415,302146.78125,306817.5,481711.78125,451401.28125,398978.75,306884.625,291102.78125,310000.46875,-0.0029296875,0.873779296875,-0.497802734375,-0.6408690810203552,1.5563963651657104,0.5798339247703552,80.0,12693.0,1.0
911102.1640631,302693.40625,306831.34375,483577.59375,451114.5625,399791.625,306391.03125,291186.5625,309957.75,-0.00439453125,0.8720703125,-0.49755859375,-0.6103515028953552,1.5869139432907104,0.6103515028953552,80.0,12694.0,1.0
911102.1667042,302314.5,306304.84375,479674.0,449223.15625,395322.4375,304672.1875,288656.34375,308297.28125,-0.00537109375,0.8720703125,-0.49658203125,-0.6103515028953552,1.7700194120407104,0.6103515028953552,80.0,12695.0,1.0
911102.1667221,301590.125,305996.1875,475438.53125,448338.65625,391724.4375,304107.21875,286989.96875,307308.25,-0.0029296875,0.8720703125,-0.494140625,-0.5798339247703552,1.9226073026657104,0.5493163466453552,80.0,12696.0,1.0
911102.1828327,301492.0625,306320.3125,476717.84375,449690.84375,393994.5,305484.34375,288503.71875,308368.4375,-0.00537109375,0.872314453125,-0.496826171875,-0.6103515028953552,2.105712652206421,0.6103515028953552,80.0,12697.0,1.0
911102.1855581,302135.4375,306823.125,481658.65625,451380.53125,398998.875,306895.625,291100.46875,310009.6875,-0.0068359375,0.8720703125,-0.496337890625,-0.5493163466453552,2.075195074081421,0.6103515028953552,80.0,12698.0,1.0
911102.1855897,302683.3125,306841.0,483509.84375,451093.8125,399808.1875,306402.65625,291187.28125,309961.125,-0.0068359375,0.871826171875,-0.493896484375,-0.7324218153953552,2.197265386581421,0.6103515028953552,80.0,12699.0,1.0
911102.1867749,302307.96875,306316.625,479599.96875,449205.53125,395341.5,304681.375,288661.25,308298.625,-0.007568359375,0.8720703125,-0.492919921875,-0.6408690810203552,2.227782964706421,0.7934569716453552,80.0,12700.0,1.0
911102.207891,301583.59375,306006.65625,475347.59375,448321.65625,391740.96875,304108.28125,286991.9375,307303.34375,-0.010009765625,0.873046875,-0.491455078125,-0.7629393935203552,2.227782964706421,0.7934569716453552,80.0,12701.0,1.0
911102.2106552,301481.3125,306324.0625,476624.875,449673.40625,394007.53125,305477.0,288505.59375,308358.6875,-0.01025390625,0.873291015625,-0.495849609375,-0.7934569716453552,2.166747808456421,0.7324218153953552,80.0,12702.0,1.0
911102.2106962,302125.15625,306823.9375,481575.0625,451366.59375,399010.03125,306895.1875,291102.6875,309997.96875,-0.01123046875,0.874755859375,-0.4970703125,-0.8239745497703552,2.105712652206421,0.7629393935203552,80.0,12703.0,1.0
911102.2107067,302670.25,306835.46875,483438.5625,451080.40625,399827.3125,306403.0,291192.375,309954.4375,-0.012939453125,0.876220703125,-0.494140625,-0.8544921278953552,2.105712652206421,0.7629393935203552,80.0,12704.0,1.0
911102.2116112,302298.3125,306307.96875,479534.0,449196.25,395364.28125,304679.5,288670.125,308299.3125,-0.01318359375,0.875732421875,-0.491455078125,-0.7934569716453552,2.075195074081421,0.6713866591453552,80.0,12705.0,1.0
911102.212915,301570.5625,305991.90625,475285.28125,448304.9375,391756.0,304100.0625,286992.9375,307303.6875,-0.013916015625,0.8740234375,-0.49462890625,-0.8544921278953552,2.044677495956421,0.7019042372703552,80.0,12706.0,1.0
911102.2140944,301468.28125,306310.03125,476557.625,449647.75,394016.84375,305473.78125,288499.875,308358.6875,-0.0126953125,0.8720703125,-0.495849609375,-0.8239745497703552,1.9836424589157104,0.6103515028953552,80.0,12707.0,1.0
911102.2328956,302119.875,306815.53125,481513.90625,451346.375,399023.28125,306900.375,291100.09375,310005.125,-0.012939453125,0.8720703125,-0.491455078125,-0.9460448622703552,1.8310545682907104,0.5798339247703552,80.0,12708.0,1.0
911102.235649,302666.6875,306824.90625,483378.03125,451064.03125,399837.15625,306397.09375,291186.90625,309959.34375,-0.011962890625,0.87353515625,-0.4912109375,-0.9155272841453552,1.8615721464157104,0.6103515028953552,80.0,12709.0,1.0
911102.2356915,302291.4375,306295.0,479467.375,449171.125,395369.75,304669.5,288656.78125,308297.1875,-0.009033203125,0.875,-0.4921875,-0.9765624403953552,1.8005369901657104,0.5187987685203552,80.0,12710.0,1.0
911102.2357145,301562.0625,305977.96875,475219.84375,448279.0,391763.15625,304089.40625,286984.15625,307303.78125,-0.009521484375,0.874267578125,-0.4931640625,-1.0681151151657104,1.7089842557907104,0.5798339247703552,80.0,12711.0,1.0
911102.2380247,301458.71875,306297.6875,476503.375,449624.9375,394027.46875,305464.125,288494.6875,308360.75,-0.00830078125,0.872802734375,-0.49609375,-1.0375975370407104,1.5869139432907104,0.5187987685203552,80.0,12712.0,1.0
911102.239235,302111.1875,306803.90625,481468.9375,451319.21875,399035.875,306886.25,291095.625,310002.53125,-0.009033203125,0.87255859375,-0.496826171875,-0.9460448622703552,1.6174315214157104,0.6103515028953552,80.0,12713.0,1.0
911102.2578813,302666.875,306818.84375,483348.4375,451039.8125,399857.0,306387.96875,291186.5625,309957.09375,-0.0087890625,0.871826171875,-0.496337890625,-0.9460448622703552,1.7089842557907104,0.6408690810203552,80.0,12714.0,1.0
911102.260674,302279.8125,306288.03125,479449.3125,449143.03125,395388.78125,304656.96875,288655.0,308289.03125,-0.00830078125,0.872802734375,-0.496826171875,-0.9155272841453552,1.6174315214157104,0.6103515028953552,80.0,12715.0,1.0
911102.260705,301541.3125,305972.96875,475201.15625,448246.8125,391783.375,304079.75,286982.46875,307291.53125,-0.00927734375,0.87109375,-0.49169921875,-0.9155272841453552,1.5869139432907104,0.6408690810203552,80.0,12716.0,1.0
911102.2607152,301440.125,306288.5625,476467.78125,449589.8125,394043.21875,305452.4375,288489.59375,308341.0,-0.010986328125,0.873291015625,-0.49267578125,-0.8239745497703552,1.6174315214157104,0.6103515028953552,80.0,12717.0,1.0
911102.2618203,302090.8125,306789.96875,481422.625,451284.96875,399048.9375,306870.5,291089.71875,309978.3125,-0.010009765625,0.87353515625,-0.492919921875,-0.7934569716453552,1.5869139432907104,0.6713866591453552,80.0,12718.0,1.0
911102.2628432,302641.21875,306804.8125,483297.3125,451005.65625,399871.5625,306379.3125,291182.8125,309936.53125,-0.01171875,0.87353515625,-0.4931640625,-0.7934569716453552,1.5563963651657104,0.4882812201976776,80.0,12719.0,1.0
911102.2843179,302265.4375,306274.4375,479393.8125,449109.0625,395398.0,304654.65625,288646.0625,308268.5625,-0.01123046875,0.87158203125,-0.492431640625,-0.7629393935203552,1.4648436307907104,0.6408690810203552,80.0,12720.0,1.0
911102.284367,301535.78125,305956.59375,475139.375,448212.5,391780.59375,304064.46875,286963.875,307268.375,-0.0107421875,0.87255859375,-0.492431640625,-0.8239745497703552,1.5563963651657104,0.6103515028953552,80.0,12721.0,1.0
911102.2867949,301434.65625,306277.28125,476419.6875,449556.46875,394038.125,305434.0,288470.8125,308320.96875,-0.011962890625,0.8701171875,-0.491943359375,-0.8239745497703552,1.4953612089157104,0.7324218153953552,80.0,12722.0,1.0
911102.2868354,302089.125,306784.5,481397.0625,451250.90625,399047.3125,306857.1875,291072.84375,309965.25,-0.012939453125,0.8720703125,-0.4921875,-0.7934569716453552,1.4648436307907104,0.7019042372703552,80.0,12723.0,1.0
911102.2879874,302641.5625,306796.65625,483295.625,450968.1875,399870.3125,306362.21875,291166.875,309923.03125,-0.01123046875,0.872314453125,-0.492919921875,-0.7324218153953552,1.4648436307907104,0.7019042372703552,80.0,12724.0,1.0
911102.2891476,302277.6875,306275.25,479414.1875,449081.71875,395410.0625,304642.9375,288643.8125,308265.0,-0.013916015625,0.8720703125,-0.493896484375,-0.7934569716453552,1.3732908964157104,0.6103515028953552,80.0,12725.0,1.0
911102.2904974,301550.78125,305962.6875,475167.09375,448186.125,391800.0,304065.8125,286968.875,307267.9375,-0.012939453125,0.871337890625,-0.493896484375,-0.7019042372703552,1.3732908964157104,0.6103515028953552,80.0,12726.0,1.0
911102.3092366,301450.03125,306283.09375,476440.78125,449528.90625,394054.375,305439.8125,288473.6875,308319.34375,-0.012451171875,0.87255859375,-0.49365234375,-0.5493163466453552,1.3732908964157104,0.6408690810203552,80.0,12727.0,1.0
911102.3092781,302105.21875,306791.9375,481405.71875,451229.25,399062.15625,306866.03125,291075.59375,309965.4375,-0.013427734375,0.87255859375,-0.495361328125,-0.6103515028953552,1.3427733182907104,0.7019042372703552,80.0,12728.0,1.0
911102.3117567,302653.1875,306808.375,483285.6875,450953.34375,399884.8125,306379.3125,291169.46875,309923.40625,-0.011474609375,0.871826171875,-0.4951171875,-0.6103515028953552,1.2512205839157104,0.5493163466453552,80.0,12729.0,1.0
911102.3117924,302280.1875,306281.78125,479391.125,449066.78125,395421.25,304663.9375,288644.625,308263.5625,-0.010009765625,0.873291015625,-0.493896484375,-0.5493163466453552,1.2207030057907104,0.6103515028953552,80.0,12730.0,1.0
911102.3118026,301555.96875,305970.375,475138.75,448177.875,391808.75,304085.40625,286966.90625,307266.84375,-0.00927734375,0.8740234375,-0.4931640625,-0.5493163466453552,1.3427733182907104,0.7324218153953552,80.0,12731.0,1.0
911102.3128588,301459.15625,306293.5625,476412.15625,449528.375,394065.65625,305449.65625,288472.625,308323.8125,-0.010498046875,0.87548828125,-0.4931640625,-0.6408690810203552,1.2817381620407104,0.7019042372703552,80.0,12732.0,1.0
911102.3142733,302122.09375,306804.15625,481382.21875,451233.65625,399078.15625,306876.5,291074.34375,309972.3125,-0.0087890625,0.875244140625,-0.494140625,-0.6713866591453552,1.3122557401657104,0.7324218153953552,80.0,12733.0,1.0
911102.3342967,302670.25,306816.15625,483272.8125,450956.75,399905.28125,306382.25,291166.4375,309931.90625,-0.010986328125,0.875,-0.493896484375,-0.7019042372703552,1.4038084745407104,0.8239745497703552,80.0,12734.0,1.0
911102.3343369,302297.78125,306287.03125,479389.6875,449071.25,395443.9375,304659.21875,288641.3125,308273.5625,-0.010498046875,0.872802734375,-0.49658203125,-0.8239745497703552,1.3427733182907104,0.7324218153953552,80.0,12735.0,1.0
