Time,FZ,C3,CZ,C4,PZ,PO7,OZ,PO8,AccX,AccY,AccZ,Gyro1,Gyro2,Gyro3,Battery,Counter,Validation
178757.4820965,306131.65625,309952.375,334793.03125,315315.09375,314577.65625,283979.71875,291851.03125,307488.3125,-0.084716796875,0.8759765625,-0.389892578125,-3.051757574081421,-1.0070799589157104,1.6784666776657104,100.0,116553.0,1.0
178757.4863984,305955.15625,308761.90625,334209.28125,314788.46875,313983.8125,283658.9375,291538.65625,307373.96875,-0.083251953125,0.876953125,-0.3876953125,-3.021239995956421,-0.9460448622703552,1.5563963651657104,100.0,116554.0,1.0
178757.4864457,305671.84375,307181.28125,332578.78125,314139.3125,312812.59375,283371.84375,291224.90625,307302.15625,-0.082763671875,0.87890625,-0.38671875,-3.143310308456421,-0.9460448622703552,1.6479490995407104,100.0,116555.0,1.0
178757.4901742,305581.09375,307165.8125,331798.96875,314107.65625,312469.8125,283447.03125,291280.875,307349.28125,-0.08203125,0.8798828125,-0.388916015625,-3.112792730331421,-0.9155272841453552,1.5869139432907104,100.0,116556.0,1.0
178757.4902234,305914.21875,308953.78125,333244.78125,314905.34375,313615.5625,283859.125,291699.9375,307488.75,-0.082763671875,0.878662109375,-0.386474609375,-3.234863042831421,-0.9460448622703552,1.7089842557907104,100.0,116557.0,1.0
178757.5032841,306137.5625,309954.4375,334773.0,315321.71875,314576.78125,283982.78125,291861.21875,307499.75,-0.078857421875,0.87841796875,-0.388427734375,-3.204345464706421,-0.9765624403953552,1.6784666776657104,100.0,116558.0,1.0
178757.5063799,305960.0,308778.0,334207.3125,314802.625,313992.03125,283664.9375,291550.53125,307384.0625,-0.080322265625,0.879150390625,-0.385009765625,-3.173827886581421,-0.8850097060203552,1.6479490995407104,100.0,116559.0,1.0
178757.5064293,305680.15625,307190.78125,332586.5625,314154.3125,312822.4375,283377.3125,291232.34375,307307.1875,-0.080810546875,0.876953125,-0.382568359375,-3.387450933456421,-0.9155272841453552,1.6784666776657104,100.0,116560.0,1.0
178757.5083584,305587.625,307150.8125,331783.40625,314110.34375,312463.8125,283447.40625,291281.5,307347.78125,-0.08447265625,0.87548828125,-0.382568359375,-3.479003667831421,-0.9155272841453552,1.7395018339157104,100.0,116561.0,1.0
178757.5108056,305909.5625,308918.03125,333190.6875,314896.03125,313588.8125,283849.5625,291693.9375,307479.90625,-0.083984375,0.872802734375,-0.381103515625,-3.387450933456421,-0.8544921278953552,1.7089842557907104,100.0,116562.0,1.0
178757.5196073,306137.71875,309939.0625,334730.09375,315319.21875,314562.90625,283972.59375,291857.125,307489.375,-0.0830078125,0.872802734375,-0.3828125,-3.295898199081421,-0.9155272841453552,1.7395018339157104,100.0,116563.0,1.0
178757.5226782,305971.4375,308790.625,334199.625,314811.71875,314007.5,283656.0,291550.4375,307373.6875,-0.0830078125,0.87451171875,-0.384521484375,-3.265380620956421,-1.0070799589157104,1.6784666776657104,100.0,116564.0,1.0
178757.5227251,305687.375,307192.65625,332574.5625,314156.28125,312832.25,283363.625,291227.59375,307295.65625,-0.080810546875,0.875732421875,-0.385498046875,-3.173827886581421,-0.9460448622703552,1.5869139432907104,100.0,116565.0,1.0
178757.5258378,305584.9375,307126.5625,331744.96875,314095.40625,312451.5625,283431.5,291270.4375,307336.15625,-0.08154296875,0.87939453125,-0.385009765625,-3.143310308456421,-0.9765624403953552,1.4953612089157104,100.0,116566.0,1.0
178757.5395813,305902.59375,308891.375,333138.625,314877.34375,313571.65625,283849.8125,291686.78125,307473.5625,-0.083740234375,0.877685546875,-0.384765625,-3.173827886581421,-0.8850097060203552,1.4648436307907104,100.0,116567.0,1.0
178757.5426329,306125.84375,309931.90625,334689.84375,315309.71875,314556.75,283996.90625,291856.84375,307490.1875,-0.0849609375,0.876953125,-0.384033203125,-3.234863042831421,-0.9155272841453552,1.4343260526657104,100.0,116568.0,1.0
178757.5426845,305962.9375,308805.71875,334187.46875,314809.9375,314018.875,283688.96875,291553.3125,307378.6875,-0.08447265625,0.87646484375,-0.3818359375,-3.234863042831421,-0.9765624403953552,1.3732908964157104,100.0,116569.0,1.0
178757.5445585,305681.3125,307199.4375,332569.375,314149.3125,312838.78125,283394.75,291227.96875,307299.5625,-0.084228515625,0.878173828125,-0.383544921875,-3.204345464706421,-1.0681151151657104,1.2207030057907104,100.0,116570.0,1.0
178757.5495864,305577.5,307106.1875,331721.1875,314077.875,312443.15625,283457.78125,291264.96875,307338.03125,-0.08251953125,0.878173828125,-0.383544921875,-3.295898199081421,-1.1596678495407104,1.3427733182907104,100.0,116571.0,1.0
178757.5533155,305887.65625,308854.90625,333085.8125,314850.1875,313543.9375,283862.78125,291675.0,307470.0,-0.081787109375,0.877685546875,-0.384765625,-3.265380620956421,-1.1596678495407104,1.2817381620407104,100.0,116572.0,1.0
178757.5570782,306117.09375,309922.6875,334650.4375,315298.28125,314540.5625,284013.71875,291854.59375,307488.125,-0.079345703125,0.877197265625,-0.38427734375,-3.234863042831421,-1.1291502714157104,1.2817381620407104,100.0,116573.0,1.0
178757.5689248,305962.6875,308823.25,334180.15625,314815.9375,314025.125,283713.65625,291557.875,307378.875,-0.07861328125,0.876953125,-0.38525390625,-3.112792730331421,-1.0986326932907104,1.2817381620407104,100.0,116574.0,1.0
178757.5689737,305691.3125,307223.125,332583.96875,314168.0,312862.125,283424.4375,291235.65625,307305.46875,-0.078857421875,0.8779296875,-0.38671875,-3.051757574081421,-1.0986326932907104,1.3122557401657104,100.0,116575.0,1.0
178757.5713623,305581.71875,307103.875,331711.71875,314086.375,312450.9375,283483.0,291268.90625,307345.71875,-0.080810546875,0.879638671875,-0.385009765625,-3.112792730331421,-1.1291502714157104,1.2817381620407104,100.0,116576.0,1.0
178757.5714104,305884.875,308835.3125,333035.71875,314851.96875,313531.78125,283888.28125,291679.1875,307483.65625,-0.080078125,0.877685546875,-0.38671875,-3.112792730331421,-1.0986326932907104,1.2817381620407104,100.0,116577.0,1.0
178757.5795822,306124.9375,309931.8125,334612.6875,315315.0,314545.65625,284033.46875,291863.0,307502.875,-0.07958984375,0.876220703125,-0.388916015625,-3.021239995956421,-1.1596678495407104,1.2512205839157104,100.0,116578.0,1.0
178757.582039,305981.90625,308857.9375,334172.8125,314844.09375,314048.625,283732.0,291572.625,307395.34375,-0.081298828125,0.876708984375,-0.385009765625,-2.960204839706421,-1.1291502714157104,1.1901854276657104,100.0,116579.0,1.0
178757.5846033,305707.40625,307245.65625,332586.1875,314192.59375,312878.125,283434.25,291245.3125,307315.65625,-0.080322265625,0.87841796875,-0.38671875,-3.051757574081421,-1.0070799589157104,1.2817381620407104,100.0,116580.0,1.0
178757.5883182,305591.8125,307100.75,331695.0625,314099.15625,312446.125,283481.75,291270.6875,307350.09375,-0.07958984375,0.878662109375,-0.386962890625,-2.990722417831421,-1.0375975370407104,1.1901854276657104,100.0,116581.0,1.0
178757.6026781,305889.09375,308818.6875,332992.625,314852.15625,313512.90625,283878.4375,291676.5,307484.75,-0.07958984375,0.87890625,-0.385986328125,-2.929687261581421,-1.0681151151657104,1.1901854276657104,100.0,116582.0,1.0
178757.6027263,306123.0625,309927.34375,334574.34375,315316.6875,314533.75,284025.25,291863.09375,307504.5,-0.078125,0.877685546875,-0.38623046875,-2.838134527206421,-1.0681151151657104,1.0986326932907104,100.0,116583.0,1.0
178757.6070807,305982.34375,308872.6875,334159.125,314853.84375,314053.03125,283727.96875,291573.875,307397.84375,-0.077880859375,0.878662109375,-0.384765625,-2.868652105331421,-0.9460448622703552,1.1901854276657104,100.0,116584.0,1.0
178757.6096034,305719.5,307267.75,332593.875,314206.4375,312896.375,283437.65625,291247.0,307317.8125,-0.07861328125,0.880615234375,-0.3857421875,-2.777099370956421,-0.8850097060203552,1.0375975370407104,100.0,116585.0,1.0
178757.6120598,305597.90625,307093.59375,331685.25,314096.46875,312448.0,283480.21875,291265.6875,307348.125,-0.080322265625,0.878662109375,-0.385986328125,-2.807616949081421,-0.8544921278953552,1.0986326932907104,100.0,116586.0,1.0
178757.6145313,305882.375,308792.40625,332949.09375,314837.5625,313493.6875,283874.84375,291669.1875,307480.09375,-0.081787109375,0.87890625,-0.385009765625,-2.655029058456421,-0.7629393935203552,1.1291502714157104,100.0,116587.0,1.0
178757.621426,306117.0,309923.40625,334538.5625,315307.65625,314526.78125,284031.9375,291863.09375,307501.53125,-0.080078125,0.87744140625,-0.386474609375,-2.593993902206421,-0.7934569716453552,1.2207030057907104,100.0,116588.0,1.0
178757.6214772,305974.9375,308884.6875,334139.1875,314850.1875,314055.71875,283735.5625,291575.46875,307389.15625,-0.082763671875,0.877685546875,-0.383544921875,-2.563476324081421,-0.8544921278953552,1.0681151151657104,100.0,116589.0,1.0
178757.623284,305709.375,307269.96875,332586.28125,314202.59375,312899.125,283431.03125,291241.8125,307306.0,-0.081298828125,0.877685546875,-0.38427734375,-2.441406011581421,-0.7934569716453552,0.9765624403953552,100.0,116590.0,1.0
178757.6376781,305575.625,307064.15625,331657.34375,314076.28125,312433.6875,283461.96875,291251.125,307331.0625,-0.082763671875,0.878662109375,-0.389404296875,-2.410888433456421,-0.8850097060203552,0.9155272841453552,100.0,116591.0,1.0
178757.6377269,305852.15625,308751.625,332892.40625,314800.65625,313466.34375,283858.75,291650.40625,307458.71875,-0.082275390625,0.878173828125,-0.390625,-2.258300542831421,-0.8239745497703552,0.8850097060203552,100.0,116592.0,1.0
178757.6401019,306092.84375,309906.40625,334493.0625,315279.15625,314511.6875,284025.25,291851.5625,307480.8125,-0.080810546875,0.878173828125,-0.387939453125,-2.227782964706421,-0.8544921278953552,0.8239745497703552,100.0,116593.0,1.0
178757.6401525,305961.0625,308889.15625,334118.8125,314828.34375,314057.59375,283733.40625,291564.9375,307368.15625,-0.08154296875,0.87841796875,-0.387451171875,-2.258300542831421,-0.8850097060203552,0.7019042372703552,100.0,116594.0,1.0
178757.6439141,305698.9375,307270.59375,332569.84375,314178.1875,312902.1875,283430.5,291231.8125,307288.5,-0.080078125,0.8798828125,-0.3857421875,-2.105712652206421,-0.8544921278953552,0.6103515028953552,100.0,116595.0,1.0
178757.6546072,305566.78125,307045.75,331626.84375,314050.15625,312426.96875,283463.6875,291241.53125,307321.03125,-0.081298828125,0.87744140625,-0.385498046875,-2.166747808456421,-0.8850097060203552,0.6103515028953552,100.0,116596.0,1.0
178757.6576751,305835.4375,308713.28125,332831.09375,314773.1875,313445.15625,283855.625,291640.9375,307453.09375,-0.083740234375,0.87890625,-0.387451171875,-2.075195074081421,-0.8239745497703552,0.5493163466453552,100.0,116597.0,1.0
178757.6577232,306079.53125,309893.8125,334441.375,315264.125,314502.5625,284026.21875,291845.40625,307478.3125,-0.08349609375,0.879150390625,-0.386474609375,-1.9531248807907104,-0.8850097060203552,0.4577636420726776,100.0,116598.0,1.0
178757.6595768,305955.0625,308904.53125,334099.0625,314828.4375,314067.875,283736.0,291566.0,307370.125,-0.08349609375,0.876953125,-0.389892578125,-1.8920897245407104,-0.8850097060203552,0.4577636420726776,100.0,116599.0,1.0
178757.6633291,305701.34375,307282.78125,332568.59375,314183.90625,312920.6875,283436.75,291236.4375,307292.78125,-0.08349609375,0.876708984375,-0.388427734375,-1.8005369901657104,-0.8850097060203552,0.5493163466453552,100.0,116600.0,1.0
178757.6744588,305561.59375,307029.3125,331601.46875,314038.1875,312426.4375,283460.71875,291235.65625,307316.03125,-0.082763671875,0.876220703125,-0.387939453125,-1.7700194120407104,-0.9155272841453552,0.4882812201976776,100.0,116601.0,1.0
178757.6814273,305827.59375,308685.28125,332777.96875,314752.0,313426.625,283848.65625,291629.3125,307446.84375,-0.081787109375,0.876220703125,-0.389892578125,-1.7395018339157104,-0.9765624403953552,0.3662109076976776,100.0,116602.0,1.0
178757.681485,306075.0625,309889.875,334397.84375,315253.3125,314490.75,284020.3125,291838.0625,307472.5,-0.084228515625,0.876220703125,-0.39013671875,-1.6479490995407104,-1.0070799589157104,0.3051757514476776,100.0,116603.0,1.0
178757.6833296,305953.65625,308919.90625,334079.28125,314827.71875,314073.21875,283731.71875,291559.5625,307360.28125,-0.0849609375,0.87744140625,-0.388671875,-1.5563963651657104,-0.9765624403953552,0.2441406100988388,100.0,116604.0,1.0
178757.6857847,305698.125,307290.0,332549.0,314178.71875,312917.28125,283423.53125,291221.53125,307274.71875,-0.085205078125,0.876708984375,-0.389892578125,-1.4648436307907104,-0.9460448622703552,0.2441406100988388,100.0,116605.0,1.0
178757.6883031,305560.15625,307009.09375,331560.6875,314026.03125,312400.15625,283443.75,291216.6875,307296.34375,-0.085205078125,0.87451171875,-0.388427734375,-1.4038084745407104,-0.9460448622703552,0.3662109076976776,100.0,116606.0,1.0
178757.6970001,305825.0625,308650.6875,332715.21875,314734.40625,313387.75,283826.75,291611.875,307424.21875,-0.085693359375,0.875244140625,-0.388671875,-1.2817381620407104,-1.0070799589157104,0.3356933295726776,100.0,116607.0,1.0
178757.7000513,306073.0,309872.0,334347.5,315243.375,314468.3125,284006.28125,291829.3125,307454.78125,-0.084716796875,0.87451171875,-0.3896484375,-1.2817381620407104,-1.0070799589157104,0.3356933295726776,100.0,116608.0,1.0
178757.7000867,305958.46875,308931.4375,334060.0625,314830.6875,314075.03125,283727.5,291562.96875,307354.03125,-0.083984375,0.875244140625,-0.38916015625,-1.1291502714157104,-0.9765624403953552,0.2746581733226776,100.0,116609.0,1.0
178757.7107206,305709.375,307300.65625,332543.375,314184.8125,312928.09375,283423.71875,291227.6875,307273.75,-0.083251953125,0.874755859375,-0.386962890625,-1.0070799589157104,-1.0681151151657104,0.2441406100988388,100.0,116610.0,1.0
178757.7137933,305570.1875,306998.1875,331542.46875,314021.46875,312401.9375,283436.3125,291218.9375,307297.0625,-0.08251953125,0.876708984375,-0.389892578125,-0.9155272841453552,-1.0681151151657104,0.3356933295726776,100.0,116611.0,1.0
178757.7138124,305826.96875,308621.625,332666.3125,314715.53125,313370.9375,283819.34375,291611.15625,307430.75,-0.08349609375,0.877685546875,-0.39013671875,-0.8850097060203552,-1.0986326932907104,0.3356933295726776,100.0,116612.0,1.0
178757.7157017,306086.5,309876.46875,334320.0625,315243.46875,314470.28125,284013.78125,291841.90625,307472.3125,-0.084228515625,0.8759765625,-0.388427734375,-0.7629393935203552,-1.1291502714157104,0.3662109076976776,100.0,116613.0,1.0
178757.7182957,305973.3125,308958.4375,334063.90625,314843.5625,314094.40625,283739.0625,291576.5625,307368.78125,-0.083740234375,0.876220703125,-0.386474609375,-0.7629393935203552,-1.1291502714157104,0.3356933295726776,100.0,116614.0,1.0
178757.7270812,305717.15625,307313.78125,332547.5625,314191.59375,312938.65625,283423.09375,291229.9375,307280.0,-0.082275390625,0.87646484375,-0.390625,-0.5798339247703552,-1.0070799589157104,0.2746581733226776,100.0,116615.0,1.0
178757.7301141,305570.8125,306983.25,331526.8125,314020.3125,312391.9375,283431.21875,291214.8125,307301.8125,-0.08203125,0.878662109375,-0.38916015625,-0.6103515028953552,-1.0375975370407104,0.3356933295726776,100.0,116616.0,1.0
178757.7301456,305829.90625,308598.40625,332628.75,314714.46875,313350.09375,283820.125,291610.34375,307438.0625,-0.08203125,0.87744140625,-0.39208984375,-0.5493163466453552,-1.0681151151657104,0.3051757514476776,100.0,116617.0,1.0
178757.738273,306094.5625,309874.6875,334289.40625,315248.9375,314456.78125,284021.03125,291842.625,307475.875,-0.080810546875,0.87939453125,-0.39306640625,-0.4882812201976776,-0.9765624403953552,0.4577636420726776,100.0,116618.0,1.0
178757.7426145,305988.34375,308981.9375,334058.625,314856.15625,314101.3125,283750.84375,291580.5625,307373.25,-0.07958984375,0.87890625,-0.3896484375,-0.5187987685203552,-0.9460448622703552,0.5187987685203552,100.0,116619.0,1.0
178757.742647,305734.59375,307339.53125,332552.65625,314206.34375,312953.3125,283443.375,291240.90625,307288.59375,-0.080810546875,0.8779296875,-0.388916015625,-0.4272460639476776,-1.0375975370407104,0.5187987685203552,100.0,116620.0,1.0
178757.7445528,305587.53125,306985.65625,331506.59375,314024.21875,312391.125,283448.65625,291220.53125,307307.96875,-0.08154296875,0.877685546875,-0.3896484375,-0.3662109076976776,-1.0070799589157104,0.5798339247703552,100.0,116621.0,1.0
178757.7607751,305842.15625,308587.125,332584.5,314709.71875,313338.5625,283829.4375,291610.78125,307439.6875,-0.08251953125,0.87744140625,-0.3896484375,-0.3051757514476776,-0.8850097060203552,0.6408690810203552,100.0,116622.0,1.0
178757.7638849,306103.65625,309880.65625,334261.25,315255.1875,314460.09375,284031.3125,291848.875,307481.0625,-0.08251953125,0.879150390625,-0.389404296875,-0.2746581733226776,-0.8544921278953552,0.5493163466453552,100.0,116623.0,1.0
178757.7639331,306001.125,309011.90625,334061.0625,314874.03125,314125.625,283769.1875,291596.9375,307379.25,-0.0830078125,0.87939453125,-0.391357421875,-0.2746581733226776,-0.7324218153953552,0.5493163466453552,100.0,116624.0,1.0
178757.7658304,305745.0625,307366.28125,332562.40625,314220.125,312976.65625,283452.40625,291251.65625,307290.09375,-0.082763671875,0.87890625,-0.392578125,-0.2136230319738388,-0.7324218153953552,0.5798339247703552,100.0,116625.0,1.0
178757.7683538,305590.75,306987.09375,331503.03125,314025.03125,312398.71875,283450.34375,291223.5,307309.3125,-0.08154296875,0.880615234375,-0.390625,-0.2441406100988388,-0.7019042372703552,0.5187987685203552,100.0,116626.0,1.0
178757.7958501,305835.96875,308567.90625,332554.625,314701.5,313324.1875,283833.8125,291608.28125,307444.0625,-0.08349609375,0.87841796875,-0.392822265625,-0.3356933295726776,-0.7019042372703552,0.5493163466453552,100.0,116627.0,1.0
178757.798307,306096.6875,309881.125,334243.4375,315253.21875,314457.3125,284041.59375,291847.53125,307481.34375,-0.08251953125,0.880615234375,-0.39013671875,-0.3051757514476776,-0.7324218153953552,0.4577636420726776,100.0,116628.0,1.0
178757.8008552,305991.375,309030.125,334061.0625,314875.9375,314134.84375,283780.625,291597.375,307379.6875,-0.084228515625,0.879150390625,-0.393798828125,-0.3356933295726776,-0.6713866591453552,0.4272460639476776,100.0,116629.0,1.0
178757.8033538,305739.34375,307379.6875,332573.21875,314222.1875,312990.96875,283462.25,291251.46875,307292.59375,-0.08251953125,0.87890625,-0.392333984375,-0.1220703050494194,-0.6408690810203552,0.4577636420726776,100.0,116630.0,1.0
178757.8058769,305578.40625,306973.78125,331497.03125,314016.625,312398.375,283451.5,291218.375,307308.4375,-0.0830078125,0.880126953125,-0.394775390625,-0.1525878757238388,-0.5493163466453552,0.3967284858226776,100.0,116631.0,1.0
178757.8083544,305809.59375,308530.1875,332510.375,314679.40625,313297.25,283827.28125,291598.71875,307436.46875,-0.083984375,0.8779296875,-0.395263671875,-0.2441406100988388,-0.5493163466453552,0.3662109076976776,100.0,116632.0,1.0
178757.8108224,306076.125,309867.6875,334208.3125,315243.375,314439.53125,284035.34375,291846.90625,307480.53125,-0.08251953125,0.878662109375,-0.390625,-0.2441406100988388,-0.5493163466453552,0.3967284858226776,100.0,116633.0,1.0
178757.8133221,305981.8125,309047.3125,334059.53125,314880.3125,314144.3125,283773.125,291602.125,307379.59375,-0.08251953125,0.878173828125,-0.390380859375,-0.2136230319738388,-0.7019042372703552,0.2746581733226776,100.0,116634.0,1.0
178757.8158705,305731.09375,307393.28125,332576.375,314225.65625,313003.03125,283454.8125,291254.15625,307291.4375,-0.083984375,0.87646484375,-0.390869140625,-0.2441406100988388,-0.6713866591453552,0.3051757514476776,100.0,116635.0,1.0
178757.8183542,305564.625,306957.875,331480.5,314011.4375,312395.6875,283438.71875,291214.71875,307304.59375,-0.083984375,0.879150390625,-0.39111328125,-0.2441406100988388,-0.6713866591453552,0.2136230319738388,100.0,116636.0,1.0
178757.8338527,305795.65625,308498.96875,332472.46875,314668.84375,313286.28125,283817.71875,291593.90625,307434.75,-0.082763671875,0.88037109375,-0.392822265625,-0.1831054538488388,-0.5493163466453552,0.1525878757238388,100.0,116637.0,1.0
178757.833902,306063.34375,309854.28125,334171.75,315235.53125,314433.09375,284037.125,291847.09375,307476.15625,-0.0849609375,0.88134765625,-0.391357421875,-0.1831054538488388,-0.5493163466453552,0.1525878757238388,100.0,116638.0,1.0
178757.833914,305971.625,309055.0,334040.9375,314877.8125,314149.3125,283779.46875,291607.03125,307374.84375,-0.083251953125,0.883056640625,-0.390869140625,-0.3051757514476776,-0.5798339247703552,0.1525878757238388,100.0,116639.0,1.0
178757.8339266,305719.65625,307397.5625,332566.625,314220.3125,313013.5625,283459.375,291259.875,307287.3125,-0.08154296875,0.879638671875,-0.391357421875,-0.3051757514476776,-0.5187987685203552,0.1525878757238388,100.0,116640.0,1.0
178757.838936,305548.1875,306938.09375,331450.71875,313995.34375,312391.03125,283436.9375,291212.125,307297.4375,-0.08447265625,0.87939453125,-0.3876953125,-0.3356933295726776,-0.5798339247703552,0.2136230319738388,100.0,116641.0,1.0
178757.8389887,305779.46875,308464.09375,332415.875,314646.78125,313265.875,283810.21875,291588.0,307426.53125,-0.085205078125,0.88134765625,-0.390869140625,-0.3356933295726776,-0.4882812201976776,0.2136230319738388,100.0,116642.0,1.0
178757.8414201,306057.90625,309844.1875,334132.3125,315230.5,314428.34375,284034.71875,291849.5,307476.875,-0.0849609375,0.88232421875,-0.390869140625,-0.4272460639476776,-0.4882812201976776,0.2441406100988388,100.0,116643.0,1.0
178757.8414678,305975.5625,309073.3125,334033.34375,314889.875,314165.75,283788.9375,291614.375,307381.28125,-0.081787109375,0.880859375,-0.39013671875,-0.3662109076976776,-0.4577636420726776,0.3662109076976776,100.0,116644.0,1.0
178757.843353,305731.09375,307419.28125,332573.15625,314238.8125,313037.1875,283469.9375,291263.8125,307294.3125,-0.0830078125,0.87939453125,-0.39404296875,-0.5493163466453552,-0.3662109076976776,0.3356933295726776,100.0,116645.0,1.0
178757.8458103,305557.40625,306933.09375,331438.9375,314001.6875,312394.78125,283446.96875,291210.96875,307304.6875,-0.082763671875,0.88134765625,-0.392333984375,-0.4577636420726776,-0.3356933295726776,0.3967284858226776,100.0,116646.0,1.0
178757.8595653,305775.09375,308435.65625,332367.5,314636.84375,313241.21875,283813.875,291579.25,307428.59375,-0.083740234375,0.881591796875,-0.391845703125,-0.5493163466453552,-0.3356933295726776,0.3051757514476776,100.0,116647.0,1.0
178757.8664527,306048.6875,309830.15625,334088.9375,315223.8125,314408.40625,284040.4375,291840.125,307474.71875,-0.0830078125,0.882080078125,-0.390869140625,-0.6713866591453552,-0.3356933295726776,0.3967284858226776,100.0,116648.0,1.0
178757.8664995,305961.5,309083.78125,334012.0625,314884.5,314160.9375,283791.71875,291607.5625,307374.3125,-0.0830078125,0.882080078125,-0.38916015625,-0.8850097060203552,-0.3356933295726776,0.3662109076976776,100.0,116649.0,1.0
178757.868934,305710.46875,307419.46875,332548.28125,314222.28125,313025.03125,283464.75,291255.65625,307284.09375,-0.083251953125,0.8828125,-0.390380859375,-0.9765624403953552,-0.2441406100988388,0.4577636420726776,100.0,116650.0,1.0
178757.8689842,305533.96875,306910.03125,331396.1875,313974.625,312370.65625,283434.53125,291199.15625,307289.46875,-0.082763671875,0.88427734375,-0.387939453125,-1.1596678495407104,-0.2746581733226776,0.4577636420726776,100.0,116651.0,1.0
178757.8770681,305754.96875,308400.90625,332307.78125,314608.34375,313211.0625,283802.25,291570.90625,307418.40625,-0.08447265625,0.88427734375,-0.389404296875,-1.2817381620407104,-0.3356933295726776,0.4882812201976776,100.0,116652.0,1.0
178757.8800686,306037.3125,309819.5,334046.21875,315211.03125,314392.84375,284037.21875,291842.625,307471.0625,-0.081787109375,0.883056640625,-0.388671875,-1.4648436307907104,-0.3662109076976776,0.6103515028953552,100.0,116653.0,1.0
178757.8801203,305958.84375,309095.40625,334002.125,314887.46875,314168.0,283792.25,291615.34375,307371.375,-0.082275390625,0.884765625,-0.389404296875,-1.6174315214157104,-0.3662109076976776,0.6713866591453552,100.0,116654.0,1.0
178757.8833348,305718.6875,307432.6875,332553.5625,314232.71875,313037.71875,283466.28125,291261.65625,307282.0625,-0.08203125,0.88427734375,-0.390869140625,-1.6784666776657104,-0.3356933295726776,0.6408690810203552,100.0,116655.0,1.0
178757.8945577,305551.75,306911.09375,331398.6875,313988.1875,312376.0,283432.90625,291205.59375,307296.8125,-0.082763671875,0.88330078125,-0.388671875,-1.7089842557907104,-0.3356933295726776,0.7324218153953552,100.0,116656.0,1.0
178757.9132661,305775.28125,308394.375,332292.5,314621.375,313204.0,283800.8125,291575.9375,307431.375,-0.081298828125,0.883056640625,-0.38818359375,-1.8920897245407104,-0.2441406100988388,0.6713866591453552,100.0,116657.0,1.0
178757.9133149,306067.5625,309838.8125,334049.25,315238.75,314404.40625,284044.65625,291857.28125,307493.84375,-0.08203125,0.88330078125,-0.392578125,-1.9531248807907104,-0.2441406100988388,0.8239745497703552,100.0,116658.0,1.0
178757.9133264,305994.875,309146.375,334037.375,314925.90625,314203.21875,283808.4375,291637.4375,307397.21875,-0.08251953125,0.8837890625,-0.39111328125,-2.014159917831421,-0.2136230319738388,0.8850097060203552,100.0,116659.0,1.0
178757.9164261,305747.125,307478.84375,332598.25,314267.6875,313075.90625,283481.03125,291278.1875,307304.6875,-0.083251953125,0.8837890625,-0.38916015625,-2.197265386581421,-0.1831054538488388,0.8850097060203552,100.0,116660.0,1.0
178757.9164777,305566.0625,306923.8125,331420.96875,314003.40625,312395.0625,283441.59375,291210.53125,307309.3125,-0.086181640625,0.8837890625,-0.387939453125,-2.349853277206421,-0.2441406100988388,0.9460448622703552,100.0,116661.0,1.0
178757.9189502,305769.71875,308373.8125,332272.09375,314614.125,313194.4375,283800.03125,291571.625,307430.28125,-0.086669921875,0.885009765625,-0.38720703125,-2.319335699081421,-0.1525878757238388,0.9765624403953552,100.0,116662.0,1.0
178757.9189973,306052.875,309826.5625,334020.28125,315228.625,314390.625,284047.21875,291848.8125,307482.9375,-0.086181640625,0.88427734375,-0.389404296875,-2.319335699081421,-0.2746581733226776,0.8850097060203552,100.0,116663.0,1.0
178757.9208574,305982.15625,309154.15625,334026.09375,314922.0625,314204.3125,283817.46875,291632.4375,307388.53125,-0.08837890625,0.8828125,-0.38916015625,-2.563476324081421,-0.2746581733226776,0.8544921278953552,100.0,116664.0,1.0
178757.9233453,305735.3125,307478.03125,332588.4375,314260.90625,313075.90625,283488.875,291274.0,307294.75,-0.0869140625,0.881103515625,-0.38916015625,-2.563476324081421,-0.2746581733226776,0.8850097060203552,100.0,116665.0,1.0
178757.9296174,305559.4375,306904.5,331395.46875,313994.375,312385.125,283444.625,291206.5,307302.96875,-0.084716796875,0.8798828125,-0.38818359375,-2.532958745956421,-0.2441406100988388,0.9155272841453552,100.0,116666.0,1.0
178757.9364506,305770.34375,308346.1875,332230.1875,314608.6875,313179.96875,283802.15625,291569.9375,307434.75,-0.085693359375,0.87646484375,-0.385009765625,-2.685546636581421,-0.3051757514476776,0.9765624403953552,100.0,116667.0,1.0
178757.9364987,306063.53125,309817.46875,333985.25,315234.96875,314385.25,284051.53125,291855.25,307495.5625,-0.085693359375,0.8759765625,-0.387939453125,-2.655029058456421,-0.3967284858226776,0.9460448622703552,100.0,116668.0,1.0
178757.9501785,306002.28125,309177.03125,334020.90625,314943.15625,314220.03125,283818.875,291643.6875,307402.46875,-0.084716796875,0.873046875,-0.389404296875,-2.655029058456421,-0.4577636420726776,0.9460448622703552,100.0,116669.0,1.0
178757.9502267,305761.0625,307507.71875,332600.9375,314288.15625,313101.375,283492.375,291284.28125,307309.15625,-0.0830078125,0.8720703125,-0.3876953125,-2.563476324081421,-0.4882812201976776,0.9155272841453552,100.0,116670.0,1.0
178757.952675,305576.875,306906.71875,331395.46875,314008.40625,312390.78125,283444.625,291207.46875,307312.71875,-0.08447265625,0.8740234375,-0.388916015625,-2.502441167831421,-0.4882812201976776,0.9460448622703552,100.0,116671.0,1.0
178757.9527233,305774.84375,308325.53125,332202.09375,314606.71875,313161.625,283801.8125,291567.25,307439.0625,-0.082763671875,0.875,-0.38623046875,-2.441406011581421,-0.5798339247703552,0.9765624403953552,100.0,116672.0,1.0
178757.9613359,306061.03125,309820.59375,333972.09375,315239.09375,314379.4375,284057.6875,291859.34375,307500.28125,-0.083740234375,0.875732421875,-0.39013671875,-2.349853277206421,-0.5493163466453552,0.8850097060203552,100.0,116673.0,1.0
178757.9613905,305996.5625,309202.6875,334031.09375,314954.5,314234.15625,283838.75,291654.78125,307408.46875,-0.082763671875,0.876708984375,-0.3857421875,-2.227782964706421,-0.3662109076976776,0.8850097060203552,100.0,116674.0,1.0
178757.9632586,305753.1875,307531.84375,332614.90625,314293.15625,313117.75,283508.5625,291293.75,307313.15625,-0.08154296875,0.876953125,-0.381103515625,-2.258300542831421,-0.3051757514476776,0.8850097060203552,100.0,116675.0,1.0
178757.9721086,305560.15625,306904.125,331387.96875,313995.8125,312390.3125,283449.46875,291206.0625,307307.4375,-0.080322265625,0.8759765625,-0.382568359375,-2.197265386581421,-0.3051757514476776,0.9155272841453552,100.0,116676.0,1.0
178757.975149,305754.0,308303.25,332157.65625,314580.78125,313137.5,283798.25,291556.4375,307430.1875,-0.079345703125,0.875732421875,-0.385009765625,-2.136230230331421,-0.2746581733226776,0.9765624403953552,100.0,116677.0,1.0
178757.9751984,306046.71875,309809.21875,333930.6875,315221.46875,314362.90625,284060.1875,291852.09375,307489.75,-0.07763671875,0.876220703125,-0.386474609375,-2.044677495956421,-0.1831054538488388,0.9460448622703552,100.0,116678.0,1.0
178757.9771745,305989.6875,309215.375,334014.5625,314947.09375,314231.75,283843.9375,291652.375,307398.0,-0.079345703125,0.87890625,-0.38720703125,-2.105712652206421,-0.1220703050494194,1.0375975370407104,100.0,116679.0,1.0
178757.9881709,305751.21875,307548.75,332611.125,314289.15625,313116.75,283509.90625,291292.15625,307303.5,-0.079833984375,0.880126953125,-0.38720703125,-1.9226073026657104,-0.1831054538488388,1.0681151151657104,100.0,116680.0,1.0
178757.9951777,305560.53125,306902.59375,331380.1875,313990.875,312385.3125,283447.9375,291201.59375,307302.625,-0.081787109375,0.883056640625,-0.382568359375,-1.8920897245407104,-0.0915527269244194,1.0986326932907104,100.0,116681.0,1.0
178757.9952268,305747.375,308275.625,332120.375,314565.78125,313113.4375,283793.21875,291548.9375,307427.15625,-0.08349609375,0.884765625,-0.3828125,-1.9836424589157104,-0.1220703050494194,1.0986326932907104,100.0,116682.0,1.0
178757.9970614,306046.0,309803.34375,333902.0,315213.53125,314347.4375,284057.25,291851.75,307491.96875,-0.083984375,0.885986328125,-0.3828125,-2.227782964706421,-0.2441406100988388,1.1901854276657104,100.0,116683.0,1.0
178757.9996054,305991.90625,309236.125,334016.53125,314950.3125,314238.8125,283839.71875,291655.21875,307399.71875,-0.085205078125,0.8857421875,-0.379638671875,-2.319335699081421,-0.3051757514476776,1.2207030057907104,100.0,116684.0,1.0
178758.0108093,305752.75,307561.90625,332621.40625,314289.78125,313129.71875,283506.78125,291293.5,307303.25,-0.084716796875,0.88427734375,-0.382080078125,-2.349853277206421,-0.3662109076976776,1.2512205839157104,100.0,116685.0,1.0
178758.0138794,305557.84375,306885.8125,331367.21875,313978.625,312377.53125,283439.4375,291197.5625,307299.5,-0.0830078125,0.884521484375,-0.383544921875,-2.349853277206421,-0.3967284858226776,1.2512205839157104,100.0,116686.0,1.0
178758.0139273,305737.375,308236.65625,332081.21875,314545.75,313089.75,283778.03125,291539.90625,307421.34375,-0.081787109375,0.883544921875,-0.380615234375,-2.410888433456421,-0.3051757514476776,1.3122557401657104,100.0,116687.0,1.0
178758.0226198,306038.03125,309783.9375,333873.03125,315205.84375,314332.6875,284049.375,291847.0,307488.59375,-0.07958984375,0.884521484375,-0.3828125,-2.410888433456421,-0.3051757514476776,1.2512205839157104,100.0,116688.0,1.0
178758.022669,305992.1875,309246.40625,334018.3125,314958.71875,314246.59375,283842.03125,291658.8125,307399.0,-0.07763671875,0.885498046875,-0.384033203125,-2.410888433456421,-0.3051757514476776,1.3427733182907104,100.0,116689.0,1.0
178758.0245585,305756.21875,307576.1875,332634.90625,314303.0,313139.0,283506.40625,291296.0,307303.5,-0.076904296875,0.884765625,-0.38525390625,-2.441406011581421,-0.3662109076976776,1.4648436307907104,100.0,116690.0,1.0
178758.0271598,305561.25,306881.25,331371.59375,313987.125,312375.84375,283437.9375,291199.0625,307299.125,-0.07763671875,0.884033203125,-0.383056640625,-2.380370855331421,-0.3356933295726776,1.4953612089157104,100.0,116691.0,1.0
178758.0308187,305739.4375,308218.3125,332061.65625,314546.625,313072.84375,283776.875,291539.71875,307418.65625,-0.0771484375,0.886474609375,-0.37890625,-2.349853277206421,-0.2441406100988388,1.6784666776657104,100.0,116692.0,1.0
178758.0451786,306036.96875,309774.53125,333847.46875,315210.46875,314315.875,284053.59375,291848.4375,307485.4375,-0.079345703125,0.887451171875,-0.376708984375,-2.380370855331421,-0.2136230319738388,1.7089842557907104,100.0,116693.0,1.0
178758.0452267,305998.96875,309269.125,334020.375,314973.375,314251.78125,283851.34375,291663.375,307396.59375,-0.080078125,0.886962890625,-0.377197265625,-2.349853277206421,-0.1525878757238388,1.7089842557907104,100.0,116694.0,1.0
178758.0470675,305770.1875,307607.21875,332652.90625,314318.46875,313155.09375,283515.53125,291301.0,307300.1875,-0.08251953125,0.886474609375,-0.375,-2.502441167831421,-0.1831054538488388,1.7395018339157104,100.0,116695.0,1.0
178758.0495538,305574.1875,306897.78125,331380.71875,313994.28125,312385.65625,283437.125,291197.28125,307292.96875,-0.082275390625,0.88720703125,-0.37646484375,-2.410888433456421,-0.1220703050494194,1.6784666776657104,100.0,116696.0,1.0
178758.052064,305743.53125,308213.84375,332041.25,314541.90625,313063.71875,283771.59375,291534.625,307416.4375,-0.083740234375,0.888671875,-0.37744140625,-2.380370855331421,-0.1525878757238388,1.5258787870407104,100.0,116697.0,1.0
178758.058357,306041.71875,309782.125,333832.25,315208.59375,314314.8125,284052.875,291847.90625,307488.40625,-0.08349609375,0.8916015625,-0.377197265625,-2.502441167831421,-0.1831054538488388,1.3732908964157104,100.0,116698.0,1.0
178758.0652074,306003.25,309295.6875,334030.75,314980.875,314268.9375,283856.78125,291671.0625,307401.59375,-0.084716796875,0.889404296875,-0.3779296875,-2.563476324081421,-0.1831054538488388,1.2512205839157104,100.0,116699.0,1.0
178758.0652597,305767.6875,307627.78125,332672.03125,314321.6875,313175.5,283518.03125,291308.5,307306.0,-0.08544921875,0.889404296875,-0.37744140625,-2.532958745956421,-0.3662109076976776,1.2817381620407104,100.0,116700.0,1.0
178758.0682811,305563.1875,306887.40625,331381.96875,313984.28125,312385.84375,283438.0,291199.53125,307301.53125,-0.084228515625,0.890380859375,-0.37890625,-2.593993902206421,-0.4882812201976776,1.1291502714157104,100.0,116701.0,1.0
178758.0776389,305726.5625,308180.78125,332016.3125,314521.59375,313044.34375,283772.65625,291530.15625,307421.875,-0.0810546875,0.88916015625,-0.37646484375,-2.807616949081421,-0.5187987685203552,0.9765624403953552,100.0,116702.0,1.0
178758.077687,306024.8125,309765.96875,333815.625,315199.21875,314300.78125,284058.84375,291848.8125,307491.875,-0.079345703125,0.88916015625,-0.37841796875,-2.838134527206421,-0.5187987685203552,1.0681151151657104,100.0,116703.0,1.0
178758.0820557,305989.125,309305.34375,334034.84375,314980.96875,314269.125,283866.625,291677.84375,307408.75,-0.078369140625,0.888916015625,-0.377197265625,-2.746581792831421,-0.4272460639476776,1.0375975370407104,100.0,116704.0,1.0
178758.0869574,305753.1875,307632.15625,332675.4375,314317.21875,313171.8125,283525.71875,291311.8125,307310.40625,-0.078125,0.888671875,-0.380126953125,-2.777099370956421,-0.4882812201976776,1.0375975370407104,100.0,116705.0,1.0
178758.0995111,305548.28125,306871.6875,331370.71875,313969.875,312371.375,283440.53125,291194.0625,307297.96875,-0.076171875,0.88916015625,-0.37841796875,-2.777099370956421,-0.3967284858226776,1.0681151151657104,100.0,116706.0,1.0
178758.0995594,305711.875,308148.40625,331981.28125,314503.90625,313022.78125,283771.9375,291524.0625,307420.1875,-0.074462890625,0.8896484375,-0.380615234375,-2.838134527206421,-0.2746581733226776,1.0681151151657104,100.0,116707.0,1.0
178758.0995736,306020.34375,309751.46875,333782.1875,315192.34375,314290.3125,284065.90625,291851.3125,307494.40625,-0.073486328125,0.88525390625,-0.3759765625,-2.777099370956421,-0.2746581733226776,1.0986326932907104,100.0,116708.0,1.0
178758.1021026,305998.4375,309325.71875,334033.0625,314988.75,314284.9375,283877.0,291686.0625,307411.6875,-0.0732421875,0.8857421875,-0.378662109375,-2.655029058456421,-0.0610351525247097,1.0986326932907104,100.0,116709.0,1.0
178758.1046021,305773.3125,307662.65625,332692.21875,314333.59375,313199.71875,283542.53125,291321.5625,307315.125,-0.072021484375,0.885498046875,-0.376708984375,-2.716064214706421,0.0610351525247097,1.1596678495407104,100.0,116710.0,1.0
178758.1070589,305568.3125,306878.5625,331377.21875,313983.90625,312385.59375,283449.90625,291199.6875,307303.25,-0.07177734375,0.884521484375,-0.3759765625,-2.593993902206421,0.1831054538488388,1.1291502714157104,100.0,116711.0,1.0
178758.1107969,305722.96875,308125.59375,331951.5,314508.5625,313007.0625,283772.5625,291523.625,307424.46875,-0.072998046875,0.884033203125,-0.37451171875,-2.563476324081421,0.3051757514476776,1.2207030057907104,100.0,116712.0,1.0
178758.1296135,306033.03125,309745.21875,333760.5625,315206.46875,314282.0,284066.0,291850.59375,307501.71875,-0.072998046875,0.883056640625,-0.376708984375,-2.410888433456421,0.3967284858226776,1.2512205839157104,100.0,116713.0,1.0
178758.1338266,306008.1875,309342.71875,334034.15625,315015.03125,314290.125,283879.875,291689.46875,307419.46875,-0.07470703125,0.880859375,-0.3759765625,-2.380370855331421,0.5493163466453552,1.2817381620407104,100.0,116714.0,1.0
178758.1338748,305782.875,307687.15625,332712.96875,314361.75,313218.9375,283540.21875,291324.5,307323.09375,-0.076416015625,0.87939453125,-0.375732421875,-2.166747808456421,0.6713866591453552,1.2512205839157104,100.0,116715.0,1.0
178758.133886,305583.59375,306891.875,331400.75,314011.71875,312407.03125,283450.1875,291204.34375,307319.15625,-0.07666015625,0.879150390625,-0.37646484375,-2.197265386581421,0.6408690810203552,1.2512205839157104,100.0,116716.0,1.0
178758.1338977,305736.375,308123.8125,331949.71875,314521.0625,313011.6875,283773.375,291525.5,307437.625,-0.07861328125,0.876953125,-0.3740234375,-2.014159917831421,0.7324218153953552,1.0986326932907104,100.0,116717.0,1.0
178758.1357618,306045.375,309756.3125,333761.28125,315219.59375,314291.65625,284073.15625,291857.8125,307515.75,-0.080078125,0.879150390625,-0.373291015625,-1.8920897245407104,0.7019042372703552,1.0375975370407104,100.0,116718.0,1.0
178758.1383692,306025.4375,309382.59375,334065.96875,315032.84375,314321.25,283895.15625,291700.5625,307431.1875,-0.08251953125,0.8798828125,-0.3740234375,-1.9531248807907104,0.6103515028953552,0.9155272841453552,100.0,116719.0,1.0
178758.1420668,305791.90625,307715.40625,332741.40625,314369.78125,313241.46875,283548.25,291330.0625,307325.40625,-0.0830078125,0.881103515625,-0.373779296875,-1.9531248807907104,0.5187987685203552,0.8239745497703552,100.0,116720.0,1.0
178758.1508571,305575.28125,306880.78125,331401.1875,313998.65625,312400.34375,283439.71875,291196.46875,307305.46875,-0.08544921875,0.880859375,-0.37255859375,-1.8615721464157104,0.5187987685203552,0.7324218153953552,100.0,116721.0,1.0
178758.1576882,305717.15625,308089.21875,331921.0,314490.75,312979.15625,283753.09375,291509.9375,307418.21875,-0.0849609375,0.8818359375,-0.369873046875,-1.7089842557907104,0.4882812201976776,0.5798339247703552,100.0,116722.0,1.0
178758.1577437,306024.28125,309736.8125,333732.9375,315190.28125,314257.5,284054.375,291842.71875,307494.125,-0.083740234375,0.881591796875,-0.37109375,-1.8005369901657104,0.4577636420726776,0.5187987685203552,100.0,116723.0,1.0
178758.1602059,306009.0625,309396.34375,334068.5625,315015.03125,314308.625,283878.15625,291692.34375,307412.59375,-0.08349609375,0.882568359375,-0.3681640625,-1.8005369901657104,0.3356933295726776,0.3356933295726776,100.0,116724.0,1.0
178758.1602547,305781.8125,307739.0,332764.03125,314356.375,313236.90625,283533.59375,291323.25,307310.46875,-0.083740234375,0.884033203125,-0.366455078125,-1.8920897245407104,0.3051757514476776,0.2441406100988388,100.0,116725.0,1.0
178758.1733573,305568.75,306891.4375,331422.375,313980.25,312388.4375,283427.90625,291187.625,307292.59375,-0.082275390625,0.884033203125,-0.369384765625,-1.7089842557907104,0.2746581733226776,0.1831054538488388,100.0,116726.0,1.0
178758.1758824,305700.1875,308071.59375,331908.75,314460.53125,312944.5625,283740.75,291496.96875,307404.1875,-0.083984375,0.885498046875,-0.36962890625,-1.8615721464157104,0.03051757626235485,0.0610351525247097,100.0,116727.0,1.0
178758.1789525,306011.84375,309734.21875,333726.9375,315169.34375,314230.59375,284049.8125,291839.5,307487.5,-0.08349609375,0.884765625,-0.37109375,-1.8920897245407104,-0.03051757626235485,0.0,100.0,116728.0,1.0
178758.1790104,306002.0,309428.1875,334093.25,315007.0,314304.6875,283887.1875,291697.53125,307410.96875,-0.0830078125,0.884765625,-0.37255859375,-1.8920897245407104,-0.1525878757238388,0.0,100.0,116729.0,1.0
178758.1808552,305777.0625,307780.84375,332809.34375,314350.84375,313248.71875,283546.28125,291329.875,307309.0625,-0.0830078125,0.88525390625,-0.370849609375,-1.9531248807907104,-0.2136230319738388,-0.03051757626235485,100.0,116730.0,1.0
178758.1944072,305563.46875,306912.1875,331454.46875,313966.375,312389.25,283435.59375,291190.3125,307294.65625,-0.081787109375,0.884521484375,-0.373291015625,-1.8310545682907104,-0.3967284858226776,-0.0915527269244194,100.0,116731.0,1.0
178758.2027027,305699.5625,308076.6875,331922.15625,314443.5625,312936.96875,283744.59375,291497.78125,307412.125,-0.083740234375,0.885498046875,-0.373046875,-1.8920897245407104,-0.6103515028953552,0.0,100.0,116732.0,1.0
178758.2027513,306017.5625,309753.71875,333743.65625,315163.0,314231.9375,284059.21875,291844.9375,307496.625,-0.0830078125,0.88525390625,-0.373291015625,-1.8920897245407104,-0.5798339247703552,-0.0610351525247097,100.0,116733.0,1.0
178758.2071035,306019.0,309476.09375,334140.1875,315021.125,314332.96875,283897.3125,291711.125,307422.25,-0.083251953125,0.88525390625,-0.37353515625,-1.8005369901657104,-0.6713866591453552,0.0,100.0,116734.0,1.0
178758.2096056,305801.21875,307829.59375,332864.34375,314375.0625,313282.34375,283550.84375,291344.53125,307323.8125,-0.085205078125,0.88525390625,-0.37548828125,-1.7700194120407104,-0.7629393935203552,0.0915527269244194,100.0,116735.0,1.0
178758.212059,305593.34375,306946.0625,331505.4375,313995.34375,312420.1875,283439.96875,291204.875,307311.28125,-0.083984375,0.885986328125,-0.375244140625,-1.8005369901657104,-0.8239745497703552,0.1831054538488388,100.0,116736.0,1.0
178758.2146105,305722.78125,308085.09375,331943.625,314467.875,312948.125,283744.84375,291507.0,307425.28125,-0.0830078125,0.8876953125,-0.376220703125,-1.6784666776657104,-0.9765624403953552,0.2441406100988388,100.0,116737.0,1.0
178758.2170576,306041.25,309772.125,333761.1875,315195.90625,314244.0,284062.875,291855.78125,307511.125,-0.08056640625,0.885986328125,-0.373291015625,-1.5869139432907104,-0.9765624403953552,0.4577636420726776,100.0,116738.0,1.0
178758.2233558,306040.625,309513.75,334179.0625,315062.53125,314359.875,283910.53125,291724.625,307432.96875,-0.081787109375,0.884033203125,-0.376220703125,-1.6479490995407104,-1.1901854276657104,0.5187987685203552,100.0,116739.0,1.0
178758.2264498,305818.90625,307869.46875,332914.21875,314409.65625,313314.78125,283564.0,291350.875,307324.6875,-0.08154296875,0.884765625,-0.37353515625,-1.6479490995407104,-1.2512205839157104,0.5493163466453552,100.0,116740.0,1.0
178758.2264987,305600.21875,306958.125,331539.25,314012.0625,312436.71875,283444.8125,291198.71875,307302.875,-0.083984375,0.88720703125,-0.375732421875,-1.5869139432907104,-1.2817381620407104,0.6103515028953552,100.0,116741.0,1.0
178758.2321056,305722.78125,308073.3125,331945.875,314466.625,312943.9375,283745.5,291494.75,307413.125,-0.083251953125,0.8857421875,-0.375244140625,-1.4343260526657104,-1.2817381620407104,0.7934569716453552,100.0,116742.0,1.0
178758.2358086,306041.625,309770.53125,333764.65625,315194.3125,314243.5625,284066.90625,291848.8125,307499.03125,-0.0830078125,0.88623046875,-0.376953125,-1.4953612089157104,-1.3427733182907104,0.9155272841453552,100.0,116743.0,1.0
178758.2426838,306045.1875,309533.9375,334205.8125,315065.5625,314374.34375,283915.28125,291724.0625,307427.0625,-0.082275390625,0.884521484375,-0.374267578125,-1.4648436307907104,-1.4648436307907104,0.8239745497703552,100.0,116744.0,1.0
178758.242732,305824.53125,307887.4375,332947.5,314412.25,313328.8125,283564.875,291354.75,307324.53125,-0.08251953125,0.884521484375,-0.3779296875,-1.2817381620407104,-1.5563963651657104,0.8544921278953552,100.0,116745.0,1.0
178758.2558578,305607.09375,306956.15625,331567.5,314009.46875,312444.21875,283437.46875,291201.125,307304.40625,-0.08154296875,0.885498046875,-0.37939453125,-1.1596678495407104,-1.4648436307907104,0.9155272841453552,100.0,116746.0,1.0
178758.2664587,305717.4375,308038.25,331939.875,314447.5,312927.84375,283729.84375,291489.75,307415.0,-0.080810546875,0.888427734375,-0.376220703125,-1.1291502714157104,-1.5869139432907104,0.9460448622703552,100.0,116747.0,1.0
178758.2665118,306034.1875,309743.34375,333762.53125,315181.15625,314234.15625,284051.0,291846.125,307505.125,-0.07861328125,0.8896484375,-0.379638671875,-1.1596678495407104,-1.5869139432907104,0.9460448622703552,100.0,116748.0,1.0
178758.2683001,306044.9375,309535.09375,334233.4375,315068.3125,314390.96875,283900.53125,291725.59375,307432.53125,-0.079833984375,0.88916015625,-0.377685546875,-1.0070799589157104,-1.5563963651657104,0.8850097060203552,100.0,116749.0,1.0
178758.2714507,305825.4375,307892.0,332985.84375,314415.75,313353.6875,283557.0,291352.6875,307327.90625,-0.0810546875,0.889404296875,-0.377197265625,-1.0070799589157104,-1.6174315214157104,0.7934569716453552,100.0,116750.0,1.0
178758.2714979,305602.28125,306934.53125,331580.53125,313996.6875,312447.8125,283429.4375,291189.5,307301.53125,-0.078857421875,0.888916015625,-0.3798828125,-0.9155272841453552,-1.5563963651657104,0.8239745497703552,100.0,116751.0,1.0
178758.2758843,305713.0625,307998.03125,331922.34375,314423.53125,312914.96875,283722.59375,291475.96875,307411.4375,-0.079833984375,0.88671875,-0.378662109375,-0.8239745497703552,-1.6174315214157104,0.7629393935203552,100.0,116752.0,1.0
178758.2783593,306031.53125,309713.9375,333736.9375,315158.09375,314220.03125,284049.90625,291836.71875,307499.84375,-0.0791015625,0.889892578125,-0.376220703125,-0.9155272841453552,-1.6174315214157104,0.7019042372703552,100.0,116753.0,1.0
178758.2814558,306040.625,309534.65625,334222.4375,315054.03125,314386.5,283909.71875,291723.8125,307427.4375,-0.07958984375,0.890380859375,-0.3759765625,-0.9460448622703552,-1.5869139432907104,0.7019042372703552,100.0,116754.0,1.0
178758.2815054,305822.65625,307902.09375,332988.09375,314404.46875,313357.4375,283563.625,291355.28125,307322.1875,-0.08154296875,0.890869140625,-0.375244140625,-0.9765624403953552,-1.6479490995407104,0.6408690810203552,100.0,116755.0,1.0
178758.2833185,305604.25,306931.03125,331582.875,313984.71875,312449.96875,283431.65625,291191.21875,307294.65625,-0.0791015625,0.889892578125,-0.373291015625,-1.0070799589157104,-1.6479490995407104,0.5798339247703552,100.0,116756.0,1.0
178758.2969569,305711.34375,307972.28125,331895.78125,314405.8125,312897.875,283721.53125,291474.09375,307400.25,-0.077880859375,0.88916015625,-0.371826171875,-1.0986326932907104,-1.6784666776657104,0.4882812201976776,100.0,116757.0,1.0
178758.3051612,306026.96875,309694.25,333699.75,315146.75,314200.0,284055.90625,291837.0,307490.375,-0.073486328125,0.88818359375,-0.3740234375,-1.2512205839157104,-1.7089842557907104,0.3967284858226776,100.0,116758.0,1.0
178758.3052119,306044.9375,309544.125,334212.6875,315057.15625,314390.09375,283925.8125,291730.78125,307424.9375,-0.0703125,0.88232421875,-0.37744140625,-1.1291502714157104,-1.7089842557907104,0.3967284858226776,100.0,116759.0,1.0
178758.3071126,305832.21875,307920.5,332999.34375,314416.625,313378.1875,283576.15625,291362.96875,307322.09375,-0.071044921875,0.880615234375,-0.3759765625,-0.9765624403953552,-1.3732908964157104,0.3662109076976776,100.0,116760.0,1.0
178758.3095603,305609.4375,306931.3125,331591.53125,313996.34375,312464.625,283437.9375,291193.53125,307294.75,-0.07080078125,0.881591796875,-0.376953125,-0.8544921278953552,-1.2512205839157104,0.3051757514476776,100.0,116761.0,1.0
178758.3164515,305704.65625,307942.0625,331874.96875,314403.59375,312888.0625,283717.15625,291468.28125,307401.6875,-0.072509765625,0.88623046875,-0.376953125,-0.7019042372703552,-1.0681151151657104,0.2441406100988388,100.0,116762.0,1.0
178758.3165002,306025.875,309682.0,333687.5,315152.71875,314197.875,284049.46875,291835.9375,307497.78125,-0.07470703125,0.89013671875,-0.375732421875,-0.6408690810203552,-1.0070799589157104,0.1220703050494194,100.0,116763.0,1.0
178758.3183539,306047.34375,309560.15625,334233.78125,315078.96875,314413.25,283917.5,291736.59375,307434.5,-0.074951171875,0.891357421875,-0.37744140625,-0.6408690810203552,-1.0375975370407104,0.0610351525247097,100.0,116764.0,1.0
178758.3270678,305829.8125,307928.71875,333020.625,314435.25,313396.3125,283567.46875,291366.28125,307329.96875,-0.07373046875,0.88818359375,-0.377685546875,-0.7629393935203552,-1.0070799589157104,0.1831054538488388,100.0,116765.0,1.0
178758.3314535,305609.4375,306921.46875,331599.9375,314012.34375,312471.6875,283429.875,291197.75,307307.4375,-0.071533203125,0.884521484375,-0.37939453125,-0.7934569716453552,-0.9460448622703552,0.1525878757238388,100.0,116766.0,1.0
178758.3315004,305707.78125,307913.09375,331857.96875,314417.625,312880.71875,283710.53125,291470.875,307417.0625,-0.070068359375,0.880615234375,-0.377685546875,-0.7934569716453552,-0.7629393935203552,0.1525878757238388,100.0,116767.0,1.0
178758.3395674,306035.28125,309667.4375,333673.75,315175.71875,314198.5625,284054.46875,291842.625,307514.59375,-0.071533203125,0.87841796875,-0.376953125,-0.6713866591453552,-0.6103515028953552,0.2136230319738388,100.0,116768.0,1.0
178758.3426981,306063.34375,309577.3125,334251.40625,315111.34375,314438.0,283934.21875,291749.75,307445.84375,-0.0751953125,0.87890625,-0.374267578125,-0.3662109076976776,-0.3967284858226776,0.1220703050494194,100.0,116769.0,1.0
178758.342746,305846.8125,307952.4375,333050.9375,314466.34375,313430.84375,283586.96875,291381.1875,307340.78125,-0.080078125,0.882568359375,-0.373291015625,-0.1831054538488388,-0.2746581733226776,0.03051757626235485,100.0,116770.0,1.0
178758.3508573,305619.625,306918.4375,331610.125,314023.15625,312486.0,283438.28125,291202.21875,307311.46875,-0.084716796875,0.8876953125,-0.37158203125,-0.1525878757238388,-0.3356933295726776,-0.0610351525247097,100.0,116771.0,1.0
178758.3552006,305711.96875,307887.53125,331833.3125,314409.40625,312866.9375,283712.9375,291468.90625,307414.8125,-0.088134765625,0.887451171875,-0.373291015625,-0.2441406100988388,-0.3662109076976776,-0.2136230319738388,100.0,116772.0,1.0
178758.3552477,306039.28125,309649.8125,333648.78125,315171.15625,314188.46875,284058.9375,291843.6875,307510.5,-0.091796875,0.885986328125,-0.37353515625,-0.2746581733226776,-0.5187987685203552,-0.2441406100988388,100.0,116773.0,1.0
178758.363307,306072.46875,309591.25,334248.71875,315115.90625,314445.53125,283942.90625,291755.53125,307446.5625,-0.09326171875,0.88330078125,-0.3740234375,-0.2441406100988388,-0.6713866591453552,-0.3662109076976776,100.0,116774.0,1.0
178758.3677021,305856.5625,307977.625,333064.53125,314472.34375,313447.5625,283593.5,291385.40625,307339.375,-0.0947265625,0.881103515625,-0.372314453125,-0.2136230319738388,-0.8850097060203552,-0.5493163466453552,100.0,116775.0,1.0
178758.3677506,305624.28125,306926.21875,331616.125,314022.1875,312496.0,283441.40625,291202.65625,307308.15625,-0.092529296875,0.880126953125,-0.372802734375,-0.1831054538488388,-1.0375975370407104,-0.7324218153953552,100.0,116776.0,1.0
178758.3764483,305706.96875,307865.875,331804.15625,314394.03125,312858.71875,283709.71875,291463.375,307407.84375,-0.093505859375,0.88037109375,-0.374267578125,-0.0610351525247097,-1.2817381620407104,-0.8850097060203552,100.0,116777.0,1.0
178758.3764999,306035.0,309635.875,333607.3125,315155.5,314174.09375,284056.625,291838.53125,307505.5625,-0.089599609375,0.882568359375,-0.376953125,0.1525878757238388,-1.5258787870407104,-0.9460448622703552,100.0,116778.0,1.0
178758.3783564,306068.53125,309596.96875,334229.5,315110.78125,314446.84375,283943.625,291757.25,307443.4375,-0.087158203125,0.884521484375,-0.377197265625,0.1525878757238388,-1.6784666776657104,-1.0070799589157104,100.0,116779.0,1.0
178758.382074,305857.25,307985.6875,333056.03125,314470.375,313453.0,283596.34375,291388.1875,307338.8125,-0.0859375,0.88671875,-0.3740234375,0.2746581733226776,-1.7700194120407104,-0.8850097060203552,100.0,116780.0,1.0
178758.3907967,305637.0625,306928.90625,331610.9375,314021.5625,312501.0,283449.71875,291202.5625,307308.15625,-0.081787109375,0.887939453125,-0.373779296875,0.2746581733226776,-1.8005369901657104,-0.7934569716453552,100.0,116781.0,1.0
178758.3952024,305712.25,307840.65625,331774.5625,314384.09375,312846.28125,283712.40625,291457.03125,307405.875,-0.07958984375,0.890380859375,-0.375244140625,0.2441406100988388,-1.8310545682907104,-0.7934569716453552,100.0,116782.0,1.0
178758.3952547,306033.3125,309615.9375,333571.09375,315145.65625,314159.9375,284060.1875,291837.4375,307505.65625,-0.080810546875,0.8916015625,-0.374755859375,0.2441406100988388,-1.9226073026657104,-0.5493163466453552,100.0,116783.0,1.0
178758.4071088,306070.5,309610.9375,334214.46875,315111.25,314446.21875,283953.90625,291760.5625,307443.25,-0.079345703125,0.89013671875,-0.373046875,0.2441406100988388,-1.8615721464157104,-0.4882812201976776,100.0,116784.0,1.0
178758.4127278,305858.875,308009.75,333056.75,314473.0625,313458.5625,283598.5,291390.40625,307335.6875,-0.079345703125,0.888427734375,-0.37255859375,0.2136230319738388,-1.8920897245407104,-0.3356933295726776,100.0,116785.0,1.0
178758.4127805,305633.5625,306930.6875,331611.65625,314021.46875,312501.0,283436.0625,291201.3125,307305.65625,-0.079345703125,0.88916015625,-0.37255859375,0.2136230319738388,-1.7700194120407104,-0.1525878757238388,100.0,116786.0,1.0
178758.4376738,305706.0,307821.625,331752.5625,314372.90625,312827.78125,283692.75,291451.125,307403.28125,-0.079345703125,0.8876953125,-0.371337890625,0.2136230319738388,-1.6784666776657104,0.0,100.0,116787.0,1.0
178758.4377294,306029.71875,309604.21875,333547.15625,315141.71875,314142.4375,284047.40625,291832.09375,307504.6875,-0.081298828125,0.8876953125,-0.374267578125,0.2441406100988388,-1.6784666776657104,0.1525878757238388,100.0,116788.0,1.0
178758.4433261,306070.21875,309625.5,334221.1875,315121.34375,314454.0,283945.75,291759.375,307441.65625,-0.079833984375,0.889404296875,-0.37890625,0.2441406100988388,-1.6479490995407104,0.3051757514476776,100.0,116789.0,1.0
178758.445855,305860.9375,308032.71875,333080.78125,314486.375,313481.71875,283596.8125,291390.59375,307332.46875,-0.08154296875,0.89111328125,-0.376708984375,0.1831054538488388,-1.6174315214157104,0.3967284858226776,100.0,116790.0,1.0
178758.448399,305625.96875,306933.46875,331620.34375,314019.40625,312510.75,283430.6875,291195.0625,307295.46875,-0.082275390625,0.890869140625,-0.375,0.1220703050494194,-1.8005369901657104,0.4272460639476776,100.0,116791.0,1.0
178758.4508624,305693.125,307802.125,331728.78125,314358.0,312813.40625,283682.71875,291439.84375,307395.34375,-0.084716796875,0.891357421875,-0.372314453125,0.1525878757238388,-1.8005369901657104,0.4272460639476776,100.0,116792.0,1.0
178758.4533533,306015.78125,309584.46875,333510.125,315125.28125,314118.375,284042.5,291824.9375,307500.5625,-0.08544921875,0.89013671875,-0.372802734375,0.1220703050494194,-1.8920897245407104,0.5187987685203552,100.0,116793.0,1.0
178758.4558382,306071.21875,309646.25,334223.5,315126.1875,314460.625,283956.03125,291768.25,307449.59375,-0.083984375,0.89111328125,-0.375732421875,0.0610351525247097,-1.9531248807907104,0.4272460639476776,100.0,116794.0,1.0
178758.4583299,305867.0,308065.96875,333108.15625,314496.3125,313503.4375,283600.125,291400.40625,307343.46875,-0.08544921875,0.891357421875,-0.3740234375,-0.0915527269244194,-1.8615721464157104,0.4272460639476776,100.0,116795.0,1.0
178758.4607838,305635.1875,306944.53125,331642.3125,314025.5625,312523.53125,283429.4375,291199.4375,307306.90625,-0.0849609375,0.890869140625,-0.374267578125,-0.1525878757238388,-1.8920897245407104,0.3356933295726776,100.0,116796.0,1.0
178758.4633541,305695.0625,307781.125,331723.40625,314357.28125,312810.53125,283676.46875,291441.1875,307407.40625,-0.084716796875,0.89013671875,-0.37451171875,-0.2441406100988388,-1.8310545682907104,0.3051757514476776,100.0,116797.0,1.0
178758.4658451,306023.46875,309577.84375,333509.0625,315135.75,314128.46875,284044.71875,291832.78125,307516.3125,-0.08642578125,0.88623046875,-0.374755859375,-0.1831054538488388,-1.8615721464157104,0.1525878757238388,100.0,116798.0,1.0
178758.4683791,306079.71875,309664.375,334238.875,315142.96875,314479.75,283962.125,291777.625,307459.34375,-0.08447265625,0.887451171875,-0.37060546875,-0.3051757514476776,-1.8920897245407104,0.0915527269244194,100.0,116799.0,1.0
178758.471451,305873.53125,308086.96875,333127.09375,314511.6875,313522.46875,283609.59375,291408.375,307351.875,-0.085205078125,0.8876953125,-0.373291015625,-0.2746581733226776,-1.8005369901657104,0.0610351525247097,100.0,116800.0,1.0
178758.4714997,305640.71875,306951.96875,331653.9375,314035.84375,312531.84375,283432.90625,291203.5625,307313.53125,-0.08447265625,0.88720703125,-0.373291015625,-0.3051757514476776,-1.8615721464157104,-0.03051757626235485,100.0,116801.0,1.0
178758.4733049,305691.40625,307758.40625,331696.6875,314349.6875,312788.4375,283677.90625,291437.25,307406.5,-0.08056640625,0.8857421875,-0.37451171875,-0.2746581733226776,-1.8005369901657104,-0.1831054538488388,100.0,116802.0,1.0
178758.4802032,306019.8125,309566.5,333477.9375,315130.5625,314110.0625,284046.34375,291827.96875,307512.53125,-0.081787109375,0.887451171875,-0.373046875,-0.3662109076976776,-1.8310545682907104,-0.2441406100988388,100.0,116803.0,1.0
178758.4802507,306079.96875,309682.71875,334241.75,315150.3125,314490.03125,283967.46875,291777.375,307459.0625,-0.08203125,0.887939453125,-0.3740234375,-0.3051757514476776,-1.8005369901657104,-0.2136230319738388,100.0,116804.0,1.0
178758.4845484,305874.53125,308111.84375,333149.375,314518.90625,313541.6875,283616.46875,291408.75,307345.34375,-0.081787109375,0.885986328125,-0.37646484375,-0.2441406100988388,-1.7089842557907104,-0.3051757514476776,100.0,116805.0,1.0
178758.4870249,305637.40625,306955.53125,331666.71875,314028.53125,312538.90625,283440.78125,291198.375,307299.5,-0.081298828125,0.885009765625,-0.379150390625,-0.3356933295726776,-1.6784666776657104,-0.4577636420726776,100.0,116806.0,1.0
178758.4933454,305685.96875,307740.625,331685.6875,314329.1875,312777.4375,283677.28125,291425.8125,307392.375,-0.078857421875,0.88427734375,-0.37939453125,-0.2136230319738388,-1.5869139432907104,-0.4882812201976776,100.0,116807.0,1.0
178758.4976859,306008.625,309540.5625,333449.96875,315103.1875,314084.3125,284042.59375,291818.03125,307499.9375,-0.078369140625,0.884521484375,-0.3759765625,-0.1220703050494194,-1.5258787870407104,-0.6103515028953552,100.0,116808.0,1.0
178758.4977322,306076.40625,309687.625,334234.78125,315134.5625,314482.0,283972.84375,291776.375,307449.96875,-0.077880859375,0.88330078125,-0.3759765625,-0.0610351525247097,-1.4648436307907104,-0.6103515028953552,100.0,116809.0,1.0
178758.5083638,305876.125,308132.5,333159.375,314509.09375,313548.5,283625.59375,291411.78125,307340.78125,-0.078857421875,0.883056640625,-0.375,0.03051757626235485,-1.4038084745407104,-0.5798339247703552,100.0,116810.0,1.0
178758.5114647,305643.3125,306968.40625,331677.09375,314023.59375,312545.625,283444.1875,291202.21875,307302.15625,-0.080810546875,0.8828125,-0.373291015625,-0.03051757626235485,-1.3732908964157104,-0.6408690810203552,100.0,116811.0,1.0
178758.5115168,305684.96875,307723.53125,331665.125,314315.875,312767.96875,283670.84375,291423.9375,307390.3125,-0.08349609375,0.882080078125,-0.37255859375,-0.03051757626235485,-1.3732908964157104,-0.5493163466453552,100.0,116812.0,1.0
178758.5196085,306010.15625,309536.09375,333429.84375,315098.1875,314079.84375,284036.875,291821.34375,307500.21875,-0.0830078125,0.88671875,-0.37451171875,0.0,-1.2207030057907104,-0.5493163466453552,100.0,116813.0,1.0
178758.5227025,306082.46875,309713.21875,334243.875,315142.71875,314495.40625,283971.0625,291786.9375,307453.09375,-0.08154296875,0.8857421875,-0.370361328125,0.1220703050494194,-1.2207030057907104,-0.4882812201976776,100.0,116814.0,1.0
178758.5227504,305883.5625,308161.28125,333186.65625,314522.78125,313569.40625,283621.46875,291421.0625,307342.9375,-0.084228515625,0.88525390625,-0.37255859375,0.2746581733226776,-1.2512205839157104,-0.4882812201976776,100.0,116815.0,1.0
178758.5246165,305646.96875,306970.65625,331694.90625,314031.28125,312553.75,283440.0625,291202.125,307305.03125,-0.08349609375,0.885986328125,-0.373291015625,0.3662109076976776,-1.1291502714157104,-0.5493163466453552,100.0,116816.0,1.0
178758.5389543,305688.0,307709.875,331660.03125,314318.125,312758.59375,283666.1875,291419.03125,307400.6875,-0.085205078125,0.886962890625,-0.374755859375,0.3051757514476776,-1.0681151151657104,-0.5187987685203552,100.0,116817.0,1.0
178758.5390039,306017.125,309526.4375,333422.78125,315108.90625,314073.21875,284039.1875,291820.8125,307512.53125,-0.0859375,0.885498046875,-0.375244140625,0.2746581733226776,-1.0681151151657104,-0.5187987685203552,100.0,116818.0,1.0
178758.5408556,306091.5,309726.4375,334257.46875,315167.21875,314507.84375,283981.59375,291793.53125,307465.5,-0.086669921875,0.884521484375,-0.373779296875,0.2746581733226776,-1.0681151151657104,-0.3967284858226776,100.0,116819.0,1.0
178758.5433996,305895.78125,308189.8125,333213.65625,314550.75,313593.03125,283633.0,291429.46875,307356.96875,-0.08740234375,0.88818359375,-0.369140625,0.3051757514476776,-1.1596678495407104,-0.3662109076976776,100.0,116820.0,1.0
178758.547071,305660.75,306986.03125,331719.21875,314054.4375,312572.96875,283444.375,291208.1875,307315.125,-0.08935546875,0.885009765625,-0.371337890625,0.3051757514476776,-1.2207030057907104,-0.3356933295726776,100.0,116821.0,1.0
178758.5614504,305692.3125,307689.5625,331651.71875,314323.5625,312755.09375,283666.53125,291423.03125,307407.84375,-0.0888671875,0.88671875,-0.373046875,0.3051757514476776,-1.3427733182907104,-0.3662109076976776,100.0,116822.0,1.0
178758.5614993,306016.5,309507.21875,333401.3125,315109.46875,314066.15625,284040.0,291823.75,307518.0,-0.08935546875,0.885009765625,-0.369873046875,0.3967284858226776,-1.3427733182907104,-0.3356933295726776,100.0,116823.0,1.0
178758.5633568,306094.71875,309735.65625,334261.3125,315174.625,314519.1875,283982.875,291798.09375,307468.46875,-0.0888671875,0.885986328125,-0.37060546875,0.3662109076976776,-1.4343260526657104,-0.2441406100988388,100.0,116824.0,1.0
178758.5658396,305898.5625,308205.1875,333234.125,314556.375,313612.96875,283633.28125,291432.53125,307357.15625,-0.087646484375,0.888916015625,-0.373291015625,0.3967284858226776,-1.5258787870407104,-0.2441406100988388,100.0,116825.0,1.0
178758.5683811,305661.09375,306985.59375,331733.875,314049.53125,312585.59375,283440.53125,291205.0625,307313.34375,-0.09130859375,0.8876953125,-0.373779296875,0.3662109076976776,-1.5563963651657104,-0.0610351525247097,100.0,116826.0,1.0
178758.5827045,305684.78125,307662.21875,331637.3125,314303.28125,312746.53125,283653.3125,291409.0,307399.34375,-0.089111328125,0.88818359375,-0.37353515625,0.3051757514476776,-1.6479490995407104,-0.1831054538488388,100.0,116827.0,1.0
178758.5827525,306009.78125,309482.09375,333376.03125,315094.875,314050.53125,284029.96875,291811.25,307512.625,-0.08935546875,0.885986328125,-0.373779296875,0.3662109076976776,-1.6479490995407104,-0.0915527269244194,100.0,116828.0,1.0
178758.5851994,306097.15625,309745.21875,334263.46875,315179.1875,314529.125,283985.8125,291798.71875,307471.59375,-0.088623046875,0.885498046875,-0.374267578125,0.3051757514476776,-1.7089842557907104,-0.0610351525247097,100.0,116829.0,1.0
178758.5852521,305904.65625,308232.90625,333258.34375,314563.96875,313641.75,283641.3125,291439.59375,307363.15625,-0.088134765625,0.8857421875,-0.370849609375,0.4272460639476776,-1.6479490995407104,0.0,100.0,116830.0,1.0
178758.5883936,305664.9375,306998.53125,331752.75,314051.3125,312606.6875,283447.9375,291211.875,307318.25,-0.087646484375,0.884033203125,-0.368408203125,0.3356933295726776,-1.6784666776657104,0.0,100.0,116831.0,1.0
178758.597702,305684.25,307652.71875,331629.8125,314298.625,312747.21875,283662.875,291413.9375,307404.28125,-0.087646484375,0.884765625,-0.368408203125,0.3356933295726776,-1.7089842557907104,0.0915527269244194,100.0,116832.0,1.0
178758.597752,306004.875,309477.34375,333358.21875,315086.65625,314046.40625,284042.5,291816.625,307516.125,-0.0869140625,0.8857421875,-0.372802734375,0.3662109076976776,-1.6784666776657104,0.1220703050494194,100.0,116833.0,1.0
178758.6127044,306088.125,309754.875,334263.90625,315175.15625,314533.125,283995.1875,291802.84375,307470.6875,-0.087158203125,0.8857421875,-0.375,0.3356933295726776,-1.7395018339157104,0.1831054538488388,100.0,116834.0,1.0
178758.6127528,305896.25,308243.96875,333269.8125,314566.21875,313646.75,283644.46875,291438.34375,307356.34375,-0.086181640625,0.885986328125,-0.37353515625,0.4272460639476776,-1.7395018339157104,0.2746581733226776,100.0,116835.0,1.0
178758.6176616,305659.125,306989.25,331755.15625,314047.375,312601.3125,283443.75,291203.1875,307307.34375,-0.08544921875,0.88916015625,-0.3740234375,0.4577636420726776,-1.7395018339157104,0.2441406100988388,100.0,116836.0,1.0
178758.6177152,305675.21875,307613.125,331602.09375,314278.875,312719.4375,283654.1875,291401.40625,307395.15625,-0.086181640625,0.888427734375,-0.37646484375,0.3662109076976776,-1.6174315214157104,0.3662109076976776,100.0,116837.0,1.0
178758.6202022,306000.65625,309446.5,333330.96875,315070.28125,314022.09375,284036.25,291808.03125,307510.75,-0.0869140625,0.887451171875,-0.374267578125,0.3662109076976776,-1.6479490995407104,0.3356933295726776,100.0,116838.0,1.0
178758.6202501,306095.53125,309765.40625,334268.84375,315177.84375,314535.0,283998.875,291802.84375,307470.0,-0.086669921875,0.888427734375,-0.377197265625,0.3356933295726776,-1.6479490995407104,0.3662109076976776,100.0,116839.0,1.0
178758.6289522,305908.84375,308271.25,333294.65625,314576.15625,313664.90625,283652.875,291447.375,307364.5625,-0.086669921875,0.888427734375,-0.375244140625,0.3356933295726776,-1.6479490995407104,0.3356933295726776,100.0,116840.0,1.0
178758.6290056,305669.875,307001.75,331777.875,314054.1875,312613.3125,283446.59375,291210.4375,307314.78125,-0.08203125,0.88916015625,-0.3740234375,0.3356933295726776,-1.5258787870407104,0.3662109076976776,100.0,116841.0,1.0
178758.6427041,305681.65625,307600.0625,331594.03125,314277.4375,312709.5,283647.9375,291401.3125,307398.71875,-0.082763671875,0.889404296875,-0.37744140625,0.2441406100988388,-1.4648436307907104,0.4577636420726776,100.0,116842.0,1.0
178758.6427523,306004.4375,309429.34375,333301.625,315073.4375,313998.5625,284030.4375,291808.28125,307514.34375,-0.083740234375,0.887939453125,-0.375732421875,0.2136230319738388,-1.4343260526657104,0.4577636420726776,100.0,116843.0,1.0
178758.6451689,306106.25,309781.34375,334271.4375,315194.5625,314536.4375,283998.3125,291811.78125,307471.875,-0.0849609375,0.88720703125,-0.371826171875,0.1220703050494194,-1.4038084745407104,0.4272460639476776,100.0,116844.0,1.0
178758.6452183,305916.625,308289.75,333313.34375,314592.40625,313674.03125,283649.375,291452.625,307361.8125,-0.084228515625,0.888671875,-0.376220703125,0.1220703050494194,-1.3427733182907104,0.4577636420726776,100.0,116845.0,1.0
178758.6789159,305676.46875,307007.125,331799.59375,314065.625,312619.65625,283439.53125,291209.34375,307316.125,-0.083984375,0.88818359375,-0.37646484375,0.0915527269244194,-1.3122557401657104,0.4577636420726776,100.0,116846.0,1.0
178758.6789637,305678.90625,307574.6875,331590.65625,314273.5,312696.4375,283634.0,291389.5,307395.15625,-0.085693359375,0.8876953125,-0.375244140625,0.0915527269244194,-1.2207030057907104,0.4272460639476776,100.0,116847.0,1.0
178758.6814494,305998.34375,309402.34375,333289.03125,315066.90625,313982.9375,284016.375,291797.9375,307510.75,-0.083740234375,0.88623046875,-0.37890625,0.1220703050494194,-1.2512205839157104,0.4882812201976776,100.0,116848.0,1.0
178758.6814986,306096.25,309771.40625,334270.1875,315196.34375,314529.28125,283988.5,291805.96875,307470.6875,-0.084716796875,0.885498046875,-0.37744140625,0.1220703050494194,-1.0375975370407104,0.4577636420726776,100.0,116849.0,1.0
178758.6839639,305911.875,308297.34375,333329.0,314599.375,313677.59375,283641.9375,291450.03125,307360.375,-0.083984375,0.885498046875,-0.374755859375,0.0610351525247097,-0.9765624403953552,0.3967284858226776,100.0,116850.0,1.0
178758.684012,305672.71875,306999.53125,331805.75,314072.78125,312617.3125,283429.78125,291206.9375,307311.75,-0.084716796875,0.8876953125,-0.374755859375,0.0915527269244194,-0.9460448622703552,0.2746581733226776,100.0,116851.0,1.0
178758.6858099,305672.46875,307547.78125,331572.9375,314272.53125,312682.6875,283620.21875,291386.03125,307392.65625,-0.083740234375,0.88525390625,-0.374755859375,0.1220703050494194,-0.8850097060203552,0.2746581733226776,100.0,116852.0,1.0
178758.695884,305991.71875,309375.6875,333254.6875,315058.40625,313959.15625,284002.1875,291791.65625,307507.625,-0.084228515625,0.8857421875,-0.375,0.1525878757238388,-0.7629393935203552,0.2746581733226776,100.0,116853.0,1.0
178758.6983813,306102.3125,309781.4375,334267.59375,315205.84375,314532.25,283985.375,291809.625,307469.71875,-0.083984375,0.884765625,-0.378173828125,0.0610351525247097,-0.6408690810203552,0.3051757514476776,100.0,116854.0,1.0
178758.7095673,305919.03125,308320.5,333346.25,314610.46875,313694.3125,283643.03125,291452.375,307357.78125,-0.08544921875,0.884521484375,-0.3779296875,0.2136230319738388,-0.6713866591453552,0.3051757514476776,100.0,116855.0,1.0
178758.7120534,305673.875,307002.84375,331809.6875,314066.875,312616.875,283430.3125,291203.09375,307306.90625,-0.084228515625,0.88671875,-0.376220703125,0.1220703050494194,-0.6713866591453552,0.3051757514476776,100.0,116856.0,1.0
178758.7158685,305670.5,307524.25,331543.8125,314254.53125,312653.90625,283619.0625,291379.0625,307387.09375,-0.083740234375,0.88525390625,-0.37548828125,0.1525878757238388,-0.6103515028953552,0.3967284858226776,100.0,116857.0,1.0
178758.7208992,305993.0625,309362.28125,333226.25,315048.5625,313938.125,284009.40625,291790.9375,307504.59375,-0.0830078125,0.8857421875,-0.37451171875,0.2136230319738388,-0.5493163466453552,0.3662109076976776,100.0,116858.0,1.0
178758.7232933,306100.09375,309792.0625,334256.75,315197.6875,314522.9375,283998.25,291815.34375,307470.34375,-0.082763671875,0.88427734375,-0.37744140625,0.2441406100988388,-0.3967284858226776,0.3356933295726776,100.0,116859.0,1.0
178758.7257647,305917.4375,308345.1875,333351.34375,314603.40625,313695.125,283657.34375,291463.28125,307358.40625,-0.085205078125,0.884765625,-0.376708984375,0.2136230319738388,-0.3356933295726776,0.4882812201976776,100.0,116860.0,1.0
178758.7282612,305678.0,307022.0625,331825.78125,314060.71875,312626.8125,283442.3125,291212.9375,307307.4375,-0.08447265625,0.883544921875,-0.37548828125,0.3051757514476776,-0.3356933295726776,0.5187987685203552,100.0,116861.0,1.0
178758.7307549,305666.75,307511.90625,331531.46875,314231.84375,312647.625,283619.96875,291379.59375,307382.71875,-0.085205078125,0.8828125,-0.37744140625,0.2746581733226776,-0.2441406100988388,0.4882812201976776,100.0,116862.0,1.0
178758.7332339,305984.21875,309341.0,333190.59375,315021.03125,313916.21875,284001.09375,291787.5625,307497.875,-0.085693359375,0.8818359375,-0.3759765625,0.4272460639476776,-0.1831054538488388,0.5187987685203552,100.0,116863.0,1.0
178758.73573,306098.75,309798.84375,334240.75,315186.34375,314517.59375,283994.03125,291812.21875,307463.1875,-0.0869140625,0.883056640625,-0.376220703125,0.4272460639476776,-0.1831054538488388,0.4882812201976776,100.0,116864.0,1.0
178758.7390387,305918.78125,308359.21875,333352.0625,314604.3125,313701.375,283654.03125,291461.3125,307353.40625,-0.0869140625,0.88330078125,-0.3759765625,0.4882812201976776,-0.0915527269244194,0.5493163466453552,100.0,116865.0,1.0
178758.7390862,305678.34375,307017.5,331824.28125,314061.6875,312625.28125,283429.53125,291205.78125,307296.53125,-0.085693359375,0.883544921875,-0.37451171875,0.4882812201976776,-0.0610351525247097,0.6103515028953552,100.0,116866.0,1.0
178758.7408378,305662.71875,307481.53125,331503.9375,314221.71875,312621.96875,283604.5,291365.8125,307372.96875,-0.084228515625,0.884033203125,-0.376953125,0.6103515028953552,-0.0915527269244194,0.7019042372703552,100.0,116867.0,1.0
178758.7433396,305985.28125,309319.8125,333157.3125,315017.1875,313893.53125,283996.90625,291781.90625,307498.875,-0.085205078125,0.884033203125,-0.377685546875,0.5798339247703552,-0.1220703050494194,0.6103515028953552,100.0,116868.0,1.0
178758.7464219,306114.9375,309818.4375,334251.03125,315205.84375,314532.78125,284000.5625,291823.3125,307474.0,-0.0859375,0.884033203125,-0.376708984375,0.5187987685203552,-0.1220703050494194,0.6408690810203552,100.0,116869.0,1.0
178758.7464726,305936.75,308391.875,333382.09375,314625.75,313731.15625,283656.34375,291472.9375,307364.21875,-0.087158203125,0.885986328125,-0.380615234375,0.6103515028953552,0.0,0.6713866591453552,100.0,116870.0,1.0
178758.7483399,305696.40625,307039.03125,331854.125,314077.15625,312653.625,283429.0625,291212.65625,307309.9375,-0.0869140625,0.88671875,-0.37841796875,0.5187987685203552,-0.0610351525247097,0.6408690810203552,100.0,116871.0,1.0
178758.7577033,305674.5,307472.03125,331506.59375,314228.53125,312628.6875,283596.1875,291364.21875,307383.0,-0.08740234375,0.885986328125,-0.378173828125,0.4577636420726776,0.03051757626235485,0.6408690810203552,100.0,116872.0,1.0
178758.7577522,305989.9375,309301.3125,333140.25,315023.09375,313887.0,283985.46875,291776.375,307506.1875,-0.086669921875,0.885986328125,-0.377197265625,0.5798339247703552,-0.0610351525247097,0.5187987685203552,100.0,116873.0,1.0
178758.7602643,306119.5,309826.3125,334246.9375,315223.0,314535.0,283998.3125,291824.65625,307481.25,-0.08740234375,0.885009765625,-0.377197265625,0.6713866591453552,-0.1831054538488388,0.5493163466453552,100.0,116874.0,1.0
178758.760317,305943.71875,308411.8125,333396.9375,314647.125,313742.5,283662.96875,291478.21875,307370.125,-0.08740234375,0.886962890625,-0.376953125,0.6103515028953552,-0.2136230319738388,0.4882812201976776,100.0,116875.0,1.0
178758.7683546,305702.6875,307047.90625,331866.75,314091.90625,312656.75,283433.0,291215.875,307313.34375,-0.087158203125,0.888427734375,-0.378662109375,0.5493163466453552,-0.0915527269244194,0.5187987685203552,100.0,116876.0,1.0
178758.7708925,305673.875,307454.25,331489.25,314226.28125,312612.125,283593.6875,291362.34375,307382.46875,-0.0869140625,0.88818359375,-0.377685546875,0.5493163466453552,-0.2136230319738388,0.5187987685203552,100.0,116877.0,1.0
178758.7902043,305990.46875,309286.75,333117.4375,315019.34375,313872.96875,283992.4375,291779.96875,307507.625,-0.086669921875,0.885986328125,-0.376708984375,0.5187987685203552,-0.3967284858226776,0.4577636420726776,100.0,116878.0,1.0
178758.7902525,306124.15625,309840.25,334246.75,315226.5625,314540.375,284012.375,291831.0,307479.8125,-0.0869140625,0.884521484375,-0.3740234375,0.4272460639476776,-0.3662109076976776,0.4577636420726776,100.0,116879.0,1.0
178758.7946076,305946.84375,308441.03125,333413.9375,314653.03125,313760.9375,283674.9375,291485.90625,307370.84375,-0.08740234375,0.884521484375,-0.374267578125,0.4272460639476776,-0.3356933295726776,0.4272460639476776,100.0,116880.0,1.0
178758.7971301,305703.125,307060.40625,331881.40625,314092.4375,312670.0625,283442.3125,291219.8125,307315.9375,-0.0849609375,0.885498046875,-0.376953125,0.4272460639476776,-0.2746581733226776,0.4272460639476776,100.0,116881.0,1.0
178758.7996027,305668.25,307438.5,331473.25,314213.5,312599.96875,283595.90625,291359.5625,307384.25,-0.08544921875,0.885986328125,-0.37841796875,0.5187987685203552,-0.3662109076976776,0.3662109076976776,100.0,116882.0,1.0
178758.8070612,305985.03125,309268.5,333085.1875,315007.875,313851.125,283991.53125,291775.9375,307510.03125,-0.08740234375,0.886962890625,-0.38037109375,0.3662109076976776,-0.5798339247703552,0.3967284858226776,100.0,116883.0,1.0
178758.8126555,306121.90625,309844.71875,334238.96875,315230.96875,314537.6875,284016.03125,291834.59375,307488.84375,-0.087890625,0.885498046875,-0.376708984375,0.3662109076976776,-0.4882812201976776,0.3356933295726776,100.0,116884.0,1.0
178758.8127032,305945.15625,308457.5,333425.28125,314660.8125,313771.65625,283675.46875,291489.375,307375.65625,-0.089111328125,0.88671875,-0.37548828125,0.3967284858226776,-0.5493163466453552,0.4272460639476776,100.0,116885.0,1.0
178758.8145743,305696.15625,307053.4375,331876.21875,314087.71875,312666.3125,283430.78125,291216.0625,307313.96875,-0.0888671875,0.8876953125,-0.374755859375,0.3356933295726776,-0.5798339247703552,0.4882812201976776,100.0,116886.0,1.0
178758.8176892,305656.46875,307406.59375,331440.4375,314197.25,312579.40625,283576.25,291350.09375,307377.71875,-0.087646484375,0.886962890625,-0.372802734375,0.3051757514476776,-0.6713866591453552,0.3356933295726776,100.0,116887.0,1.0
178758.8177368,305966.6875,309232.90625,333036.0,314984.03125,313818.875,283971.40625,291764.125,307497.53125,-0.087158203125,0.887939453125,-0.377197265625,0.3662109076976776,-0.6408690810203552,0.2746581733226776,100.0,116888.0,1.0
178758.8195496,306106.15625,309837.03125,334215.71875,315213.875,314521.96875,284000.03125,291828.15625,307472.84375,-0.0849609375,0.885986328125,-0.378173828125,0.3356933295726776,-0.7324218153953552,0.3051757514476776,100.0,116889.0,1.0
178758.8220122,305934.25,308464.375,333423.75,314649.90625,313767.375,283661.875,291482.6875,307358.9375,-0.08740234375,0.8857421875,-0.376708984375,0.3662109076976776,-0.7629393935203552,0.3662109076976776,100.0,116890.0,1.0
178758.8289098,305687.46875,307051.75,331876.75,314077.4375,312660.96875,283420.3125,291206.5,307296.53125,-0.08544921875,0.8857421875,-0.378173828125,0.4577636420726776,-0.7934569716453552,0.3662109076976776,100.0,116891.0,1.0
178758.8289613,305647.6875,307383.8125,331424.1875,314176.9375,312562.6875,283567.5625,291337.9375,307360.65625,-0.087158203125,0.884033203125,-0.37841796875,0.3662109076976776,-0.8239745497703552,0.4272460639476776,100.0,116892.0,1.0
178758.8396302,305956.9375,309204.40625,332998.4375,314959.4375,313791.0625,283965.15625,291753.75,307485.1875,-0.08642578125,0.8857421875,-0.37841796875,0.3967284858226776,-0.8850097060203552,0.4272460639476776,100.0,116893.0,1.0
178758.8427188,306105.46875,309842.40625,334197.03125,315204.40625,314512.125,284006.5625,291825.5625,307463.375,-0.08740234375,0.88525390625,-0.376953125,0.3356933295726776,-0.9155272841453552,0.3662109076976776,100.0,116894.0,1.0
178758.8427697,305935.3125,308484.03125,333421.25,314643.1875,313768.25,283675.21875,291485.8125,307349.09375,-0.088134765625,0.885498046875,-0.377685546875,0.3051757514476776,-0.9765624403953552,0.3662109076976776,100.0,116895.0,1.0
178758.8446308,305685.96875,307059.25,331878.375,314070.625,312658.8125,283431.9375,291210.34375,307289.03125,-0.0869140625,0.88525390625,-0.3818359375,0.1831054538488388,-0.9765624403953552,0.4882812201976776,100.0,116896.0,1.0
178758.8533901,305638.3125,307356.53125,331400.03125,314163.53125,312542.125,283571.5,291336.0625,307355.625,-0.089599609375,0.883544921875,-0.38330078125,0.2441406100988388,-0.9155272841453552,0.4577636420726776,100.0,116897.0,1.0
178758.8564517,305953.46875,309181.78125,332974.21875,314957.0,313776.40625,283968.5625,291756.0,307486.78125,-0.08837890625,0.885009765625,-0.37890625,0.3356933295726776,-0.9155272841453552,0.5187987685203552,100.0,116898.0,1.0
178758.8564993,306105.46875,309840.15625,334190.875,315214.25,314511.78125,284010.03125,291831.1875,307470.34375,-0.087158203125,0.883544921875,-0.380126953125,0.2441406100988388,-1.0070799589157104,0.4882812201976776,100.0,116899.0,1.0
178758.8696333,305943.375,308505.40625,333439.125,314666.625,313790.6875,283679.40625,291496.09375,307363.9375,-0.0849609375,0.8837890625,-0.378662109375,0.3356933295726776,-1.0070799589157104,0.4272460639476776,100.0,116900.0,1.0
178758.8726563,305699.46875,307073.71875,331897.3125,314096.125,312683.03125,283433.90625,291219.1875,307308.25,-0.08544921875,0.884521484375,-0.37939453125,0.3662109076976776,-1.0681151151657104,0.4882812201976776,100.0,116901.0,1.0
178758.872704,305651.09375,307348.65625,331392.15625,314179.1875,312544.1875,283574.0,291340.4375,307375.40625,-0.08447265625,0.886474609375,-0.380615234375,0.2441406100988388,-1.0070799589157104,0.4882812201976776,100.0,116902.0,1.0
178758.8746021,305966.6875,309177.21875,332952.75,314971.21875,313768.4375,283972.125,291760.71875,307507.625,-0.085693359375,0.88720703125,-0.377685546875,0.3051757514476776,-0.9765624403953552,0.3967284858226776,100.0,116903.0,1.0
178758.8770886,306126.28125,309876.1875,334203.9375,315247.5,314530.625,284020.3125,291848.15625,307494.5625,-0.08740234375,0.88623046875,-0.3798828125,0.3356933295726776,-1.0375975370407104,0.3967284858226776,100.0,116904.0,1.0
178758.8908811,305958.5625,308549.21875,333468.1875,314702.03125,313817.53125,283688.875,291512.71875,307381.65625,-0.0849609375,0.886474609375,-0.379150390625,0.3051757514476776,-1.0375975370407104,0.4272460639476776,100.0,116905.0,1.0
178758.894,305713.125,307101.0,331920.125,314120.34375,312702.15625,283441.78125,291229.9375,307316.75,-0.08447265625,0.885498046875,-0.378662109375,0.2441406100988388,-1.0986326932907104,0.3662109076976776,100.0,116906.0,1.0
178758.8940475,305655.46875,307346.25,331383.21875,314181.59375,312541.25,283573.71875,291339.28125,307375.65625,-0.084228515625,0.88525390625,-0.380126953125,0.3967284858226776,-1.1901854276657104,0.3662109076976776,100.0,116907.0,1.0
178758.8964726,305964.90625,309168.28125,332926.21875,314965.0625,313758.0625,283972.3125,291755.625,307505.5625,-0.0849609375,0.884765625,-0.380859375,0.4272460639476776,-1.0986326932907104,0.3662109076976776,100.0,116908.0,1.0
178758.8965265,306121.09375,309887.375,334192.9375,315242.84375,314534.46875,284025.15625,291846.21875,307489.375,-0.08447265625,0.884033203125,-0.383056640625,0.4577636420726776,-1.0375975370407104,0.3051757514476776,100.0,116909.0,1.0
178758.9120733,305953.71875,308573.96875,333476.34375,314698.375,313835.40625,283697.125,291514.40625,307379.78125,-0.0859375,0.88525390625,-0.380859375,0.3356933295726776,-1.0986326932907104,0.3356933295726776,100.0,116910.0,1.0
178758.9170913,305706.96875,307117.71875,331934.40625,314113.46875,312722.03125,283443.28125,291228.59375,307319.34375,-0.08740234375,0.886474609375,-0.37939453125,0.3356933295726776,-1.0375975370407104,0.3051757514476776,100.0,116911.0,1.0
178758.9171391,305646.53125,307335.15625,331379.90625,314167.90625,312545.71875,283569.8125,291335.59375,307376.5625,-0.087158203125,0.884765625,-0.37890625,0.3967284858226776,-1.1291502714157104,0.1831054538488388,100.0,116912.0,1.0
178758.9171508,305954.09375,309148.875,332901.625,314950.84375,313750.46875,283969.90625,291754.03125,307503.4375,-0.086669921875,0.885498046875,-0.377685546875,0.4272460639476776,-1.1901854276657104,0.1525878757238388,100.0,116913.0,1.0
178758.9201977,306114.3125,309887.8125,334181.3125,315241.0625,314535.375,284029.8125,291849.78125,307490.5625,-0.087890625,0.88427734375,-0.38037109375,0.3662109076976776,-1.1596678495407104,0.1525878757238388,100.0,116914.0,1.0
178758.9202472,305954.90625,308586.5,333483.40625,314703.53125,313844.78125,283703.65625,291515.40625,307376.65625,-0.0859375,0.88134765625,-0.38037109375,0.3356933295726776,-1.1596678495407104,0.0915527269244194,100.0,116915.0,1.0
178758.9308839,305714.65625,307122.625,331949.71875,314118.125,312732.9375,283450.0,291228.40625,307314.3125,-0.087158203125,0.8798828125,-0.377197265625,0.2136230319738388,-1.2817381620407104,0.0915527269244194,100.0,116916.0,1.0
178758.935229,305646.34375,307311.375,331368.90625,314157.28125,312535.59375,283566.03125,291325.9375,307368.5,-0.08837890625,0.8837890625,-0.37841796875,0.3051757514476776,-1.1901854276657104,0.0,100.0,116917.0,1.0
178758.9352848,305947.65625,309110.875,332867.65625,314933.78125,313723.8125,283962.75,291740.4375,307498.25,-0.087890625,0.885986328125,-0.380126953125,0.3662109076976776,-1.2512205839157104,0.03051757626235485,100.0,116918.0,1.0
178758.9514549,306118.40625,309883.71875,334174.875,315236.40625,314530.8125,284028.0,291844.40625,307484.5625,-0.088134765625,0.885498046875,-0.377685546875,0.2441406100988388,-1.2817381620407104,-0.03051757626235485,100.0,116919.0,1.0
178758.9515034,305957.40625,308600.09375,333494.5625,314699.96875,313852.5625,283700.34375,291513.96875,307364.9375,-0.090576171875,0.885986328125,-0.37890625,0.3662109076976776,-1.3122557401657104,0.0,100.0,116920.0,1.0
178758.9539463,305710.28125,307119.96875,331945.3125,314105.3125,312726.75,283445.0,291221.4375,307298.3125,-0.0908203125,0.885498046875,-0.380615234375,0.3662109076976776,-1.3427733182907104,0.03051757626235485,100.0,116921.0,1.0
178758.9539942,305639.5625,307283.125,331336.71875,314132.25,312509.0625,283555.9375,291314.40625,307351.96875,-0.08837890625,0.885498046875,-0.380126953125,0.2746581733226776,-1.3732908964157104,0.03051757626235485,100.0,116922.0,1.0
178758.9558393,305944.0625,309081.8125,332820.71875,314906.6875,313690.5625,283952.1875,291729.53125,307478.5625,-0.0869140625,0.885009765625,-0.37744140625,0.1525878757238388,-1.3427733182907104,-0.0610351525247097,100.0,116923.0,1.0
178758.9583807,306122.0,309885.75,334151.875,315231.21875,314520.25,284029.34375,291845.5,307478.125,-0.08642578125,0.8857421875,-0.37451171875,0.2136230319738388,-1.4038084745407104,0.0,100.0,116924.0,1.0
178758.969591,305971.34375,308629.59375,333506.0,314710.25,313868.5,283710.875,291521.375,307370.28125,-0.085693359375,0.88623046875,-0.37890625,0.1831054538488388,-1.3427733182907104,0.0,100.0,116925.0,1.0
178758.9752048,305731.5625,307145.96875,331973.3125,314119.28125,312753.65625,283453.46875,291227.78125,307307.25,-0.085205078125,0.88671875,-0.37744140625,0.2136230319738388,-1.3122557401657104,0.0610351525247097,100.0,116926.0,1.0
178758.9752534,305661.625,307289.21875,331347.71875,314140.71875,312525.0625,283562.90625,291320.3125,307366.28125,-0.085205078125,0.887451171875,-0.374755859375,0.0915527269244194,-1.2512205839157104,0.03051757626235485,100.0,116927.0,1.0
178758.9770556,305960.875,309084.40625,332816.59375,314919.1875,313702.28125,283967.9375,291738.65625,307501.1875,-0.087646484375,0.88623046875,-0.373779296875,0.03051757626235485,-1.1596678495407104,0.2136230319738388,100.0,116928.0,1.0
178758.981454,306137.28125,309914.5625,334168.6875,315255.71875,314549.6875,284054.28125,291860.40625,307502.0,-0.086669921875,0.886962890625,-0.375732421875,0.0915527269244194,-1.2207030057907104,0.2441406100988388,100.0,116929.0,1.0
178758.9815029,305978.84375,308667.15625,333538.46875,314736.90625,313907.90625,283732.25,291537.84375,307391.75,-0.086669921875,0.88720703125,-0.3779296875,0.0915527269244194,-1.1901854276657104,0.1831054538488388,100.0,116930.0,1.0
178758.9896017,305722.78125,307158.65625,331986.625,314131.0,312771.90625,283463.125,291235.8125,307320.6875,-0.08544921875,0.88623046875,-0.37939453125,0.03051757626235485,-1.2512205839157104,0.2441406100988388,100.0,116931.0,1.0
178759.0045456,305634.0,307259.0,331319.125,314134.1875,312509.3125,283559.96875,291316.46875,307369.59375,-0.0849609375,0.886962890625,-0.375732421875,-0.0610351525247097,-1.1596678495407104,0.3051757514476776,100.0,116932.0,1.0
178759.0045948,305927.71875,309041.40625,332765.1875,314904.53125,313667.84375,283958.0,291731.40625,307499.59375,-0.084716796875,0.885009765625,-0.37744140625,-0.03051757626235485,-1.1901854276657104,0.3662109076976776,100.0,116933.0,1.0
178759.0046064,306106.15625,309893.8125,334137.21875,315243.75,314528.5,284040.4375,291853.28125,307494.21875,-0.085205078125,0.8857421875,-0.37890625,-0.03051757626235485,-1.1291502714157104,0.3356933295726776,100.0,116934.0,1.0
178759.0101876,305946.59375,308658.75,333520.3125,314722.6875,313892.625,283712.40625,291527.03125,307374.40625,-0.0859375,0.8857421875,-0.37841796875,-0.0610351525247097,-1.0986326932907104,0.3051757514476776,100.0,116935.0,1.0
178759.0102458,305697.3125,307144.53125,331973.3125,314118.28125,312754.65625,283439.625,291221.4375,307302.78125,-0.086669921875,0.88623046875,-0.378173828125,-0.1220703050494194,-0.9155272841453552,0.4882812201976776,100.0,116936.0,1.0
178759.0121316,305613.53125,307226.1875,331292.03125,314112.21875,312479.71875,283527.0625,291295.375,307349.71875,-0.084716796875,0.88720703125,-0.376708984375,-0.1525878757238388,-0.9155272841453552,0.4577636420726776,100.0,116937.0,1.0
178759.0170528,305904.5625,308996.625,332715.9375,314874.5,313624.40625,283925.28125,291704.75,307472.5,-0.0859375,0.88818359375,-0.37744140625,-0.2746581733226776,-0.9155272841453552,0.4882812201976776,100.0,116938.0,1.0
178759.0195195,306088.75,309869.21875,334097.625,315226.3125,314491.5625,284019.25,291831.8125,307467.5625,-0.08642578125,0.8857421875,-0.374755859375,-0.3356933295726776,-0.8850097060203552,0.5187987685203552,100.0,116939.0,1.0
178759.0283329,305943.1875,308657.84375,333508.96875,314718.9375,313875.28125,283699.96875,291516.21875,307356.96875,-0.086181640625,0.886474609375,-0.375244140625,-0.3356933295726776,-0.7324218153953552,0.6103515028953552,100.0,116940.0,1.0
178759.0314756,305704.65625,307144.1875,331979.75,314119.71875,312748.75,283432.125,291215.34375,307290.1875,-0.08349609375,0.884521484375,-0.375244140625,-0.2746581733226776,-0.7019042372703552,0.6103515028953552,100.0,116941.0,1.0
178759.0315227,305624.90625,307211.6875,331291.21875,314113.1875,312471.15625,283530.8125,291291.6875,307346.96875,-0.084716796875,0.88427734375,-0.37744140625,-0.3356933295726776,-0.6103515028953552,0.6103515028953552,100.0,116942.0,1.0
178759.0333161,305921.0,308984.90625,332710.75,314880.9375,313619.5,283936.5625,291711.1875,307486.875,-0.083740234375,0.8837890625,-0.379638671875,-0.2746581733226776,-0.5798339247703552,0.7019042372703552,100.0,116943.0,1.0
178759.0370956,306118.34375,309896.5,334124.53125,315249.71875,314515.53125,284040.34375,291851.5625,307491.09375,-0.083251953125,0.886962890625,-0.378662109375,-0.3356933295726776,-0.4882812201976776,0.7019042372703552,100.0,116944.0,1.0
178759.0458809,305972.6875,308701.65625,333553.84375,314746.375,313915.875,283723.84375,291536.15625,307378.875,-0.083740234375,0.887939453125,-0.3779296875,-0.3051757514476776,-0.4882812201976776,0.7019042372703552,100.0,116945.0,1.0
178759.0490515,305725.75,307172.25,332016.84375,314137.78125,312781.375,283449.71875,291229.5625,307309.5,-0.083740234375,0.88671875,-0.3759765625,-0.4882812201976776,-0.3967284858226776,0.6103515028953552,100.0,116946.0,1.0
178759.0490991,305638.3125,307208.125,331295.25,314114.8125,312476.59375,283535.75,291297.34375,307357.6875,-0.0849609375,0.88623046875,-0.378662109375,-0.3356933295726776,-0.3967284858226776,0.6408690810203552,100.0,116947.0,1.0
178759.0783782,305928.59375,308974.09375,332689.90625,314874.9375,313609.125,283937.53125,291713.15625,307492.4375,-0.0859375,0.886474609375,-0.37841796875,-0.3051757514476776,-0.2441406100988388,0.8239745497703552,100.0,116948.0,1.0
178759.0864109,306123.96875,309910.4375,334120.5,315253.125,314520.96875,284045.90625,291856.40625,307497.96875,-0.085693359375,0.886474609375,-0.380859375,-0.3051757514476776,-0.2746581733226776,0.7629393935203552,100.0,116949.0,1.0
178759.0864584,305977.4375,308732.6875,333575.3125,314753.96875,313937.25,283731.09375,291542.125,307381.84375,-0.0869140625,0.884765625,-0.378662109375,-0.2441406100988388,-0.3356933295726776,0.6408690810203552,100.0,116950.0,1.0
178759.088381,305728.59375,307192.65625,332035.34375,314135.375,312792.125,283452.59375,291229.28125,307305.03125,-0.086669921875,0.88330078125,-0.379150390625,-0.2746581733226776,-0.2441406100988388,0.6713866591453552,100.0,116951.0,1.0
178759.0908784,305637.6875,307206.15625,331296.5,314103.90625,312473.375,283533.5,291292.5,307351.0625,-0.0869140625,0.88037109375,-0.37890625,-0.2746581733226776,-0.2441406100988388,0.6408690810203552,100.0,116952.0,1.0
178759.0934736,305922.4375,308957.09375,332668.90625,314859.03125,313597.5,283929.03125,291704.75,307481.15625,-0.087646484375,0.87744140625,-0.37451171875,-0.1831054538488388,-0.2136230319738388,0.4577636420726776,100.0,116953.0,1.0
178759.0995935,306118.25,309907.65625,334107.46875,315242.9375,314516.59375,284038.84375,291853.09375,307485.28125,-0.086181640625,0.878173828125,-0.3759765625,-0.0915527269244194,-0.1831054538488388,0.4577636420726776,100.0,116954.0,1.0
178759.1021301,305976.25,308751.90625,333580.9375,314755.59375,313949.5625,283730.1875,291546.0625,307375.75,-0.086669921875,0.878662109375,-0.3779296875,0.03051757626235485,-0.1831054538488388,0.4272460639476776,100.0,116955.0,1.0
178759.1084053,305725.46875,307202.9375,332044.9375,314138.125,312809.09375,283447.9375,291233.40625,307302.625,-0.08740234375,0.878662109375,-0.3798828125,0.0,-0.1525878757238388,0.3051757514476776,100.0,116956.0,1.0
178759.1108193,305618.1875,307177.4375,331274.15625,314087.25,312465.6875,283517.59375,291283.03125,307341.25,-0.08642578125,0.880615234375,-0.3779296875,0.2441406100988388,-0.0610351525247097,0.3662109076976776,100.0,116957.0,1.0
178759.1133393,305898.03125,308919.1875,332629.03125,314839.8125,313581.03125,283915.90625,291696.34375,307475.625,-0.084716796875,0.880126953125,-0.375244140625,0.2441406100988388,-0.03051757626235485,0.3051757514476776,100.0,116958.0,1.0
178759.1158797,306102.40625,309901.3125,334092.78125,315240.34375,314520.96875,284035.4375,291855.3125,307486.71875,-0.084228515625,0.881103515625,-0.377197265625,0.4272460639476776,0.0915527269244194,0.3356933295726776,100.0,116959.0,1.0
178759.1183973,305965.90625,308766.75,333591.84375,314763.09375,313967.1875,283726.625,291551.6875,307378.4375,-0.08154296875,0.882080078125,-0.377197265625,0.5493163466453552,0.1220703050494194,0.4577636420726776,100.0,116960.0,1.0
178759.1208575,305722.625,307217.15625,332063.15625,314148.5,312828.59375,283447.03125,291238.40625,307306.90625,-0.08349609375,0.882080078125,-0.377685546875,0.6713866591453552,0.2136230319738388,0.4577636420726776,100.0,116961.0,1.0
178759.1231778,305616.65625,307166.71875,331270.75,314088.34375,312466.59375,283515.0,291285.1875,307347.125,-0.083251953125,0.880859375,-0.3779296875,0.6713866591453552,0.3356933295726776,0.4577636420726776,100.0,116962.0,1.0
178759.1271148,305893.125,308895.40625,332594.96875,314831.3125,313556.625,283910.4375,291692.96875,307478.46875,-0.085205078125,0.88134765625,-0.37890625,0.6408690810203552,0.4272460639476776,0.5187987685203552,100.0,116963.0,1.0
178759.1326957,306102.15625,309908.125,334075.71875,315243.5625,314511.0625,284035.96875,291857.375,307491.53125,-0.08251953125,0.882568359375,-0.3798828125,0.6408690810203552,0.4272460639476776,0.7019042372703552,100.0,116964.0,1.0
178759.132742,305967.15625,308796.15625,333602.03125,314771.84375,313978.625,283732.25,291555.53125,307381.65625,-0.08447265625,0.8837890625,-0.378173828125,0.7324218153953552,0.5187987685203552,0.7019042372703552,100.0,116965.0,1.0
178759.1346279,305716.71875,307227.96875,332072.375,314147.15625,312835.125,283448.65625,291233.78125,307304.125,-0.086181640625,0.885986328125,-0.37890625,0.7324218153953552,0.6103515028953552,0.7324218153953552,100.0,116966.0,1.0
178759.1376767,305602.71875,307147.0625,331254.5625,314071.8125,312453.875,283511.5,291273.5625,307341.5,-0.08740234375,0.88623046875,-0.3779296875,0.7019042372703552,0.6103515028953552,0.7019042372703552,100.0,116967.0,1.0
178759.1377261,305879.0,308865.8125,332559.90625,314810.84375,313535.1875,283906.34375,291681.59375,307474.28125,-0.0888671875,0.884765625,-0.377685546875,0.5798339247703552,0.5798339247703552,0.8239745497703552,100.0,116968.0,1.0
178759.1396317,306091.78125,309900.59375,334057.125,315231.75,314504.4375,284038.65625,291852.46875,307490.625,-0.090087890625,0.885986328125,-0.3779296875,0.6713866591453552,0.4882812201976776,0.9460448622703552,100.0,116969.0,1.0
178759.1514134,305960.34375,308805.375,333602.5625,314761.125,313986.15625,283738.875,291555.71875,307379.0625,-0.090087890625,0.885009765625,-0.374755859375,0.6103515028953552,0.5187987685203552,0.9460448622703552,100.0,116970.0,1.0
178759.1514615,305712.25,307230.8125,332073.53125,314134.65625,312839.78125,283451.875,291235.90625,307301.0,-0.088623046875,0.88525390625,-0.37744140625,0.6103515028953552,0.4577636420726776,1.0070799589157104,100.0,116971.0,1.0
178759.153951,305597.34375,307126.21875,331235.875,314053.125,312441.5625,283507.65625,291271.0625,307337.5625,-0.08544921875,0.883056640625,-0.38037109375,0.6408690810203552,0.4577636420726776,1.0681151151657104,100.0,116972.0,1.0
178759.1540001,305874.78125,308842.03125,332525.40625,314791.96875,313515.96875,283905.875,291679.5625,307470.625,-0.085205078125,0.88330078125,-0.38134765625,0.7629393935203552,0.4882812201976776,1.0070799589157104,100.0,116973.0,1.0
178759.1596324,306098.65625,309905.875,334045.84375,315232.65625,314503.53125,284047.6875,291859.15625,307489.3125,-0.084716796875,0.885009765625,-0.37841796875,0.7934569716453552,0.4882812201976776,1.0986326932907104,100.0,116974.0,1.0
178759.1639105,305977.78125,308832.71875,333619.21875,314778.65625,314006.1875,283753.625,291567.6875,307383.96875,-0.08447265625,0.882568359375,-0.38134765625,0.8850097060203552,0.4272460639476776,1.1291502714157104,100.0,116975.0,1.0
178759.1639608,305730.65625,307248.96875,332095.71875,314154.84375,312861.3125,283464.03125,291244.84375,307307.96875,-0.0830078125,0.8837890625,-0.385009765625,0.9765624403953552,0.3967284858226776,1.1291502714157104,100.0,116976.0,1.0
178759.1746327,305616.03125,307126.3125,331243.84375,314069.28125,312450.3125,283517.5,291277.5625,307346.15625,-0.082763671875,0.884521484375,-0.384033203125,0.9460448622703552,0.4882812201976776,1.2207030057907104,100.0,116977.0,1.0
178759.1776791,305892.84375,308837.71875,332525.03125,314808.34375,313516.125,283911.96875,291686.0,307479.1875,-0.084228515625,0.885009765625,-0.3798828125,0.9765624403953552,0.4272460639476776,1.1901854276657104,100.0,116978.0,1.0
178759.1777378,306115.28125,309918.9375,334063.8125,315259.84375,314515.0625,284057.25,291869.4375,307498.40625,-0.086669921875,0.888427734375,-0.37841796875,0.9155272841453552,0.5187987685203552,1.2512205839157104,100.0,116979.0,1.0
178759.1833924,305993.53125,308867.5,333660.59375,314814.6875,314029.96875,283765.15625,291581.375,307395.78125,-0.08837890625,0.889404296875,-0.3779296875,0.9765624403953552,0.3356933295726776,1.2512205839157104,100.0,116980.0,1.0
178759.1876614,305749.09375,307284.90625,332147.375,314189.625,312888.9375,283471.375,291256.5625,307320.5,-0.0888671875,0.89208984375,-0.376953125,0.8544921278953552,0.3051757514476776,1.1596678495407104,100.0,116981.0,1.0
178759.1877112,305623.5625,307124.875,331264.03125,314081.28125,312454.5,283513.03125,291278.03125,307350.90625,-0.088623046875,0.893310546875,-0.3740234375,0.6713866591453552,0.1525878757238388,1.0681151151657104,100.0,116982.0,1.0
178759.1983933,305890.25,308811.1875,332508.5,314802.625,313499.59375,283901.78125,291680.8125,307480.1875,-0.091796875,0.890869140625,-0.374755859375,0.4272460639476776,0.1220703050494194,1.0070799589157104,100.0,116983.0,1.0
178759.2013866,306116.0,309919.65625,334059.4375,315258.75,314511.0625,284054.5625,291870.34375,307501.09375,-0.09130859375,0.890869140625,-0.373291015625,0.3356933295726776,0.0610351525247097,0.9460448622703552,100.0,116984.0,1.0
178759.2014357,305993.4375,308884.6875,333679.8125,314818.0,314044.34375,283763.625,291584.6875,307391.125,-0.090087890625,0.890869140625,-0.3759765625,0.4272460639476776,-0.0915527269244194,0.8239745497703552,100.0,116985.0,1.0
178759.2033972,305754.09375,307297.0625,332172.34375,314189.625,312906.03125,283473.34375,291258.71875,307313.78125,-0.0888671875,0.89111328125,-0.378662109375,0.3051757514476776,-0.1525878757238388,0.7324218153953552,100.0,116986.0,1.0
178759.217046,305630.4375,307120.21875,331276.21875,314074.3125,312459.875,283516.59375,291278.125,307350.1875,-0.088623046875,0.889892578125,-0.378662109375,0.3051757514476776,-0.1831054538488388,0.7629393935203552,100.0,116987.0,1.0
178759.2221439,305889.09375,308792.40625,332496.4375,314788.5625,313487.0625,283900.15625,291672.75,307475.8125,-0.086181640625,0.89013671875,-0.375244140625,0.1831054538488388,-0.3356933295726776,0.7019042372703552,100.0,116988.0,1.0
178759.2221913,306116.71875,309920.375,334059.875,315254.28125,314510.34375,284060.28125,291868.46875,307500.28125,-0.083984375,0.891845703125,-0.37744140625,0.1831054538488388,-0.4272460639476776,0.7324218153953552,100.0,116989.0,1.0
178759.2222029,305999.0625,308909.25,333700.5625,314817.53125,314058.65625,283771.875,291585.75,307393.375,-0.083740234375,0.892822265625,-0.381103515625,0.0915527269244194,-0.3967284858226776,0.6408690810203552,100.0,116990.0,1.0
178759.2245067,305752.3125,307304.59375,332183.6875,314182.21875,312910.9375,283472.625,291253.15625,307311.8125,-0.082763671875,0.888916015625,-0.379150390625,-0.03051757626235485,-0.3051757514476776,0.6713866591453552,100.0,116991.0,1.0
178759.2383844,305619.625,307088.40625,331252.25,314055.25,312438.78125,283504.4375,291261.9375,307340.0,-0.079345703125,0.887939453125,-0.37841796875,-0.0610351525247097,-0.2136230319738388,0.7934569716453552,100.0,116992.0,1.0
178759.243398,305879.875,308753.0625,332451.625,314768.09375,313456.6875,283894.15625,291663.0,307473.03125,-0.078857421875,0.88525390625,-0.379638671875,-0.0610351525247097,-0.0915527269244194,0.7629393935203552,100.0,116993.0,1.0
178759.2434546,306109.46875,309907.75,334033.4375,315245.25,314498.09375,284057.96875,291863.375,307497.4375,-0.078857421875,0.883544921875,-0.380615234375,-0.03051757626235485,-0.1525878757238388,0.9460448622703552,100.0,116994.0,1.0
178759.2434687,305994.15625,308919.09375,333697.4375,314817.09375,314062.9375,283776.5,291586.9375,307391.75,-0.080322265625,0.880126953125,-0.379150390625,-0.0610351525247097,0.0,0.9765624403953552,100.0,116995.0,1.0
178759.2464754,305745.6875,307309.0625,332185.03125,314178.625,312913.09375,283477.71875,291254.96875,307312.09375,-0.08203125,0.878173828125,-0.37841796875,0.0610351525247097,0.0915527269244194,1.0681151151657104,100.0,116996.0,1.0
178759.2465252,305608.71875,307072.75,331242.5,314043.0,312431.53125,283506.3125,291260.40625,307340.25,-0.079833984375,0.875244140625,-0.38037109375,0.2136230319738388,0.1831054538488388,1.0986326932907104,100.0,116997.0,1.0
178759.2883841,305861.1875,308723.90625,332419.53125,314748.25,313436.1875,283894.34375,291656.9375,307470.0,-0.078369140625,0.874267578125,-0.381103515625,0.3356933295726776,0.3662109076976776,1.1596678495407104,100.0,116998.0,1.0
178759.2884313,306101.625,309907.9375,334017.875,315241.96875,314490.03125,284069.125,291868.375,307503.6875,-0.080078125,0.876220703125,-0.382080078125,0.5493163466453552,0.3356933295726776,1.0986326932907104,100.0,116999.0,1.0
178759.2884418,305990.5625,308938.9375,333705.3125,314823.96875,314073.125,283789.75,291595.25,307399.625,-0.08203125,0.876708984375,-0.3798828125,0.5493163466453552,0.3356933295726776,1.0986326932907104,100.0,117000.0,1.0
178759.2884523,305749.34375,307333.09375,332204.78125,314190.96875,312932.03125,283487.53125,291262.46875,307320.0625,-0.08203125,0.87744140625,-0.377685546875,0.5798339247703552,0.4577636420726776,1.1291502714157104,100.0,117001.0,1.0
178759.288462,305611.75,307077.125,331245.53125,314049.8125,312434.125,283501.75,291264.0,307349.1875,-0.08203125,0.878173828125,-0.378173828125,0.7019042372703552,0.4272460639476776,1.1901854276657104,100.0,117002.0,1.0
178759.2884726,305868.875,308722.125,332401.40625,314759.59375,313425.46875,283895.6875,291663.8125,307487.5,-0.08203125,0.878173828125,-0.37841796875,0.7629393935203552,0.4577636420726776,1.0681151151657104,100.0,117003.0,1.0
178759.2921397,306113.3125,309932.15625,334018.9375,315265.5625,314493.625,284076.8125,291878.75,307520.9375,-0.0810546875,0.87841796875,-0.379638671875,0.7324218153953552,0.4882812201976776,1.0986326932907104,100.0,117004.0,1.0
178759.292188,306005.9375,308989.71875,333739.1875,314856.78125,314095.65625,283795.09375,291608.75,307415.625,-0.082763671875,0.88134765625,-0.376220703125,0.8239745497703552,0.4882812201976776,1.0986326932907104,100.0,117005.0,1.0
178759.2921997,305764.375,307378.34375,332251.28125,314216.28125,312956.1875,283484.96875,291275.34375,307333.5625,-0.081787109375,0.88232421875,-0.378173828125,0.9155272841453552,0.5187987685203552,1.0375975370407104,100.0,117006.0,1.0
178759.2945669,305618.8125,307097.25,331276.28125,314055.71875,312438.25,283497.03125,291267.5625,307354.75,-0.082763671875,0.8828125,-0.3759765625,0.8544921278953552,0.6103515028953552,1.0375975370407104,100.0,117007.0,1.0
178759.2996444,305871.21875,308730.4375,332415.0625,314750.3125,313412.875,283879.6875,291658.8125,307482.40625,-0.08203125,0.88427734375,-0.3779296875,0.9155272841453552,0.5187987685203552,0.8850097060203552,100.0,117008.0,1.0
178759.3021316,306119.125,309955.59375,334044.5,315259.84375,314490.59375,284056.34375,291878.46875,307515.40625,-0.082275390625,0.88525390625,-0.37890625,0.7934569716453552,0.5798339247703552,0.7934569716453552,100.0,117009.0,1.0
178759.3046314,306010.5,309026.65625,333778.53125,314856.34375,314105.3125,283776.25,291610.78125,307410.53125,-0.08154296875,0.884033203125,-0.377685546875,0.8239745497703552,0.5493163466453552,0.7019042372703552,100.0,117010.0,1.0
178759.3070847,305771.34375,307410.71875,332294.5625,314217.1875,312966.09375,283467.53125,291274.28125,307328.71875,-0.08203125,0.884033203125,-0.37646484375,0.7629393935203552,0.6408690810203552,0.7324218153953552,100.0,117011.0,1.0
178759.3108487,305631.78125,307105.5625,331308.3125,314052.3125,312440.21875,283480.75,291263.71875,307353.125,-0.081787109375,0.885009765625,-0.379150390625,0.6713866591453552,0.6408690810203552,0.7324218153953552,100.0,117012.0,1.0
178759.314638,305881.03125,308724.0,332424.90625,314743.0625,313405.4375,283865.75,291655.21875,307483.65625,-0.08251953125,0.8828125,-0.379150390625,0.7629393935203552,0.5798339247703552,0.5798339247703552,100.0,117013.0,1.0
178759.3239242,306130.59375,309975.34375,334066.78125,315262.4375,314493.53125,284056.0,291878.40625,307514.34375,-0.0849609375,0.884033203125,-0.37939453125,0.6408690810203552,0.5798339247703552,0.5493163466453552,100.0,117014.0,1.0
178759.3239733,306028.9375,309076.8125,333833.34375,314869.3125,314133.5,283783.65625,291614.375,307409.625,-0.08447265625,0.8837890625,-0.3759765625,0.5798339247703552,0.4882812201976776,0.5187987685203552,100.0,117015.0,1.0
178759.3273373,305781.4375,307446.28125,332348.46875,314224.25,312992.75,283473.25,291272.40625,307325.40625,-0.0849609375,0.8828125,-0.3779296875,0.4577636420726776,0.5798339247703552,0.5187987685203552,100.0,117016.0,1.0
178759.3273849,305630.4375,307111.90625,331334.6875,314046.59375,312448.625,283483.34375,291256.3125,307349.28125,-0.086669921875,0.884033203125,-0.3798828125,0.4272460639476776,0.5798339247703552,0.5798339247703552,100.0,117017.0,1.0
178759.332113,305875.84375,308716.59375,332424.90625,314725.8125,313396.78125,283864.125,291646.75,307479.8125,-0.08447265625,0.885009765625,-0.38134765625,0.3967284858226776,0.5798339247703552,0.5798339247703552,100.0,117018.0,1.0
178759.3358875,306124.0625,309981.6875,334078.5,315252.875,314497.375,284058.5,291875.875,307513.71875,-0.0830078125,0.88525390625,-0.380859375,0.2746581733226776,0.4577636420726776,0.5493163466453552,100.0,117019.0,1.0
178759.355159,306019.28125,309093.4375,333864.09375,314865.5625,314148.0625,283791.53125,291617.3125,307412.9375,-0.081787109375,0.886474609375,-0.38037109375,0.3967284858226776,0.4882812201976776,0.5493163466453552,100.0,117020.0,1.0
178759.3552062,305782.0625,307466.9375,332396.03125,314228.875,313019.75,283485.03125,291280.71875,307335.4375,-0.0810546875,0.885009765625,-0.379150390625,0.2746581733226776,0.5493163466453552,0.5493163466453552,100.0,117021.0,1.0
178759.3570158,305629.625,307106.46875,331367.40625,314046.40625,312457.5625,283486.21875,291258.25,307355.1875,-0.081787109375,0.883544921875,-0.379638671875,0.2746581733226776,0.5187987685203552,0.5493163466453552,100.0,117022.0,1.0
178759.3595314,305869.59375,308689.21875,332425.25,314716.59375,313383.53125,283864.84375,291641.03125,307481.53125,-0.083984375,0.8818359375,-0.38232421875,0.2136230319738388,0.4577636420726776,0.5493163466453552,100.0,117023.0,1.0
178759.3626878,306130.5,309984.8125,334098.34375,315257.78125,314499.4375,284071.5625,291878.9375,307519.53125,-0.083740234375,0.8828125,-0.38232421875,0.2441406100988388,0.5187987685203552,0.6408690810203552,100.0,117024.0,1.0
178759.3627222,306032.21875,309120.53125,333909.5,314879.84375,314166.5625,283808.6875,291626.1875,307417.25,-0.08203125,0.883056640625,-0.382568359375,0.3051757514476776,0.4272460639476776,0.6713866591453552,100.0,117025.0,1.0
178759.3645665,305787.78125,307477.3125,332432.15625,314236.9375,313027.53125,283499.34375,291285.8125,307334.1875,-0.08447265625,0.883544921875,-0.3837890625,0.3356933295726776,0.3967284858226776,0.6103515028953552,100.0,117026.0,1.0
178759.3732946,305633.75,307095.28125,331380.375,314047.03125,312452.625,283496.3125,291260.9375,307354.46875,-0.0849609375,0.884033203125,-0.386474609375,0.4577636420726776,0.3662109076976776,0.6408690810203552,100.0,117027.0,1.0
178759.3763854,305870.125,308664.90625,332415.15625,314716.875,313367.1875,283873.59375,291645.40625,307486.71875,-0.083740234375,0.8828125,-0.38330078125,0.3662109076976776,0.3356933295726776,0.7019042372703552,100.0,117028.0,1.0
178759.3764271,306134.96875,309983.75,334098.5,315272.25,314497.5625,284085.5,291889.375,307527.84375,-0.083740234375,0.8818359375,-0.383056640625,0.3051757514476776,0.3662109076976776,0.7934569716453552,100.0,117029.0,1.0
178759.3795606,306044.65625,309152.1875,333939.09375,314910.25,314186.96875,283826.9375,291640.75,307427.53125,-0.084228515625,0.882080078125,-0.384033203125,0.3051757514476776,0.3051757514476776,0.8239745497703552,100.0,117030.0,1.0
178759.3938804,305799.875,307507.96875,332474.4375,314261.53125,313050.0625,283511.15625,291292.875,307341.875,-0.082763671875,0.884033203125,-0.38427734375,0.3356933295726776,0.2746581733226776,0.8239745497703552,100.0,117031.0,1.0
178759.393898,305635.8125,307086.53125,331398.6875,314049.71875,312452.09375,283498.09375,291256.375,307355.375,-0.084228515625,0.88330078125,-0.3828125,0.3356933295726776,0.1525878757238388,0.8239745497703552,100.0,117032.0,1.0
178759.3956951,305865.03125,308635.0625,332406.03125,314706.3125,313346.78125,283871.71875,291635.125,307480.34375,-0.083984375,0.885009765625,-0.384033203125,0.4577636420726776,0.2136230319738388,0.7934569716453552,100.0,117033.0,1.0
178759.4007348,306133.875,309980.71875,334103.15625,315268.78125,314487.375,284089.4375,291886.78125,307527.75,-0.08447265625,0.88525390625,-0.383544921875,0.4882812201976776,0.1525878757238388,0.8850097060203552,100.0,117034.0,1.0
178759.40321,306044.21875,309167.03125,333963.59375,314912.75,314191.4375,283833.5625,291646.125,307429.40625,-0.0830078125,0.884521484375,-0.3828125,0.3967284858226776,0.0915527269244194,0.9460448622703552,100.0,117035.0,1.0
178759.4069668,305798.53125,307513.53125,332498.75,314263.65625,313055.40625,283514.625,291297.34375,307339.09375,-0.0810546875,0.884033203125,-0.385009765625,0.3967284858226776,0.1525878757238388,0.9155272841453552,100.0,117036.0,1.0
178759.4163183,305628.75,307068.8125,331405.40625,314041.65625,312443.15625,283496.3125,291252.375,307348.21875,-0.084228515625,0.88525390625,-0.385009765625,0.4272460639476776,0.0915527269244194,1.0375975370407104,100.0,117037.0,1.0
178759.4163385,305856.71875,308606.0,332388.59375,314694.78125,313324.1875,283868.875,291631.90625,307479.65625,-0.084716796875,0.885986328125,-0.38525390625,0.3662109076976776,0.03051757626235485,1.0681151151657104,100.0,117038.0,1.0
178759.4207174,306126.1875,309964.96875,334094.75,315265.8125,314475.8125,284084.34375,291884.84375,307523.625,-0.087158203125,0.889892578125,-0.3837890625,0.3662109076976776,-0.0610351525247097,0.9765624403953552,100.0,117039.0,1.0
178759.4231849,306036.78125,309171.21875,333979.6875,314913.21875,314196.53125,283827.03125,291642.34375,307423.125,-0.087158203125,0.889892578125,-0.38623046875,0.3356933295726776,-0.1220703050494194,1.0681151151657104,100.0,117040.0,1.0
178759.4319508,305789.40625,307513.4375,332514.3125,314259.1875,313056.21875,283503.90625,291290.09375,307332.9375,-0.086181640625,0.88720703125,-0.38427734375,0.1525878757238388,-0.2441406100988388,1.0681151151657104,100.0,117041.0,1.0
178759.438862,305620.59375,307046.1875,331400.03125,314030.5,312427.25,283481.03125,291242.4375,307342.84375,-0.084228515625,0.8857421875,-0.38427734375,0.0610351525247097,-0.3356933295726776,1.1291502714157104,100.0,117042.0,1.0
178759.4388725,305843.3125,308559.84375,332355.15625,314675.84375,313291.90625,283850.625,291615.90625,307468.8125,-0.083251953125,0.88134765625,-0.38037109375,0.0,-0.2746581733226776,1.0070799589157104,100.0,117043.0,1.0
178759.4407313,306119.75,309942.53125,334071.96875,315260.09375,314456.4375,284079.96875,291878.84375,307516.21875,-0.08056640625,0.876220703125,-0.383056640625,0.0,-0.3051757514476776,1.0375975370407104,100.0,117044.0,1.0
178759.4432146,306042.15625,309180.59375,333982.8125,314922.0625,314198.5625,283834.28125,291646.28125,307420.53125,-0.077880859375,0.8759765625,-0.384521484375,0.2441406100988388,-0.2136230319738388,0.9460448622703552,100.0,117045.0,1.0
178759.4456986,305806.9375,307526.03125,332531.75,314276.09375,313069.625,283512.3125,291301.90625,307345.34375,-0.078125,0.878662109375,-0.38671875,0.2441406100988388,-0.1831054538488388,0.8850097060203552,100.0,117046.0,1.0
178759.455105,305640.90625,307042.4375,331406.5625,314045.5,312434.84375,283487.46875,291258.25,307368.25,-0.08056640625,0.882080078125,-0.385986328125,0.4577636420726776,0.0610351525247097,0.8850097060203552,100.0,117047.0,1.0
178759.455126,305859.78125,308549.5625,332337.90625,314681.09375,313286.96875,283856.875,291623.40625,307478.9375,-0.07958984375,0.885009765625,-0.387451171875,0.4577636420726776,0.0610351525247097,1.0375975370407104,100.0,117048.0,1.0
178759.4570137,306136.125,309952.8125,334065.4375,315270.375,314461.4375,284090.6875,291885.625,307517.5625,-0.0771484375,0.884521484375,-0.387939453125,0.4272460639476776,-0.1525878757238388,0.9460448622703552,100.0,117049.0,1.0
178759.4657327,306055.9375,309209.9375,333996.21875,314939.3125,314218.875,283846.0625,291656.65625,307424.5625,-0.07568359375,0.881103515625,-0.387451171875,0.3356933295726776,-0.1525878757238388,1.0375975370407104,100.0,117050.0,1.0
178759.4700431,305813.0,307547.59375,332544.8125,314286.90625,313084.84375,283524.375,291307.625,307338.65625,-0.071044921875,0.87744140625,-0.38720703125,0.2746581733226776,-0.0915527269244194,1.0681151151657104,100.0,117051.0,1.0
178759.470061,305641.0625,307038.15625,331410.3125,314044.4375,312439.03125,283493.90625,291248.875,307341.34375,-0.07275390625,0.87255859375,-0.388916015625,0.4272460639476776,0.03051757626235485,1.0986326932907104,100.0,117052.0,1.0
178759.4763203,305856.375,308525.96875,332319.125,314673.5,313277.0625,283857.6875,291616.0625,307469.4375,-0.07373046875,0.871826171875,-0.38818359375,0.5187987685203552,0.0915527269244194,1.0986326932907104,100.0,117053.0,1.0
178759.4763361,306132.0,309946.65625,334053.8125,315270.9375,314457.9375,284093.46875,291887.0625,307523.0,-0.07666015625,0.872314453125,-0.386962890625,0.7324218153953552,0.3356933295726776,1.0070799589157104,100.0,117054.0,1.0
178759.4781638,306055.375,309230.21875,334017.40625,314949.3125,314239.25,283855.625,291663.28125,307427.875,-0.079345703125,0.877685546875,-0.3857421875,0.9460448622703552,0.4577636420726776,0.9765624403953552,100.0,117055.0,1.0
178759.4870157,305808.8125,307564.84375,332573.5,314294.34375,313108.96875,283529.65625,291311.0,307336.84375,-0.08203125,0.8818359375,-0.3837890625,1.0375975370407104,0.4577636420726776,0.8239745497703552,100.0,117056.0,1.0
178759.4913549,305626.6875,307026.15625,331408.0,314034.25,312433.5,283485.5,291244.5,307340.625,-0.0859375,0.883544921875,-0.385498046875,0.9765624403953552,0.3662109076976776,0.7019042372703552,100.0,117057.0,1.0
178759.4913744,305838.03125,308493.96875,332288.375,314651.6875,313252.65625,283840.96875,291606.3125,307465.34375,-0.089111328125,0.881591796875,-0.38525390625,0.8544921278953552,0.2136230319738388,0.6103515028953552,100.0,117058.0,1.0
178759.4969764,306119.9375,309934.03125,334030.21875,315255.625,314439.78125,284078.4375,291881.53125,307521.03125,-0.089599609375,0.8798828125,-0.385498046875,0.7324218153953552,0.1525878757238388,0.4882812201976776,100.0,117059.0,1.0
178759.5007655,306046.09375,309240.78125,334016.34375,314943.6875,314238.375,283844.46875,291664.25,307427.96875,-0.09130859375,0.878173828125,-0.385009765625,0.7629393935203552,-0.0915527269244194,0.2441406100988388,100.0,117060.0,1.0
178759.5095186,305805.75,307574.9375,332584.84375,314291.375,313118.28125,283521.53125,291312.90625,307341.34375,-0.09228515625,0.878662109375,-0.385009765625,0.8850097060203552,-0.2136230319738388,0.0610351525247097,100.0,117061.0,1.0
178759.5125748,305626.5,307020.09375,331410.65625,314026.03125,312437.09375,283477.875,291245.125,307347.3125,-0.088134765625,0.87890625,-0.386474609375,1.0375975370407104,-0.2136230319738388,-0.1831054538488388,100.0,117062.0,1.0
178759.5125928,305830.25,308465.625,332257.0,314633.09375,313232.53125,283837.03125,291605.0,307469.71875,-0.087646484375,0.87939453125,-0.387451171875,1.0986326932907104,-0.4272460639476776,-0.2746581733226776,100.0,117063.0,1.0
178759.5208087,306118.875,309923.75,334010.90625,315249.71875,314436.21875,284087.65625,291889.5625,307524.53125,-0.086669921875,0.880615234375,-0.3857421875,1.0986326932907104,-0.4882812201976776,-0.4577636420726776,100.0,117064.0,1.0
178759.5251276,306051.8125,309258.40625,334025.28125,314948.78125,314255.625,283858.75,291675.625,307431.8125,-0.085693359375,0.88134765625,-0.38525390625,1.0986326932907104,-0.6103515028953552,-0.5187987685203552,100.0,117065.0,1.0
178759.5251566,305807.5625,307585.40625,332597.28125,314291.75,313130.875,283528.75,291317.09375,307343.21875,-0.08251953125,0.882568359375,-0.3857421875,1.1291502714157104,-0.6713866591453552,-0.4577636420726776,100.0,117066.0,1.0
178759.5358082,305627.3125,307005.4375,331402.0,314018.40625,312434.125,283484.3125,291244.6875,307345.96875,-0.082763671875,0.88427734375,-0.38623046875,1.0070799589157104,-0.7934569716453552,-0.4577636420726776,100.0,117067.0,1.0
178759.5389753,305830.53125,308438.4375,332226.15625,314618.34375,313215.375,283836.6875,291599.34375,307463.09375,-0.080810546875,0.884521484375,-0.384033203125,0.9155272841453552,-0.8239745497703552,-0.4577636420726776,100.0,117068.0,1.0
