Time,FZ,C3,CZ,C4,PZ,PO7,OZ,PO8,AccX,AccY,AccZ,Gyro1,Gyro2,Gyro3,Battery,Counter,Validation
515020.048531,290412.21875,327563.59375,319663.3125,296460.59375,303995.8125,301482.84375,207534.53125,309866.09375,0.022216796875,0.970458984375,-0.243408203125,-0.3662109076976776,1.4648436307907104,0.7324218153953552,80.0,838377.0,1.0
515020.0510948,291842.8125,326585.46875,318739.65625,294709.5625,300248.125,299644.625,206825.0,308539.84375,0.02392578125,0.96923828125,-0.245361328125,-0.4272460639476776,1.3732908964157104,0.7934569716453552,80.0,838378.0,1.0
515020.0511084,290039.8125,325922.96875,317375.46875,290576.96875,298036.03125,299281.46875,206552.390625,307246.75,0.02392578125,0.969482421875,-0.245361328125,-0.3662109076976776,1.3122557401657104,0.8239745497703552,80.0,838379.0,1.0
515020.0535757,287495.21875,326562.40625,317484.5625,289884.34375,300517.34375,300944.25,207178.6875,307813.9375,0.02685546875,0.970458984375,-0.246826171875,-0.3662109076976776,1.3122557401657104,0.7019042372703552,80.0,838380.0,1.0
515020.0560723,287642.28125,327644.40625,318864.09375,293463.03125,304199.5625,302310.03125,207911.375,309420.125,0.028076171875,0.968994140625,-0.2451171875,-0.3356933295726776,1.2817381620407104,0.7629393935203552,80.0,838381.0,1.0
515020.0584163,290447.78125,327744.90625,319672.96875,296505.125,304021.125,301485.96875,207775.03125,309875.03125,0.029052734375,0.9697265625,-0.245849609375,-0.3356933295726776,1.3122557401657104,0.8239745497703552,80.0,838382.0,1.0
515020.0633424,291828.21875,326737.1875,318728.5625,294719.21875,300246.4375,299627.28125,207047.703125,308535.1875,0.0283203125,0.969970703125,-0.247802734375,-0.4882812201976776,1.4038084745407104,0.8544921278953552,80.0,838383.0,1.0
515020.0683637,290055.5625,326082.09375,317380.21875,290603.625,298046.5,299280.03125,206844.84375,307252.625,0.02734375,0.969482421875,-0.2490234375,-0.5798339247703552,1.3427733182907104,0.7629393935203552,80.0,838384.0,1.0
515020.0709443,287585.4375,326756.5,317515.84375,289952.75,300551.3125,300962.78125,207497.6875,307836.375,0.02978515625,0.967529296875,-0.24560546875,-0.5798339247703552,1.4343260526657104,0.6713866591453552,80.0,838385.0,1.0
515020.0810468,287728.375,327827.875,318888.25,293525.4375,304228.0,302319.78125,208149.734375,309434.4375,0.030029296875,0.966552734375,-0.24755859375,-0.4882812201976776,1.5563963651657104,0.6408690810203552,80.0,838386.0,1.0
515020.0923208,290447.15625,327877.40625,319666.09375,296521.03125,304023.78125,301477.9375,207952.5,309875.46875,0.03076171875,0.9658203125,-0.24755859375,-0.5187987685203552,1.5869139432907104,0.7324218153953552,80.0,838387.0,1.0
515020.0923384,291763.875,326829.0,318699.78125,294697.125,300224.4375,299600.65625,207202.296875,308525.4375,0.029052734375,0.966796875,-0.248291015625,-0.5798339247703552,1.6174315214157104,0.7934569716453552,80.0,838388.0,1.0
515020.0945891,290018.71875,326176.53125,317357.0625,290583.78125,298022.4375,299251.15625,206924.328125,307240.46875,0.029541015625,0.966796875,-0.248779296875,-0.4272460639476776,1.6174315214157104,0.6713866591453552,80.0,838389.0,1.0
515020.0997037,287621.71875,326873.0,317514.5,289962.21875,300546.21875,300947.65625,207609.359375,307828.96875,0.0302734375,0.969482421875,-0.246826171875,-0.4577636420726776,1.6479490995407104,0.6408690810203552,80.0,838390.0,1.0
515020.0997152,287781.5,327948.5625,318887.96875,293540.46875,304227.1875,302311.03125,208400.703125,309427.5625,0.02880859375,0.96923828125,-0.247314453125,-0.3967284858226776,1.6479490995407104,0.4882812201976776,80.0,838391.0,1.0
515020.1021074,290426.78125,327964.5625,319634.96875,296489.75,303996.0,301451.5625,208263.28125,309851.15625,0.029541015625,0.97021484375,-0.2490234375,-0.5187987685203552,1.6174315214157104,0.4577636420726776,80.0,838392.0,1.0
515020.1045997,291693.6875,326894.1875,318662.03125,294640.8125,300188.9375,299574.46875,207529.25,308498.34375,0.027587890625,0.970947265625,-0.245849609375,-0.5493163466453552,1.7089842557907104,0.5187987685203552,80.0,838393.0,1.0
515020.1071017,289988.5,326251.625,317344.53125,290555.15625,298006.0,299241.25,207335.15625,307226.625,0.028564453125,0.968994140625,-0.243408203125,-0.3967284858226776,1.6479490995407104,0.3967284858226776,80.0,838394.0,1.0
515020.1095774,287663.5625,326968.84375,317526.46875,289975.8125,300554.0,300952.65625,208045.3125,307825.125,0.028076171875,0.968017578125,-0.246826171875,-0.4882812201976776,1.7395018339157104,0.3967284858226776,80.0,838395.0,1.0
515020.1146095,287825.9375,328037.4375,318898.6875,293563.09375,304242.5625,302314.25,208741.078125,309423.09375,0.026123046875,0.965087890625,-0.24658203125,-0.4577636420726776,1.7395018339157104,0.3051757514476776,80.0,838396.0,1.0
515020.1171532,290393.4375,328018.84375,319618.25,296475.25,303987.6875,301437.4375,208601.0625,309838.09375,0.026611328125,0.96923828125,-0.24755859375,-0.3967284858226776,1.6784666776657104,0.3051757514476776,80.0,838397.0,1.0
515020.117167,291602.125,326920.46875,318626.8125,294605.65625,300164.09375,299554.875,207948.84375,308484.75,0.024658203125,0.967529296875,-0.24853515625,-0.3662109076976776,1.7395018339157104,0.3051757514476776,80.0,838398.0,1.0
515020.1217788,289927.34375,326283.0,317316.03125,290540.40625,297985.25,299226.9375,207811.6875,307216.78125,0.021240234375,0.96875,-0.25146484375,-0.3967284858226776,1.6784666776657104,0.3051757514476776,80.0,838399.0,1.0
515020.1217933,287686.09375,327024.8125,317524.96875,290012.28125,300556.40625,300946.5,208526.859375,307825.5625,0.021240234375,0.969970703125,-0.248291015625,-0.4272460639476776,1.7089842557907104,0.3662109076976776,80.0,838400.0,1.0
515020.1567909,287854.28125,328071.3125,318891.8125,293607.53125,304241.0625,302294.65625,209209.921875,309418.96875,0.021484375,0.96826171875,-0.2470703125,-0.5187987685203552,1.6479490995407104,0.4272460639476776,80.0,838401.0,1.0
515020.1568123,290318.0625,327984.5,319573.53125,296477.84375,303955.21875,301389.6875,208992.84375,309814.40625,0.022216796875,0.968017578125,-0.24853515625,-0.5493163466453552,1.5563963651657104,0.3967284858226776,80.0,838402.0,1.0
515020.1663997,291457.71875,326845.90625,318562.53125,294579.8125,300110.625,299492.03125,208210.984375,308450.0625,0.024169921875,0.96728515625,-0.246826171875,-0.4882812201976776,1.5869139432907104,0.4882812201976776,80.0,838403.0,1.0
515020.1948435,289807.53125,326208.4375,317265.6875,290524.21875,297938.21875,299172.9375,207998.546875,307184.96875,0.022216796875,0.96923828125,-0.246337890625,-0.5187987685203552,1.5563963651657104,0.3967284858226776,80.0,838404.0,1.0
515020.197292,287647.46875,326978.84375,317503.5,290029.09375,300534.6875,300917.875,208729.8125,307807.5,0.023193359375,0.96875,-0.246826171875,-0.5493163466453552,1.4343260526657104,0.4577636420726776,80.0,838405.0,1.0
515020.2023362,287850.4375,328050.59375,318885.125,293648.65625,304241.9375,302287.34375,209469.5625,309414.78125,0.025390625,0.96923828125,-0.24755859375,-0.4882812201976776,1.4038084745407104,0.4577636420726776,80.0,838406.0,1.0
515020.2048437,290238.3125,327929.34375,319540.90625,296488.75,303940.71875,301367.34375,209244.609375,309805.21875,0.026611328125,0.9677734375,-0.2490234375,-0.6103515028953552,1.3427733182907104,0.4272460639476776,80.0,838407.0,1.0
515020.2072601,291305.1875,326734.59375,318506.03125,294557.46875,300070.03125,299440.25,208430.75,308430.3125,0.028076171875,0.96630859375,-0.247314453125,-0.6713866591453552,1.4648436307907104,0.4577636420726776,80.0,838408.0,1.0
515020.2096958,289682.5625,326085.0625,317224.8125,290521.09375,297901.03125,299120.28125,208279.28125,307175.125,0.031005859375,0.966552734375,-0.247802734375,-0.7934569716453552,1.5258787870407104,0.6408690810203552,80.0,838409.0,1.0
515020.2148058,287596.96875,326864.875,317491.53125,290071.03125,300519.3125,300873.625,209187.9375,307812.6875,0.031494140625,0.965576171875,-0.24560546875,-0.8239745497703552,1.5258787870407104,0.6713866591453552,80.0,838410.0,1.0
515020.2173268,287783.1875,327906.1875,318860.4375,293678.78125,304219.5,302223.9375,209993.75,309409.59375,0.031982421875,0.963623046875,-0.248291015625,-0.7934569716453552,1.5869139432907104,0.8850097060203552,80.0,838411.0,1.0
515020.2247044,290076.5625,327730.59375,319484.0625,296468.53125,303889.15625,301278.375,209777.03125,309780.96875,0.030517578125,0.962890625,-0.244873046875,-0.7324218153953552,1.7395018339157104,0.8850097060203552,80.0,838412.0,1.0
515020.2272273,291081.96875,326499.46875,318435.40625,294508.21875,300002.71875,299347.8125,208920.78125,308401.15625,0.02880859375,0.96337890625,-0.24462890625,-0.6713866591453552,1.9226073026657104,0.9460448622703552,80.0,838413.0,1.0
515020.2298738,289490.0625,325843.21875,317166.71875,290482.3125,297838.71875,299033.1875,208598.65625,307147.125,0.02490234375,0.963134765625,-0.244140625,-0.6408690810203552,2.014159917831421,0.9155272841453552,80.0,838414.0,1.0
515020.2322248,287482.53125,326642.5,317452.09375,290052.25,300472.1875,300798.53125,209286.71875,307783.34375,0.023681640625,0.96337890625,-0.24462890625,-0.6408690810203552,1.9226073026657104,0.9765624403953552,80.0,838415.0,1.0
515020.234794,287683.15625,327682.9375,318823.78125,293664.46875,304181.78125,302159.3125,209977.125,309381.78125,0.023681640625,0.96240234375,-0.243896484375,-0.5187987685203552,1.8310545682907104,0.7934569716453552,80.0,838416.0,1.0
515020.2372308,289908.84375,327483.90625,319426.1875,296421.875,303843.1875,301218.46875,209770.78125,309753.53125,0.023193359375,0.962646484375,-0.2421875,-0.5187987685203552,1.7700194120407104,0.7629393935203552,80.0,838417.0,1.0
515020.239718,290875.875,326240.1875,318374.59375,294446.875,299953.625,299290.0625,208998.03125,308377.65625,0.0244140625,0.962890625,-0.241943359375,-0.3356933295726776,1.7700194120407104,0.6713866591453552,80.0,838418.0,1.0
515020.2423175,289322.4375,325590.0,317123.0,290425.53125,297794.53125,298982.75,208676.171875,307126.46875,0.025390625,0.963134765625,-0.244140625,-0.3967284858226776,1.7395018339157104,0.5798339247703552,80.0,838419.0,1.0
515020.2448185,287386.21875,326404.6875,317432.4375,290014.4375,300443.125,300764.90625,209207.953125,307768.25,0.02734375,0.965087890625,-0.245361328125,-0.3967284858226776,1.7700194120407104,0.5187987685203552,80.0,838420.0,1.0
515020.2472137,287604.90625,327448.78125,318806.0625,293621.75,304157.375,302135.34375,209745.921875,309366.125,0.026123046875,0.96533203125,-0.24560546875,-0.2746581733226776,1.7395018339157104,0.3967284858226776,80.0,838421.0,1.0
515020.2498413,289768.5625,327220.15625,319387.9375,296354.1875,303807.4375,301185.46875,209375.953125,309727.96875,0.02197265625,0.966064453125,-0.248046875,-0.1525878757238388,1.6784666776657104,0.2746581733226776,80.0,838422.0,1.0
515020.2523292,290674.875,325938.53125,318312.625,294348.875,299900.34375,299242.65625,208534.28125,308339.8125,0.024169921875,0.968994140625,-0.246337890625,-0.0610351525247097,1.7089842557907104,0.1831054538488388,80.0,838423.0,1.0
515020.2561504,289157.46875,325291.84375,317072.125,290340.15625,297746.71875,298938.40625,208233.953125,307092.59375,0.022705078125,0.969970703125,-0.243408203125,-0.0915527269244194,1.7089842557907104,0.1525878757238388,80.0,838424.0,1.0
515020.2561926,287300.5,326129.65625,317405.34375,289957.40625,300411.3125,300728.875,208747.78125,307740.96875,0.022216796875,0.9716796875,-0.2451171875,-0.0610351525247097,1.6784666776657104,0.03051757626235485,80.0,838425.0,1.0
515020.2562027,287541.96875,327182.53125,318787.375,293584.625,304141.8125,302107.25,209332.40625,309346.09375,0.02197265625,0.96875,-0.24267578125,-0.0610351525247097,1.5563963651657104,-0.0915527269244194,80.0,838426.0,1.0
515020.258743,289649.21875,326932.90625,319350.28125,296306.53125,303781.59375,301153.90625,209092.0,309707.5,0.021484375,0.970458984375,-0.248291015625,-0.0610351525247097,1.6174315214157104,-0.2136230319738388,80.0,838427.0,1.0
515020.2587806,290516.28125,325633.28125,318264.1875,294305.4375,299859.21875,299202.0625,208267.390625,308317.28125,0.02197265625,0.971435546875,-0.24560546875,0.03051757626235485,1.5258787870407104,-0.2441406100988388,80.0,838428.0,1.0
515020.2610094,289042.03125,325011.71875,317047.96875,290336.3125,297722.84375,298920.25,208008.65625,307090.53125,0.0224609375,0.97265625,-0.24609375,-0.03051757626235485,1.4953612089157104,-0.2441406100988388,80.0,838429.0,1.0
515020.2711216,287258.1875,325889.4375,317409.375,289995.65625,300412.46875,300743.90625,208742.859375,307761.71875,0.021728515625,0.971923828125,-0.2451171875,-0.1525878757238388,1.5869139432907104,-0.0915527269244194,80.0,838430.0,1.0
515020.2711636,287510.21875,326954.0,318787.375,293632.90625,304142.0,302119.25,209523.390625,309366.03125,0.02392578125,0.973388671875,-0.246826171875,-0.1525878757238388,1.6784666776657104,-0.1220703050494194,80.0,838431.0,1.0
515020.278622,289563.8125,326688.46875,319331.53125,296349.1875,303770.59375,301144.4375,209388.46875,309721.34375,0.02392578125,0.974853515625,-0.246337890625,-0.2136230319738388,1.5563963651657104,0.03051757626235485,80.0,838432.0,1.0
515020.2786566,290402.0,325385.1875,318242.8125,294347.28125,299843.5625,299191.0,208589.265625,308336.34375,0.0224609375,0.9736328125,-0.24609375,-0.1525878757238388,1.5563963651657104,0.1525878757238388,80.0,838433.0,1.0
515020.2786663,288947.28125,324769.15625,317029.125,290384.03125,297700.5,298901.75,208385.234375,307103.40625,0.021484375,0.9736328125,-0.244384765625,-0.2746581733226776,1.6174315214157104,0.3051757514476776,80.0,838434.0,1.0
515020.2810768,287203.3125,325658.75,317397.375,290056.1875,300391.375,300711.34375,209161.203125,307768.875,0.023681640625,0.973388671875,-0.242919921875,-0.2136230319738388,1.6479490995407104,0.4272460639476776,80.0,838435.0,1.0
515020.2885917,287452.75,326720.75,318772.8125,293683.4375,304117.75,302082.40625,209935.109375,309366.75,0.02197265625,0.972900390625,-0.24365234375,-0.1831054538488388,1.6784666776657104,0.4882812201976776,80.0,838436.0,1.0
515020.2911165,289459.84375,326441.96875,319298.875,296374.40625,303732.15625,301103.59375,209722.046875,309714.09375,0.0234375,0.970703125,-0.242431640625,-0.3356933295726776,1.6479490995407104,0.5798339247703552,80.0,838437.0,1.0
515020.2937291,290263.25,325130.8125,318199.4375,294357.46875,299799.5,299146.90625,208903.4375,308321.6875,0.0244140625,0.96875,-0.243408203125,-0.3662109076976776,1.6174315214157104,0.6713866591453552,80.0,838438.0,1.0
515020.2959443,288825.78125,324524.0,316992.8125,290392.625,297659.09375,298863.65625,208703.609375,307087.875,0.024169921875,0.968505859375,-0.24755859375,-0.3356933295726776,1.5869139432907104,0.7324218153953552,80.0,838439.0,1.0
515020.2976741,287123.46875,325433.1875,317372.4375,290064.15625,300359.53125,300683.8125,209528.03125,307756.53125,0.025146484375,0.966552734375,-0.246826171875,-0.3051757514476776,1.6174315214157104,0.8544921278953552,80.0,838440.0,1.0
515020.3048752,287382.125,326501.5,318747.875,293683.6875,304093.0,302056.21875,210324.03125,309356.21875,0.025146484375,0.96484375,-0.245361328125,-0.2136230319738388,1.5869139432907104,0.9460448622703552,80.0,838441.0,1.0
515020.309702,289356.5625,326211.46875,319266.0,296358.65625,303707.84375,301072.28125,210191.4375,309702.03125,0.02783203125,0.964599609375,-0.243408203125,-0.1220703050494194,1.7395018339157104,1.0986326932907104,80.0,838442.0,1.0
515020.3123426,290142.375,324896.9375,318160.1875,294331.0,299771.40625,299112.40625,209467.6875,308309.96875,0.027099609375,0.967041015625,-0.2431640625,-0.03051757626235485,1.7700194120407104,1.1901854276657104,80.0,838443.0,1.0
515020.3198695,288721.15625,324299.875,316952.40625,290355.0625,297628.34375,298828.34375,209285.5625,307072.65625,0.026611328125,0.966064453125,-0.242919921875,-0.03051757626235485,1.8920897245407104,1.2512205839157104,80.0,838444.0,1.0
515020.3221996,287053.1875,325226.5625,317343.65625,290012.5625,300327.34375,300652.875,209986.6875,307740.53125,0.025390625,0.965087890625,-0.23974609375,0.0,1.8615721464157104,1.2207030057907104,80.0,838445.0,1.0
515020.3247106,287326.3125,326310.71875,318729.28125,293628.875,304071.1875,302033.78125,210641.421875,309343.6875,0.0263671875,0.966552734375,-0.244384765625,-0.03051757626235485,1.8615721464157104,1.2512205839157104,80.0,838446.0,1.0
515020.3298385,289277.90625,326018.96875,319241.5625,296290.34375,303688.6875,301047.0625,210313.296875,309684.78125,0.026123046875,0.96435546875,-0.240966796875,0.03051757626235485,1.8615721464157104,1.2817381620407104,80.0,838447.0,1.0
515020.3322783,290050.8125,324699.875,318135.34375,294252.5,299750.5,299084.15625,209470.359375,308290.28125,0.02734375,0.964599609375,-0.24169921875,0.03051757626235485,1.8920897245407104,1.2207030057907104,80.0,838448.0,1.0
515020.3323128,288645.34375,324108.90625,316934.53125,290271.84375,297605.71875,298800.0,209278.5,307055.0625,0.0283203125,0.964599609375,-0.240966796875,-0.03051757626235485,1.9226073026657104,1.1901854276657104,80.0,838449.0,1.0
515020.3348395,287001.59375,325057.5,317333.0,289932.09375,300313.65625,300637.0625,209989.640625,307725.15625,0.029541015625,0.96240234375,-0.242431640625,0.0,1.9836424589157104,1.1291502714157104,80.0,838450.0,1.0
515020.3373631,287274.125,326157.21875,318718.71875,293542.625,304064.03125,302026.96875,210501.5,309333.3125,0.029296875,0.962890625,-0.2431640625,0.0,1.9531248807907104,1.0986326932907104,80.0,838451.0,1.0
515020.3396781,289218.53125,325875.75,319231.5625,296206.84375,303685.125,301043.78125,210058.3125,309682.8125,0.02783203125,0.962890625,-0.243408203125,0.0610351525247097,1.9836424589157104,1.0986326932907104,80.0,838452.0,1.0
515020.3422542,290000.5625,324572.90625,318134.1875,294183.3125,299755.15625,299084.3125,209143.40625,308302.625,0.0283203125,0.962890625,-0.24658203125,0.0915527269244194,2.075195074081421,1.0070799589157104,80.0,838453.0,1.0
515020.3422871,288609.3125,323993.90625,316938.90625,290206.5625,297607.40625,298799.375,208870.359375,307071.40625,0.031005859375,0.962646484375,-0.24658203125,0.1220703050494194,2.197265386581421,0.8544921278953552,80.0,838454.0,1.0
515020.3473313,286949.125,324924.90625,317317.90625,289843.65625,300289.34375,300615.875,209541.4375,307717.5625,0.03125,0.962646484375,-0.2451171875,0.2136230319738388,2.197265386581421,0.7324218153953552,80.0,838455.0,1.0
515020.3498364,287178.90625,325988.21875,318669.1875,293420.21875,304005.8125,301977.1875,210182.9375,309281.46875,0.031982421875,0.96142578125,-0.24267578125,0.3662109076976776,2.349853277206421,0.5798339247703552,80.0,838456.0,1.0
515020.3524027,289102.125,325691.21875,319174.78125,296084.53125,303622.96875,300990.75,209865.453125,309616.28125,0.033447265625,0.9609375,-0.24658203125,0.4272460639476776,2.441406011581421,0.5187987685203552,80.0,838457.0,1.0
515020.3524466,289881.9375,324379.53125,318075.0,294075.375,299690.875,299029.0625,208988.015625,308230.46875,0.033935546875,0.963134765625,-0.243408203125,0.5187987685203552,2.532958745956421,0.4577636420726776,80.0,838458.0,1.0
515020.3547443,288488.4375,323792.65625,316873.1875,290102.78125,297534.28125,298737.78125,208662.125,306992.46875,0.034423828125,0.96484375,-0.246337890625,0.6713866591453552,2.655029058456421,0.3356933295726776,80.0,838459.0,1.0
515020.3586247,286818.84375,324717.84375,317251.75,289737.90625,300211.65625,300557.5625,208975.40625,307640.3125,0.033447265625,0.968505859375,-0.248291015625,0.5798339247703552,2.746581792831421,0.2746581733226776,80.0,838460.0,1.0
515020.3761458,287064.71875,325800.75,318626.90625,293342.625,303958.25,301945.53125,208597.9375,309230.0625,0.031982421875,0.96875,-0.245849609375,0.4882812201976776,2.960204839706421,0.2441406100988388,80.0,838461.0,1.0
515020.3761849,289011.28125,325516.53125,319148.25,296048.25,303601.4375,300969.375,207418.75,309584.28125,0.029541015625,0.96875,-0.247314453125,0.3967284858226776,3.143310308456421,0.1525878757238388,80.0,838462.0,1.0
515020.3787498,289810.6875,324201.78125,318056.65625,294074.59375,299675.3125,299008.34375,205884.15625,308211.625,0.03076171875,0.970458984375,-0.246337890625,0.3967284858226776,3.265380620956421,0.1525878757238388,80.0,838463.0,1.0
515020.3787868,288415.84375,323597.40625,316853.53125,290113.40625,297505.5,298709.53125,204970.953125,306974.03125,0.02880859375,0.971923828125,-0.2470703125,0.3662109076976776,3.265380620956421,0.03051757626235485,80.0,838464.0,1.0
515020.3811636,286723.8125,324500.40625,317222.6875,289742.8125,300172.6875,300521.28125,205136.546875,307623.125,0.02880859375,0.969970703125,-0.24853515625,0.2441406100988388,3.387450933456421,0.0,80.0,838465.0,1.0
515020.3835282,286949.375,325569.1875,318590.59375,293347.78125,303918.28125,301908.25,205271.453125,309222.09375,0.02783203125,0.96875,-0.248046875,0.1220703050494194,3.417968511581421,0.03051757626235485,80.0,838466.0,1.0
515020.3886143,288916.59375,325287.09375,319122.03125,296089.71875,303582.5625,300944.78125,204561.203125,309594.5625,0.026611328125,0.970458984375,-0.24658203125,0.0610351525247097,3.448486089706421,-0.0610351525247097,80.0,838467.0,1.0
515020.39592,289731.0,323962.09375,318032.625,294146.65625,299658.59375,298978.125,203377.28125,308225.375,0.02734375,0.97265625,-0.247314453125,-0.0915527269244194,3.509521245956421,0.03051757626235485,80.0,838468.0,1.0
515020.4010014,288312.40625,323330.59375,316816.59375,290177.875,297466.96875,298666.625,202836.015625,306981.65625,0.026611328125,0.971435546875,-0.247802734375,-0.1525878757238388,3.479003667831421,0.0610351525247097,80.0,838469.0,1.0
515020.4010403,286574.5,324215.65625,317170.90625,289771.25,300109.5625,300473.4375,203328.28125,307623.75,0.027099609375,0.97119140625,-0.248046875,-0.0610351525247097,3.662109136581421,0.2746581733226776,80.0,838470.0,1.0
515020.40365,286772.53125,325279.6875,318534.71875,293360.5,303855.34375,301863.09375,203646.84375,309216.375,0.029296875,0.968994140625,-0.248046875,-0.03051757626235485,3.570556402206421,0.3662109076976776,80.0,838471.0,1.0
515020.4051986,288746.1875,324992.40625,319065.1875,296095.0,303514.8125,300889.28125,203162.703125,309567.28125,0.0283203125,0.96484375,-0.25341796875,0.03051757626235485,3.570556402206421,0.2746581733226776,80.0,838472.0,1.0
515020.4123593,289563.71875,323646.65625,317959.03125,294122.25,299565.6875,298893.25,202269.265625,308153.3125,0.0283203125,0.963623046875,-0.248291015625,0.0610351525247097,3.753661870956421,0.1525878757238388,80.0,838473.0,1.0
515020.4147409,288129.75,323003.375,316730.9375,290123.15625,297354.9375,298568.09375,201926.390625,306889.71875,0.02685546875,0.9638671875,-0.248291015625,0.2136230319738388,3.814697027206421,0.1220703050494194,80.0,838474.0,1.0
515020.417192,286345.53125,323873.5625,317070.59375,289670.84375,299983.5,300368.375,202471.40625,307520.3125,0.026123046875,0.9658203125,-0.2509765625,0.2441406100988388,3.845214605331421,0.2136230319738388,80.0,838475.0,1.0
515020.4234853,286545.4375,324957.28125,318445.59375,293235.5,303745.8125,301780.03125,202944.546875,309123.46875,0.028564453125,0.96630859375,-0.244140625,0.3356933295726776,3.875732183456421,0.2441406100988388,80.0,838476.0,1.0
515020.4486319,288622.46875,324745.03125,319031.28125,296025.53125,303477.0625,300861.90625,202635.5625,309521.78125,0.02685546875,0.968505859375,-0.24560546875,0.2746581733226776,3.906249761581421,0.1831054538488388,80.0,838477.0,1.0
515020.4486732,289548.8125,323470.78125,317978.625,294125.09375,299591.0,298912.84375,201786.8125,308159.9375,0.024169921875,0.967529296875,-0.24853515625,0.3662109076976776,3.906249761581421,0.03051757626235485,80.0,838478.0,1.0
515020.4511969,288103.90625,322822.78125,316735.78125,290096.59375,297356.96875,298571.40625,201324.859375,306885.25,0.023681640625,0.967041015625,-0.244140625,0.3662109076976776,3.906249761581421,0.03051757626235485,80.0,838479.0,1.0
515020.4512316,286246.03125,323661.21875,317042.4375,289571.59375,299942.90625,300348.4375,201681.953125,307495.5625,0.02490234375,0.968017578125,-0.244384765625,0.3967284858226776,3.875732183456421,0.0,80.0,838480.0,1.0
515020.4534998,286412.0625,324732.78125,318411.4375,293102.375,303702.375,301759.46875,201996.390625,309095.125,0.023193359375,0.966064453125,-0.24609375,0.3051757514476776,3.906249761581421,-0.0915527269244194,80.0,838481.0,1.0
515020.4560799,288535.03125,324533.75,319015.5625,295907.96875,303456.59375,300849.84375,201400.5,309496.9375,0.02490234375,0.967041015625,-0.248046875,0.3051757514476776,3.967284917831421,-0.1220703050494194,80.0,838482.0,1.0
515020.4585813,289522.6875,323280.28125,317978.15625,294033.09375,299585.28125,298901.3125,200242.046875,308138.46875,0.025634765625,0.967529296875,-0.24658203125,0.3051757514476776,4.028319835662842,-0.1525878757238388,80.0,838483.0,1.0
515020.4609863,288057.125,322617.40625,316719.3125,289981.0,297331.0625,298539.9375,199671.265625,306856.46875,0.025390625,0.966796875,-0.24560546875,0.3051757514476776,4.028319835662842,0.0,80.0,838484.0,1.0
515020.4685875,286102.0,323404.625,316982.96875,289382.3125,299868.59375,300285.78125,200073.15625,307437.625,0.0244140625,0.966064453125,-0.24951171875,0.3356933295726776,4.089354991912842,-0.03051757626235485,80.0,838485.0,1.0
515020.4711356,286219.8125,324455.15625,318340.09375,292883.59375,303619.40625,301697.5,200473.78125,309026.90625,0.02392578125,0.96923828125,-0.248291015625,0.3967284858226776,3.906249761581421,-0.0610351525247097,80.0,838486.0,1.0
515020.4711766,288401.625,324279.84375,318978.1875,295744.875,303416.375,300819.53125,199939.5,309449.375,0.025634765625,0.970458984375,-0.248046875,0.4577636420726776,3.875732183456421,0.0,80.0,838487.0,1.0
515020.4762372,289460.5625,323051.5625,317964.5625,293924.65625,299567.75,298879.84375,198806.078125,308104.3125,0.024169921875,0.969482421875,-0.248291015625,0.4882812201976776,3.906249761581421,0.0915527269244194,80.0,838488.0,1.0
515020.4785299,287985.4375,322386.03125,316695.8125,289871.125,297293.0625,298501.84375,198246.578125,306817.59375,0.026123046875,0.9658203125,-0.25,0.3967284858226776,3.967284917831421,0.1525878757238388,80.0,838489.0,1.0
515020.4785643,285962.25,323158.3125,316931.3125,289234.625,299798.40625,300232.125,198773.453125,307383.8125,0.026611328125,0.965087890625,-0.247314453125,0.3356933295726776,3.997802495956421,0.2441406100988388,80.0,838490.0,1.0
515020.4809606,286067.90625,324231.46875,318294.03125,292749.65625,303567.09375,301661.40625,199417.453125,308980.6875,0.026123046875,0.964111328125,-0.248291015625,0.2746581733226776,4.089354991912842,0.3051757514476776,80.0,838491.0,1.0
515020.4834656,288342.4375,324128.75,318971.84375,295697.59375,303420.03125,300821.9375,199249.984375,309429.25,0.02294921875,0.967041015625,-0.24951171875,0.2746581733226776,4.028319835662842,0.3662109076976776,80.0,838492.0,1.0
515020.5010616,289484.15625,322953.9375,317986.9375,293956.21875,299602.53125,298907.375,198381.9375,308099.78125,0.02197265625,0.968017578125,-0.24755859375,0.3662109076976776,4.058837413787842,0.4272460639476776,80.0,838493.0,1.0
515020.5076299,287998.3125,322289.8125,316700.8125,289904.5625,297302.1875,298521.40625,197927.484375,306802.46875,0.020263671875,0.9677734375,-0.248046875,0.3662109076976776,4.058837413787842,0.4272460639476776,80.0,838494.0,1.0
515020.5076724,285907.4375,323040.9375,316904.125,289223.90625,299768.75,300232.125,198499.859375,307350.34375,0.018310546875,0.9697265625,-0.24853515625,0.2746581733226776,3.997802495956421,0.4577636420726776,80.0,838495.0,1.0
515020.5076829,286010.34375,324130.34375,318270.71875,292741.09375,303544.125,301670.96875,199353.34375,308956.09375,0.01806640625,0.970703125,-0.250244140625,0.2441406100988388,3.875732183456421,0.5493163466453552,80.0,838496.0,1.0
515020.5527608,288375.34375,324079.375,318987.75,295757.5,303439.0625,300852.875,199257.765625,309431.40625,0.017578125,0.97119140625,-0.2490234375,0.2441406100988388,3.753661870956421,0.4882812201976776,80.0,838497.0,1.0
515020.5572402,289590.375,322930.875,318017.875,294065.5625,299632.03125,298924.03125,198265.890625,308105.5,0.017333984375,0.97216796875,-0.25,0.1831054538488388,3.631591558456421,0.5187987685203552,80.0,838498.0,1.0
515020.5597162,288094.6875,322257.28125,316714.84375,289994.3125,297307.09375,298512.125,197606.5,306793.875,0.019775390625,0.9716796875,-0.247314453125,0.1220703050494194,3.479003667831421,0.5798339247703552,80.0,838499.0,1.0
515020.5623577,285947.75,322999.09375,316895.28125,289250.90625,299748.34375,300212.1875,198019.828125,307331.0625,0.019287109375,0.96875,-0.25244140625,0.0,3.387450933456421,0.5187987685203552,80.0,838500.0,1.0
515020.5648523,286029.3125,324095.9375,318254.78125,292729.46875,303522.65625,301651.1875,198640.671875,308934.375,0.01904296875,0.96923828125,-0.25390625,-0.0915527269244194,3.387450933456421,0.5798339247703552,80.0,838501.0,1.0
515020.5762014,288450.875,324079.5625,318989.28125,295778.15625,303442.03125,300842.59375,198518.28125,309419.78125,0.020263671875,0.969970703125,-0.251708984375,-0.0915527269244194,3.295898199081421,0.5493163466453552,80.0,838502.0,1.0
515020.5762429,289735.5625,322978.25,318044.96875,294141.625,299667.25,298936.28125,197754.203125,308118.0,0.021240234375,0.969482421875,-0.251708984375,-0.03051757626235485,3.173827886581421,0.6713866591453552,80.0,838503.0,1.0
515020.5762534,288229.6875,322319.3125,316733.34375,290051.8125,297332.125,298521.5,197315.21875,306800.40625,0.022705078125,0.969482421875,-0.250732421875,-0.0915527269244194,3.143310308456421,0.7629393935203552,80.0,838504.0,1.0
515020.5801776,286021.78125,323054.0625,316889.28125,289239.09375,299744.34375,300209.78125,197750.984375,307312.625,0.022705078125,0.969970703125,-0.2529296875,-0.0915527269244194,3.112792730331421,0.6408690810203552,80.0,838505.0,1.0
515020.5802147,286082.3125,324163.875,318251.65625,292693.25,303519.71875,301658.71875,198498.15625,308913.8125,0.023193359375,0.968017578125,-0.25,-0.1525878757238388,3.082275152206421,0.6713866591453552,80.0,838506.0,1.0
515020.5802235,288538.5,324165.03125,319009.3125,295779.5625,303462.6875,300863.34375,198332.3125,309412.1875,0.023681640625,0.968994140625,-0.24951171875,-0.0915527269244194,3.112792730331421,0.7934569716453552,80.0,838507.0,1.0
515020.5802324,289853.875,323068.71875,318075.25,294177.5,299691.65625,298958.0,197447.359375,308111.03125,0.025146484375,0.968994140625,-0.25,-0.1220703050494194,3.234863042831421,0.8239745497703552,80.0,838508.0,1.0
515020.5873163,288341.625,322421.15625,316755.78125,290077.8125,297345.09375,298540.5625,197183.609375,306786.03125,0.02490234375,0.97119140625,-0.2509765625,-0.2136230319738388,3.173827886581421,0.9765624403953552,80.0,838509.0,1.0
515020.587352,286098.40625,323169.5,316898.125,289223.0,299748.25,300234.1875,197817.0625,307291.96875,0.024658203125,0.97119140625,-0.24951171875,-0.2746581733226776,3.112792730331421,0.9460448622703552,80.0,838510.0,1.0
515020.5974,286133.53125,324285.90625,318252.1875,292650.0625,303526.96875,301690.53125,198557.171875,308888.4375,0.025634765625,0.969970703125,-0.25048828125,-0.3662109076976776,3.082275152206421,1.0375975370407104,80.0,838511.0,1.0
515020.5998404,288598.75,324285.5625,319010.28125,295757.125,303475.375,300889.90625,198314.609375,309392.3125,0.026611328125,0.971923828125,-0.248779296875,-0.5187987685203552,3.143310308456421,1.0681151151657104,80.0,838512.0,1.0
515020.602377,289929.3125,323185.0625,318082.59375,294190.0,299712.3125,298978.65625,197350.796875,308105.3125,0.02783203125,0.9716796875,-0.247802734375,-0.5798339247703552,3.082275152206421,1.1291502714157104,80.0,838513.0,1.0
515020.6024192,288391.25,322514.5,316752.9375,290067.4375,297352.875,298557.0,196899.828125,306772.25,0.027099609375,0.971435546875,-0.250244140625,-0.6103515028953552,3.143310308456421,1.1901854276657104,80.0,838514.0,1.0
515020.604854,286088.84375,323235.21875,316879.625,289160.34375,299738.96875,300250.1875,197619.296875,307267.46875,0.02783203125,0.967529296875,-0.2490234375,-0.6408690810203552,3.082275152206421,1.1901854276657104,80.0,838515.0,1.0
515020.6072013,286066.9375,324316.3125,318220.0,292561.71875,303512.21875,301698.59375,198668.03125,308863.65625,0.027099609375,0.965576171875,-0.247314453125,-0.7019042372703552,3.112792730331421,1.0070799589157104,80.0,838516.0,1.0
515020.6097892,288511.5,324272.875,318979.15625,295694.0,303470.0,300892.59375,198659.546875,309377.03125,0.026611328125,0.963623046875,-0.246337890625,-0.5798339247703552,3.082275152206421,1.0375975370407104,80.0,838517.0,1.0
515020.6123324,289849.5625,323137.9375,318063.90625,294157.8125,299714.46875,298976.84375,197941.96875,308101.28125,0.028076171875,0.965087890625,-0.247314453125,-0.5798339247703552,3.112792730331421,1.0681151151657104,80.0,838518.0,1.0
515020.6148055,288288.15625,322428.5,316729.0625,290020.6875,297342.40625,298544.125,197667.484375,306766.8125,0.027587890625,0.964599609375,-0.24755859375,-0.4272460639476776,3.082275152206421,1.0375975370407104,80.0,838519.0,1.0
515020.6164657,285933.625,323099.125,316836.71875,289069.125,299705.0,300219.78125,198414.5625,307249.15625,0.027099609375,0.9658203125,-0.2470703125,-0.4272460639476776,3.051757574081421,0.9765624403953552,80.0,838520.0,1.0
515020.6260207,285865.9375,324126.5,318162.4375,292450.5,303462.59375,301648.25,199261.515625,308833.625,0.02490234375,0.965576171875,-0.247802734375,-0.4272460639476776,3.143310308456421,0.9765624403953552,80.0,838521.0,1.0
515020.6284775,288313.1875,324053.09375,318924.53125,295611.9375,303428.625,300833.3125,199017.890625,309353.15625,0.025146484375,0.9658203125,-0.246826171875,-0.3662109076976776,3.051757574081421,0.9155272841453552,80.0,838522.0,1.0
515020.6311173,289666.71875,322885.71875,318007.21875,294104.0,299669.9375,298906.84375,197891.984375,308075.90625,0.025634765625,0.96533203125,-0.2451171875,-0.3051757514476776,3.051757574081421,0.9460448622703552,80.0,838523.0,1.0
515020.6334827,288105.59375,322144.8125,316662.8125,289968.03125,297282.15625,298461.4375,197175.296875,306733.0,0.024658203125,0.96484375,-0.2431640625,-0.3356933295726776,2.990722417831421,0.9460448622703552,80.0,838524.0,1.0
515020.6361388,285721.8125,322783.96875,316752.5625,288987.59375,299621.65625,300124.75,197419.28125,307198.625,0.025146484375,0.9638671875,-0.246826171875,-0.3356933295726776,3.021239995956421,0.8544921278953552,80.0,838525.0,1.0
515020.6361801,285636.8125,323795.53125,318070.53125,292351.8125,303371.75,301555.28125,197920.140625,308774.625,0.0263671875,0.964111328125,-0.24609375,-0.3051757514476776,2.868652105331421,0.7934569716453552,80.0,838526.0,1.0
515020.6386997,288120.0,323743.9375,318850.40625,295548.28125,303358.59375,300765.34375,197781.921875,309307.125,0.024169921875,0.9638671875,-0.24609375,-0.2441406100988388,2.868652105331421,0.7934569716453552,80.0,838527.0,1.0
515020.6411329,289520.1875,322611.875,317949.28125,294087.09375,299619.59375,298849.8125,197079.09375,308043.96875,0.02490234375,0.9658203125,-0.24755859375,-0.1831054538488388,2.868652105331421,0.7629393935203552,80.0,838528.0,1.0
515020.6434584,287978.375,321896.0625,316611.21875,289961.40625,297228.78125,298406.4375,196814.546875,306704.84375,0.024169921875,0.96630859375,-0.24365234375,-0.0915527269244194,2.746581792831421,0.6713866591453552,80.0,838529.0,1.0
515020.6460963,285586.5625,322546.59375,316691.875,288964.0,299555.21875,300069.3125,197466.765625,307166.8125,0.025146484375,0.965087890625,-0.245361328125,-0.0915527269244194,2.685546636581421,0.6408690810203552,80.0,838530.0,1.0
515020.6509828,285511.4375,323582.03125,318016.875,292339.46875,303316.59375,301517.09375,198204.015625,308753.25,0.025146484375,0.967041015625,-0.244384765625,-0.1220703050494194,2.716064214706421,0.5187987685203552,80.0,838531.0,1.0
515020.6510231,288023.34375,323556.09375,318810.46875,295563.21875,303324.375,300743.28125,198071.609375,309296.125,0.02685546875,0.968017578125,-0.24609375,-0.1525878757238388,2.716064214706421,0.4577636420726776,80.0,838532.0,1.0
515020.6534381,289455.375,322436.4375,317920.78125,294131.4375,299596.1875,298836.9375,197398.015625,308040.03125,0.0244140625,0.966552734375,-0.244140625,-0.2136230319738388,2.593993902206421,0.4882812201976776,80.0,838533.0,1.0
515020.6534689,287908.1875,321701.78125,316576.34375,290007.09375,297188.71875,298375.15625,197328.0,306696.0,0.025390625,0.9677734375,-0.245849609375,-0.1831054538488388,2.502441167831421,0.5493163466453552,80.0,838534.0,1.0
515020.6558815,285467.375,322295.28125,316634.75,288976.40625,299482.8125,299999.125,198110.140625,307141.6875,0.026611328125,0.96923828125,-0.2470703125,-0.2136230319738388,2.502441167831421,0.4577636420726776,80.0,838535.0,1.0
515020.6735674,285345.59375,323278.125,317940.875,292317.125,303225.84375,301419.53125,198914.265625,308717.5625,0.025146484375,0.9697265625,-0.245849609375,-0.2746581733226776,2.502441167831421,0.4882812201976776,80.0,838536.0,1.0
515020.676039,287855.0,323220.53125,318740.375,295544.96875,303240.0625,300636.25,198927.765625,309265.90625,0.025634765625,0.96826171875,-0.243408203125,-0.3356933295726776,2.502441167831421,0.5493163466453552,80.0,838537.0,1.0
515020.6760539,289295.5,322063.0,317853.0,294117.78125,299505.25,298709.4375,198068.921875,308004.625,0.027099609375,0.970458984375,-0.243896484375,-0.4882812201976776,2.532958745956421,0.5493163466453552,80.0,838538.0,1.0
515020.6784465,287739.21875,321282.03125,316498.3125,289975.8125,297074.46875,298221.09375,197733.640625,306648.6875,0.023681640625,0.97119140625,-0.246337890625,-0.5187987685203552,2.349853277206421,0.5798339247703552,80.0,838539.0,1.0
515020.6835308,285280.96875,321843.6875,316550.875,288918.65625,299349.3125,299836.78125,198455.78125,307093.21875,0.0244140625,0.970947265625,-0.24609375,-0.7019042372703552,2.349853277206421,0.5187987685203552,80.0,838540.0,1.0
515020.6860476,285159.28125,322816.15625,317864.25,292255.59375,303098.53125,301265.21875,199299.25,308673.40625,0.024658203125,0.971435546875,-0.2509765625,-0.7324218153953552,2.258300542831421,0.5187987685203552,80.0,838541.0,1.0
515020.6885683,287699.6875,322779.5,318682.34375,295502.6875,303140.8125,300508.125,199032.8125,309227.8125,0.0234375,0.969970703125,-0.2490234375,-0.8239745497703552,2.349853277206421,0.5493163466453552,80.0,838542.0,1.0
515020.6909552,289180.28125,321652.71875,317814.1875,294099.0,299429.25,298604.21875,197892.34375,307973.34375,0.023681640625,0.96923828125,-0.24755859375,-0.7629393935203552,2.227782964706421,0.5798339247703552,80.0,838543.0,1.0
515020.6909714,287628.34375,320863.6875,316453.0625,289945.15625,296982.09375,298100.125,197288.9375,306604.4375,0.02490234375,0.968017578125,-0.246337890625,-0.7934569716453552,2.105712652206421,0.5798339247703552,80.0,838544.0,1.0
515020.6985544,285147.375,321402.28125,316490.6875,288856.4375,299231.84375,299692.28125,197666.953125,307030.09375,0.02490234375,0.966552734375,-0.246826171875,-0.7934569716453552,2.075195074081421,0.5493163466453552,80.0,838545.0,1.0
515020.7261494,285017.5625,322384.0625,317804.1875,292169.59375,302982.65625,301129.15625,198244.25,308608.84375,0.02490234375,0.966064453125,-0.247802734375,-0.7324218153953552,1.9531248807907104,0.5798339247703552,80.0,838546.0,1.0
515020.7261883,287610.46875,322406.5,318647.03125,295437.0625,303057.21875,300404.875,198113.171875,309184.375,0.025634765625,0.9658203125,-0.248291015625,-0.6408690810203552,1.8920897245407104,0.5493163466453552,80.0,838547.0,1.0
515020.7261974,289142.0,321331.03125,317792.03125,294045.96875,299361.40625,298519.90625,197121.65625,307938.3125,0.02587890625,0.967529296875,-0.24560546875,-0.7019042372703552,1.8005369901657104,0.5798339247703552,80.0,838548.0,1.0
515020.7310814,287596.59375,320560.0625,316425.0,289875.9375,296906.71875,298020.75,196246.625,306558.125,0.025146484375,0.9677734375,-0.24755859375,-0.6713866591453552,1.9836424589157104,0.6103515028953552,80.0,838549.0,1.0
515020.7359376,285096.78125,321103.21875,316451.625,288761.84375,299144.84375,299615.03125,196560.0,306979.6875,0.02587890625,0.967041015625,-0.246337890625,-0.6408690810203552,1.9531248807907104,0.5798339247703552,80.0,838550.0,1.0
515020.7409904,284970.1875,322107.78125,317769.03125,292072.75,302907.1875,301063.09375,197326.3125,308565.125,0.02783203125,0.968505859375,-0.24755859375,-0.7324218153953552,1.9531248807907104,0.6713866591453552,80.0,838551.0,1.0
515020.7434687,287587.40625,322164.46875,318623.3125,295345.15625,303009.03125,300363.90625,197061.03125,309140.5625,0.028076171875,0.967529296875,-0.248046875,-0.7629393935203552,1.8920897245407104,0.7019042372703552,80.0,838552.0,1.0
515020.7460997,289155.5,321122.875,317784.96875,293976.0625,299338.6875,298500.125,196027.3125,307902.625,0.02783203125,0.96826171875,-0.249267578125,-0.6103515028953552,1.8615721464157104,0.7629393935203552,80.0,838553.0,1.0
515020.7485642,287613.15625,320354.0625,316419.4375,289813.0,296880.71875,297995.15625,195395.734375,306530.75,0.025146484375,0.96728515625,-0.2470703125,-0.6103515028953552,1.8920897245407104,0.7629393935203552,80.0,838554.0,1.0
515020.7509398,285084.71875,320874.875,316438.3125,288695.78125,299108.8125,299577.40625,195815.5,306952.0625,0.025146484375,0.96875,-0.2451171875,-0.5798339247703552,1.8310545682907104,0.7629393935203552,80.0,838555.0,1.0
515020.7536002,284926.28125,321858.875,317748.65625,291996.40625,302870.53125,301030.96875,196510.46875,308535.0,0.0263671875,0.9697265625,-0.244873046875,-0.6103515028953552,1.8005369901657104,0.8239745497703552,80.0,838556.0,1.0
515020.7559637,287572.0,321944.53125,318619.46875,295292.75,302994.09375,300351.03125,196379.390625,309123.03125,0.025146484375,0.969970703125,-0.242431640625,-0.6713866591453552,1.8310545682907104,0.8544921278953552,80.0,838557.0,1.0
515020.760771,289175.53125,320933.59375,317796.9375,293952.71875,299341.625,298494.5,195533.421875,307892.78125,0.02685546875,0.968994140625,-0.244873046875,-0.5798339247703552,1.8920897245407104,0.8850097060203552,80.0,838558.0,1.0
515020.760814,287628.875,320163.09375,316427.59375,289799.6875,296875.34375,297978.375,195053.84375,306517.1875,0.02685546875,0.9677734375,-0.244140625,-0.5187987685203552,1.9531248807907104,0.8239745497703552,80.0,838559.0,1.0
515020.7860007,285063.625,320667.34375,316429.1875,288666.0,299078.5,299545.84375,195547.46875,306930.0625,0.028076171875,0.9677734375,-0.2431640625,-0.5187987685203552,1.8920897245407104,0.8850097060203552,80.0,838560.0,1.0
515020.7886572,284892.5625,321669.4375,317736.21875,291963.15625,302842.625,301013.625,196160.96875,308509.78125,0.025634765625,0.969970703125,-0.244384765625,-0.5187987685203552,1.9531248807907104,0.9155272841453552,80.0,838561.0,1.0
515020.7886939,287569.15625,321813.375,318623.96875,295279.15625,303001.15625,300376.0,195944.78125,309107.90625,0.02685546875,0.9697265625,-0.2451171875,-0.4272460639476776,1.9226073026657104,0.8850097060203552,80.0,838562.0,1.0
515020.7912289,289223.1875,320860.65625,317817.5,293972.125,299374.4375,298548.5,195086.84375,307888.84375,0.0263671875,0.96875,-0.242431640625,-0.5187987685203552,2.014159917831421,0.9155272841453552,80.0,838563.0,1.0
515020.7936025,287691.65625,320120.90625,316447.59375,289832.5,296906.90625,298039.78125,194661.4375,306517.1875,0.025390625,0.968994140625,-0.24365234375,-0.4882812201976776,2.014159917831421,1.0375975370407104,80.0,838564.0,1.0
515020.7959496,285096.78125,320623.53125,316430.96875,288680.84375,299084.59375,299593.84375,195118.046875,306914.59375,0.026611328125,0.967041015625,-0.244384765625,-0.5187987685203552,2.014159917831421,0.9765624403953552,80.0,838565.0,1.0
515020.7986032,284922.25,321653.6875,317735.0625,291969.125,302845.0625,301067.375,195650.46875,308487.53125,0.028564453125,0.966552734375,-0.2431640625,-0.5493163466453552,1.9531248807907104,0.9765624403953552,80.0,838566.0,1.0
515020.8035855,287657.21875,321870.84375,318654.0,295325.9375,303045.6875,300466.46875,195346.484375,309106.03125,0.0263671875,0.966796875,-0.24609375,-0.4577636420726776,1.9836424589157104,0.9765624403953552,80.0,838567.0,1.0
515020.8061358,289349.4375,320969.71875,317858.09375,294036.125,299435.25,298650.0625,194396.265625,307890.46875,0.02490234375,0.966796875,-0.245361328125,-0.3662109076976776,1.9836424589157104,0.8544921278953552,80.0,838568.0,1.0
515020.8084574,287816.09375,320241.25,316478.1875,289884.15625,296950.09375,298126.6875,193925.0,306513.96875,0.02685546875,0.96728515625,-0.24560546875,-0.2441406100988388,1.9836424589157104,0.9460448622703552,80.0,838569.0,1.0
515020.8110923,285200.125,320746.375,316448.0625,288718.40625,299113.03125,299669.9375,194468.5,306914.59375,0.027587890625,0.96826171875,-0.245361328125,-0.1525878757238388,2.044677495956421,0.8850097060203552,80.0,838570.0,1.0
515020.8135965,285012.03125,321785.46875,317750.53125,292003.5625,302881.1875,301144.96875,195016.03125,308495.125,0.029296875,0.966552734375,-0.246337890625,-0.2136230319738388,2.136230230331421,0.9155272841453552,80.0,838571.0,1.0
515020.8136376,287762.71875,322030.375,318677.40625,295356.40625,303094.125,300553.46875,194642.125,309113.5625,0.0283203125,0.968505859375,-0.24609375,-0.2441406100988388,2.197265386581421,0.8850097060203552,80.0,838572.0,1.0
515020.8160062,289489.15625,321165.875,317897.0625,294076.65625,299500.34375,298747.71875,193680.734375,307904.15625,0.028076171875,0.969482421875,-0.245849609375,-0.2441406100988388,2.227782964706421,0.8544921278953552,80.0,838573.0,1.0
515020.8185991,287937.78125,320432.125,316503.3125,289899.8125,296993.09375,298204.84375,193096.015625,306512.15625,0.028076171875,0.96533203125,-0.246337890625,-0.0915527269244194,2.258300542831421,0.8544921278953552,80.0,838574.0,1.0
515020.8210215,285281.21875,320912.78125,316453.875,288695.9375,299125.1875,299721.8125,193514.078125,306895.09375,0.02734375,0.96435546875,-0.245361328125,-0.0915527269244194,2.197265386581421,0.7629393935203552,80.0,838575.0,1.0
515020.8210618,285093.75,321962.40625,317757.875,291974.9375,302897.34375,301198.875,194180.4375,308481.28125,0.027099609375,0.965576171875,-0.245849609375,0.0610351525247097,2.288818120956421,0.7934569716453552,80.0,838576.0,1.0
515020.8335886,287881.53125,322252.34375,318702.375,295343.34375,303142.0625,300630.8125,194104.875,309115.96875,0.025390625,0.96533203125,-0.246826171875,0.1220703050494194,2.319335699081421,0.8544921278953552,80.0,838577.0,1.0
515020.8386221,289630.78125,321415.5,317931.5,294070.90625,299561.59375,298836.40625,193242.546875,307913.4375,0.02734375,0.966552734375,-0.2470703125,0.0915527269244194,2.380370855331421,0.8544921278953552,80.0,838578.0,1.0
515020.838665,288077.625,320679.5,316527.90625,289886.125,297042.28125,298276.96875,192730.421875,306517.1875,0.0283203125,0.96728515625,-0.246337890625,0.0610351525247097,2.319335699081421,0.7629393935203552,80.0,838579.0,1.0
515020.8411421,285407.28125,321149.96875,316465.5,288667.15625,299160.6875,299778.3125,193184.890625,306898.5,0.02783203125,0.966796875,-0.248779296875,0.1831054538488388,2.380370855331421,0.7324218153953552,80.0,838580.0,1.0
515020.8435342,285215.34375,322210.96875,317768.0625,291931.59375,302932.65625,301257.8125,193896.75,308483.9375,0.02685546875,0.968994140625,-0.2470703125,0.1831054538488388,2.410888433456421,0.7934569716453552,80.0,838581.0,1.0
515020.8459583,288015.125,322515.40625,318715.59375,295304.09375,303188.71875,300695.875,193836.03125,309116.0625,0.0283203125,0.96728515625,-0.245849609375,0.1831054538488388,2.471923589706421,0.7934569716453552,80.0,838582.0,1.0
515020.8523531,289787.59375,321694.1875,317950.71875,294053.125,299616.75,298899.53125,193084.03125,307918.8125,0.029541015625,0.967041015625,-0.24755859375,0.3662109076976776,2.502441167831421,0.8544921278953552,80.0,838583.0,1.0
515020.8561441,288230.6875,320945.59375,316541.5,289870.75,297081.15625,298320.34375,192753.046875,306523.625,0.027587890625,0.967529296875,-0.247802734375,0.2746581733226776,2.593993902206421,0.9155272841453552,80.0,838584.0,1.0
515020.856185,285533.71875,321392.0,316466.65625,288637.5625,299172.40625,299797.53125,193315.78125,306892.6875,0.026123046875,0.965576171875,-0.24853515625,0.3051757514476776,2.593993902206421,0.7934569716453552,80.0,838585.0,1.0
515020.8736582,285321.28125,322441.0,317766.90625,291900.125,302942.6875,301273.71875,193990.265625,308473.03125,0.0244140625,0.967529296875,-0.24951171875,0.3356933295726776,2.624511480331421,0.8544921278953552,80.0,838586.0,1.0
515020.8757717,288120.78125,322752.59375,318720.5,295278.53125,303206.6875,300717.15625,193827.28125,309105.6875,0.026123046875,0.9658203125,-0.250732421875,0.4272460639476776,2.593993902206421,0.7934569716453552,80.0,838587.0,1.0
515020.8758138,289903.21875,321929.78125,317957.6875,294046.0625,299634.90625,298914.28125,192961.375,307906.75,0.025146484375,0.967529296875,-0.247802734375,0.3967284858226776,2.532958745956421,0.7934569716453552,80.0,838588.0,1.0
515020.8876816,288356.84375,321180.53125,316549.34375,289882.90625,297095.75,298336.96875,192548.484375,306516.0,0.025634765625,0.967041015625,-0.24755859375,0.3662109076976776,2.471923589706421,0.7629393935203552,80.0,838589.0,1.0
515020.8982889,285645.375,321614.4375,316461.1875,288640.6875,299170.59375,299807.90625,193157.609375,306878.125,0.024658203125,0.96484375,-0.250244140625,0.4577636420726776,2.593993902206421,0.7324218153953552,80.0,838590.0,1.0
515020.8983265,285421.875,322662.5625,317761.0,291908.875,302946.15625,301290.0,193950.484375,308459.28125,0.023681640625,0.965087890625,-0.249755859375,0.5187987685203552,2.593993902206421,0.7019042372703552,80.0,838591.0,1.0
515020.9222994,288238.90625,322989.96875,318735.96875,295322.15625,303237.09375,300747.5625,193951.28125,309110.0625,0.023681640625,0.966064453125,-0.251708984375,0.5493163466453552,2.563476324081421,0.7934569716453552,80.0,838592.0,1.0
515020.9223349,290021.3125,322163.5,317975.5,294095.25,299666.625,298945.3125,193174.15625,307913.25,0.02392578125,0.966064453125,-0.24951171875,0.5798339247703552,2.380370855331421,0.7324218153953552,80.0,838593.0,1.0
515020.9294704,288455.34375,321390.5625,316551.3125,289910.90625,297104.40625,298348.5,192666.59375,306505.8125,0.024658203125,0.966796875,-0.247802734375,0.5798339247703552,2.471923589706421,0.8544921278953552,80.0,838594.0,1.0
515020.9295057,285730.15625,321805.9375,316452.25,288655.90625,299166.3125,299809.40625,193160.203125,306861.40625,0.02490234375,0.96728515625,-0.24853515625,0.7019042372703552,2.410888433456421,0.7629393935203552,80.0,838595.0,1.0
515020.9295147,285491.96875,322843.6875,317746.6875,291908.875,302938.75,301286.6875,193852.046875,308441.40625,0.02734375,0.96875,-0.251220703125,0.7019042372703552,2.410888433456421,0.8239745497703552,80.0,838596.0,1.0
515020.9295239,288315.0,323178.34375,318727.65625,295328.59375,303243.4375,300751.59375,193793.03125,309096.46875,0.027587890625,0.967529296875,-0.250244140625,0.5798339247703552,2.319335699081421,0.7934569716453552,80.0,838597.0,1.0
515020.9374507,290115.28125,322361.625,317975.40625,294119.375,299682.1875,298950.46875,193058.1875,307905.9375,0.0283203125,0.9658203125,-0.25390625,0.5187987685203552,2.288818120956421,0.8850097060203552,80.0,838598.0,1.0
515020.9374877,288539.5,321575.09375,316543.0,289929.5,297104.6875,298341.8125,192640.484375,306495.09375,0.026611328125,0.966552734375,-0.253173828125,0.5187987685203552,2.380370855331421,0.8544921278953552,80.0,838599.0,1.0
515020.9374978,285790.5,321970.90625,316438.40625,288656.625,299148.875,299794.03125,193144.109375,306845.84375,0.02783203125,0.966796875,-0.250244140625,0.4882812201976776,2.410888433456421,0.9155272841453552,80.0,838600.0,1.0
515020.9423634,285551.96875,323007.3125,317741.3125,291922.5625,302929.71875,301278.65625,193963.4375,308437.625,0.028076171875,0.9677734375,-0.251220703125,0.5187987685203552,2.441406011581421,0.8239745497703552,80.0,838601.0,1.0
515020.949846,288364.78125,323334.90625,318715.40625,295343.71875,303237.0,300740.15625,193964.0625,309093.34375,0.026611328125,0.96826171875,-0.2509765625,0.3967284858226776,2.349853277206421,0.8850097060203552,80.0,838602.0,1.0
515020.9523326,290159.4375,322512.34375,317958.84375,294140.03125,299675.9375,298933.84375,193374.78125,307901.28125,0.025390625,0.969970703125,-0.253173828125,0.3662109076976776,2.380370855331421,0.9155272841453552,80.0,838603.0,1.0
515020.9548636,288572.75,321715.46875,316518.5,289945.3125,297082.15625,298312.125,193389.359375,306486.34375,0.024658203125,0.969970703125,-0.252685546875,0.3662109076976776,2.349853277206421,1.0070799589157104,80.0,838604.0,1.0
515020.9572255,285794.25,322087.125,316397.375,288654.28125,299107.5625,299750.6875,194416.734375,306832.34375,0.026123046875,0.968505859375,-0.251953125,0.2746581733226776,2.288818120956421,1.0375975370407104,80.0,838605.0,1.0
515020.9598006,285519.0625,323101.8125,317691.53125,291900.46875,302886.1875,301232.59375,195840.09375,308421.8125,0.025390625,0.96728515625,-0.252685546875,-0.03051757626235485,2.349853277206421,1.0070799589157104,80.0,838606.0,1.0
515020.9622115,288328.21875,323424.75,318671.53125,295321.375,303201.6875,300701.25,196305.8125,309078.875,0.02587890625,0.96630859375,-0.25439453125,-0.1525878757238388,2.258300542831421,0.9765624403953552,80.0,838607.0,1.0
515020.9647804,290123.6875,322590.75,317907.8125,294107.9375,299629.25,298888.0625,195634.453125,307876.875,0.027587890625,0.966796875,-0.250732421875,-0.1831054538488388,2.136230230331421,1.0375975370407104,80.0,838608.0,1.0
515020.9671845,288513.03125,321759.09375,316457.1875,289897.03125,297014.1875,298257.5,195281.03125,306452.0,0.02685546875,0.966552734375,-0.25048828125,-0.2136230319738388,2.166747808456421,0.9765624403953552,80.0,838609.0,1.0
515020.9723407,285707.0,322106.28125,316331.125,288593.59375,299027.5625,299695.59375,195974.375,306794.6875,0.02587890625,0.966064453125,-0.2509765625,-0.3051757514476776,2.227782964706421,0.8850097060203552,80.0,838610.0,1.0
515020.9747611,285404.78125,323102.4375,317615.625,291817.78125,302798.28125,301171.09375,196722.09375,308375.40625,0.027099609375,0.96826171875,-0.25146484375,-0.3662109076976776,2.227782964706421,0.9460448622703552,80.0,838611.0,1.0
515020.9772787,288220.9375,323436.28125,318608.3125,295237.9375,303133.5625,300651.4375,196547.03125,309040.15625,0.02685546875,0.969970703125,-0.25,-0.3356933295726776,2.227782964706421,0.9155272841453552,80.0,838612.0,1.0
515020.9773133,290043.5,322615.71875,317868.1875,294053.125,299587.875,298852.9375,195748.625,307856.9375,0.026123046875,0.971435546875,-0.24951171875,-0.5187987685203552,2.197265386581421,0.9460448622703552,80.0,838613.0,1.0
515020.9798181,288422.1875,321770.46875,316407.09375,289839.90625,296959.5625,298206.34375,195502.3125,306426.15625,0.0263671875,0.97216796875,-0.24853515625,-0.6103515028953552,2.258300542831421,0.8850097060203552,80.0,838614.0,1.0
515020.9847082,285546.21875,322062.53125,316244.84375,288490.75,298922.59375,299608.875,196099.375,306743.375,0.027587890625,0.968505859375,-0.25146484375,-0.6713866591453552,2.288818120956421,1.0070799589157104,80.0,838615.0,1.0
515020.9873147,285209.71875,323037.96875,317524.78125,291702.625,302684.84375,301091.5,196769.75,308325.6875,0.027587890625,0.968505859375,-0.25341796875,-0.7934569716453552,2.288818120956421,0.9460448622703552,80.0,838616.0,1.0
515020.9899113,288050.0625,323386.9375,318530.4375,295144.59375,303040.75,300595.5625,196805.421875,309002.15625,0.02880859375,0.966552734375,-0.247802734375,-0.8239745497703552,2.258300542831421,0.9460448622703552,80.0,838617.0,1.0
515020.98995,289890.96875,322574.21875,317794.0625,293968.1875,299498.375,298803.15625,196230.09375,307821.71875,0.027587890625,0.9658203125,-0.24755859375,-0.8239745497703552,2.227782964706421,0.9460448622703552,80.0,838618.0,1.0
515020.9922291,288242.75,321704.65625,316323.34375,289743.09375,296849.59375,298142.875,196019.4375,306388.78125,0.028076171875,0.965576171875,-0.249755859375,-0.8544921278953552,2.288818120956421,1.0070799589157104,80.0,838619.0,1.0
515020.9984506,285298.65625,321943.90625,316130.9375,288364.53125,298774.0,299515.96875,196706.359375,306691.34375,0.02685546875,0.965087890625,-0.249267578125,-0.9155272841453552,2.410888433456421,1.0375975370407104,80.0,838620.0,1.0
515021.0010495,284919.75,322888.21875,317395.3125,291552.875,302522.125,300991.09375,197566.0,308260.78125,0.02685546875,0.965576171875,-0.24755859375,-0.7934569716453552,2.349853277206421,0.9765624403953552,80.0,838621.0,1.0
515021.0236111,287775.5,323245.65625,318412.0625,294996.0,302891.71875,300511.53125,197637.0,308933.65625,0.029052734375,0.964111328125,-0.250244140625,-0.8544921278953552,2.319335699081421,0.9460448622703552,80.0,838622.0,1.0
515021.0260185,289652.96875,322454.40625,317687.59375,293829.25,299360.6875,298730.28125,197018.296875,307748.65625,0.02783203125,0.9638671875,-0.248046875,-0.7324218153953552,2.258300542831421,0.9155272841453552,80.0,838623.0,1.0
515021.0260543,287996.53125,321577.5,316206.03125,289584.65625,296691.25,298057.21875,196731.578125,306301.71875,0.028564453125,0.96435546875,-0.24951171875,-0.6408690810203552,2.227782964706421,0.8544921278953552,80.0,838624.0,1.0
515021.0335551,285008.625,321792.53125,316003.4375,288178.28125,298596.15625,299416.84375,197410.078125,306603.28125,0.029052734375,0.967529296875,-0.246337890625,-0.7629393935203552,2.258300542831421,0.8850097060203552,80.0,838625.0,1.0
515021.0350401,284580.1875,322701.1875,317254.3125,291349.28125,302328.28125,300874.25,198263.203125,308170.65625,0.029052734375,0.967529296875,-0.249755859375,-0.6713866591453552,2.197265386581421,0.9155272841453552,80.0,838626.0,1.0
515021.0448275,287418.5,323039.9375,318270.0,294792.78125,302700.84375,300389.59375,198239.234375,308849.96875,0.029052734375,0.966796875,-0.25,-0.7019042372703552,2.380370855331421,0.9460448622703552,80.0,838627.0,1.0
515021.0473724,289260.375,322204.15625,317543.5625,293630.0625,299158.625,298592.3125,197487.15625,307674.8125,0.028076171875,0.965087890625,-0.249267578125,-0.6713866591453552,2.319335699081421,0.9155272841453552,80.0,838628.0,1.0
515021.049824,287473.5625,321200.3125,316016.9375,289353.4375,296421.15625,297855.15625,197098.140625,306213.28125,0.028564453125,0.964599609375,-0.24853515625,-0.6713866591453552,2.410888433456421,1.0070799589157104,80.0,838629.0,1.0
515021.049859,284242.40625,321191.1875,315725.46875,287869.46875,298206.15625,299104.4375,197607.578125,306473.09375,0.0283203125,0.966064453125,-0.24853515625,-0.7629393935203552,2.471923589706421,0.9765624403953552,80.0,838630.0,1.0
515021.0523264,283539.84375,321841.8125,316893.03125,290959.03125,301832.53125,300466.03125,198377.1875,308010.53125,0.026123046875,0.968994140625,-0.24951171875,-0.6713866591453552,2.441406011581421,0.9155272841453552,80.0,838631.0,1.0
515021.0547445,286102.0,321891.59375,317824.75,294330.8125,302089.125,299875.75,198354.84375,308661.59375,0.025634765625,0.967041015625,-0.247802734375,-0.7324218153953552,2.441406011581421,0.8239745497703552,80.0,838632.0,1.0
515021.0599551,287572.1875,320662.34375,316964.28125,293061.59375,298365.75,297911.03125,197576.109375,307429.3125,0.026611328125,0.96533203125,-0.244384765625,-0.6103515028953552,2.410888433456421,0.7019042372703552,80.0,838633.0,1.0
515021.059997,285296.53125,319156.8125,315264.3125,288626.21875,295392.25,296965.03125,197107.53125,305886.9375,0.02587890625,0.965576171875,-0.242919921875,-0.5798339247703552,2.349853277206421,0.7934569716453552,80.0,838634.0,1.0
515021.0673736,281551.34375,318623.59375,314812.8125,286977.0,296959.375,298031.5625,197554.5625,306081.59375,0.02734375,0.9658203125,-0.24267578125,-0.5493163466453552,2.288818120956421,0.7019042372703552,80.0,838635.0,1.0
515021.0698388,280559.375,318923.90625,315927.875,289978.03125,300502.59375,299344.15625,198259.796875,307599.625,0.026611328125,0.96826171875,-0.245849609375,-0.5493163466453552,2.380370855331421,0.7324218153953552,80.0,838636.0,1.0
515021.0746989,283280.9375,318991.9375,316987.0,293404.9375,300911.53125,298924.46875,198205.625,308297.96875,0.02587890625,0.9677734375,-0.245849609375,-0.5187987685203552,2.349853277206421,0.6103515028953552,80.0,838637.0,1.0
515021.0772126,285220.25,318057.125,316355.96875,292288.3125,297471.96875,297245.125,197486.4375,307147.6875,0.02392578125,0.9677734375,-0.246826171875,-0.5798339247703552,2.349853277206421,0.6103515028953552,80.0,838638.0,1.0
515021.0797013,283367.46875,316848.78125,314839.34375,287982.75,294732.53125,296524.59375,197037.875,305668.6875,0.028076171875,0.96533203125,-0.24462890625,-0.4882812201976776,2.227782964706421,0.6408690810203552,80.0,838639.0,1.0
515021.0822691,279957.75,316591.375,314523.9375,286411.96875,296476.40625,297767.53125,197479.28125,305901.59375,0.031494140625,0.963623046875,-0.246826171875,-0.4272460639476776,2.197265386581421,0.6103515028953552,80.0,838640.0,1.0
515021.0823072,279416.40625,317298.0625,315815.21875,289529.65625,300251.96875,299305.0625,198234.40625,307477.59375,0.034912109375,0.96240234375,-0.248779296875,-0.3356933295726776,2.136230230331421,0.7019042372703552,80.0,838641.0,1.0
515021.084861,282715.96875,317875.71875,317092.9375,293136.96875,300944.4375,299141.0,198306.828125,308256.84375,0.035888671875,0.964111328125,-0.247802734375,-0.2136230319738388,2.319335699081421,0.8850097060203552,80.0,838642.0,1.0
515021.0885468,285078.71875,317319.0625,316601.5625,292159.125,297695.75,297600.34375,197561.71875,307156.53125,0.033935546875,0.964599609375,-0.24609375,-0.1831054538488388,2.471923589706421,1.0375975370407104,80.0,838643.0,1.0
515021.1236314,283404.40625,316302.84375,315117.84375,287900.125,295013.0,296898.78125,197059.78125,305683.0,0.02978515625,0.964599609375,-0.247314453125,-0.2136230319738388,2.532958745956421,1.1596678495407104,80.0,838644.0,1.0
515021.1236755,280052.25,316162.65625,314795.625,286342.40625,296767.0625,298133.40625,197535.609375,305914.75,0.028076171875,0.9658203125,-0.245361328125,-0.0610351525247097,2.624511480331421,1.1291502714157104,80.0,838645.0,1.0
515021.1262682,279588.25,317002.375,316097.125,289486.3125,300576.71875,299697.46875,198310.140625,307506.1875,0.026611328125,0.966552734375,-0.242919921875,-0.1831054538488388,2.716064214706421,1.0681151151657104,80.0,838646.0,1.0
515021.1263044,283054.28125,317754.125,317404.0,293150.65625,301326.46875,299575.96875,198351.0,308308.90625,0.0263671875,0.967041015625,-0.24658203125,-0.1831054538488388,2.746581792831421,1.0070799589157104,80.0,838647.0,1.0
515021.128514,285580.21875,317351.25,316931.75,292225.90625,298103.34375,298035.3125,197572.078125,307222.40625,0.02490234375,0.9658203125,-0.247314453125,-0.1525878757238388,2.746581792831421,1.0375975370407104,80.0,838648.0,1.0
515021.1308867,283942.90625,316396.65625,315426.3125,287973.0,295382.4375,297262.375,197032.515625,305744.78125,0.0244140625,0.9658203125,-0.246826171875,-0.1525878757238388,2.655029058456421,1.0375975370407104,80.0,838649.0,1.0
515021.1335905,280483.75,316189.84375,315032.65625,286355.90625,297037.0,298360.84375,197386.5625,305945.96875,0.025390625,0.966552734375,-0.246826171875,-0.0915527269244194,2.563476324081421,1.0375975370407104,80.0,838650.0,1.0
515021.1409499,279921.46875,316910.90625,316280.5,289477.28125,300769.28125,299785.71875,198044.875,307518.25,0.0263671875,0.965576171875,-0.24609375,-0.1525878757238388,2.624511480331421,1.0070799589157104,80.0,838651.0,1.0
515021.142514,283375.59375,317563.40625,317568.78125,293161.75,301478.46875,299559.0625,198030.75,308321.84375,0.02734375,0.967041015625,-0.2490234375,-0.1220703050494194,2.563476324081421,0.9765624403953552,80.0,838652.0,1.0
515021.1496983,285831.96875,317008.90625,317043.96875,292230.65625,298175.5,297909.96875,197268.1875,307218.65625,0.027099609375,0.967529296875,-0.245849609375,-0.1831054538488388,2.563476324081421,0.9155272841453552,80.0,838653.0,1.0
515021.1522063,283971.9375,315795.46875,315427.46875,287906.9375,295310.1875,296996.6875,196741.9375,305700.71875,0.02685546875,0.968994140625,-0.248046875,-0.1525878757238388,2.563476324081421,0.9765624403953552,80.0,838654.0,1.0
515021.157325,280228.65625,315300.34375,314920.09375,286207.9375,296827.25,297983.90625,197104.671875,305870.84375,0.0234375,0.970947265625,-0.249267578125,-0.1831054538488388,2.502441167831421,0.8850097060203552,80.0,838655.0,1.0
515021.1599535,279438.84375,315802.4375,316087.84375,289249.03125,300468.78125,299364.15625,197807.765625,307414.8125,0.0234375,0.971435546875,-0.24658203125,-0.3051757514476776,2.441406011581421,0.8850097060203552,80.0,838656.0,1.0
515021.1599919,282812.78125,316362.84375,317364.9375,292931.78125,301172.5,299166.84375,197820.09375,308221.4375,0.02490234375,0.97314453125,-0.246337890625,-0.3356933295726776,2.380370855331421,0.7019042372703552,80.0,838657.0,1.0
515021.1622684,285269.15625,315785.90625,316854.9375,292030.5625,297890.28125,297565.3125,197086.78125,307128.90625,0.025390625,0.97216796875,-0.245361328125,-0.3051757514476776,2.410888433456421,0.5798339247703552,80.0,838658.0,1.0
515021.1646971,283377.5625,314556.65625,315237.21875,287702.09375,295018.53125,296682.84375,196568.9375,305600.3125,0.0263671875,0.970458984375,-0.249267578125,-0.4272460639476776,2.258300542831421,0.5493163466453552,80.0,838659.0,1.0
515021.1749646,279538.34375,314035.125,314712.5,285964.46875,296516.125,297690.03125,196922.8125,305751.84375,0.02685546875,0.968994140625,-0.24951171875,-0.4577636420726776,2.258300542831421,0.4272460639476776,80.0,838660.0,1.0
515021.1750041,278706.34375,314566.3125,315888.375,289006.375,300182.4375,299122.15625,197658.71875,307308.4375,0.02734375,0.97021484375,-0.246337890625,-0.3967284858226776,2.227782964706421,0.4577636420726776,80.0,838661.0,1.0
515021.1796765,282120.0625,315176.59375,317195.21875,292724.375,300929.34375,298979.375,197750.1875,308135.4375,0.028564453125,0.97021484375,-0.246826171875,-0.3051757514476776,2.258300542831421,0.4882812201976776,80.0,838662.0,1.0
515021.1848314,284643.65625,314651.15625,316712.0,291857.90625,297680.53125,297414.46875,197050.84375,307054.59375,0.0302734375,0.971923828125,-0.247802734375,-0.2136230319738388,2.319335699081421,0.5493163466453552,80.0,838663.0,1.0
515021.1899216,282761.03125,313461.59375,315098.8125,287525.96875,294815.0625,296549.8125,196535.765625,305520.90625,0.02880859375,0.971435546875,-0.2470703125,-0.1831054538488388,2.349853277206421,0.5798339247703552,80.0,838664.0,1.0
515021.1899631,278911.78125,312984.53125,314578.75,285759.375,296318.875,297583.1875,196902.0625,305669.40625,0.0302734375,0.9697265625,-0.245361328125,-0.2746581733226776,2.441406011581421,0.6408690810203552,80.0,838665.0,1.0
515021.1923305,278098.53125,313557.875,315772.59375,288789.75,300012.625,299043.03125,197614.375,307236.0,0.031005859375,0.969482421875,-0.244873046875,-0.3051757514476776,2.380370855331421,0.7629393935203552,80.0,838666.0,1.0
515021.1948424,281625.28125,314256.875,317118.34375,292536.96875,300811.03125,298940.125,197650.765625,308078.75,0.0283203125,0.968505859375,-0.24560546875,-0.3967284858226776,2.502441167831421,0.7324218153953552,80.0,838667.0,1.0
515021.194882,284303.21875,313859.28125,316682.84375,291716.28125,297619.40625,297425.75,196966.625,307019.28125,0.028076171875,0.967529296875,-0.248046875,-0.3662109076976776,2.685546636581421,0.8239745497703552,80.0,838668.0,1.0
515021.1998804,282527.21875,312787.09375,315105.15625,287408.65625,294798.34375,296607.3125,196471.75,305503.03125,0.028564453125,0.9677734375,-0.245849609375,-0.2746581733226776,2.655029058456421,0.9765624403953552,80.0,838669.0,1.0
515021.2022654,278737.09375,312410.71875,314608.15625,285642.4375,296334.71875,297677.15625,196842.25,305660.375,0.025634765625,0.966552734375,-0.24658203125,-0.3051757514476776,2.563476324081421,1.0070799589157104,80.0,838670.0,1.0
515021.202305,277997.875,313081.625,315821.9375,288670.03125,300057.625,299163.1875,197632.609375,307225.28125,0.0263671875,0.965576171875,-0.246826171875,-0.3356933295726776,2.563476324081421,1.1596678495407104,80.0,838671.0,1.0
515021.2046581,281629.40625,313873.65625,317196.65625,292445.5,300891.40625,299080.9375,197733.640625,308079.28125,0.025634765625,0.96630859375,-0.244384765625,-0.3662109076976776,2.624511480331421,1.3732908964157104,80.0,838672.0,1.0
515021.2259702,284406.84375,313554.21875,316783.0625,291661.03125,297725.0625,297576.75,197095.546875,307029.5625,0.026123046875,0.96533203125,-0.24658203125,-0.3051757514476776,2.655029058456421,1.3427733182907104,80.0,838673.0,1.0
515021.2286146,282706.5625,312556.78125,315217.625,287363.4375,294922.53125,296772.09375,196604.25,305511.15625,0.0244140625,0.96337890625,-0.246826171875,-0.1220703050494194,2.655029058456421,1.4038084745407104,80.0,838674.0,1.0
515021.2286551,278997.71875,312296.875,314737.4375,285590.3125,296490.1875,297870.4375,196999.515625,305664.40625,0.026123046875,0.962646484375,-0.246337890625,-0.0610351525247097,2.655029058456421,1.4953612089157104,80.0,838675.0,1.0
515021.2311277,278344.15625,313098.5,315975.8125,288629.0625,300250.1875,299384.46875,197759.21875,307237.71875,0.025390625,0.962646484375,-0.243896484375,-0.03051757626235485,2.563476324081421,1.5258787870407104,80.0,838676.0,1.0
515021.2386126,282036.03125,313973.90625,317355.28125,292422.4375,301090.15625,299291.03125,197724.703125,308091.375,0.02685546875,0.963623046875,-0.245849609375,0.0610351525247097,2.441406011581421,1.5563963651657104,80.0,838677.0,1.0
515021.238655,284895.4375,313749.40625,316956.59375,291663.375,297931.0625,297785.59375,196735.0625,307044.9375,0.02490234375,0.96240234375,-0.244140625,-0.0610351525247097,2.380370855331421,1.4953612089157104,80.0,838678.0,1.0
515021.2411506,283291.75,312871.875,315421.03125,287395.875,295156.6875,297011.15625,196053.78125,305541.75,0.0244140625,0.96142578125,-0.2451171875,-0.03051757626235485,2.410888433456421,1.5258787870407104,80.0,838679.0,1.0
515021.2432786,279672.375,312744.375,314975.6875,285651.09375,296769.65625,298161.46875,196323.25,305709.03125,0.025634765625,0.96337890625,-0.24755859375,-0.0610351525247097,2.380370855331421,1.4648436307907104,80.0,838680.0,1.0
515021.2433148,279089.875,313665.96875,316235.53125,288716.6875,300564.0,299705.71875,196943.203125,307292.6875,0.02685546875,0.962890625,-0.24560546875,0.03051757626235485,2.349853277206421,1.4038084745407104,80.0,838681.0,1.0
515021.2812544,282808.5,314588.9375,317604.09375,292523.71875,301394.59375,299590.375,196920.484375,308145.0,0.028076171875,0.963623046875,-0.246826171875,0.03051757626235485,2.288818120956421,1.3122557401657104,80.0,838682.0,1.0
515021.2923457,285671.5,314378.1875,317193.625,291784.4375,298223.34375,298061.34375,196210.859375,307103.40625,0.030029296875,0.965087890625,-0.246826171875,0.0610351525247097,2.319335699081421,1.2207030057907104,80.0,838683.0,1.0
515021.296125,284120.71875,313596.6875,315680.6875,287545.71875,295482.46875,297314.5,195786.1875,305612.8125,0.02978515625,0.966796875,-0.245849609375,0.0610351525247097,2.288818120956421,1.1596678495407104,80.0,838684.0,1.0
515021.2961651,280587.09375,313624.5,315273.0625,285827.875,297151.15625,298514.625,196268.984375,305796.5625,0.0302734375,0.9658203125,-0.248291015625,0.0915527269244194,2.288818120956421,1.1596678495407104,80.0,838685.0,1.0
515021.2961753,280034.8125,314627.625,316538.09375,288915.0,300963.125,300061.28125,197104.125,307379.59375,0.029296875,0.96728515625,-0.247802734375,0.0610351525247097,2.349853277206421,1.0681151151657104,80.0,838686.0,1.0
515021.2999404,283703.5625,315538.59375,317867.40625,292717.03125,301751.96875,299892.375,197206.40625,308219.46875,0.02978515625,0.96728515625,-0.246337890625,0.1525878757238388,2.288818120956421,0.9460448622703552,80.0,838687.0,1.0
515021.2999766,286520.21875,315319.03125,317428.84375,291966.46875,298539.3125,298321.0625,196514.84375,307163.78125,0.03173828125,0.966796875,-0.246337890625,0.0915527269244194,2.288818120956421,0.9460448622703552,80.0,838688.0,1.0
515021.2999856,285005.125,314625.40625,315942.625,287755.65625,295824.0,297608.125,196031.78125,305688.5625,0.0302734375,0.967529296875,-0.24951171875,-0.03051757626235485,2.288818120956421,0.8239745497703552,80.0,838689.0,1.0
515021.2999952,281538.65625,314784.09375,315573.84375,286084.625,297551.71875,298865.5625,196506.796875,305890.6875,0.0322265625,0.969482421875,-0.247802734375,0.03051757626235485,2.349853277206421,0.6713866591453552,80.0,838690.0,1.0
515021.3022939,281015.875,315887.5625,316842.0625,289180.28125,301382.71875,300423.71875,197240.03125,307477.3125,0.031494140625,0.96875,-0.245849609375,-0.03051757626235485,2.319335699081421,0.6713866591453552,80.0,838691.0,1.0
515021.3023238,284706.53125,316854.40625,318161.71875,292989.53125,302158.0625,300236.4375,197281.421875,308322.9375,0.029541015625,0.968994140625,-0.2470703125,-0.0915527269244194,2.288818120956421,0.6408690810203552,80.0,838692.0,1.0
515021.3074625,287523.5625,316633.65625,317699.03125,292249.59375,298920.53125,298631.65625,196625.984375,307268.8125,0.028076171875,0.96923828125,-0.24951171875,-0.0915527269244194,2.319335699081421,0.5798339247703552,80.0,838693.0,1.0
515021.3121653,286000.875,315926.71875,316202.46875,288057.5,296198.625,297904.875,196091.859375,305795.21875,0.029296875,0.968505859375,-0.25,-0.1220703050494194,2.502441167831421,0.5798339247703552,80.0,838694.0,1.0
515021.3148132,282504.0625,316067.1875,315831.15625,286397.5625,297931.5,299159.53125,196417.125,306001.3125,0.030517578125,0.969482421875,-0.249755859375,-0.1525878757238388,2.471923589706421,0.5187987685203552,80.0,838695.0,1.0
515021.3223333,281897.96875,317101.25,317075.96875,289491.6875,301750.0,300692.125,197100.46875,307587.28125,0.027587890625,0.9697265625,-0.251708984375,-0.2136230319738388,2.319335699081421,0.4882812201976776,80.0,838696.0,1.0
515021.3273456,285427.78125,317907.0,318328.5625,293254.28125,302448.4375,300420.25,197189.421875,308402.0625,0.027587890625,0.9697265625,-0.25146484375,-0.1831054538488388,2.288818120956421,0.4577636420726776,80.0,838697.0,1.0
515021.3321804,288147.0,317566.4375,317836.53125,292500.125,299161.21875,298769.25,196512.96875,307333.625,0.02880859375,0.9697265625,-0.248779296875,-0.2746581733226776,2.288818120956421,0.4882812201976776,80.0,838698.0,1.0
515021.3348225,286603.5625,316834.5625,316345.5,288328.40625,296452.71875,298057.75,196101.875,305867.625,0.029052734375,0.971923828125,-0.25048828125,-0.3356933295726776,2.349853277206421,0.3967284858226776,80.0,838699.0,1.0
515021.3398493,283102.5625,316986.09375,315980.1875,286685.09375,298212.875,299333.6875,196595.765625,306077.90625,0.030029296875,0.9716796875,-0.2529296875,-0.4272460639476776,2.288818120956421,0.3967284858226776,80.0,838700.0,1.0
515021.3473236,282465.1875,318006.96875,317213.1875,289769.5625,302025.625,300857.90625,197440.484375,307658.90625,0.030517578125,0.970947265625,-0.251708984375,-0.4882812201976776,2.319335699081421,0.5493163466453552,80.0,838701.0,1.0
515021.3497995,285953.03125,318772.0,318447.8125,293524.5625,302704.9375,300568.21875,197558.234375,308475.90625,0.029296875,0.96875,-0.25146484375,-0.4577636420726776,2.349853277206421,0.6103515028953552,80.0,838702.0,1.0
515021.3514265,288625.84375,318383.625,317933.65625,292756.46875,299395.71875,298900.6875,196846.640625,307405.625,0.02783203125,0.968017578125,-0.25146484375,-0.4272460639476776,2.319335699081421,0.5493163466453552,80.0,838703.0,1.0
515021.3610666,287042.71875,317606.6875,316433.9375,288571.84375,296677.125,298179.34375,196423.65625,305934.6875,0.02783203125,0.9658203125,-0.25048828125,-0.2441406100988388,2.258300542831421,0.5493163466453552,80.0,838704.0,1.0
515021.3661059,283510.0625,317725.40625,316077.46875,286929.53125,298456.59375,299470.75,196930.40625,306152.46875,0.02734375,0.96728515625,-0.249267578125,-0.1220703050494194,2.288818120956421,0.4577636420726776,80.0,838705.0,1.0
515021.368648,282807.0625,318672.9375,317293.65625,289991.28125,302263.5625,300981.625,197699.9375,307727.125,0.028076171875,0.96875,-0.251220703125,-0.1220703050494194,2.258300542831421,0.6103515028953552,80.0,838706.0,1.0
515021.3708817,286218.3125,319327.84375,318493.40625,293707.21875,302904.25,300644.9375,197740.171875,308529.0,0.02685546875,0.9677734375,-0.248291015625,-0.1525878757238388,2.227782964706421,0.7019042372703552,80.0,838707.0,1.0
515021.3736291,288851.875,318856.0625,317966.375,292924.28125,299574.46875,298952.1875,196992.375,307458.1875,0.02734375,0.967529296875,-0.24755859375,-0.1525878757238388,2.166747808456421,0.6103515028953552,80.0,838708.0,1.0
515021.3736705,287263.28125,318049.4375,316474.625,288739.84375,296865.875,298245.5,196540.5,305992.96875,0.030517578125,0.967529296875,-0.246826171875,-0.0915527269244194,2.105712652206421,0.7019042372703552,80.0,838709.0,1.0
515021.3760752,283727.4375,318169.125,316124.59375,287086.0,298655.96875,299554.4375,197017.578125,306209.15625,0.03125,0.964599609375,-0.24853515625,-0.1525878757238388,2.166747808456421,0.7629393935203552,80.0,838710.0,1.0
515021.3786126,283034.6875,319135.09375,317354.46875,290151.6875,302481.0625,301079.53125,197757.0625,307793.71875,0.031005859375,0.96240234375,-0.24951171875,0.0,2.166747808456421,0.8850097060203552,80.0,838711.0,1.0
515021.380953,286464.4375,319794.28125,318551.625,293868.78125,303115.96875,300731.90625,197760.734375,308596.59375,0.030029296875,0.964111328125,-0.250244140625,0.1220703050494194,2.197265386581421,0.8850097060203552,80.0,838712.0,1.0
515021.3835628,289125.71875,319330.8125,318018.3125,293075.375,299765.4375,299024.15625,196985.9375,307522.75,0.029052734375,0.96337890625,-0.25048828125,0.0915527269244194,2.258300542831421,1.0070799589157104,80.0,838713.0,1.0
515021.3860808,287555.03125,318540.53125,316531.65625,288885.21875,297052.65625,298317.03125,196442.703125,306056.1875,0.029052734375,0.96533203125,-0.249755859375,0.1831054538488388,2.349853277206421,1.1901854276657104,80.0,838714.0,1.0
515021.388615,284024.0,318676.15625,316197.1875,287244.78125,298861.15625,299639.90625,196844.140625,306276.40625,0.029541015625,0.966552734375,-0.2470703125,0.2136230319738388,2.227782964706421,1.1901854276657104,80.0,838715.0,1.0
515021.3936445,283313.1875,319625.65625,317422.59375,290308.0625,302679.8125,301156.25,197550.8125,307855.59375,0.029541015625,0.96533203125,-0.247802734375,0.1525878757238388,2.258300542831421,1.2512205839157104,80.0,838716.0,1.0
515021.3936841,286735.15625,320248.9375,318609.65625,294024.96875,303292.53125,300781.1875,197570.03125,308653.375,0.029052734375,0.965087890625,-0.246826171875,0.1220703050494194,2.227782964706421,1.2817381620407104,80.0,838717.0,1.0
515021.3960621,289407.53125,319753.15625,318071.78125,293242.75,299929.3125,299051.25,196839.21875,307572.8125,0.029541015625,0.9619140625,-0.246826171875,0.1220703050494194,2.258300542831421,1.3122557401657104,80.0,838718.0,1.0
515021.3960947,287860.53125,318965.5,316591.1875,289070.28125,297226.71875,298359.25,196435.09375,306113.5,0.029541015625,0.9609375,-0.250732421875,0.03051757626235485,2.258300542831421,1.4038084745407104,80.0,838719.0,1.0
515021.3987266,284345.5,319119.625,316257.25,287443.09375,299047.125,299697.65625,196933.71875,306337.65625,0.029296875,0.96044921875,-0.251220703125,0.1525878757238388,2.319335699081421,1.4038084745407104,80.0,838720.0,1.0
515021.4003443,283663.3125,320080.40625,317482.5,290527.28125,302869.71875,301213.8125,197611.6875,307920.59375,0.02734375,0.960693359375,-0.250732421875,0.2746581733226776,2.349853277206421,1.3732908964157104,80.0,838721.0,1.0
515021.4259521,287122.3125,320705.09375,318663.28125,294251.34375,303462.125,300821.6875,197547.5,308718.09375,0.02490234375,0.961181640625,-0.2509765625,0.3051757514476776,2.319335699081421,1.2207030057907104,80.0,838722.0,1.0
515021.4259924,289843.21875,320218.96875,318128.46875,293480.125,300083.8125,299087.46875,196805.234375,307639.21875,0.025390625,0.960693359375,-0.251220703125,0.2441406100988388,2.258300542831421,1.1596678495407104,80.0,838723.0,1.0
515021.4386264,288356.84375,319474.125,316668.4375,289333.875,297392.3125,298412.15625,196412.65625,306185.125,0.02587890625,0.961181640625,-0.249755859375,0.3051757514476776,2.136230230331421,1.1596678495407104,80.0,838724.0,1.0
515021.4410788,284900.90625,319698.71875,316358.125,287720.875,299233.1875,299781.96875,196920.578125,306415.34375,0.02734375,0.96142578125,-0.25390625,0.4577636420726776,2.166747808456421,1.1291502714157104,80.0,838725.0,1.0
515021.4462115,284248.75,320720.28125,317584.40625,290797.375,303064.90625,301311.71875,197541.953125,307990.96875,0.0283203125,0.963623046875,-0.251708984375,0.4272460639476776,2.044677495956421,0.9460448622703552,80.0,838726.0,1.0
515021.4536179,287755.03125,321392.53125,318769.78125,294527.0625,303660.4375,300925.65625,197474.90625,308789.46875,0.0302734375,0.967041015625,-0.2548828125,0.6408690810203552,2.044677495956421,0.8850097060203552,80.0,838727.0,1.0
515021.4560523,290563.125,320981.34375,318260.0625,293781.875,300305.28125,299221.5625,196735.5,307724.625,0.0302734375,0.966552734375,-0.254150390625,0.5187987685203552,2.075195074081421,0.8544921278953552,80.0,838728.0,1.0
515021.4576671,289189.84375,320358.28125,316843.15625,289672.625,297665.875,298606.28125,196285.703125,306285.0,0.03271484375,0.968505859375,-0.254638671875,0.3967284858226776,2.044677495956421,0.8239745497703552,80.0,838729.0,1.0
515021.4673483,285909.75,320797.71875,316616.84375,288134.84375,299626.3125,300095.0625,196812.3125,306552.40625,0.032470703125,0.967529296875,-0.25048828125,0.4882812201976776,2.105712652206421,0.7934569716453552,80.0,838730.0,1.0
515021.4673896,285387.90625,321993.34375,317888.21875,291247.625,303529.71875,301691.25,197534.984375,308140.09375,0.033203125,0.969482421875,-0.250244140625,0.4272460639476776,2.197265386581421,0.8544921278953552,80.0,838731.0,1.0
515021.4697409,288833.5625,322626.875,319008.21875,294929.125,304039.625,301207.46875,197410.890625,308897.53125,0.03466796875,0.968994140625,-0.24951171875,0.3662109076976776,2.197265386581421,0.8239745497703552,80.0,838732.0,1.0
515021.472375,291545.09375,322108.15625,318429.3125,294149.5,300572.78125,299386.6875,196617.125,307801.96875,0.03173828125,0.969482421875,-0.2529296875,0.2746581733226776,2.258300542831421,0.7629393935203552,80.0,838733.0,1.0
515021.4724169,290064.21875,321378.59375,316959.28125,290012.75,297849.71875,298693.875,196271.390625,306345.875,0.03271484375,0.9697265625,-0.254150390625,0.3967284858226776,2.197265386581421,0.7019042372703552,80.0,838734.0,1.0
515021.4748355,286558.6875,321628.9375,316643.3125,288402.875,299694.0,300075.65625,196839.9375,306579.3125,0.034912109375,0.9697265625,-0.25390625,0.2441406100988388,2.227782964706421,0.6713866591453552,80.0,838735.0,1.0
515021.4797304,285777.0,322592.71875,317823.3125,291435.28125,303470.0,301552.6875,197588.171875,308139.03125,0.032958984375,0.9716796875,-0.25146484375,0.1831054538488388,2.349853277206421,0.7934569716453552,80.0,838736.0,1.0
515021.4848625,289144.9375,323122.28125,318932.9375,295102.6875,303947.71875,301044.40625,197540.796875,308906.3125,0.033447265625,0.97216796875,-0.252685546875,0.0,2.441406011581421,0.7934569716453552,80.0,838737.0,1.0
515021.4897062,291864.4375,322581.8125,318368.53125,294324.9375,300491.6875,299247.03125,196833.859375,307819.375,0.0322265625,0.969482421875,-0.253173828125,-0.1220703050494194,2.380370855331421,0.8239745497703552,80.0,838738.0,1.0
515021.4923186,290416.9375,321894.46875,316930.9375,290201.90625,297809.375,298610.75,196811.140625,306379.9375,0.031005859375,0.969482421875,-0.253662109375,-0.2136230319738388,2.441406011581421,0.7934569716453552,80.0,838739.0,1.0
515021.4949421,286972.8125,322240.46875,316655.65625,288600.46875,299710.8125,300068.0625,197978.796875,306625.90625,0.0322265625,0.97021484375,-0.255615234375,-0.1831054538488388,2.471923589706421,0.8544921278953552,80.0,838740.0,1.0
515021.4949827,286273.46875,323316.03125,317881.25,291650.03125,303552.875,301620.625,199262.328125,308206.625,0.0322265625,0.967041015625,-0.255859375,-0.2441406100988388,2.593993902206421,0.7629393935203552,80.0,838741.0,1.0
515021.5023552,289741.75,323930.09375,319020.03125,295334.96875,304066.09375,301141.3125,199733.40625,308984.1875,0.03076171875,0.966796875,-0.25390625,-0.3051757514476776,2.471923589706421,0.8239745497703552,80.0,838742.0,1.0
515021.5048224,292569.6875,323468.03125,318481.4375,294580.09375,300637.9375,299360.875,199352.359375,307908.15625,0.02978515625,0.966552734375,-0.25341796875,-0.4272460639476776,2.471923589706421,0.7934569716453552,80.0,838743.0,1.0
515021.5098352,291193.90625,322856.125,317062.71875,290462.0,297982.84375,298757.09375,199170.6875,306466.84375,0.0302734375,0.9658203125,-0.251708984375,-0.4577636420726776,2.410888433456421,0.9155272841453552,80.0,838744.0,1.0
515021.5123328,287800.375,323296.625,316820.25,288867.53125,299940.84375,300276.21875,199906.6875,306725.3125,0.028564453125,0.965087890625,-0.252685546875,-0.4272460639476776,2.471923589706421,0.8544921278953552,80.0,838745.0,1.0
515021.5146888,287175.5,324479.03125,318077.21875,291930.96875,303834.59375,301870.5,200850.015625,308312.28125,0.030029296875,0.9638671875,-0.2509765625,-0.3356933295726776,2.258300542831421,0.7934569716453552,80.0,838746.0,1.0
515021.5173284,290762.15625,325208.34375,319252.125,295645.46875,304394.46875,301426.78125,201048.859375,309097.90625,0.02880859375,0.962890625,-0.251708984375,-0.2746581733226776,2.319335699081421,0.6713866591453552,80.0,838747.0,1.0
515021.5197076,293771.75,324908.46875,318778.90625,294946.46875,301046.09375,299720.28125,200586.984375,308036.65625,0.02880859375,0.962890625,-0.253662109375,-0.3051757514476776,2.349853277206421,0.6408690810203552,80.0,838748.0,1.0
515021.5222185,292689.125,324609.65625,317485.4375,290926.03125,298568.71875,299291.5625,200495.515625,306640.28125,0.02734375,0.962890625,-0.2509765625,-0.2136230319738388,2.197265386581421,0.7019042372703552,80.0,838749.0,1.0
515021.5272538,289699.28125,325519.5625,317419.0,289478.09375,300784.40625,301055.46875,201366.78125,306966.90625,0.030029296875,0.962158203125,-0.252685546875,-0.1831054538488388,2.014159917831421,0.8239745497703552,80.0,838750.0,1.0
515021.5323931,289158.71875,326875.875,318677.875,292570.3125,304714.0,302643.0,202336.21875,308551.90625,0.029052734375,0.96142578125,-0.25244140625,-0.1525878757238388,2.105712652206421,0.7934569716453552,80.0,838751.0,1.0
515021.5324349,292592.21875,327492.6875,319738.84375,296234.75,305123.9375,302009.90625,202460.5,309296.5625,0.0302734375,0.9638671875,-0.251220703125,-0.03051757626235485,2.075195074081421,0.7324218153953552,80.0,838752.0,1.0
515021.5373344,295417.3125,327022.21875,319152.71875,295482.65625,301612.03125,300123.40625,201890.890625,308205.8125,0.029296875,0.96435546875,-0.25048828125,0.0,1.9226073026657104,0.6103515028953552,80.0,838753.0,1.0
515021.5399522,294053.40625,326482.375,317729.875,291389.6875,298959.5,299521.4375,201674.609375,306772.0,0.02978515625,0.965087890625,-0.2509765625,0.03051757626235485,1.9226073026657104,0.6713866591453552,80.0,838754.0,1.0
515021.5399982,290600.21875,327007.46875,317468.625,289792.875,300927.90625,301052.875,202351.15625,307024.28125,0.0302734375,0.966552734375,-0.251708984375,0.0610351525247097,1.8310545682907104,0.5798339247703552,80.0,838755.0,1.0
515021.542213,289793.96875,328139.8125,318639.6875,292800.96875,304738.4375,302552.0625,203161.09375,308580.5,0.02978515625,0.965576171875,-0.251708984375,0.0915527269244194,1.8005369901657104,0.6408690810203552,80.0,838756.0,1.0
515021.5472017,293110.15625,328625.03125,319663.21875,296431.625,305087.8125,301874.09375,203138.390625,309315.0,0.029296875,0.96728515625,-0.2509765625,0.0610351525247097,1.6479490995407104,0.6408690810203552,80.0,838757.0,1.0
515021.549853,295805.5,327985.59375,319028.15625,295646.90625,301488.03125,299912.0625,202422.234375,308204.03125,0.031982421875,0.96875,-0.249755859375,0.03051757626235485,1.6479490995407104,0.6713866591453552,80.0,838758.0,1.0
515021.5498949,294312.3125,327311.0,317573.875,291520.84375,298780.6875,299275.46875,202072.921875,306753.75,0.032470703125,0.970703125,-0.24853515625,-0.0610351525247097,1.6479490995407104,0.7019042372703552,80.0,838759.0,1.0
515021.5536636,290775.5625,327780.3125,317321.75,289921.90625,300764.375,300847.0,202699.578125,307014.28125,0.029541015625,0.97021484375,-0.247314453125,-0.2441406100988388,1.6784666776657104,0.6408690810203552,80.0,838760.0,1.0
515021.5734696,289969.5625,328932.9375,318529.1875,292951.71875,304627.03125,302412.21875,203560.5625,308588.5625,0.030029296875,0.968994140625,-0.251220703125,-0.3356933295726776,1.6784666776657104,0.6103515028953552,80.0,838761.0,1.0
515021.5787683,293385.53125,329478.3125,319609.3125,296629.46875,305036.96875,301795.40625,203551.53125,309345.84375,0.0302734375,0.9697265625,-0.248291015625,-0.4272460639476776,1.6174315214157104,0.6408690810203552,80.0,838762.0,1.0
515021.5788076,296216.0625,328931.6875,319037.09375,295899.03125,301509.40625,299905.25,202796.765625,308259.53125,0.0322265625,0.96875,-0.250732421875,-0.5187987685203552,1.5869139432907104,0.6713866591453552,80.0,838763.0,1.0
515021.5788164,294827.5625,328366.8125,317638.0625,291818.9375,298883.15625,299354.4375,202360.984375,306831.1875,0.031494140625,0.967529296875,-0.2490234375,-0.6103515028953552,1.6174315214157104,0.5798339247703552,80.0,838764.0,1.0
515021.5788254,291344.625,328938.65625,317420.09375,290242.4375,300940.59375,300994.5,202822.515625,307098.78125,0.031494140625,0.96728515625,-0.25048828125,-0.6408690810203552,1.6479490995407104,0.5493163466453552,80.0,838765.0,1.0
515021.5810854,290558.3125,330145.84375,318643.4375,293287.71875,304840.4375,302581.75,203579.875,308676.96875,0.03173828125,0.9658203125,-0.248779296875,-0.7629393935203552,1.6174315214157104,0.5187987685203552,80.0,838766.0,1.0
515021.5848188,293975.0,330674.3125,319706.3125,296959.65625,305216.84375,301913.53125,203569.234375,309422.1875,0.03125,0.96533203125,-0.247802734375,-0.7629393935203552,1.6784666776657104,0.4577636420726776,80.0,838767.0,1.0
515021.6011467,296803.8125,330089.59375,319117.125,296228.5,301652.4375,299977.15625,202882.859375,308324.8125,0.0322265625,0.966796875,-0.24951171875,-0.6103515028953552,1.6479490995407104,0.4882812201976776,80.0,838768.0,1.0
515021.6011867,295404.96875,329521.78125,317719.0625,292144.28125,299033.09375,299441.5,202549.90625,306892.6875,0.03076171875,0.96435546875,-0.248046875,-0.7324218153953552,1.6784666776657104,0.4577636420726776,80.0,838769.0,1.0
515021.6050369,291947.5,330171.84375,317538.5625,290584.40625,301153.75,301159.46875,203155.28125,307178.875,0.031494140625,0.965087890625,-0.249267578125,-0.7324218153953552,1.6479490995407104,0.3356933295726776,80.0,838770.0,1.0
515021.6050806,291211.3125,331477.46875,318794.625,293635.15625,305109.90625,302805.09375,203962.71875,308769.59375,0.03125,0.9658203125,-0.251708984375,-0.6713866591453552,1.7089842557907104,0.4577636420726776,80.0,838771.0,1.0
515021.6050905,294722.4375,332085.0625,319883.96875,297309.40625,305516.09375,302155.46875,203984.4375,309512.75,0.030517578125,0.96533203125,-0.251953125,-0.6713866591453552,1.8310545682907104,0.2746581733226776,80.0,838772.0,1.0
515021.6073234,297686.1875,331605.84375,319336.15625,296602.21875,301999.25,300251.8125,203398.921875,308424.40625,0.02978515625,0.96484375,-0.2509765625,-0.6408690810203552,1.8005369901657104,0.2441406100988388,80.0,838773.0,1.0
515021.6101579,296239.03125,331012.46875,317904.75,292492.15625,299345.84375,299666.375,203024.125,306975.84375,0.029296875,0.962890625,-0.246826171875,-0.6103515028953552,1.8310545682907104,0.3051757514476776,80.0,838774.0,1.0
515021.6299289,292487.53125,331437.3125,317598.8125,290816.40625,301318.4375,301238.59375,203545.640625,307208.03125,0.03076171875,0.9658203125,-0.248291015625,-0.5493163466453552,1.8920897245407104,0.3051757514476776,80.0,838775.0,1.0
515021.6599364,291393.0,332420.0,318706.9375,293730.46875,305078.71875,302697.1875,204331.796875,308741.625,0.027587890625,0.967529296875,-0.25146484375,-0.4577636420726776,1.9226073026657104,0.3356933295726776,80.0,838776.0,1.0
515021.659955,294533.96875,332620.4375,319633.53125,297263.09375,305239.375,301808.28125,204277.609375,309431.03125,0.027099609375,0.967041015625,-0.251220703125,-0.4577636420726776,1.8310545682907104,0.3356933295726776,80.0,838777.0,1.0
515021.659958,297094.3125,331667.09375,318909.25,296398.28125,301451.28125,299658.78125,203398.375,308275.625,0.026611328125,0.966552734375,-0.25146484375,-0.3662109076976776,1.8920897245407104,0.4272460639476776,80.0,838778.0,1.0
515021.6599611,295368.65625,330756.46875,317392.90625,292183.28125,298665.71875,298992.40625,202854.875,306796.84375,0.027587890625,0.96630859375,-0.248779296875,-0.3967284858226776,1.7700194120407104,0.3662109076976776,80.0,838779.0,1.0
515021.6620972,291501.625,331058.78125,317094.90625,290472.375,300652.34375,300621.9375,203243.96875,307039.65625,0.029296875,0.967529296875,-0.24951171875,-0.3967284858226776,1.7700194120407104,0.4272460639476776,80.0,838780.0,1.0
515021.6645943,290355.25,331976.0,318225.1875,293369.0,304443.1875,302137.75,203891.640625,308581.9375,0.027587890625,0.965576171875,-0.246337890625,-0.4577636420726776,1.7395018339157104,0.5493163466453552,80.0,838781.0,1.0
515021.6670924,293513.1875,332124.84375,319170.6875,296889.03125,304609.5,301273.46875,203785.875,309264.03125,0.026611328125,0.967041015625,-0.248779296875,-0.3967284858226776,1.8005369901657104,0.4577636420726776,80.0,838782.0,1.0
515021.6688579,296126.375,331130.46875,318473.3125,296033.3125,300830.4375,299143.59375,202881.78125,308108.8125,0.02734375,0.96728515625,-0.250732421875,-0.3662109076976776,1.8005369901657104,0.5493163466453552,80.0,838783.0,1.0
515021.6760124,294395.375,330169.875,316976.625,291825.1875,298061.96875,298499.78125,202351.96875,306635.1875,0.0302734375,0.966064453125,-0.251708984375,-0.4272460639476776,1.8310545682907104,0.6408690810203552,80.0,838784.0,1.0
515021.6785789,290451.28125,330407.34375,316679.4375,290098.9375,300057.25,300153.46875,202823.578125,306876.40625,0.0302734375,0.966552734375,-0.250244140625,-0.4272460639476776,1.8310545682907104,0.6713866591453552,80.0,838785.0,1.0
515021.6808895,289260.8125,331272.4375,317813.46875,292980.25,303857.125,301686.34375,203559.578125,308409.75,0.028564453125,0.969970703125,-0.24755859375,-0.4272460639476776,1.9226073026657104,0.7629393935203552,80.0,838786.0,1.0
515021.6834139,292509.15625,331440.0,318806.625,296537.21875,304066.71875,300859.15625,203413.21875,309105.0625,0.027099609375,0.970703125,-0.248046875,-0.4577636420726776,1.8310545682907104,0.7934569716453552,80.0,838787.0,1.0
515021.6859288,295234.90625,330478.5,318161.4375,295727.4375,300335.75,298769.15625,202481.609375,307967.1875,0.028076171875,0.97021484375,-0.247802734375,-0.3967284858226776,1.8310545682907104,0.8239745497703552,80.0,838788.0,1.0
515021.6886406,293501.3125,329481.90625,316667.09375,291523.625,297578.09375,298137.6875,201931.125,306488.5625,0.02880859375,0.97119140625,-0.247802734375,-0.5493163466453552,1.9531248807907104,0.9765624403953552,80.0,838789.0,1.0
515021.6909404,289485.25,329660.8125,316351.6875,289781.25,299573.90625,299797.09375,202365.375,306717.53125,0.02880859375,0.968505859375,-0.2451171875,-0.6103515028953552,1.8920897245407104,0.9765624403953552,80.0,838790.0,1.0
515021.6935367,288282.8125,330513.125,317500.03125,292673.84375,303407.34375,301361.78125,202940.265625,308257.75,0.030517578125,0.96630859375,-0.246826171875,-0.4882812201976776,1.9531248807907104,0.9765624403953552,80.0,838791.0,1.0
515021.696079,291634.03125,330728.125,318545.53125,296268.4375,303672.875,300584.84375,202723.171875,308974.875,0.030029296875,0.965576171875,-0.25,-0.5187987685203552,1.9226073026657104,1.0986326932907104,80.0,838792.0,1.0
515021.6961207,294479.5,329812.96875,317939.71875,295494.53125,299976.59375,298518.125,201829.46875,307848.53125,0.030517578125,0.962158203125,-0.250732421875,-0.4272460639476776,1.8920897245407104,1.0986326932907104,80.0,838793.0,1.0
515021.698521,292757.875,328806.5,316446.0,291292.0625,297223.59375,297891.28125,201299.015625,306361.34375,0.03076171875,0.963623046875,-0.251953125,-0.3662109076976776,1.9531248807907104,1.0375975370407104,80.0,838794.0,1.0
515021.7009899,288669.21875,328939.5625,316116.53125,289532.625,299222.625,299555.59375,201751.421875,306581.375,0.03173828125,0.9638671875,-0.24951171875,-0.2441406100988388,1.9836424589157104,1.0375975370407104,80.0,838795.0,1.0
515021.7010309,287454.09375,329789.625,317282.03125,292425.65625,303085.75,301152.9375,202411.6875,308134.625,0.03173828125,0.96533203125,-0.24951171875,-0.0610351525247097,1.9836424589157104,1.1291502714157104,80.0,838796.0,1.0
515021.704856,290919.3125,330058.40625,318373.25,296051.0,303402.25,300418.28125,202298.859375,308871.53125,0.031982421875,0.9658203125,-0.25,-0.1220703050494194,2.105712652206421,1.0070799589157104,80.0,838797.0,1.0
515021.7234874,293872.53125,329182.1875,317798.5625,295300.1875,299743.53125,298375.0625,201491.421875,307753.21875,0.0322265625,0.966064453125,-0.250244140625,-0.03051757626235485,2.288818120956421,1.0375975370407104,80.0,838798.0,1.0
515021.7235289,292175.03125,328184.6875,316313.3125,291106.53125,297011.4375,297759.3125,201061.1875,306279.34375,0.031005859375,0.9677734375,-0.248046875,-0.1525878757238388,2.166747808456421,0.8850097060203552,80.0,838799.0,1.0
515021.7261993,288030.6875,328291.53125,315967.59375,289323.40625,299009.3125,299424.0625,201563.21875,306497.5,0.0322265625,0.968505859375,-0.24755859375,-0.1525878757238388,2.136230230331421,0.9765624403953552,80.0,838800.0,1.0
515021.7262358,286803.75,329144.75,317138.28125,292207.9375,302892.96875,301036.15625,202203.015625,308049.34375,0.03271484375,0.965576171875,-0.25,-0.03051757626235485,2.258300542831421,0.9765624403953552,80.0,838801.0,1.0
515021.7309625,290373.21875,329478.21875,318269.625,295858.53125,303250.25,300328.59375,202120.3125,308796.96875,0.034912109375,0.96484375,-0.247314453125,-0.0610351525247097,2.288818120956421,0.9155272841453552,80.0,838802.0,1.0
515021.736045,293443.90625,328668.1875,317725.6875,295133.53125,299616.3125,298303.8125,201490.53125,307684.84375,0.03271484375,0.96484375,-0.248779296875,-0.1220703050494194,2.319335699081421,0.8544921278953552,80.0,838803.0,1.0
515021.7384307,291758.9375,327681.0625,316242.5,290944.09375,296890.90625,297694.0625,201265.046875,306212.9375,0.0322265625,0.96484375,-0.251220703125,-0.03051757626235485,2.349853277206421,0.7629393935203552,80.0,838804.0,1.0
515021.7411601,287536.0625,327751.5,315875.125,289143.0,298884.5,299355.21875,201961.796875,306425.625,0.0322265625,0.965087890625,-0.248779296875,0.0,2.441406011581421,0.7629393935203552,80.0,838805.0,1.0
515021.7411997,286261.40625,328580.75,317035.0,292006.875,302766.03125,300971.53125,202756.078125,307974.25,0.03125,0.965576171875,-0.24755859375,0.1220703050494194,2.410888433456421,0.7629393935203552,80.0,838806.0,1.0
515021.7460605,289908.9375,328960.75,318193.0,295669.59375,303144.9375,300283.09375,202611.234375,308734.65625,0.031005859375,0.966796875,-0.2490234375,0.1525878757238388,2.410888433456421,0.6408690810203552,80.0,838807.0,1.0
515021.749758,293084.9375,328201.59375,317679.625,294980.0,299531.1875,298262.75,201740.421875,307637.4375,0.031494140625,0.967529296875,-0.24755859375,0.0915527269244194,2.471923589706421,0.6103515028953552,80.0,838808.0,1.0
515021.7535564,291381.03125,327187.25,316172.25,290775.1875,296773.15625,297620.5625,201214.078125,306145.5,0.030029296875,0.9677734375,-0.251220703125,-0.0610351525247097,2.410888433456421,0.5493163466453552,80.0,838809.0,1.0
515021.779828,287061.5,327201.03125,315770.1875,288938.5,298730.0,299260.1875,201710.015625,306343.71875,0.030029296875,0.96826171875,-0.249755859375,-0.1220703050494194,2.441406011581421,0.4577636420726776,80.0,838810.0,1.0
515021.7798699,285761.6875,328030.71875,316928.8125,291801.0625,302615.46875,300883.0,202479.640625,307898.875,0.029296875,0.96826171875,-0.25,-0.0610351525247097,2.380370855331421,0.5493163466453552,80.0,838811.0,1.0
515021.7823908,289493.625,328455.59375,318113.4375,295491.5,303012.6875,300207.28125,202328.71875,308666.6875,0.028564453125,0.96630859375,-0.249755859375,-0.1525878757238388,2.349853277206421,0.5187987685203552,80.0,838812.0,1.0
515021.7824298,292749.03125,327728.71875,317616.96875,294814.25,299399.03125,298189.625,201431.78125,307568.59375,0.02783203125,0.964111328125,-0.250732421875,-0.1220703050494194,2.258300542831421,0.4882812201976776,80.0,838813.0,1.0
515021.7848578,291021.0625,326690.25,316091.0625,290592.625,296616.78125,297526.59375,200854.3125,306066.28125,0.025634765625,0.963623046875,-0.2509765625,-0.03051757626235485,2.197265386581421,0.3356933295726776,80.0,838814.0,1.0
515021.7872397,286611.4375,326652.34375,315660.28125,288732.4375,298549.75,299146.1875,201361.328125,306256.375,0.025634765625,0.963623046875,-0.251220703125,-0.0610351525247097,2.197265386581421,0.4577636420726776,80.0,838815.0,1.0
515021.7897368,285263.96875,327455.40625,316809.25,291582.28125,302430.84375,300768.9375,202267.296875,307810.0,0.0263671875,0.964111328125,-0.25146484375,-0.03051757626235485,2.197265386581421,0.4882812201976776,80.0,838816.0,1.0
515021.7922637,289074.3125,327921.65625,318025.28125,295299.46875,302851.65625,300113.40625,202373.515625,308589.4375,0.026611328125,0.96435546875,-0.25146484375,0.1220703050494194,2.075195074081421,0.3967284858226776,80.0,838817.0,1.0
515021.794674,292425.46875,327236.625,317555.625,294653.84375,299258.65625,298106.40625,201689.984375,307502.09375,0.025634765625,0.96533203125,-0.25341796875,0.1831054538488388,1.9531248807907104,0.3967284858226776,80.0,838818.0,1.0
515021.7971842,290688.125,326180.90625,316020.6875,290434.5625,296466.65625,297436.71875,201330.21875,306001.5625,0.02587890625,0.964599609375,-0.250732421875,0.0610351525247097,1.8615721464157104,0.4882812201976776,80.0,838819.0,1.0
515021.7998446,286166.625,326066.8125,315543.53125,288536.8125,298364.875,299033.53125,201982.171875,306178.5,0.026123046875,0.964111328125,-0.25244140625,0.0610351525247097,1.8005369901657104,0.5798339247703552,80.0,838820.0,1.0
515021.8035779,284784.65625,326851.0,316689.8125,291388.875,302252.09375,300663.0625,202812.859375,307735.96875,0.026123046875,0.963623046875,-0.251708984375,0.0,1.7395018339157104,0.4882812201976776,80.0,838821.0,1.0
515021.8036205,288686.28125,327375.09375,317945.90625,295135.9375,302712.625,300042.5,202637.609375,308526.25,0.028076171875,0.965087890625,-0.254150390625,0.0915527269244194,1.6784666776657104,0.5493163466453552,80.0,838822.0,1.0
515021.823633,292141.4375,326749.53125,317507.4375,294519.375,299140.5625,298050.875,201618.28125,307441.90625,0.029541015625,0.966064453125,-0.256591796875,0.1220703050494194,1.6784666776657104,0.6103515028953552,80.0,838823.0,1.0
515021.8236706,290390.84375,325681.125,315957.03125,290293.75,296332.375,297363.0625,200930.65625,305930.84375,0.029296875,0.966796875,-0.25146484375,0.1220703050494194,1.6174315214157104,0.6103515028953552,80.0,838824.0,1.0
515021.8262352,285783.25,325520.4375,315451.15625,288379.09375,298206.15625,298936.0,201227.765625,306096.0625,0.030029296875,0.9658203125,-0.254150390625,0.1220703050494194,1.5563963651657104,0.5798339247703552,80.0,838825.0,1.0
515021.8262712,284356.3125,326292.03125,316591.09375,291217.59375,302091.875,300566.875,201961.796875,307653.1875,0.029052734375,0.966064453125,-0.2548828125,0.0,1.5258787870407104,0.6408690810203552,80.0,838826.0,1.0
515021.8286116,288365.78125,326902.59375,317893.59375,295001.09375,302600.875,299986.25,201896.34375,308469.90625,0.030029296875,0.966064453125,-0.255859375,-0.0915527269244194,1.5258787870407104,0.6713866591453552,80.0,838827.0,1.0
515021.830889,291937.84375,326358.09375,317490.0,294419.4375,299065.28125,298014.84375,200951.484375,307398.90625,0.02978515625,0.968505859375,-0.25537109375,-0.1220703050494194,1.6479490995407104,0.7019042372703552,80.0,838828.0,1.0
515021.8335762,290181.09375,325284.59375,315931.90625,290197.90625,296250.3125,297311.125,200347.640625,305885.78125,0.03125,0.970703125,-0.252197265625,-0.03051757626235485,1.5869139432907104,0.6408690810203552,80.0,838829.0,1.0
515021.8371822,285470.0625,325059.90625,315391.53125,288252.5,298095.40625,298859.65625,200794.484375,306044.9375,0.0322265625,0.969482421875,-0.25390625,-0.1525878757238388,1.6784666776657104,0.7629393935203552,80.0,838830.0,1.0
515021.8486013,283987.5,325798.25,316521.1875,291076.78125,301978.96875,300491.59375,201537.203125,307606.78125,0.031982421875,0.9697265625,-0.25439453125,-0.2746581733226776,1.6784666776657104,0.7324218153953552,80.0,838831.0,1.0
515021.8486425,288068.40625,326442.6875,317853.25,294875.40625,302509.25,299922.53125,201435.625,308435.84375,0.032470703125,0.969970703125,-0.25390625,-0.3662109076976776,1.7395018339157104,0.7629393935203552,80.0,838832.0,1.0
515021.8561228,291741.875,325931.28125,317477.5625,294327.6875,298982.84375,297949.40625,200786.171875,307381.90625,0.031494140625,0.969970703125,-0.254150390625,-0.5187987685203552,1.6479490995407104,0.7934569716453552,80.0,838833.0,1.0
515021.8561594,289956.6875,324803.3125,315884.78125,290090.15625,296123.6875,297201.25,200826.5,305854.65625,0.03076171875,0.9677734375,-0.255126953125,-0.6103515028953552,1.6784666776657104,0.7934569716453552,80.0,838834.0,1.0
515021.8585036,285118.25,324468.65625,315279.3125,288097.1875,297905.59375,298693.53125,201693.65625,305985.125,0.02880859375,0.964599609375,-0.25244140625,-0.7629393935203552,1.7089842557907104,0.8239745497703552,80.0,838835.0,1.0
515021.8610639,283575.34375,325151.375,316382.875,290888.21875,301760.375,300306.96875,202812.859375,307531.9375,0.029052734375,0.96435546875,-0.2529296875,-0.7324218153953552,1.7089842557907104,0.6713866591453552,80.0,838836.0,1.0
515021.8646781,287729.0,325827.21875,317744.53125,294700.0,302315.75,299769.4375,203009.640625,308363.15625,0.030517578125,0.965087890625,-0.25439453125,-0.7324218153953552,1.8310545682907104,0.6103515028953552,80.0,838837.0,1.0
515021.9009973,291472.84375,325343.34375,317385.84375,294156.03125,298805.09375,297816.53125,202147.390625,307296.53125,0.02978515625,0.963623046875,-0.25537109375,-0.7324218153953552,1.9226073026657104,0.5493163466453552,80.0,838838.0,1.0
515021.9010416,289661.09375,324179.0625,315773.9375,289895.53125,295924.0625,297053.90625,201553.640625,305754.71875,0.031005859375,0.963134765625,-0.255126953125,-0.7324218153953552,1.9226073026657104,0.5493163466453552,80.0,838839.0,1.0
515021.9035389,284714.65625,323757.96875,315126.34375,287853.8125,297656.3125,298514.8125,202020.703125,305867.90625,0.029052734375,0.96728515625,-0.25146484375,-0.6408690810203552,1.8005369901657104,0.5493163466453552,80.0,838840.0,1.0
515021.9035749,283115.15625,324397.78125,316218.28125,290628.5625,301501.1875,300127.96875,202810.625,307414.8125,0.029541015625,0.9677734375,-0.251953125,-0.6408690810203552,1.8615721464157104,0.5187987685203552,80.0,838841.0,1.0
515021.9060578,287369.34375,325137.4375,317626.71875,294482.375,302101.53125,299630.4375,202939.984375,308276.0,0.03076171875,0.9658203125,-0.25048828125,-0.7324218153953552,1.9531248807907104,0.6103515028953552,80.0,838842.0,1.0
515021.9085967,291240.21875,324735.28125,317317.28125,293988.125,298631.3125,297702.375,202240.296875,307237.4375,0.03173828125,0.96533203125,-0.250244140625,-0.8239745497703552,1.9531248807907104,0.5493163466453552,80.0,838843.0,1.0
515021.9109122,289411.84375,323556.53125,315689.78125,289719.21875,295727.8125,296914.25,201588.875,305685.875,0.0322265625,0.962890625,-0.251953125,-0.8239745497703552,1.9836424589157104,0.6713866591453552,80.0,838844.0,1.0
515021.913889,284360.15625,323076.34375,315003.5,287646.84375,297430.46875,298353.15625,201942.5625,305786.8125,0.02783203125,0.9619140625,-0.255126953125,-0.8850097060203552,1.9836424589157104,0.5798339247703552,80.0,838845.0,1.0
515021.9159306,282736.71875,323715.78125,316101.34375,290427.21875,301290.0,299989.84375,202811.15625,307343.125,0.027587890625,0.9638671875,-0.256103515625,-0.8239745497703552,2.044677495956421,0.5798339247703552,80.0,838846.0,1.0
515021.9186077,287087.96875,324534.75,317559.65625,294322.34375,301947.3125,299545.9375,203092.78125,308222.78125,0.02783203125,0.96435546875,-0.25390625,-0.7934569716453552,1.9836424589157104,0.6103515028953552,80.0,838847.0,1.0
515021.9209212,291074.0,324212.59375,317296.0,293874.65625,298526.6875,297660.78125,202702.890625,307204.0,0.02587890625,0.9658203125,-0.25,-0.7934569716453552,1.9531248807907104,0.5798339247703552,80.0,838848.0,1.0
515021.9235776,289239.0,323030.09375,315658.78125,289606.28125,295617.03125,296865.96875,202505.203125,305650.71875,0.02685546875,0.96533203125,-0.248046875,-0.7934569716453552,1.8615721464157104,0.4882812201976776,80.0,838849.0,1.0
515021.9259364,284084.6875,322483.375,314931.4375,287500.40625,297286.34375,298277.53125,203146.609375,305735.9375,0.026611328125,0.96484375,-0.25244140625,-0.7934569716453552,1.8310545682907104,0.4882812201976776,80.0,838850.0,1.0
515021.9286411,282404.5625,323102.78125,316014.0,290257.71875,301144.71875,299918.84375,204091.546875,307285.09375,0.024658203125,0.96337890625,-0.251708984375,-0.8850097060203552,1.8920897245407104,0.4272460639476776,80.0,838851.0,1.0
515021.9286828,286835.75,323981.5625,317501.625,294169.34375,301835.125,299503.375,204337.59375,308167.90625,0.0263671875,0.963134765625,-0.249755859375,-0.8239745497703552,1.8615721464157104,0.4577636420726776,80.0,838852.0,1.0
515021.9310343,290908.78125,323709.6875,317255.3125,293733.5,298425.9375,297617.15625,203688.328125,307139.90625,0.0263671875,0.961181640625,-0.251953125,-0.7324218153953552,1.8615721464157104,0.3967284858226776,80.0,838853.0,1.0
515021.9310715,289064.65625,322514.0625,315601.375,289454.125,295491.6875,296794.78125,203104.953125,305575.4375,0.029052734375,0.962158203125,-0.25341796875,-0.7019042372703552,1.8005369901657104,0.3051757514476776,80.0,838854.0,1.0
515021.9484843,283814.6875,321910.90625,314834.78125,287313.09375,297118.90625,298176.5,203413.3125,305646.8125,0.0322265625,0.966064453125,-0.25146484375,-0.6408690810203552,1.8005369901657104,0.3662109076976776,80.0,838855.0,1.0
515021.9611774,282090.46875,322523.96875,315922.53125,290062.1875,300984.125,299833.5625,204114.171875,307205.0625,0.032470703125,0.968017578125,-0.253662109375,-0.5798339247703552,1.9226073026657104,0.4882812201976776,80.0,838856.0,1.0
515021.9612167,286622.5,323491.34375,317474.28125,294020.75,301738.375,299473.96875,204113.28125,308117.125,0.03466796875,0.968994140625,-0.251708984375,-0.5493163466453552,1.9531248807907104,0.5187987685203552,80.0,838857.0,1.0
515021.9612276,290826.59375,323318.71875,317281.59375,293643.71875,298380.875,297625.46875,203295.46875,307110.65625,0.0322265625,0.970947265625,-0.253173828125,-0.6408690810203552,2.044677495956421,0.6713866591453552,80.0,838858.0,1.0
515021.9634903,288992.34375,322145.25,315623.8125,289375.1875,295451.8125,296802.21875,202731.671875,305548.1875,0.0322265625,0.970703125,-0.247802734375,-0.7324218153953552,2.136230230331421,0.7324218153953552,80.0,838859.0,1.0
515021.9635251,283654.90625,321501.96875,314822.46875,287203.75,297053.1875,298163.15625,203109.234375,305609.78125,0.03125,0.967529296875,-0.24951171875,-0.7324218153953552,2.075195074081421,0.7324218153953552,80.0,838860.0,1.0
515021.9659736,281906.03125,322109.9375,315900.25,289953.0,300919.84375,299818.28125,203961.375,307167.4375,0.0302734375,0.96630859375,-0.25048828125,-0.7934569716453552,2.258300542831421,0.7629393935203552,80.0,838861.0,1.0
515021.9686013,286531.40625,323148.40625,317484.5625,293944.5,301713.53125,299485.59375,204124.546875,308090.03125,0.030029296875,0.965087890625,-0.250732421875,-0.8239745497703552,2.258300542831421,0.7934569716453552,80.0,838862.0,1.0
515021.9709238,290840.375,323048.34375,317325.75,293605.28125,298386.9375,297654.4375,203396.765625,307095.90625,0.02880859375,0.965576171875,-0.25146484375,-0.7629393935203552,2.380370855331421,0.7629393935203552,80.0,838863.0,1.0
515021.9735916,288999.65625,321872.03125,315654.375,289336.8125,295439.90625,296806.9375,202877.140625,305521.28125,0.03125,0.96728515625,-0.2509765625,-0.7629393935203552,2.349853277206421,0.7019042372703552,80.0,838864.0,1.0
515021.9869699,283574.71875,321190.75,314821.125,287145.625,297021.09375,298149.125,203168.6875,305572.78125,0.032470703125,0.968994140625,-0.25,-0.7629393935203552,2.380370855331421,0.7019042372703552,80.0,838865.0,1.0
515021.9870095,281775.03125,321802.0,315893.71875,289870.75,300900.28125,299823.28125,203871.078125,307133.375,0.033935546875,0.969970703125,-0.251220703125,-0.7324218153953552,2.380370855331421,0.5798339247703552,80.0,838866.0,1.0
515022.0212821,286502.09375,322939.8125,317533.71875,293900.6875,301760.09375,299550.21875,203960.65625,308085.1875,0.033203125,0.969970703125,-0.24853515625,-0.8850097060203552,2.441406011581421,0.5798339247703552,80.0,838867.0,1.0
515022.0213184,290946.21875,322945.71875,317426.25,293613.78125,298494.25,297762.0,203214.734375,307115.125,0.031982421875,0.968505859375,-0.2490234375,-0.8544921278953552,2.410888433456421,0.5493163466453552,80.0,838868.0,1.0
515022.0213282,289117.6875,321792.34375,315749.53125,289343.96875,295549.25,296909.84375,202547.3125,305538.625,0.032470703125,0.967041015625,-0.247314453125,-0.9155272841453552,2.441406011581421,0.5187987685203552,80.0,838869.0,1.0
515022.0286412,283611.90625,321081.3125,314880.5625,287115.875,297107.8125,298233.15625,202794.34375,305575.90625,0.03076171875,0.968994140625,-0.24951171875,-0.9460448622703552,2.532958745956421,0.5187987685203552,80.0,838870.0,1.0
515022.0286701,281762.96875,321685.96875,315942.625,289821.5,300994.3125,299913.40625,203456.40625,307130.96875,0.029541015625,0.96875,-0.248779296875,-0.8850097060203552,2.593993902206421,0.4882812201976776,80.0,838871.0,1.0
515022.0286801,286558.75,322884.28125,317611.25,293867.875,301893.5,299663.15625,203470.53125,308091.375,0.03076171875,0.970947265625,-0.24951171875,-0.8239745497703552,2.532958745956421,0.4882812201976776,80.0,838872.0,1.0
515022.0308938,291100.09375,322953.65625,317531.40625,293611.53125,298647.125,297880.71875,202697.15625,307126.65625,0.028076171875,0.972412109375,-0.249267578125,-0.9460448622703552,2.532958745956421,0.3356933295726776,80.0,838873.0,1.0
515022.0309005,289280.40625,321800.40625,315847.78125,289357.125,295693.5625,297016.6875,202087.859375,305552.5625,0.02880859375,0.972412109375,-0.250732421875,-0.9765624403953552,2.471923589706421,0.3662109076976776,80.0,838874.0,1.0
515022.0333174,283682.625,321033.5625,314938.5,287101.1875,297218.5,298314.96875,202411.328125,305579.125,0.026611328125,0.96923828125,-0.250732421875,-1.0681151151657104,2.441406011581421,0.3051757514476776,80.0,838875.0,1.0
515022.0360355,281800.4375,321629.0,315994.0625,289813.4375,301108.5,299998.78125,203167.265625,307143.46875,0.028076171875,0.970947265625,-0.246826171875,-1.0681151151657104,2.319335699081421,0.2441406100988388,80.0,838876.0,1.0
515022.0385646,286683.40625,322892.6875,317700.375,293910.0625,302043.875,299775.53125,203318.265625,308128.75,0.028076171875,0.96875,-0.2490234375,-1.1291502714157104,2.349853277206421,0.1831054538488388,80.0,838877.0,1.0
515022.0402412,291314.15625,323028.40625,317650.5,293694.875,298824.15625,298009.9375,202739.984375,307184.34375,0.028076171875,0.968017578125,-0.248291015625,-1.0986326932907104,2.288818120956421,0.1525878757238388,80.0,838878.0,1.0
515022.0658877,289464.21875,321862.53125,315943.1875,289424.96875,295845.75,297121.84375,202339.359375,305598.15625,0.02734375,0.968994140625,-0.248046875,-1.1596678495407104,2.227782964706421,0.1220703050494194,80.0,838879.0,1.0
515022.0759488,283780.53125,321051.71875,315004.59375,287154.40625,297350.8125,298405.71875,202790.953125,305619.4375,0.02734375,0.971923828125,-0.24951171875,-1.0681151151657104,2.166747808456421,0.0915527269244194,80.0,838880.0,1.0
515022.0785107,281848.28125,321639.03125,316048.125,289855.90625,301242.15625,300099.28125,203648.625,307182.71875,0.028564453125,0.97314453125,-0.248046875,-1.0070799589157104,2.197265386581421,0.1525878757238388,80.0,838881.0,1.0
515022.0809425,286786.21875,322957.5,317781.84375,293974.53125,302207.84375,299907.3125,204083.15625,308179.25,0.030029296875,0.97265625,-0.24755859375,-1.0681151151657104,2.136230230331421,0.2136230319738388,80.0,838882.0,1.0
515022.0809579,291493.59375,323155.71875,317755.8125,293785.4375,299008.0625,298158.6875,203865.71875,307243.96875,0.032958984375,0.970703125,-0.247314453125,-1.0375975370407104,2.166747808456421,0.2746581733226776,80.0,838883.0,1.0
515022.0824393,289640.4375,322002.375,316040.1875,289515.28125,296023.21875,297266.0625,203693.0625,305655.375,0.031494140625,0.968017578125,-0.245849609375,-1.1596678495407104,2.258300542831421,0.2441406100988388,80.0,838884.0,1.0
515022.0921251,283870.21875,321159.53125,315064.03125,287213.9375,297507.90625,298535.375,204321.328125,305661.5625,0.031494140625,0.966796875,-0.246337890625,-1.1291502714157104,2.258300542831421,0.2746581733226776,80.0,838885.0,1.0
515022.0947634,281911.46875,321755.25,316107.40625,289922.96875,301414.8125,300238.5625,205334.40625,307231.28125,0.029541015625,0.965087890625,-0.246826171875,-1.0070799589157104,2.197265386581421,0.2441406100988388,80.0,838886.0,1.0
515022.0996589,286907.53125,323131.125,317859.34375,294058.40625,302402.5,300064.21875,205729.046875,308230.65625,0.031982421875,0.9599609375,-0.248046875,-0.7934569716453552,2.258300542831421,0.4272460639476776,80.0,838887.0,1.0
515022.1021289,291682.3125,323377.90625,317846.125,293888.875,299213.96875,298322.84375,205236.3125,307289.90625,0.032470703125,0.960693359375,-0.246826171875,-0.6103515028953552,2.288818120956421,0.4577636420726776,80.0,838888.0,1.0
515022.1047598,289826.15625,322225.71875,316125.03125,289631.3125,296224.46875,297424.125,204774.171875,305699.28125,0.034912109375,0.963134765625,-0.2490234375,-0.6103515028953552,2.410888433456421,0.4882812201976776,80.0,838889.0,1.0
515022.1071318,283994.65625,321353.90625,315130.71875,287319.15625,297697.28125,298685.21875,204850.96875,305704.46875,0.031494140625,0.96142578125,-0.24755859375,-0.5798339247703552,2.502441167831421,0.6103515028953552,80.0,838890.0,1.0
515022.1098153,281978.71875,321932.71875,316162.03125,290008.0,301604.53125,300392.34375,205423.453125,307271.3125,0.031494140625,0.963623046875,-0.243408203125,-0.4882812201976776,2.441406011581421,0.6713866591453552,80.0,838891.0,1.0
515022.1121381,287021.4375,323354.03125,317942.75,294161.84375,302618.59375,300238.21875,205530.109375,308281.4375,0.031494140625,0.9638671875,-0.24609375,-0.3967284858226776,2.441406011581421,0.6713866591453552,80.0,838892.0,1.0
515022.1146337,291859.25,323638.78125,317946.53125,293999.65625,299429.875,298490.125,204682.4375,307336.59375,0.0302734375,0.96435546875,-0.247802734375,-0.3662109076976776,2.410888433456421,0.7629393935203552,80.0,838893.0,1.0
515022.1172991,289997.34375,322480.625,316208.28125,289725.28125,296418.9375,297567.96875,203989.625,305734.875,0.027099609375,0.96630859375,-0.244140625,-0.4882812201976776,2.410888433456421,0.7934569716453552,80.0,838894.0,1.0
515022.1173418,284100.34375,321575.28125,315189.90625,287398.125,297882.96875,298815.84375,204399.828125,305737.625,0.0283203125,0.96630859375,-0.247802734375,-0.4272460639476776,2.441406011581421,0.7629393935203552,80.0,838895.0,1.0
515022.1273146,282052.28125,322155.8125,316218.625,290080.25,301801.3125,300530.75,205168.8125,307310.40625,0.027099609375,0.96435546875,-0.2421875,-0.3051757514476776,2.288818120956421,0.7324218153953552,80.0,838896.0,1.0
515022.1296947,287133.46875,323623.9375,318013.3125,294233.8125,302833.78125,300389.9375,205202.796875,308329.1875,0.026123046875,0.964111328125,-0.24462890625,-0.3356933295726776,2.288818120956421,0.6713866591453552,80.0,838897.0,1.0
