Time,FZ,C3,CZ,C4,PZ,PO7,OZ,PO8,AccX,AccY,AccZ,Gyro1,Gyro2,Gyro3,Battery,Counter,Validation
84978.4234958,317178.59375,346501.84375,339990.0,318215.09375,324888.0,312053.15625,315985.375,283188.84375,0.0146484375,0.787353515625,-0.52734375,20.019529342651367,-8.117674827575684,-1.1901854276657104,100.0,232438.0,1.0
84978.4235133,317157.40625,344862.75,338605.78125,317065.5,322577.1875,310941.21875,314911.59375,282385.15625,0.007080078125,0.8095703125,-0.564453125,20.568845748901367,-8.697508811950684,-1.2512205839157104,100.0,232439.0,1.0
84978.423516,317011.3125,343513.53125,337640.0,316136.03125,320277.28125,310337.71875,313986.40625,281830.5625,0.010009765625,0.890625,-0.572998046875,23.101804733276367,-9.246825218200684,-1.3427733182907104,100.0,232440.0,1.0
84978.4235182,317061.65625,344431.90625,338523.8125,316787.96875,321178.125,311149.71875,314592.5,282369.59375,-0.007080078125,0.884765625,-0.54443359375,19.531248092651367,-9.704588890075684,-0.8239745497703552,100.0,232441.0,1.0
84978.4235205,317265.25,346474.75,340112.90625,318197.03125,324156.5625,312321.03125,316012.375,283329.21875,-0.02099609375,0.848388671875,-0.5205078125,16.632078170776367,-9.521483421325684,0.8544921278953552,100.0,232442.0,1.0
84978.4235227,317362.0625,346830.34375,340188.03125,318380.84375,325033.53125,312210.0625,316275.21875,283361.21875,-0.0322265625,0.831787109375,-0.497314453125,14.892577171325684,-8.636473655700684,1.6479490995407104,100.0,232443.0,1.0
84978.4235251,317201.5,345090.75,338683.125,317108.6875,322648.4375,310986.625,315063.3125,282430.5,-0.052734375,0.8173828125,-0.493896484375,13.366698265075684,-8.270262718200684,0.9460448622703552,100.0,232444.0,1.0
84978.4259302,316977.0625,343650.125,337646.71875,316104.71875,320288.71875,310325.03125,314047.21875,281808.40625,-0.066162109375,0.818115234375,-0.494140625,13.702391624450684,-9.216307640075684,-0.3967284858226776,100.0,232445.0,1.0
84978.4320858,317005.96875,344450.6875,338490.0,316731.46875,321135.03125,311098.125,314572.65625,282326.34375,-0.059814453125,0.838134765625,-0.496337890625,14.312743186950684,-11.016844749450684,-1.1596678495407104,100.0,232446.0,1.0
84978.4321018,317237.25,346366.125,340079.65625,318162.875,324132.9375,312278.125,315939.78125,283299.6875,-0.044921875,0.86572265625,-0.508056640625,14.129637718200684,-13.214110374450684,-0.9765624403953552,100.0,232447.0,1.0
84978.4321048,317315.46875,346643.9375,340143.5,318338.9375,325034.625,312155.0,316172.25,283306.84375,-0.03466796875,0.8798828125,-0.526611328125,13.641356468200684,-15.838622093200684,-0.6408690810203552,100.0,232448.0,1.0
84978.4321073,317175.375,344967.0,338663.28125,317100.90625,322702.15625,310957.5625,315000.125,282405.71875,0.010009765625,0.89501953125,-0.546630859375,12.207030296325684,-19.683835983276367,-1.0681151151657104,100.0,232449.0,1.0
84978.4321098,316969.5625,343611.25,337633.5625,316116.09375,320369.1875,310304.625,313995.34375,281809.8125,0.027587890625,0.89208984375,-0.55615234375,10.681151390075684,-20.721433639526367,-0.3051757514476776,100.0,232450.0,1.0
84978.4321127,317003.09375,344454.34375,338461.84375,316744.71875,321190.90625,311067.625,314494.78125,282334.1875,0.060302734375,0.897705078125,-0.55322265625,9.338377952575684,-20.812986373901367,0.3051757514476776,100.0,232451.0,1.0
84978.4346893,317208.90625,346358.96875,340021.625,318152.96875,324128.90625,312211.25,315813.1875,283290.03125,0.0654296875,0.899658203125,-0.55810546875,7.934569835662842,-20.019529342651367,1.9531248807907104,100.0,232452.0,1.0
84978.4433822,317298.84375,346691.65625,340117.3125,318350.625,325046.15625,312114.40625,316072.09375,283329.375,0.071533203125,0.90087890625,-0.5634765625,6.591796398162842,-18.646238327026367,3.143310308456421,100.0,232453.0,1.0
84978.4434056,317159.75,345033.25,338657.71875,317116.90625,322734.09375,310942.8125,314927.6875,282431.65625,0.084228515625,0.90234375,-0.569580078125,5.432128429412842,-17.333982467651367,4.272460460662842,100.0,232454.0,1.0
84978.4434101,316979.75,343651.46875,337651.28125,316154.1875,320423.09375,310325.375,313966.9375,281845.21875,0.0830078125,0.8984375,-0.574462890625,4.455565929412842,-15.686034202575684,5.889892101287842,100.0,232455.0,1.0
84978.443414,316999.59375,344416.25,338450.03125,316762.3125,321219.4375,311074.25,314466.09375,282335.34375,0.088134765625,0.898193359375,-0.581298828125,3.570556402206421,-14.343260765075684,7.354735851287842,100.0,232456.0,1.0
84978.4434179,317191.28125,346278.875,340000.28125,318158.78125,324115.59375,312202.75,315773.75,283262.34375,0.0732421875,0.888671875,-0.588623046875,2.502441167831421,-13.336180686950684,8.911131858825684,100.0,232457.0,1.0
84978.4459618,317288.75,346640.09375,340113.625,318369.5,325027.71875,312119.59375,316050.65625,283295.5,0.0478515625,0.8544921875,-0.602783203125,2.685546636581421,-12.969969749450684,9.185790061950684,100.0,232458.0,1.0
84978.4482875,317153.3125,345016.71875,338652.625,317135.875,322706.90625,310954.71875,314930.28125,282398.375,0.057861328125,0.859619140625,-0.597412109375,4.211425304412842,-12.939452171325684,9.063719749450684,100.0,232459.0,1.0
84978.4508354,316962.6875,343636.625,337620.78125,316151.65625,320378.75,310318.125,313968.96875,281803.03125,0.040771484375,0.858642578125,-0.597900390625,4.913329601287842,-12.420653343200684,9.704588890075684,100.0,232460.0,1.0
84978.4548127,316997.46875,344395.15625,338424.125,316767.0625,321168.21875,311063.625,314465.1875,282310.5,0.037109375,0.86767578125,-0.591064453125,5.584716320037842,-12.359618186950684,10.345458030700684,100.0,232461.0,1.0
84978.4548477,317198.1875,346259.5625,339980.6875,318178.625,324064.375,312196.75,315773.03125,283260.8125,0.04345703125,0.865966796875,-0.589599609375,5.828856945037842,-12.268065452575684,10.589598655700684,100.0,232462.0,1.0
84978.4548552,317292.78125,346637.9375,340106.03125,318391.0625,325001.875,312125.5,316052.6875,283317.40625,0.038818359375,0.861328125,-0.59130859375,5.920409679412842,-11.718749046325684,11.230467796325684,100.0,232463.0,1.0
84978.4586123,317150.25,345041.5625,338655.84375,317152.40625,322705.375,310973.75,314927.15625,282415.09375,0.035400390625,0.844970703125,-0.59765625,6.103515148162842,-11.413573265075684,11.474608421325684,100.0,232464.0,1.0
84978.4586485,316955.0,343649.6875,337614.53125,316157.21875,320372.3125,310336.65625,313954.9375,281804.28125,0.0380859375,0.84521484375,-0.605224609375,6.561278820037842,-11.291502952575684,11.566161155700684,100.0,232465.0,1.0
84978.4586559,316992.53125,344374.78125,338407.3125,316773.40625,321145.9375,311078.90625,314445.875,282303.96875,0.037109375,0.841064453125,-0.614013671875,7.171630382537842,-11.474608421325684,11.566161155700684,100.0,232466.0,1.0
84978.4610433,317198.34375,346223.96875,339961.375,318186.84375,324035.125,312200.78125,315751.5625,283244.28125,0.04638671875,0.850341796875,-0.619873046875,8.514403343200684,-11.444090843200684,11.047362327575684,100.0,232467.0,1.0
84978.4636959,317305.65625,346625.3125,340103.34375,318408.65625,324975.875,312123.96875,316037.84375,283280.75,0.04833984375,0.857421875,-0.63232421875,9.429930686950684,-11.749266624450684,10.894774436950684,100.0,232468.0,1.0
84978.5236156,317165.71875,345052.65625,338662.5625,317166.4375,322683.21875,310969.71875,314922.9375,282376.84375,0.0712890625,0.87939453125,-0.643798828125,9.948729515075684,-11.962889671325684,11.108397483825684,100.0,232469.0,1.0
84978.5236557,316959.5625,343651.84375,337609.625,316157.75,320328.3125,310307.9375,313944.03125,281755.03125,0.0673828125,0.888671875,-0.64453125,9.979247093200684,-11.688231468200684,11.199950218200684,100.0,232470.0,1.0
84978.5236779,316959.5625,343651.84375,337609.625,316157.75,320328.3125,310307.9375,313944.03125,281755.03125,0.0673828125,0.888671875,-0.64453125,9.979247093200684,-11.688231468200684,11.199950218200684,100.0,232471.0,0.0
84978.5236794,316959.5625,343651.84375,337609.625,316157.75,320328.3125,310307.9375,313944.03125,281755.03125,0.0673828125,0.888671875,-0.64453125,9.979247093200684,-11.688231468200684,11.199950218200684,100.0,232472.0,0.0
84978.5236808,316959.5625,343651.84375,337609.625,316157.75,320328.3125,310307.9375,313944.03125,281755.03125,0.0673828125,0.888671875,-0.64453125,9.979247093200684,-11.688231468200684,11.199950218200684,100.0,232473.0,0.0
84978.5236822,316959.5625,343651.84375,337609.625,316157.75,320328.3125,310307.9375,313944.03125,281755.03125,0.0673828125,0.888671875,-0.64453125,9.979247093200684,-11.688231468200684,11.199950218200684,100.0,232474.0,0.0
84978.5236835,316959.5625,343651.84375,337609.625,316157.75,320328.3125,310307.9375,313944.03125,281755.03125,0.0673828125,0.888671875,-0.64453125,9.979247093200684,-11.688231468200684,11.199950218200684,100.0,232475.0,0.0
84978.5236849,316959.5625,343651.84375,337609.625,316157.75,320328.3125,310307.9375,313944.03125,281755.03125,0.0673828125,0.888671875,-0.64453125,9.979247093200684,-11.688231468200684,11.199950218200684,100.0,232476.0,0.0
84978.5236862,316959.5625,343651.84375,337609.625,316157.75,320328.3125,310307.9375,313944.03125,281755.03125,0.0673828125,0.888671875,-0.64453125,9.979247093200684,-11.688231468200684,11.199950218200684,100.0,232477.0,0.0
84978.5236874,316959.5625,343651.84375,337609.625,316157.75,320328.3125,310307.9375,313944.03125,281755.03125,0.0673828125,0.888671875,-0.64453125,9.979247093200684,-11.688231468200684,11.199950218200684,100.0,232478.0,0.0
84978.5236887,316959.5625,343651.84375,337609.625,316157.75,320328.3125,310307.9375,313944.03125,281755.03125,0.0673828125,0.888671875,-0.64453125,9.979247093200684,-11.688231468200684,11.199950218200684,100.0,232479.0,0.0
84978.5236901,316959.5625,343651.84375,337609.625,316157.75,320328.3125,310307.9375,313944.03125,281755.03125,0.0673828125,0.888671875,-0.64453125,9.979247093200684,-11.688231468200684,11.199950218200684,100.0,232480.0,0.0
84978.5236913,316959.5625,343651.84375,337609.625,316157.75,320328.3125,310307.9375,313944.03125,281755.03125,0.0673828125,0.888671875,-0.64453125,9.979247093200684,-11.688231468200684,11.199950218200684,100.0,232481.0,0.0
84978.5236926,316959.5625,343651.84375,337609.625,316157.75,320328.3125,310307.9375,313944.03125,281755.03125,0.0673828125,0.888671875,-0.64453125,9.979247093200684,-11.688231468200684,11.199950218200684,100.0,232482.0,0.0
84978.5236939,316959.5625,343651.84375,337609.625,316157.75,320328.3125,310307.9375,313944.03125,281755.03125,0.0673828125,0.888671875,-0.64453125,9.979247093200684,-11.688231468200684,11.199950218200684,100.0,232483.0,0.0
84978.5236953,316959.5625,343651.84375,337609.625,316157.75,320328.3125,310307.9375,313944.03125,281755.03125,0.0673828125,0.888671875,-0.64453125,9.979247093200684,-11.688231468200684,11.199950218200684,100.0,232484.0,0.0
84978.5236966,316959.5625,343651.84375,337609.625,316157.75,320328.3125,310307.9375,313944.03125,281755.03125,0.0673828125,0.888671875,-0.64453125,9.979247093200684,-11.688231468200684,11.199950218200684,100.0,232485.0,0.0
84978.5236979,316959.5625,343651.84375,337609.625,316157.75,320328.3125,310307.9375,313944.03125,281755.03125,0.0673828125,0.888671875,-0.64453125,9.979247093200684,-11.688231468200684,11.199950218200684,100.0,232486.0,0.0
84978.5236992,316959.5625,343651.84375,337609.625,316157.75,320328.3125,310307.9375,313944.03125,281755.03125,0.0673828125,0.888671875,-0.64453125,9.979247093200684,-11.688231468200684,11.199950218200684,100.0,232487.0,0.0
84978.5237005,316959.5625,343651.84375,337609.625,316157.75,320328.3125,310307.9375,313944.03125,281755.03125,0.0673828125,0.888671875,-0.64453125,9.979247093200684,-11.688231468200684,11.199950218200684,100.0,232488.0,0.0
84978.5237018,316959.5625,343651.84375,337609.625,316157.75,320328.3125,310307.9375,313944.03125,281755.03125,0.0673828125,0.888671875,-0.64453125,9.979247093200684,-11.688231468200684,11.199950218200684,100.0,232489.0,0.0
84978.5237031,316959.5625,343651.84375,337609.625,316157.75,320328.3125,310307.9375,313944.03125,281755.03125,0.0673828125,0.888671875,-0.64453125,9.979247093200684,-11.688231468200684,11.199950218200684,100.0,232490.0,0.0
84978.5237044,316959.5625,343651.84375,337609.625,316157.75,320328.3125,310307.9375,313944.03125,281755.03125,0.0673828125,0.888671875,-0.64453125,9.979247093200684,-11.688231468200684,11.199950218200684,100.0,232491.0,0.0
84978.5237057,316959.5625,343651.84375,337609.625,316157.75,320328.3125,310307.9375,313944.03125,281755.03125,0.0673828125,0.888671875,-0.64453125,9.979247093200684,-11.688231468200684,11.199950218200684,100.0,232492.0,0.0
84978.523707,316959.5625,343651.84375,337609.625,316157.75,320328.3125,310307.9375,313944.03125,281755.03125,0.0673828125,0.888671875,-0.64453125,9.979247093200684,-11.688231468200684,11.199950218200684,100.0,232493.0,0.0
84978.5237084,316959.5625,343651.84375,337609.625,316157.75,320328.3125,310307.9375,313944.03125,281755.03125,0.0673828125,0.888671875,-0.64453125,9.979247093200684,-11.688231468200684,11.199950218200684,100.0,232494.0,0.0
84978.5237097,316959.5625,343651.84375,337609.625,316157.75,320328.3125,310307.9375,313944.03125,281755.03125,0.0673828125,0.888671875,-0.64453125,9.979247093200684,-11.688231468200684,11.199950218200684,100.0,232495.0,0.0
84978.523711,316959.5625,343651.84375,337609.625,316157.75,320328.3125,310307.9375,313944.03125,281755.03125,0.0673828125,0.888671875,-0.64453125,9.979247093200684,-11.688231468200684,11.199950218200684,100.0,232496.0,0.0
84978.5237123,316959.5625,343651.84375,337609.625,316157.75,320328.3125,310307.9375,313944.03125,281755.03125,0.0673828125,0.888671875,-0.64453125,9.979247093200684,-11.688231468200684,11.199950218200684,100.0,232497.0,0.0
84978.5237137,316959.5625,343651.84375,337609.625,316157.75,320328.3125,310307.9375,313944.03125,281755.03125,0.0673828125,0.888671875,-0.64453125,9.979247093200684,-11.688231468200684,11.199950218200684,100.0,232498.0,0.0
84978.523715,316959.5625,343651.84375,337609.625,316157.75,320328.3125,310307.9375,313944.03125,281755.03125,0.0673828125,0.888671875,-0.64453125,9.979247093200684,-11.688231468200684,11.199950218200684,100.0,232499.0,0.0
84978.5237163,316995.6875,343609.1875,337549.71875,316113.40625,319951.65625,310260.65625,313619.21875,281783.625,0.061279296875,0.743408203125,-0.6533203125,11.108397483825684,-20.355222702026367,-4.333495616912842,100.0,232500.0,1.0
84978.5237249,317009.4375,344249.78125,338288.65625,316736.84375,320684.875,310968.46875,314104.625,282277.78125,0.055908203125,0.745361328125,-0.655029296875,11.322020530700684,-19.378660202026367,-5.249022960662842,100.0,232501.0,1.0
84978.5237333,317201.9375,346057.9375,339850.875,318203.5625,323628.78125,312105.46875,315445.09375,283252.75,0.0537109375,0.755859375,-0.656005859375,11.718749046325684,-18.493650436401367,-6.103515148162842,100.0,232502.0,1.0
84978.5237411,317310.9375,346533.875,340054.09375,318445.6875,324692.71875,312086.34375,315793.875,283329.65625,0.05322265625,0.764404296875,-0.655029296875,12.176512718200684,-18.035886764526367,-6.866454601287842,100.0,232503.0,1.0
84978.5237489,317185.21875,345055.15625,338648.0625,317166.53125,322464.0625,310971.0625,314721.15625,282422.25,0.051513671875,0.7724609375,-0.656982421875,12.847899436950684,-17.700193405151367,-7.934569835662842,100.0,232504.0,1.0
84978.5237566,316979.40625,343644.9375,337563.3125,316117.875,320078.15625,310302.03125,313735.4375,281773.96875,0.052001953125,0.778076171875,-0.65478515625,13.854979515075684,-17.456052780151367,-8.789061546325684,100.0,232505.0,1.0
84978.5272533,316997.375,344286.25,338308.78125,316742.90625,320802.1875,310997.09375,314211.8125,282267.5,0.053955078125,0.789306640625,-0.64990234375,14.617918968200684,-17.395017623901367,-9.613036155700684,100.0,232506.0,1.0
84978.5272854,317201.75,346116.25,339892.1875,318222.6875,323752.53125,312131.03125,315552.5625,283258.65625,0.0546875,0.79638671875,-0.646728515625,15.258788108825684,-17.303464889526367,-10.162352561950684,100.0,232507.0,1.0
84978.5272959,317298.75,346584.8125,340081.375,318454.96875,324812.34375,312096.25,315891.0625,283341.625,0.05615234375,0.80126953125,-0.643310546875,15.686034202575684,-17.211912155151367,-10.528563499450684,100.0,232508.0,1.0
84978.5297529,317157.5,345086.90625,338646.375,317155.96875,322562.25,310964.53125,314792.5,282436.375,0.0556640625,0.8046875,-0.639892578125,16.082761764526367,-16.784666061401367,-11.230467796325684,100.0,232509.0,1.0
84978.5297867,317157.5,345086.90625,338646.375,317155.96875,322562.25,310964.53125,314792.5,282436.375,0.0556640625,0.8046875,-0.639892578125,16.082761764526367,-16.784666061401367,-11.230467796325684,100.0,232510.0,0.0
84978.5297884,317157.5,345086.90625,338646.375,317155.96875,322562.25,310964.53125,314792.5,282436.375,0.0556640625,0.8046875,-0.639892578125,16.082761764526367,-16.784666061401367,-11.230467796325684,100.0,232511.0,0.0
84978.5297898,317157.5,345086.90625,338646.375,317155.96875,322562.25,310964.53125,314792.5,282436.375,0.0556640625,0.8046875,-0.639892578125,16.082761764526367,-16.784666061401367,-11.230467796325684,100.0,232512.0,0.0
84978.5297913,317157.5,345086.90625,338646.375,317155.96875,322562.25,310964.53125,314792.5,282436.375,0.0556640625,0.8046875,-0.639892578125,16.082761764526367,-16.784666061401367,-11.230467796325684,100.0,232513.0,0.0
84978.5297926,317157.5,345086.90625,338646.375,317155.96875,322562.25,310964.53125,314792.5,282436.375,0.0556640625,0.8046875,-0.639892578125,16.082761764526367,-16.784666061401367,-11.230467796325684,100.0,232514.0,0.0
84978.529794,317157.5,345086.90625,338646.375,317155.96875,322562.25,310964.53125,314792.5,282436.375,0.0556640625,0.8046875,-0.639892578125,16.082761764526367,-16.784666061401367,-11.230467796325684,100.0,232515.0,0.0
84978.5297953,317157.5,345086.90625,338646.375,317155.96875,322562.25,310964.53125,314792.5,282436.375,0.0556640625,0.8046875,-0.639892578125,16.082761764526367,-16.784666061401367,-11.230467796325684,100.0,232516.0,0.0
84978.5297966,317157.5,345086.90625,338646.375,317155.96875,322562.25,310964.53125,314792.5,282436.375,0.0556640625,0.8046875,-0.639892578125,16.082761764526367,-16.784666061401367,-11.230467796325684,100.0,232517.0,0.0
84978.529798,317157.5,345086.90625,338646.375,317155.96875,322562.25,310964.53125,314792.5,282436.375,0.0556640625,0.8046875,-0.639892578125,16.082761764526367,-16.784666061401367,-11.230467796325684,100.0,232518.0,0.0
84978.5297992,317157.5,345086.90625,338646.375,317155.96875,322562.25,310964.53125,314792.5,282436.375,0.0556640625,0.8046875,-0.639892578125,16.082761764526367,-16.784666061401367,-11.230467796325684,100.0,232519.0,0.0
84978.5298005,316937.03125,343459.78125,337517.34375,316131.03125,320478.0,310245.96875,313595.4375,281841.5625,0.09765625,0.771728515625,-0.65625,26.031492233276367,-8.300780296325684,-13.641356468200684,100.0,232520.0,1.0
84978.5446742,316974.3125,344128.46875,338263.53125,316766.78125,321092.3125,310935.75,314023.53125,282345.71875,0.10498046875,0.77001953125,-0.656982421875,27.313230514526367,-6.622313976287842,-12.939452171325684,100.0,232521.0,1.0
84978.5446883,317186.28125,346036.125,339873.03125,318267.75,323916.21875,312080.25,315340.75,283335.03125,0.1103515625,0.764892578125,-0.655029296875,28.717039108276367,-4.211425304412842,-12.115477561950684,100.0,232522.0,1.0
84978.5446902,317291.875,346562.28125,340077.25,318533.125,324802.34375,312081.25,315704.8125,283432.65625,0.12109375,0.759033203125,-0.65673828125,29.510496139526367,-1.8615721464157104,-11.230467796325684,100.0,232523.0,1.0
84978.5446919,317141.59375,345033.96875,338602.84375,317224.375,322383.53125,310951.125,314609.84375,282528.125,0.11767578125,0.755859375,-0.651123046875,30.578611373901367,0.5798339247703552,-10.284422874450684,100.0,232524.0,1.0
84978.5446936,316936.65625,343581.5625,337467.46875,316147.90625,319861.4375,310263.875,313568.0,281879.46875,0.126220703125,0.75927734375,-0.64990234375,31.097410202026367,3.112792730331421,-9.277342796325684,100.0,232525.0,1.0
84978.5446952,316987.0,344263.65625,338247.53125,316782.875,320486.5625,310969.03125,313994.8125,282374.6875,0.119873046875,0.755615234375,-0.64404296875,31.463621139526367,5.981444835662842,-7.965087413787842,100.0,232526.0,1.0
84978.5446969,317212.5625,346183.65625,339878.3125,318298.15625,323407.40625,312129.6875,315325.71875,283366.65625,0.108154296875,0.756103515625,-0.635986328125,31.311033248901367,8.422850608825684,-6.866454601287842,100.0,232527.0,1.0
84978.5446987,317311.28125,346682.28125,340080.375,318560.75,324492.0,312126.375,315662.875,283460.46875,0.093994140625,0.751220703125,-0.627197265625,30.548093795776367,10.528563499450684,-5.889892101287842,100.0,232528.0,1.0
84978.5447004,317164.21875,345120.53125,338571.71875,317262.71875,322221.78125,310993.25,314547.4375,282548.5,0.07421875,0.749267578125,-0.61328125,29.357908248901367,12.207030296325684,-5.218505382537842,100.0,232529.0,1.0
84978.5447023,316960.8125,343645.40625,337415.875,316184.21875,319718.5625,310293.0,313517.375,281888.15625,0.072998046875,0.746337890625,-0.5927734375,29.815671920776367,10.986327171325684,-3.601073980331421,100.0,232530.0,1.0
84978.5447039,316999.4375,344322.90625,338191.125,316793.15625,320382.59375,310992.625,313941.09375,282359.21875,0.063232421875,0.736328125,-0.59033203125,32.257076263427734,7.843017101287842,-0.4577636420726776,100.0,232531.0,1.0
84978.5470715,317229.65625,346271.8125,339834.34375,318302.625,323383.625,312183.34375,315274.15625,283344.21875,0.052734375,0.7265625,-0.593505859375,34.637447357177734,3.540038824081421,1.5869139432907104,100.0,232532.0,1.0
84978.5495685,317229.65625,346271.8125,339834.34375,318302.625,323383.625,312183.34375,315274.15625,283344.21875,0.052734375,0.7265625,-0.593505859375,34.637447357177734,3.540038824081421,1.5869139432907104,100.0,232533.0,0.0
84978.5495697,317229.65625,346271.8125,339834.34375,318302.625,323383.625,312183.34375,315274.15625,283344.21875,0.052734375,0.7265625,-0.593505859375,34.637447357177734,3.540038824081421,1.5869139432907104,100.0,232534.0,0.0
84978.5495701,317229.65625,346271.8125,339834.34375,318302.625,323383.625,312183.34375,315274.15625,283344.21875,0.052734375,0.7265625,-0.593505859375,34.637447357177734,3.540038824081421,1.5869139432907104,100.0,232535.0,0.0
84978.5495704,317229.65625,346271.8125,339834.34375,318302.625,323383.625,312183.34375,315274.15625,283344.21875,0.052734375,0.7265625,-0.593505859375,34.637447357177734,3.540038824081421,1.5869139432907104,100.0,232536.0,0.0
84978.5495707,317230.625,346352.46875,339868.65625,318267.65625,323374.40625,312204.1875,315263.25,283306.6875,0.053466796875,0.7607421875,-0.645751953125,27.557371139526367,-8.575438499450684,-0.5798339247703552,100.0,232537.0,1.0
84978.553632,317318.625,346861.375,340103.34375,318550.46875,324536.15625,312200.875,315614.5,283424.5,0.04736328125,0.760986328125,-0.64794921875,22.857664108276367,-7.019042491912842,-1.4343260526657104,100.0,232538.0,1.0
84978.553646,317145.0625,345231.90625,338580.84375,317234.375,322267.09375,311033.3125,314462.3125,282528.84375,0.05419921875,0.76904296875,-0.65234375,18.463132858276367,-5.004882335662842,-3.143310308456421,100.0,232539.0,1.0
84978.5536484,316939.09375,343706.90625,337418.90625,316168.21875,319744.65625,310317.25,313372.90625,281886.71875,0.067626953125,0.78125,-0.66064453125,13.977049827575684,-1.4648436307907104,-4.180907726287842,100.0,232540.0,1.0
84978.5536509,316993.15625,344396.84375,338204.96875,316807.46875,320430.40625,311006.75,313774.53125,282375.9375,0.068359375,0.788818359375,-0.6689453125,9.643553733825684,3.845214605331421,-5.279540538787842,100.0,232541.0,1.0
84978.5558866,317224.71875,346387.59375,339918.0,318335.34375,323516.65625,312201.40625,315147.8125,283386.0625,0.0634765625,0.789794921875,-0.666259765625,6.072997570037842,9.490965843200684,-6.805419445037842,100.0,232542.0,1.0
84978.5597718,317320.9375,346893.1875,340163.09375,318629.0625,324729.65625,312217.6875,315547.5625,283511.25,0.087890625,0.80810546875,-0.6689453125,2.899169683456421,15.411375999450684,-7.965087413787842,100.0,232543.0,1.0
84978.5597864,317148.28125,345227.4375,338641.90625,317298.3125,322472.125,311041.875,314449.1875,282591.6875,0.079833984375,0.812255859375,-0.68115234375,-0.6713866591453552,22.644041061401367,-8.331297874450684,100.0,232544.0,1.0
84978.5597895,316936.5625,343666.40625,337468.34375,316172.25,319980.78125,310304.46875,313412.5,281893.25,0.076416015625,0.81494140625,-0.68408203125,-3.784179449081421,28.961179733276367,-9.216307640075684,100.0,232545.0,1.0
84978.5622166,316995.0625,344376.28125,338274.28125,316774.9375,320695.59375,311007.375,313892.96875,282341.4375,0.064697265625,0.818603515625,-0.685546875,-6.591796398162842,34.484859466552734,-10.162352561950684,100.0,232546.0,1.0
84978.5622333,317238.59375,346401.0,340016.625,318309.15625,323831.5625,312215.875,315339.15625,283325.53125,0.066162109375,0.828125,-0.683837890625,-9.338377952575684,39.764400482177734,-11.138915061950684,100.0,232547.0,1.0
84978.5796071,317332.375,346895.25,340270.28125,318590.78125,325103.0,312228.3125,315792.0625,283426.65625,0.041015625,0.827880859375,-0.6796875,-11.993407249450684,44.006343841552734,-11.932372093200684,100.0,232548.0,1.0
84978.5796308,317153.3125,345158.4375,338719.15625,317239.3125,322844.78125,311025.875,314674.03125,282490.125,0.027099609375,0.8388671875,-0.66650390625,-14.312743186950684,46.417232513427734,-13.427733421325684,100.0,232549.0,1.0
84978.5796352,316948.5625,343559.375,337534.25,316107.5,320290.0625,310277.8125,313616.53125,281789.34375,0.010009765625,0.85498046875,-0.6552734375,-16.967771530151367,48.004146575927734,-14.770506858825684,100.0,232550.0,1.0
84978.5834684,317020.53125,344319.53125,338357.5,316729.15625,320984.75,311006.125,314136.09375,282268.75,0.003173828125,0.8701171875,-0.646484375,-19.622800827026367,48.614498138427734,-15.686034202575684,100.0,232551.0,1.0
84978.583499,317257.53125,346426.5,340092.90625,318264.34375,324119.1875,312235.5625,315587.96875,283289.25,-0.017333984375,0.876220703125,-0.6396484375,-22.125242233276367,48.339839935302734,-16.113279342651367,100.0,232552.0,1.0
84978.5835053,317335.40625,346945.5,340317.21875,318548.6875,325412.71875,312248.625,316003.0,283409.6875,-0.028564453125,0.87841796875,-0.638671875,-24.414060592651367,47.088619232177734,-16.723630905151367,100.0,232553.0,1.0
84978.5835102,317143.1875,345194.625,338745.71875,317216.25,323123.53125,311036.875,314866.1875,282460.625,-0.03564453125,0.881103515625,-0.634765625,-25.299070358276367,45.257564544677734,-16.723630905151367,100.0,232554.0,1.0
84978.5858291,316932.1875,343588.15625,337547.21875,316082.375,320507.75,310283.4375,313784.96875,281750.375,-0.05712890625,0.885009765625,-0.630859375,-24.902341842651367,42.938228607177734,-16.510007858276367,100.0,232555.0,1.0
84978.5936501,317004.875,344341.96875,338374.3125,316695.09375,321164.8125,311009.15625,314244.625,282209.90625,-0.062255859375,0.889892578125,-0.626953125,-23.559568405151367,39.459224700927734,-16.204832077026367,100.0,232556.0,1.0
84978.5937099,317250.5625,346411.46875,340129.71875,318284.9375,324319.1875,312254.6875,315668.875,283222.46875,-0.07275390625,0.893310546875,-0.624755859375,-21.636960983276367,35.797115325927734,-15.411375999450684,100.0,232557.0,1.0
84978.5937192,317335.875,346868.59375,340346.71875,318611.09375,325570.96875,312270.6875,316083.0,283343.0625,-0.08935546875,0.883056640625,-0.625,-20.019529342651367,31.768796920776367,-14.831542015075684,100.0,232558.0,1.0
84978.5937277,317144.8125,345033.71875,338729.625,317272.5625,323185.59375,311036.53125,314910.625,282392.03125,-0.10107421875,0.875,-0.629150390625,-18.646238327026367,27.160642623901367,-15.197752952575684,100.0,232559.0,1.0
84978.5937357,316930.40625,343392.1875,337496.96875,316126.09375,320494.53125,310258.3125,313780.34375,281679.125,-0.10302734375,0.86767578125,-0.63427734375,-18.249509811401367,22.613523483276367,-16.265867233276367,100.0,232560.0,1.0
84978.5937438,317006.125,344210.71875,338328.625,316738.375,321099.09375,310995.03125,314218.0625,282165.40625,-0.0966796875,0.872802734375,-0.634033203125,-18.798826217651367,19.195554733276367,-17.333982467651367,100.0,232561.0,1.0
84978.5937516,317253.25,346408.0625,340118.65625,318310.84375,324215.5625,312264.78125,315650.1875,283215.84375,-0.0927734375,0.875,-0.63525390625,-20.660398483276367,16.937253952026367,-18.280027389526367,100.0,232562.0,1.0
84978.5937594,317331.5,346939.15625,340351.0,318617.59375,325457.875,312277.03125,316051.71875,283350.21875,-0.09228515625,0.8662109375,-0.640625,-22.644041061401367,15.747069358825684,-19.378660202026367,100.0,232563.0,1.0
84978.5972503,317141.125,345111.21875,338732.75,317277.03125,323086.53125,311026.40625,314866.90625,282407.875,-0.0869140625,0.855224609375,-0.63916015625,-24.536130905151367,15.441893577575684,-20.416257858276367,100.0,232564.0,1.0
84978.5972888,316925.75,343455.40625,337490.71875,316118.21875,320452.59375,310218.34375,313733.21875,281688.5,-0.082275390625,0.83740234375,-0.6396484375,-25.848386764526367,15.716551780700684,-21.087644577026367,100.0,232565.0,1.0
84978.5972989,317002.375,344290.5625,338328.1875,316726.125,321157.375,310970.53125,314201.625,282172.09375,-0.087158203125,0.8232421875,-0.63623046875,-26.214597702026367,16.143796920776367,-21.606443405151367,100.0,232566.0,1.0
84978.6022901,317249.59375,346526.875,340134.28125,318310.9375,324344.75,312284.09375,315687.84375,283232.90625,-0.080322265625,0.811279296875,-0.629638671875,-26.672361373901367,16.204832077026367,-22.186277389526367,100.0,232567.0,1.0
84978.6048053,317326.46875,347039.1875,340366.46875,318631.46875,325600.28125,312303.15625,316131.8125,283373.09375,-0.08447265625,0.79443359375,-0.62158203125,-26.855466842651367,15.960692405700684,-22.399900436401367,100.0,232568.0,1.0
84978.604842,317127.46875,345123.90625,338715.5,317270.96875,323188.4375,311008.96875,314932.59375,282405.90625,-0.087158203125,0.783935546875,-0.611328125,-27.008054733276367,15.533446311950684,-22.857664108276367,100.0,232569.0,1.0
84978.6071576,316906.90625,343406.0625,337450.125,316093.75,320441.78125,310184.125,313760.125,281663.5625,-0.08935546875,0.771728515625,-0.6064453125,-27.374265670776367,14.526366233825684,-22.979734420776367,100.0,232570.0,1.0
84978.6122192,316989.40625,344269.0,338305.1875,316703.03125,321079.15625,310957.125,314223.0625,282154.21875,-0.087646484375,0.760986328125,-0.59814453125,-27.740476608276367,13.214110374450684,-22.857664108276367,100.0,232571.0,1.0
84978.6146196,317243.5,346571.59375,340144.75,318302.1875,324334.03125,312306.90625,315736.375,283234.96875,-0.086181640625,0.7529296875,-0.595703125,-28.442380905151367,11.718749046325684,-22.583005905151367,100.0,232572.0,1.0
84978.6171522,317328.625,347108.125,340397.0625,318638.78125,325671.5625,312341.3125,316193.96875,283390.71875,-0.08349609375,0.744140625,-0.593017578125,-28.533933639526367,10.375975608825684,-22.094724655151367,100.0,232573.0,1.0
84978.6196121,317125.125,345143.9375,338727.84375,317271.5,323249.0625,311007.28125,314957.5625,282411.1875,-0.083251953125,0.7353515625,-0.594970703125,-28.198240280151367,9.063719749450684,-21.697996139526367,100.0,232574.0,1.0
84978.6222184,316911.90625,343399.96875,337453.40625,316092.9375,320480.75,310165.6875,313765.5,281665.78125,-0.0791015625,0.729736328125,-0.59619140625,-27.587888717651367,8.026122093200684,-21.057126998901367,100.0,232575.0,1.0
84978.6271364,316995.84375,344282.3125,338313.4375,316703.65625,321115.71875,310956.6875,314236.125,282164.84375,-0.074951171875,0.725341796875,-0.596923828125,-26.824949264526367,7.263183116912842,-20.324705123901367,100.0,232576.0,1.0
84978.6295941,317247.53125,346620.84375,340162.8125,318305.9375,324382.3125,312324.15625,315768.375,283253.65625,-0.069091796875,0.727783203125,-0.59619140625,-26.245115280151367,6.530761241912842,-19.470212936401367,100.0,232577.0,1.0
84978.6322011,317311.46875,347129.65625,340391.34375,318625.46875,325699.1875,312324.6875,316201.90625,283382.5,-0.064208984375,0.73291015625,-0.591552734375,-25.787351608276367,6.103515148162842,-18.524168014526367,100.0,232578.0,1.0
84978.6322394,317109.40625,345124.0,338705.75,317257.375,323258.90625,310973.65625,314948.34375,282393.375,-0.05908203125,0.737548828125,-0.58349609375,-25.695798873901367,5.859374523162842,-17.547605514526367,100.0,232579.0,1.0
84978.6372212,316890.96875,343344.4375,337411.75,316065.5625,320455.09375,310121.625,313731.875,281639.5,-0.056884765625,0.743408203125,-0.57958984375,-25.848386764526367,5.584716320037842,-16.387937545776367,100.0,232580.0,1.0
84978.6397291,316959.5625,344221.625,338256.21875,316661.03125,321076.375,310910.09375,314192.40625,282126.3125,-0.052490234375,0.74755859375,-0.575439453125,-26.245115280151367,5.401610851287842,-15.106200218200684,100.0,232581.0,1.0
84978.6733629,317210.96875,346598.78125,340124.28125,318271.6875,324398.65625,312304.3125,315750.0625,283222.375,-0.052734375,0.7490234375,-0.570068359375,-26.672361373901367,5.157470226287842,-13.702391624450684,100.0,232582.0,1.0
84978.6806185,317277.9375,347131.625,340371.9375,318607.5,325790.0,312328.4375,316209.34375,283367.21875,-0.051025390625,0.75048828125,-0.56884765625,-27.191160202026367,4.791259288787842,-12.237547874450684,100.0,232583.0,1.0
84978.6806587,317064.25,345088.78125,338677.5,317231.34375,323352.96875,310950.59375,314934.65625,282361.46875,-0.0498046875,0.751220703125,-0.57177734375,-27.465818405151367,4.394530773162842,-10.864256858825684,100.0,232584.0,1.0
84978.6806675,316856.375,343300.28125,337390.03125,316043.9375,320544.0625,310095.5,313712.8125,281601.875,-0.048095703125,0.754150390625,-0.575927734375,-27.954099655151367,3.753661870956421,-9.429930686950684,100.0,232585.0,1.0
84978.6806765,316946.9375,344215.90625,338258.25,316657.71875,321192.15625,310917.53125,314197.875,282105.75,-0.04931640625,0.759521484375,-0.5751953125,-28.167722702026367,3.265380620956421,-8.056639671325684,100.0,232586.0,1.0
84978.687148,317189.40625,346603.59375,340117.21875,318262.5625,324513.5625,312316.28125,315753.90625,283196.71875,-0.0517578125,0.764892578125,-0.5771484375,-28.381345748901367,2.746581792831421,-6.652831554412842,100.0,232587.0,1.0
84978.6895609,317262.375,347130.84375,340367.71875,318604.5625,325887.71875,312334.4375,316213.8125,283339.75,-0.05322265625,0.76904296875,-0.578369140625,-28.656003952026367,2.044677495956421,-5.401610851287842,100.0,232588.0,1.0
84978.6920835,317070.15625,345081.71875,338682.40625,317236.96875,323428.59375,310944.59375,314934.5,282329.0,-0.0546875,0.771728515625,-0.582763671875,-29.083250045776367,1.4038084745407104,-3.967284917831421,100.0,232589.0,1.0
84978.6961589,316860.5,343286.15625,337391.1875,316044.65625,320613.09375,310084.78125,313705.75,281568.15625,-0.054931640625,0.77734375,-0.580322265625,-29.418943405151367,0.9155272841453552,-2.777099370956421,100.0,232590.0,1.0
84978.6961978,316931.125,344188.375,338236.28125,316635.8125,321239.5625,310894.1875,314175.78125,282058.09375,-0.054931640625,0.781494140625,-0.580322265625,-29.876707077026367,0.2136230319738388,-1.7089842557907104,100.0,232591.0,1.0
84978.6962067,317182.96875,346594.46875,340109.78125,318252.28125,324579.1875,312311.90625,315762.125,283165.6875,-0.05126953125,0.785888671875,-0.58203125,-30.487058639526367,-0.4577636420726776,-0.5493163466453552,100.0,232592.0,1.0
84978.6962158,317264.625,347132.25,340374.09375,318607.40625,325959.0,312338.8125,316240.4375,283318.9375,-0.05029296875,0.79248046875,-0.582275390625,-31.188962936401367,-1.1596678495407104,0.6713866591453552,100.0,232593.0,1.0
84978.6987898,317074.53125,345084.21875,338698.0625,317246.1875,323540.53125,310955.59375,314968.0,282317.5625,-0.048583984375,0.7958984375,-0.580810546875,-31.982419967651367,-1.8920897245407104,1.8005369901657104,100.0,232594.0,1.0
84978.7010193,316860.9375,343259.6875,337388.15625,316034.09375,320727.96875,310069.125,313711.5625,281535.34375,-0.04833984375,0.799560546875,-0.581298828125,-32.653804779052734,-2.746581792831421,2.929687261581421,100.0,232595.0,1.0
84978.7033692,316934.59375,344164.03125,338233.40625,316628.9375,321347.75,310889.4375,314186.5,282033.0625,-0.047119140625,0.802490234375,-0.58447265625,-33.355709075927734,-3.540038824081421,3.814697027206421,100.0,232596.0,1.0
84978.7058618,317178.15625,346575.25,340102.71875,318250.59375,324686.46875,312315.5625,315789.3125,283146.0,-0.044921875,0.80517578125,-0.58740234375,-33.874507904052734,-4.425048351287842,4.699706554412842,100.0,232597.0,1.0
84978.7109426,317256.375,347124.125,340369.59375,318600.96875,326115.53125,312341.40625,316271.3125,283296.3125,-0.04150390625,0.813720703125,-0.587646484375,-34.515377044677734,-5.432128429412842,5.401610851287842,100.0,232598.0,1.0
84978.7133505,317072.65625,345082.6875,338702.78125,317241.09375,323682.40625,310949.25,314992.40625,282289.84375,-0.03564453125,0.8203125,-0.5908203125,-35.003658294677734,-6.317138195037842,6.072997570037842,100.0,232599.0,1.0
84978.715854,316873.28125,343277.75,337410.6875,316048.0625,320835.25,310072.90625,313744.84375,281521.40625,-0.03125,0.82373046875,-0.59423828125,-35.614009857177734,-7.141112804412842,6.744384288787842,100.0,232600.0,1.0
84978.7185183,316944.09375,344171.375,338241.625,316638.9375,321437.21875,310886.3125,314215.03125,282019.5625,-0.023681640625,0.829345703125,-0.595947265625,-36.163326263427734,-7.843017101287842,7.446288585662842,100.0,232601.0,1.0
84978.7208023,317181.625,346578.46875,340099.34375,318258.09375,324775.4375,312320.5,315811.03125,283141.1875,-0.01708984375,0.83251953125,-0.600830078125,-36.804195404052734,-8.422850608825684,8.087157249450684,100.0,232602.0,1.0
84978.7234838,317266.84375,347149.96875,340383.5625,318625.5625,326191.0,312360.375,316306.34375,283308.46875,-0.010009765625,0.837158203125,-0.6005859375,-37.048336029052734,-8.850096702575684,8.605956077575684,100.0,232603.0,1.0
84978.7284197,317095.625,345133.5625,338738.65625,317271.9375,323748.75,310969.28125,315022.71875,282307.09375,-0.0068359375,0.842041015625,-0.598388671875,-37.414546966552734,-9.185790061950684,9.124754905700684,100.0,232604.0,1.0
84978.728461,316888.03125,343316.09375,337434.90625,316061.375,320875.65625,310074.40625,313750.1875,281527.03125,-0.002685546875,0.847900390625,-0.60107421875,-37.689205169677734,-9.429930686950684,9.582518577575684,100.0,232605.0,1.0
84978.731044,316946.21875,344184.59375,338242.34375,316643.21875,321436.0625,310878.71875,314208.9375,282026.09375,0.001708984375,0.851318359375,-0.604248046875,-37.994380950927734,-9.521483421325684,10.162352561950684,100.0,232606.0,1.0
84978.731081,317186.75,346585.375,340093.0625,318271.40625,324761.90625,312323.53125,315820.15625,283163.34375,0.004150390625,0.857666015625,-0.60400390625,-38.269039154052734,-9.643553733825684,10.803221702575684,100.0,232607.0,1.0
84978.7335761,317273.90625,347159.34375,340384.71875,318639.25,326197.53125,312365.375,316315.09375,283332.25,0.004638671875,0.862548828125,-0.6044921875,-38.757320404052734,-9.552000999450684,11.138915061950684,100.0,232608.0,1.0
84978.7336127,317108.0625,345154.75,338754.90625,317282.03125,323745.46875,310965.1875,315018.4375,282323.1875,0.006591796875,0.865478515625,-0.603515625,-39.123531341552734,-9.368895530700684,11.413573265075684,100.0,232609.0,1.0
84978.7360148,316916.09375,343351.78125,337470.84375,316082.375,320845.71875,310072.96875,313742.78125,281545.625,0.00439453125,0.8681640625,-0.60107421875,-39.642330169677734,-9.124754905700684,11.688231468200684,100.0,232610.0,1.0
84978.7384362,316969.9375,344201.59375,338266.03125,316659.875,321389.40625,310876.21875,314197.6875,282040.40625,0.004150390625,0.869140625,-0.6015625,-40.466304779052734,-9.002684593200684,11.962889671325684,100.0,232611.0,1.0
84978.7384775,317198.1875,346582.21875,340098.71875,318282.15625,324712.3125,312323.09375,315810.125,283176.5,-0.000244140625,0.871337890625,-0.595703125,-41.320796966552734,-8.789061546325684,12.237547874450684,100.0,232612.0,1.0
84978.7409684,317321.28125,347206.46875,340435.3125,318686.375,326175.96875,312406.6875,316354.625,283381.96875,-0.006103515625,0.87060546875,-0.591796875,-42.114253997802734,-8.728026390075684,12.542723655700684,100.0,232613.0,1.0
84978.7409996,317170.375,345234.25,338832.78125,317331.5625,323712.375,311011.40625,315065.28125,282366.03125,-0.01171875,0.8662109375,-0.590087890625,-42.877193450927734,-8.819579124450684,12.664793968200684,100.0,232614.0,1.0
84978.7435502,316958.3125,343417.125,337528.6875,316104.71875,320766.21875,310101.5,313763.78125,281561.1875,-0.016357421875,0.863037109375,-0.590576171875,-43.365474700927734,-8.972167015075684,12.664793968200684,100.0,232615.0,1.0
84978.745847,317016.3125,344264.1875,338315.5625,316689.625,321301.25,310917.59375,314230.9375,282074.46875,-0.017333984375,0.85986328125,-0.586669921875,-43.884273529052734,-9.124754905700684,12.420653343200684,100.0,232616.0,1.0
84978.7484567,317235.28125,346626.9375,340122.84375,318309.6875,324616.53125,312370.21875,315852.4375,283219.9375,-0.020263671875,0.85400390625,-0.582275390625,-44.219966888427734,-9.307860374450684,12.145995140075684,100.0,232617.0,1.0
84978.751023,317333.71875,347238.125,340440.875,318695.5625,326049.125,312436.90625,316394.5,283403.78125,-0.02294921875,0.845947265625,-0.57470703125,-44.342037200927734,-9.643553733825684,11.627196311950684,100.0,232618.0,1.0
84978.753521,317193.875,345289.9375,338865.34375,317343.28125,323558.15625,311030.25,315111.40625,282381.75,-0.02587890625,0.84033203125,-0.5712890625,-44.158931732177734,-9.918211936950684,10.955809593200684,100.0,232619.0,1.0
84978.755993,316993.71875,343484.46875,337576.8125,316120.8125,320577.5,310116.0,313801.15625,281587.03125,-0.028076171875,0.838623046875,-0.5673828125,-43.731685638427734,-10.314940452575684,10.192870140075684,100.0,232620.0,1.0
84978.7608889,317024.8125,344291.90625,338318.875,316679.4375,321059.40625,310898.65625,314243.0,282085.5625,-0.028564453125,0.837158203125,-0.560791015625,-43.395992279052734,-10.742186546325684,9.490965843200684,100.0,232621.0,1.0
84978.7634949,317234.5625,346641.5,340105.84375,318300.21875,324365.5,312354.28125,315878.09375,283239.1875,-0.027099609375,0.82958984375,-0.559326171875,-43.060298919677734,-11.047362327575684,8.972167015075684,100.0,232622.0,1.0
84978.765827,317341.78125,347265.84375,340437.28125,318693.4375,325811.1875,312430.5625,316415.4375,283436.9375,-0.026611328125,0.822265625,-0.55615234375,-42.510982513427734,-11.505125999450684,8.453368186950684,100.0,232623.0,1.0
84978.768307,317202.65625,345338.75,338883.03125,317337.46875,323325.15625,311019.25,315113.5625,282419.5,-0.026123046875,0.809326171875,-0.556396484375,-42.083736419677734,-11.962889671325684,7.904052257537842,100.0,232624.0,1.0
84978.7708849,316993.4375,343533.46875,337596.84375,316104.90625,320331.71875,310090.5,313793.375,281617.875,-0.02197265625,0.79345703125,-0.553955078125,-41.137691497802734,-12.359618186950684,7.476806163787842,100.0,232625.0,1.0
84978.7709178,317008.8125,344312.09375,338315.65625,316661.75,320832.5625,310884.15625,314239.71875,282118.53125,-0.01611328125,0.77734375,-0.554443359375,-40.161128997802734,-12.664793968200684,7.171630382537842,100.0,232626.0,1.0
84978.7785534,317208.1875,346638.28125,340082.15625,318286.25,324190.53125,312355.0,315885.40625,283284.25,-0.01123046875,0.766357421875,-0.55224609375,-38.757320404052734,-12.939452171325684,6.958007335662842,100.0,232627.0,1.0
84978.7785942,317315.75,347268.15625,340421.1875,318685.65625,325677.53125,312433.78125,316430.875,283484.3125,-0.004150390625,0.75927734375,-0.549560546875,-37.078853607177734,-13.153075218200684,6.652831554412842,100.0,232628.0,1.0
84978.7809558,317179.84375,345354.6875,338884.03125,317323.34375,323202.125,311009.875,315114.71875,282445.25,0.001708984375,0.754150390625,-0.543701171875,-35.125728607177734,-13.366698265075684,6.652831554412842,100.0,232629.0,1.0
84978.7809925,316967.40625,343530.9375,337586.5625,316074.59375,320227.03125,310062.34375,313769.875,281612.9375,0.00634765625,0.755615234375,-0.54345703125,-33.172603607177734,-13.458250999450684,6.683349132537842,100.0,232630.0,1.0
84978.7848808,316985.75,344290.1875,338290.71875,316634.65625,320739.3125,310871.28125,314215.21875,282110.6875,0.010009765625,0.759765625,-0.54248046875,-31.158445358276367,-13.427733421325684,6.927489757537842,100.0,232631.0,1.0
84978.7849175,317182.53125,346601.28125,340037.0,318263.90625,324103.34375,312356.34375,315880.5,283280.84375,0.0126953125,0.76318359375,-0.54296875,-28.930662155151367,-13.336180686950684,7.019042491912842,100.0,232632.0,1.0
84978.7849272,317285.625,347228.1875,340371.125,318653.5625,325625.5,312426.71875,316430.8125,283466.90625,0.013427734375,0.76904296875,-0.545654296875,-26.794431686401367,-13.153075218200684,7.171630382537842,100.0,232633.0,1.0
84978.7863267,317165.8125,345337.40625,338858.8125,317296.25,323214.1875,311000.5,315119.03125,282422.625,0.009521484375,0.77587890625,-0.53564453125,-25.177000045776367,-12.939452171325684,7.354735851287842,100.0,232634.0,1.0
84978.7972906,316966.78125,343523.8125,337572.4375,316055.65625,320256.96875,310055.1875,313781.9375,281594.09375,0.007080078125,0.779541015625,-0.533447265625,-23.345945358276367,-12.634276390075684,7.415771007537842,100.0,232635.0,1.0
84978.7973288,316986.03125,344261.6875,338263.625,316615.0625,320756.125,310860.375,314226.5625,282095.5625,0.004150390625,0.78466796875,-0.5322265625,-21.636960983276367,-12.420653343200684,7.476806163787842,100.0,232636.0,1.0
84978.7973436,317171.53125,346544.15625,340001.53125,318242.8125,324104.875,312335.34375,315880.59375,283259.75,0.0,0.792724609375,-0.530517578125,-20.111082077026367,-12.390135765075684,7.293700695037842,100.0,232637.0,1.0
84978.7973515,317283.21875,347194.03125,340364.15625,318652.65625,325630.15625,312422.3125,316446.28125,283454.65625,-0.002197265625,0.7998046875,-0.529052734375,-18.615720748901367,-12.329100608825684,7.263183116912842,100.0,232638.0,1.0
84978.7973592,317176.09375,345334.75,338878.3125,317307.0,323205.875,311011.40625,315144.78125,282413.0625,-0.009033203125,0.8056640625,-0.5283203125,-17.089841842651367,-12.420653343200684,7.141112804412842,100.0,232639.0,1.0
84978.7973679,316969.3125,343516.03125,337586.0,316056.09375,320227.125,310056.34375,313790.6875,281567.96875,-0.01318359375,0.810302734375,-0.532958984375,-15.899657249450684,-12.573241233825684,6.988524913787842,100.0,232640.0,1.0
84978.7996521,316964.65625,344218.3125,338244.125,316596.46875,320703.03125,310839.1875,314214.9375,282044.875,-0.0185546875,0.81396484375,-0.52783203125,-14.495848655700684,-12.756346702575684,6.622313976287842,100.0,232641.0,1.0
84978.7996804,317148.28125,346489.0625,339971.9375,318230.5625,324062.84375,312316.1875,315873.71875,283211.1875,-0.0234375,0.818359375,-0.52783203125,-13.153075218200684,-13.092040061950684,6.347655773162842,100.0,232642.0,1.0
84978.8023068,317276.84375,347164.1875,340357.4375,318662.5,325630.96875,312420.90625,316453.34375,283427.09375,-0.026611328125,0.82177734375,-0.52783203125,-11.901854515075684,-13.397215843200684,6.103515148162842,100.0,232643.0,1.0
84978.8023441,317167.59375,345317.21875,338879.90625,317308.40625,323229.9375,311005.59375,315139.125,282383.0,-0.028076171875,0.8232421875,-0.52490234375,-10.772704124450684,-13.793944358825684,5.767821788787842,100.0,232644.0,1.0
84978.8048497,316956.78125,343497.15625,337584.75,316046.4375,320254.28125,310043.125,313771.46875,281532.40625,-0.030029296875,0.825927734375,-0.528076171875,-9.643553733825684,-14.495848655700684,5.462646007537842,100.0,232645.0,1.0
84978.807333,316942.375,344181.84375,338228.3125,316581.0,320718.75,310815.9375,314181.78125,282006.6875,-0.0302734375,0.83349609375,-0.53125,-8.514403343200684,-15.075682640075684,5.065917491912842,100.0,232646.0,1.0
84978.8073693,317121.46875,346436.5,339946.1875,318216.34375,324072.40625,312289.75,315831.5,283174.34375,-0.02880859375,0.839599609375,-0.53564453125,-7.476806163787842,-15.838622093200684,4.699706554412842,100.0,232647.0,1.0
84978.8096427,317236.09375,347098.46875,340321.5,318634.78125,325627.65625,312382.90625,316396.46875,283373.46875,-0.030029296875,0.845458984375,-0.53955078125,-6.469726085662842,-16.387937545776367,4.486083507537842,100.0,232648.0,1.0
84978.8120906,317127.8125,345265.28125,338849.59375,317276.15625,323220.8125,310968.3125,315081.28125,282330.34375,-0.027587890625,0.846923828125,-0.54345703125,-5.493163585662842,-16.967771530151367,4.241942882537842,100.0,232649.0,1.0
84978.8172552,316925.75,343453.25,337556.34375,316015.0625,320236.21875,310011.375,313712.8125,281485.28125,-0.028076171875,0.849365234375,-0.54345703125,-4.608153820037842,-17.395017623901367,4.058837413787842,100.0,232650.0,1.0
84978.8196696,316935.5,344143.84375,338208.375,316565.625,320706.78125,310802.375,314138.40625,281981.21875,-0.028076171875,0.8515625,-0.548095703125,-3.784179449081421,-17.669675827026367,3.906249761581421,100.0,232651.0,1.0
84978.8220775,317109.84375,346379.625,339919.8125,318199.90625,324047.375,312269.96875,315783.5,283149.125,-0.030517578125,0.8515625,-0.5517578125,-3.021239995956421,-17.944334030151367,3.540038824081421,100.0,232652.0,1.0
84978.8246967,317222.3125,347045.53125,340303.34375,318625.28125,325603.0625,312370.03125,316355.59375,283353.15625,-0.037841796875,0.854736328125,-0.551513671875,-2.136230230331421,-18.218992233276367,3.173827886581421,100.0,232653.0,1.0
84978.8247272,317123.34375,345242.75,338846.03125,317271.75,323205.0625,310972.15625,315056.4375,282317.75,-0.042236328125,0.857666015625,-0.553955078125,-1.3122557401657104,-18.432615280151367,2.716064214706421,100.0,232654.0,1.0
84978.827078,316925.40625,343433.59375,337550.78125,316006.84375,320209.125,310014.5,313691.8125,281473.375,-0.04541015625,0.862548828125,-0.552001953125,-0.4882812201976776,-18.829343795776367,2.258300542831421,100.0,232655.0,1.0
84978.8311444,316918.25,344084.375,338176.46875,316541.5,320635.96875,310775.53125,314092.71875,281947.25,-0.048828125,0.867919921875,-0.551025390625,0.0610351525247097,-19.470212936401367,1.8920897245407104,100.0,232656.0,1.0
84978.8757324,317092.5,346310.0,339885.46875,318181.65625,323962.4375,312237.875,315737.28125,283116.25,-0.049560546875,0.872314453125,-0.552490234375,0.5798339247703552,-20.080564498901367,1.5258787870407104,100.0,232657.0,1.0
84978.8784175,317204.0,346982.6875,340268.9375,318601.59375,325515.25,312333.1875,316308.40625,283319.46875,-0.04931640625,0.875732421875,-0.550537109375,1.0070799589157104,-20.660398483276367,1.1291502714157104,100.0,232658.0,1.0
84978.8784338,317091.0625,345168.25,338796.9375,317226.53125,323092.4375,310918.59375,314986.53125,282260.78125,-0.050048828125,0.877685546875,-0.548583984375,1.1291502714157104,-21.545408248901367,0.7934569716453552,100.0,232659.0,1.0
84978.8834124,316889.90625,343354.625,337497.40625,315955.4375,320080.46875,309958.1875,313615.28125,281410.875,-0.05078125,0.87744140625,-0.549072265625,1.2207030057907104,-22.308347702026367,0.3662109076976776,100.0,232660.0,1.0
84978.8834304,316879.0,343991.40625,338114.21875,316485.4375,320493.0,310712.40625,314008.75,281882.6875,-0.05322265625,0.876220703125,-0.552734375,1.2512205839157104,-22.918699264526367,0.2746581733226776,100.0,232661.0,1.0
84978.8859728,317068.375,346225.3125,339833.625,318141.875,323829.0625,312188.0,315662.15625,283065.90625,-0.0546875,0.876220703125,-0.553466796875,1.2817381620407104,-23.834226608276367,0.0,100.0,232662.0,1.0
84978.8859894,317207.21875,346945.59375,340249.34375,318590.25,325418.96875,312321.3125,316260.5625,283294.6875,-0.057861328125,0.87646484375,-0.557373046875,1.2512205839157104,-24.566648483276367,-0.2136230319738388,100.0,232663.0,1.0
84978.8884134,317077.65625,345141.4375,338770.46875,317195.6875,322997.28125,310902.59375,314930.5625,282225.03125,-0.0595703125,0.87158203125,-0.55908203125,1.6174315214157104,-25.146482467651367,-0.6103515028953552,100.0,232664.0,1.0
84978.8898455,316850.125,343292.0625,337433.21875,315887.5625,319947.0,309906.3125,313524.28125,281342.5,-0.060302734375,0.8662109375,-0.5625,1.6174315214157104,-25.695798873901367,-0.9765624403953552,100.0,232665.0,1.0
84978.9022768,316858.0,343911.46875,338053.875,316434.46875,320346.90625,310662.96875,313920.53125,281824.9375,-0.06591796875,0.865234375,-0.56982421875,1.9836424589157104,-26.306150436401367,-1.3732908964157104,100.0,232666.0,1.0
84978.9023025,317015.53125,346077.25,339735.0,318068.03125,323622.0625,312094.90625,315529.84375,282978.8125,-0.068359375,0.864013671875,-0.569580078125,2.410888433456421,-26.916501998901367,-1.8310545682907104,100.0,232667.0,1.0
84978.9023091,317181.46875,346822.375,340188.90625,318550.28125,325233.375,312263.1875,316156.5,283247.75,-0.077880859375,0.859375,-0.572265625,2.655029058456421,-27.648923873901367,-2.288818120956421,100.0,232668.0,1.0
84978.9060253,317026.4375,345024.9375,338698.9375,317124.875,322785.03125,310835.25,314809.5,282159.6875,-0.08984375,0.855712890625,-0.575927734375,2.899169683456421,-28.106687545776367,-2.777099370956421,100.0,232669.0,1.0
84978.906051,316787.34375,343193.09375,337359.8125,315805.9375,319730.1875,309838.09375,313391.84375,281269.4375,-0.1015625,0.845947265625,-0.579833984375,3.509521245956421,-28.961179733276367,-3.601073980331421,100.0,232670.0,1.0
84978.9060567,316832.15625,343861.5,338010.78125,316390.84375,320156.84375,310630.96875,313819.75,281786.40625,-0.1103515625,0.842529296875,-0.583251953125,4.302978038787842,-29.876707077026367,-4.669188976287842,100.0,232671.0,1.0
84978.9084721,317030.28125,346074.21875,339727.03125,318063.46875,323445.75,312099.5625,315460.09375,282985.15625,-0.116455078125,0.83642578125,-0.5859375,5.310058116912842,-30.944822311401367,-5.859374523162842,100.0,232672.0,1.0
84978.9085058,317033.75,346676.75,340030.5,318385.59375,324877.875,312113.34375,315918.3125,283115.78125,-0.119873046875,0.828857421875,-0.586669921875,6.378173351287842,-32.165523529052734,-6.805419445037842,100.0,232673.0,1.0
84978.9135355,316990.40625,345015.03125,338660.15625,317065.40625,322543.375,310811.03125,314690.84375,282149.40625,-0.134033203125,0.820068359375,-0.591796875,7.293700695037842,-33.325191497802734,-7.843017101287842,100.0,232674.0,1.0
84978.9135717,316836.71875,343267.125,337399.15625,315814.96875,319547.53125,309895.875,313362.8125,281334.09375,-0.148193359375,0.810302734375,-0.58984375,8.453368186950684,-34.515377044677734,-9.002684593200684,100.0,232675.0,1.0
84978.9158612,316850.375,343861.5,338006.125,316357.125,319875.65625,310636.0625,313734.5625,281813.65625,-0.1611328125,0.802490234375,-0.58935546875,9.765624046325684,-36.132808685302734,-10.162352561950684,100.0,232676.0,1.0
84978.920808,317011.9375,346000.28125,339664.90625,317975.40625,323063.53125,312047.25,315309.8125,282963.8125,-0.1875,0.7890625,-0.58837890625,11.016844749450684,-37.872310638427734,-11.535643577575684,100.0,232677.0,1.0
84978.9319552,317167.15625,346777.40625,340104.59375,318440.5,324630.3125,312227.59375,315911.4375,283255.09375,-0.1953125,0.78564453125,-0.587158203125,12.481688499450684,-39.855953216552734,-13.458250999450684,100.0,232678.0,1.0
84978.9382092,317056.90625,345092.1875,338657.71875,317059.40625,322248.25,310873.25,314611.1875,282262.84375,-0.203857421875,0.789306640625,-0.578857421875,13.977049827575684,-42.480464935302734,-15.441893577575684,100.0,232679.0,1.0
84978.9434074,316826.34375,343311.28125,337318.5,315716.875,319188.375,309877.09375,313240.75,281396.3125,-0.205810546875,0.80322265625,-0.56298828125,15.228270530700684,-45.562740325927734,-17.547605514526367,100.0,232680.0,1.0
84978.9459625,316794.5,343856.40625,337876.9375,316205.125,319463.5,310560.0625,313617.15625,281823.0625,-0.1904296875,0.82568359375,-0.54833984375,16.021726608276367,-48.858638763427734,-18.554685592651367,100.0,232681.0,1.0
84978.952201,316966.09375,345939.65625,339553.59375,317887.25,322661.40625,311986.65625,315227.46875,282968.90625,-0.17333984375,0.84326171875,-0.533447265625,15.777586936950684,-52.459712982177734,-18.798826217651367,100.0,232682.0,1.0
84978.9545141,317088.65625,346663.40625,339994.1875,318365.375,324265.71875,312137.5625,315808.78125,283182.84375,-0.154541015625,0.855224609375,-0.522216796875,14.862059593200684,-55.877681732177734,-19.165037155151367,100.0,232683.0,1.0
84978.9545278,316980.28125,345015.90625,338596.84375,317011.40625,322007.375,310815.78125,314568.71875,282134.90625,-0.12939453125,0.861328125,-0.52099609375,14.160155296325684,-58.990474700927734,-20.080564498901367,100.0,232684.0,1.0
84978.9571909,316760.09375,343225.90625,337278.375,315715.8125,319078.15625,309861.625,313246.75,281258.4375,-0.0712890625,0.881103515625,-0.522216796875,13.244627952575684,-61.859127044677734,-20.935056686401367,100.0,232685.0,1.0
84978.9572053,316726.46875,343690.4375,337813.375,316216.59375,319421.8125,310518.59375,313544.375,281674.0,-0.027587890625,0.896484375,-0.537353515625,10.925292015075684,-63.659664154052734,-20.629880905151367,100.0,232686.0,1.0
84978.9597229,316912.25,345759.875,339497.34375,317887.34375,322679.71875,311914.0625,315065.375,282822.53125,0.011474609375,0.893310546875,-0.557861328125,8.422850608825684,-63.934322357177734,-19.989011764526367,100.0,232687.0,1.0
84978.9621999,317056.90625,346535.5625,339979.53125,318374.5,324342.875,312086.5,315665.75,283065.90625,0.052001953125,0.888671875,-0.5830078125,6.256103038787842,-63.476558685302734,-19.165037155151367,100.0,232688.0,1.0
84978.964672,316957.6875,344962.1875,338614.09375,317028.5625,322130.125,310794.9375,314456.6875,282060.53125,0.077880859375,0.87939453125,-0.611328125,4.516601085662842,-61.828609466552734,-17.852781295776367,100.0,232689.0,1.0
84978.9671264,316738.625,343201.40625,337294.8125,315728.40625,319217.34375,309845.4375,313118.8125,281213.21875,0.100830078125,0.86767578125,-0.633056640625,3.723144292831421,-58.624263763427734,-16.082761764526367,100.0,232690.0,1.0
84978.9696962,316697.40625,343626.0,337795.21875,316215.15625,319541.34375,310478.0,313411.96875,281629.59375,0.10888671875,0.8525390625,-0.638671875,4.089354991912842,-54.870601654052734,-14.007567405700684,100.0,232691.0,1.0
84978.9721765,316885.875,345659.71875,339464.71875,317882.15625,322744.09375,311849.40625,314955.21875,282772.375,0.11572265625,0.843994140625,-0.6455078125,5.432128429412842,-50.323482513427734,-12.390135765075684,100.0,232692.0,1.0
84978.9745556,317036.96875,346467.53125,339967.375,318384.25,324387.75,312035.375,315571.875,283033.09375,0.110595703125,0.842529296875,-0.64404296875,7.659911632537842,-45.440670013427734,-10.375975608825684,100.0,232693.0,1.0
84978.9745719,316983.59375,344995.71875,338665.6875,317090.71875,322241.0,310827.65625,314437.75,282088.59375,0.095703125,0.85009765625,-0.635986328125,9.613036155700684,-40.618892669677734,-8.392333030700684,100.0,232694.0,1.0
84978.9896116,316777.25,343245.21875,337345.15625,315788.21875,319301.75,309898.09375,313130.78125,281247.625,0.069091796875,0.859619140625,-0.628173828125,11.291502952575684,-36.132808685302734,-6.622313976287842,100.0,232695.0,1.0
84978.9922695,316744.0,343613.21875,337814.34375,316258.96875,319514.0,310509.90625,313426.8125,281657.65625,0.0380859375,0.86865234375,-0.614501953125,12.481688499450684,-32.318111419677734,-5.371093273162842,100.0,232696.0,1.0
84978.9923003,316935.3125,345576.59375,339450.875,317909.3125,322614.1875,311850.46875,314952.375,282789.0,0.00927734375,0.87939453125,-0.597412109375,12.969969749450684,-29.235837936401367,-4.272460460662842,100.0,232697.0,1.0
84978.9946026,317091.4375,346385.4375,339954.9375,318414.125,324226.71875,312042.96875,315581.25,283053.03125,-0.013916015625,0.892578125,-0.578125,12.969969749450684,-27.069089889526367,-3.326415777206421,100.0,232698.0,1.0
84979.0058833,317015.6875,344954.65625,338655.3125,317102.5,322067.46875,310832.21875,314454.5625,282095.03125,-0.028564453125,0.898681640625,-0.56298828125,12.329100608825684,-25.634763717651367,-2.532958745956421,100.0,232699.0,1.0
84979.0059239,316801.03125,343228.3125,337333.625,315795.5625,319140.0,309900.34375,313155.90625,281253.71875,-0.039306640625,0.9013671875,-0.55419921875,11.627196311950684,-24.566648483276367,-1.6174315214157104,100.0,232700.0,1.0
84979.0083282,316769.75,343558.65625,337784.59375,316258.15625,319355.75,310491.125,313436.375,281658.90625,-0.057373046875,0.893310546875,-0.5537109375,10.620116233825684,-23.834226608276367,-0.9765624403953552,100.0,232701.0,1.0
84979.0395856,316946.0625,345462.59375,339393.28125,317889.75,322442.09375,311797.375,314922.59375,282772.5625,-0.05615234375,0.890380859375,-0.55712890625,9.826659202575684,-23.406980514526367,-0.5493163466453552,100.0,232702.0,1.0
84979.0422097,317106.09375,346300.59375,339924.625,318408.40625,324090.46875,312003.28125,315543.34375,283046.78125,-0.06298828125,0.88134765625,-0.56982421875,8.850096702575684,-23.193357467651367,0.4882812201976776,100.0,232703.0,1.0
84979.0472039,317036.4375,344948.0625,338669.09375,317119.0625,322004.0,310833.46875,314430.9375,282102.53125,-0.063232421875,0.86279296875,-0.587646484375,8.087157249450684,-22.369382858276367,0.8850097060203552,100.0,232704.0,1.0
84979.0495964,316853.4375,343301.8125,337396.46875,315852.6875,319163.34375,309951.3125,313176.5625,281296.625,-0.0625,0.844970703125,-0.596435546875,7.904052257537842,-21.575925827026367,1.3427733182907104,100.0,232705.0,1.0
84979.052295,316825.71875,343624.65625,337844.5,316317.0625,319389.1875,310542.09375,313459.0,281710.75,-0.061279296875,0.830078125,-0.602294921875,7.904052257537842,-20.568845748901367,1.4343260526657104,100.0,232706.0,1.0
84979.0523353,317003.09375,345520.96875,339447.71875,317951.625,322455.9375,311845.28125,314945.21875,282830.40625,-0.056884765625,0.821044921875,-0.60791015625,8.514403343200684,-18.981931686401367,1.7395018339157104,100.0,232707.0,1.0
84979.0546281,317151.96875,346389.125,339989.625,318474.90625,324116.40625,312056.375,315590.1875,283101.21875,-0.05859375,0.815185546875,-0.609130859375,9.338377952575684,-17.456052780151367,2.288818120956421,100.0,232708.0,1.0
84979.0571834,317076.84375,345103.1875,338760.8125,317195.5,322075.34375,310905.1875,314520.09375,282160.125,-0.0654296875,0.807373046875,-0.608642578125,10.101317405700684,-15.747069358825684,2.471923589706421,100.0,232709.0,1.0
84979.0622216,316851.625,343431.875,337449.125,315881.46875,319207.96875,309985.71875,313246.21875,281310.03125,-0.068115234375,0.80322265625,-0.60302734375,11.383055686950684,-14.312743186950684,2.349853277206421,100.0,232710.0,1.0
84979.0646144,316809.53125,343703.59375,337860.3125,316319.5625,319394.5625,310544.5,313515.0625,281696.375,-0.06787109375,0.801513671875,-0.597412109375,12.329100608825684,-13.153075218200684,2.441406011581421,100.0,232711.0,1.0
84979.067194,316985.40625,345560.5,339452.03125,317951.0625,322441.0,311833.75,314996.8125,282808.78125,-0.0654296875,0.801513671875,-0.586669921875,13.000487327575684,-11.901854515075684,2.471923589706421,100.0,232712.0,1.0
84979.0946614,317146.3125,346451.6875,340020.46875,318498.96875,324133.21875,312072.46875,315663.25,283101.75,-0.068359375,0.799560546875,-0.576171875,13.519286155700684,-10.864256858825684,2.502441167831421,100.0,232713.0,1.0
84979.0971704,317096.875,345224.21875,338836.90625,317254.15625,322173.84375,310974.375,314640.5,282198.5625,-0.065185546875,0.800537109375,-0.568115234375,13.519286155700684,-9.948729515075684,2.380370855331421,100.0,232714.0,1.0
84979.0995313,316874.25,343564.125,337532.71875,315941.5625,319345.375,310065.65625,313377.90625,281358.40625,-0.06201171875,0.802001953125,-0.5703125,13.275145530700684,-8.911131858825684,2.349853277206421,100.0,232715.0,1.0
84979.1046888,316807.65625,343784.0625,337905.1875,316345.5,319502.5625,310583.9375,313613.3125,281717.65625,-0.061279296875,0.805419921875,-0.565673828125,12.603758811950684,-7.629394054412842,2.258300542831421,100.0,232716.0,1.0
84979.104702,316976.1875,345595.1875,339476.6875,317960.46875,322528.71875,311853.53125,315077.71875,282814.3125,-0.06982421875,0.806884765625,-0.56396484375,11.779784202575684,-6.744384288787842,2.105712652206421,100.0,232717.0,1.0
84979.1061744,317147.03125,346483.34375,340055.15625,318513.34375,324233.4375,312103.15625,315750.6875,283116.6875,-0.071533203125,0.8076171875,-0.56201171875,11.047362327575684,-5.889892101287842,1.8005369901657104,100.0,232718.0,1.0
84979.1132585,317083.46875,345248.71875,338857.46875,317253.78125,322261.03125,310993.875,314718.9375,282206.96875,-0.06982421875,0.8095703125,-0.564453125,10.559081077575684,-4.425048351287842,1.5563963651657104,100.0,232719.0,1.0
84979.1160613,316868.1875,343583.0,337547.375,315940.65625,319422.4375,310083.4375,313464.90625,281370.5625,-0.07470703125,0.811279296875,-0.562255859375,10.345458030700684,-3.204345464706421,1.4038084745407104,100.0,232720.0,1.0
84979.1182317,316814.8125,343784.5,337914.40625,316346.75,319558.78125,310597.875,313701.03125,281726.0625,-0.080810546875,0.81494140625,-0.5625,10.406493186950684,-2.227782964706421,0.9460448622703552,100.0,232721.0,1.0
84979.1208788,316996.3125,345583.09375,339487.96875,317969.0625,322561.0,311863.28125,315155.0625,282820.21875,-0.0869140625,0.822998046875,-0.556640625,11.047362327575684,-0.8544921278953552,0.7019042372703552,100.0,232722.0,1.0
84979.1233848,317154.09375,346476.5625,340065.96875,318523.90625,324265.625,312120.59375,315828.1875,283120.53125,-0.0908203125,0.827392578125,-0.55078125,11.352538108825684,-0.1525878757238388,0.7324218153953552,100.0,232723.0,1.0
84979.1258369,317077.125,345257.40625,338866.21875,317262.375,322312.09375,311012.8125,314802.96875,282205.625,-0.096923828125,0.8310546875,-0.54052734375,11.505125999450684,0.3356933295726776,0.4272460639476776,100.0,232724.0,1.0
84979.1283586,316844.5625,343588.0,337542.125,315936.46875,319478.6875,310083.8125,313540.90625,281354.03125,-0.0966796875,0.8349609375,-0.5380859375,11.779784202575684,0.6408690810203552,0.0610351525247097,100.0,232725.0,1.0
84979.1309053,316785.3125,343762.96875,337894.8125,316327.96875,319602.15625,310581.78125,313755.375,281700.65625,-0.09814453125,0.835693359375,-0.53271484375,11.718749046325684,0.7934569716453552,-0.3356933295726776,100.0,232726.0,1.0
84979.130925,316957.84375,345530.53125,339452.90625,317940.4375,322585.3125,311831.875,315182.9375,282786.59375,-0.095458984375,0.833984375,-0.52978515625,11.566161155700684,0.7934569716453552,-0.8239745497703552,100.0,232727.0,1.0
84979.1332429,317120.125,346424.0625,340032.90625,318501.03125,324293.96875,312088.21875,315843.03125,283086.90625,-0.093017578125,0.834716796875,-0.52978515625,11.230467796325684,0.7019042372703552,-1.2207030057907104,100.0,232728.0,1.0
84979.1360075,317069.0,345257.5,338866.5,317269.09375,322391.65625,311020.4375,314844.375,282200.25,-0.08837890625,0.835693359375,-0.531494140625,10.681151390075684,0.4577636420726776,-1.5869139432907104,100.0,232729.0,1.0
84979.1360285,316849.21875,343608.5625,337553.28125,315948.28125,319582.65625,310109.90625,313590.15625,281357.78125,-0.0830078125,0.83837890625,-0.53271484375,9.918211936950684,0.3051757514476776,-1.7089842557907104,100.0,232730.0,1.0
84979.1383373,316783.78125,343762.15625,337889.90625,316319.40625,319676.28125,310588.0625,313777.8125,281689.46875,-0.076904296875,0.8408203125,-0.5390625,9.155272483825684,0.1831054538488388,-1.7700194120407104,100.0,232731.0,1.0
84979.1432573,316955.96875,345523.125,339448.625,317926.59375,322637.53125,311828.03125,315188.9375,282776.125,-0.069091796875,0.8408203125,-0.541015625,8.483885765075684,0.2136230319738388,-1.5869139432907104,100.0,232732.0,1.0
84979.1457663,317120.40625,346435.6875,340047.75,318504.40625,324364.15625,312095.28125,315857.96875,283090.84375,-0.06396484375,0.841064453125,-0.545166015625,8.087157249450684,0.5493163466453552,-1.3732908964157104,100.0,232733.0,1.0
84979.1457845,317061.3125,345288.78125,338890.90625,317280.53125,322480.96875,311031.34375,314864.5625,282205.375,-0.060791015625,0.84375,-0.54736328125,8.056639671325684,0.9765624403953552,-1.1291502714157104,100.0,232734.0,1.0
84979.150732,316832.6875,343636.71875,337568.5625,315952.03125,319660.28125,310109.09375,313598.375,281352.40625,-0.057861328125,0.845703125,-0.55029296875,7.965087413787842,1.7395018339157104,-0.8544921278953552,100.0,232735.0,1.0
84979.1532914,316771.8125,343778.15625,337897.0625,316320.28125,319737.6875,310579.125,313784.09375,281680.1875,-0.057861328125,0.847412109375,-0.55419921875,7.995604991912842,2.777099370956421,-0.2746581733226776,100.0,232736.0,1.0
84979.1585008,316967.25,345540.1875,339463.8125,317937.84375,322697.96875,311832.6875,315208.15625,282780.6875,-0.0576171875,0.847900390625,-0.5556640625,7.995604991912842,3.875732183456421,0.1525878757238388,100.0,232737.0,1.0
84979.1585396,317145.59375,346467.25,340077.15625,318527.5625,324428.875,312113.78125,315886.84375,283109.90625,-0.058349609375,0.851806640625,-0.55322265625,7.995604991912842,5.279540538787842,0.5798339247703552,100.0,232738.0,1.0
84979.1609421,317069.6875,345317.5625,338915.0625,317301.53125,322537.125,311047.15625,314881.46875,282221.0,-0.06005859375,0.85498046875,-0.552734375,7.873534679412842,6.652831554412842,0.9155272841453552,100.0,232739.0,1.0
84979.1633469,316832.6875,343668.1875,337587.8125,315971.875,319719.0,310127.34375,313621.46875,281373.875,-0.060791015625,0.857666015625,-0.5498046875,7.598876476287842,7.873534679412842,1.2817381620407104,100.0,232740.0,1.0
84979.1659711,316759.46875,343777.09375,337889.0,316314.03125,319755.03125,310574.5625,313784.1875,281686.25,-0.057861328125,0.863037109375,-0.544189453125,7.049560070037842,9.002684593200684,1.7089842557907104,100.0,232741.0,1.0
84979.1660104,316936.125,345504.625,339429.75,317903.25,322668.71875,311801.84375,315179.0,282764.4375,-0.054931640625,0.8681640625,-0.5439453125,6.500243663787842,10.162352561950684,2.105712652206421,100.0,232742.0,1.0
84979.189709,317117.28125,346444.09375,340053.71875,318507.8125,324410.03125,312088.40625,315871.90625,283100.3125,-0.052490234375,0.872802734375,-0.5400390625,5.737304210662842,11.199950218200684,2.380370855331421,100.0,232743.0,1.0
84979.1922444,317065.84375,345323.65625,338917.46875,317307.875,322537.84375,311036.6875,314889.78125,282226.28125,-0.05078125,0.876708984375,-0.5400390625,4.943847179412842,12.176512718200684,2.746581792831421,100.0,232744.0,1.0
84979.192286,316842.59375,343696.4375,337604.53125,315991.53125,319726.78125,310124.125,313648.90625,281385.9375,-0.04931640625,0.882080078125,-0.541015625,4.211425304412842,13.122557640075684,3.204345464706421,100.0,232745.0,1.0
84979.1948065,316777.25,343800.59375,337906.0,316334.40625,319752.0,310574.1875,313820.46875,281700.03125,-0.046142578125,0.88525390625,-0.545166015625,3.448486089706421,14.038084983825684,3.784179449081421,100.0,232746.0,1.0
84979.1987906,316945.6875,345516.9375,339437.53125,317916.84375,322648.4375,311798.0,315220.21875,282776.75,-0.04150390625,0.887451171875,-0.544921875,2.899169683456421,15.167235374450684,4.333495616912842,100.0,232747.0,1.0
84979.2282087,317111.8125,346447.59375,340048.8125,318505.9375,324371.46875,312077.75,315900.875,283103.28125,-0.03759765625,0.89013671875,-0.5478515625,2.288818120956421,16.357419967651367,4.974364757537842,100.0,232748.0,1.0
84979.2357194,317071.59375,345374.78125,338940.4375,317335.96875,322551.59375,311054.84375,314965.6875,282258.375,-0.032958984375,0.889404296875,-0.54541015625,1.7700194120407104,17.456052780151367,5.828856945037842,100.0,232749.0,1.0
84979.2381178,316854.59375,343747.40625,337627.84375,316018.1875,319744.125,310137.8125,313726.5,281413.5625,-0.0302734375,0.887451171875,-0.544189453125,1.4648436307907104,18.707273483276367,6.713866710662842,100.0,232750.0,1.0
84979.2381305,316784.59375,343828.6875,337913.25,316340.5,319744.9375,310573.84375,313881.0,281712.09375,-0.033447265625,0.88525390625,-0.54736328125,1.0986326932907104,20.019529342651367,7.354735851287842,100.0,232751.0,1.0
84979.2596985,316958.125,345529.46875,339440.59375,317919.78125,322635.1875,311799.96875,315276.375,282787.65625,-0.04248046875,0.882568359375,-0.54833984375,0.8544921278953552,21.270750045776367,7.781981945037842,100.0,232752.0,1.0
84979.2644869,317141.21875,346482.09375,340074.3125,318540.625,324390.0,312103.5,315979.46875,283138.21875,-0.0341796875,0.884765625,-0.54248046875,0.6713866591453552,22.247312545776367,8.392333030700684,100.0,232753.0,1.0
84979.2671231,317097.15625,345416.1875,338968.34375,317372.34375,322577.71875,311073.71875,315037.21875,282292.53125,-0.0302734375,0.884765625,-0.539794921875,-0.1220703050494194,23.468015670776367,8.880614280700684,100.0,232754.0,1.0
84979.2696448,316887.03125,343797.46875,337663.78125,316056.46875,319762.1875,310155.5,313792.125,281447.71875,-0.039794921875,0.884521484375,-0.53759765625,-0.9155272841453552,25.177000045776367,9.735106468200684,100.0,232755.0,1.0
84979.2720435,316815.6875,343868.46875,337937.46875,316365.34375,319743.34375,310593.6875,313943.0625,281744.125,-0.05126953125,0.88427734375,-0.53369140625,-2.136230230331421,26.092527389526367,10.803221702575684,100.0,232756.0,1.0
84979.2746688,316980.65625,345553.4375,339442.5625,317930.0625,322624.5625,311808.625,315335.84375,282812.625,-0.059326171875,0.877197265625,-0.53759765625,-3.570556402206421,26.977537155151367,11.413573265075684,100.0,232757.0,1.0
84979.2771775,317163.21875,346498.1875,340076.90625,318560.65625,324407.875,312117.375,316048.21875,283162.0,-0.06591796875,0.86669921875,-0.536865234375,-4.638671398162842,28.106687545776367,11.749266624450684,100.0,232758.0,1.0
84979.2795525,317131.75,345430.21875,338987.75,317416.59375,322641.375,311103.9375,315127.59375,282320.875,-0.071044921875,0.85498046875,-0.537109375,-5.676269054412842,29.113767623901367,11.840819358825684,100.0,232759.0,1.0
84979.2814844,316881.6875,343761.34375,337641.71875,316048.75,319865.5625,310144.15625,313852.75,281440.40625,-0.078369140625,0.847412109375,-0.541015625,-6.683349132537842,29.907224655151367,11.383055686950684,100.0,232760.0,1.0
84979.3072475,316825.1875,343837.0,337926.90625,316354.8125,319974.625,310602.625,314007.25,281749.90625,-0.077392578125,0.84130859375,-0.543212890625,-7.629394054412842,30.609128952026367,11.352538108825684,100.0,232761.0,1.0
84979.3095818,316984.3125,345509.34375,339433.59375,317920.84375,322897.4375,311835.90625,315391.4375,282821.65625,-0.0751953125,0.8330078125,-0.5458984375,-8.544920921325684,31.433103561401367,11.444090843200684,100.0,232762.0,1.0
84979.3122576,317148.8125,346448.375,340064.71875,318547.34375,324639.78125,312127.46875,316099.09375,283168.09375,-0.0771484375,0.8212890625,-0.5498046875,-9.338377952575684,31.890867233276367,11.138915061950684,100.0,232763.0,1.0
84979.3146253,317105.90625,345396.96875,338980.21875,317392.375,322809.09375,311091.9375,315150.125,282318.46875,-0.077392578125,0.81005859375,-0.54736328125,-9.368895530700684,32.318111419677734,10.803221702575684,100.0,232764.0,1.0
84979.3246749,316908.78125,343789.59375,337689.1875,316081.03125,319989.65625,310171.25,313892.34375,281473.9375,-0.075439453125,0.798583984375,-0.54541015625,-9.033202171325684,32.775875091552734,10.375975608825684,100.0,232765.0,1.0
84979.3270913,316817.03125,343830.90625,337927.625,316352.5625,319908.71875,310587.6875,314017.25,281749.21875,-0.076171875,0.787841796875,-0.541015625,-8.300780296325684,33.386226654052734,10.009764671325684,100.0,232766.0,1.0
84979.3295979,316965.09375,345494.875,339406.6875,317891.09375,322739.90625,311817.65625,315403.6875,282812.25,-0.0791015625,0.782958984375,-0.537109375,-7.171630382537842,33.813472747802734,9.582518577575684,100.0,232767.0,1.0
84979.3322129,317143.1875,346457.25,340050.96875,318527.40625,324539.84375,312146.0625,316137.375,283172.75,-0.08544921875,0.787841796875,-0.529052734375,-5.706786632537842,34.301753997802734,8.941649436950684,100.0,232768.0,1.0
84979.337144,317114.125,345425.03125,338994.0,317403.625,322764.3125,311132.09375,315211.90625,282332.3125,-0.091064453125,0.79736328125,-0.5244140625,-4.516601085662842,34.454341888427734,8.239745140075684,100.0,232769.0,1.0
84979.3371858,316894.65625,343794.34375,337682.40625,316066.46875,319899.34375,310189.03125,313940.0,281459.96875,-0.092529296875,0.802978515625,-0.5205078125,-3.875732183456421,34.393306732177734,7.904052257537842,100.0,232770.0,1.0
84979.3422604,316804.4375,343842.4375,337917.25,316305.0,319800.28125,310604.59375,314059.8125,281710.40625,-0.0966796875,0.8173828125,-0.514404296875,-3.051757574081421,34.271236419677734,7.171630382537842,100.0,232771.0,1.0
84979.3422961,316943.09375,345517.46875,339396.15625,317824.9375,322632.5,311837.34375,315454.46875,282750.125,-0.100830078125,0.82861328125,-0.505126953125,-2.807616949081421,33.630367279052734,6.439208507537842,100.0,232772.0,1.0
84979.3446803,317110.84375,346471.90625,340045.875,318481.34375,324408.59375,312161.15625,316191.5625,283094.59375,-0.10400390625,0.838134765625,-0.50048828125,-2.929687261581421,32.775875091552734,5.828856945037842,100.0,232773.0,1.0
84979.3447114,317097.78125,345443.09375,339014.65625,317393.0,322646.65625,311150.0625,315281.75,282255.59375,-0.10302734375,0.845703125,-0.499755859375,-3.753661870956421,31.585691452026367,5.310058116912842,100.0,232774.0,1.0
84979.347242,316884.625,343804.09375,337717.625,316072.0,319811.8125,310197.78125,314013.15625,281372.96875,-0.100830078125,0.849365234375,-0.493896484375,-4.821776866912842,30.120847702026367,4.760741710662842,100.0,232775.0,1.0
84979.3509395,316796.46875,343825.1875,337950.34375,316327.8125,319722.59375,310609.0625,314132.3125,281623.9375,-0.0966796875,0.852294921875,-0.489990234375,-5.889892101287842,28.625486373901367,4.058837413787842,100.0,232776.0,1.0
84979.3509791,316933.1875,345466.4375,339410.71875,317849.40625,322555.4375,311838.5,315479.78125,282662.3125,-0.093505859375,0.85498046875,-0.48974609375,-6.896972179412842,26.947019577026367,3.692626714706421,100.0,232777.0,1.0
84979.350989,317107.875,346450.4375,340073.125,318502.90625,324391.59375,312172.4375,316118.3125,283026.75,-0.093017578125,0.8583984375,-0.489013671875,-7.781981945037842,25.268552780151367,3.204345464706421,100.0,232778.0,1.0
84979.3535893,317090.4375,345457.9375,339049.875,317399.78125,322702.34375,311156.9375,315152.5625,282213.21875,-0.091064453125,0.859130859375,-0.491455078125,-8.544920921325684,23.498533248901367,2.471923589706421,100.0,232779.0,1.0
84979.3648633,316872.5625,343854.59375,337746.0625,316045.71875,319901.65625,310199.84375,313900.40625,281349.90625,-0.08544921875,0.860107421875,-0.49365234375,-8.636473655700684,21.667478561401367,1.9531248807907104,100.0,232780.0,1.0
84979.3648998,316776.1875,343897.53125,337955.34375,316254.21875,319812.1875,310597.875,314008.84375,281612.59375,-0.08251953125,0.862060546875,-0.49462890625,-8.483885765075684,19.897459030151367,1.6479490995407104,100.0,232781.0,1.0
84979.3649096,316923.6875,345554.21875,339414.65625,317786.46875,322664.96875,311834.75,315369.625,282693.0625,-0.076904296875,0.862548828125,-0.493896484375,-7.873534679412842,18.188474655151367,1.6784666776657104,100.0,232782.0,1.0
84979.3696224,317103.59375,346533.875,340075.1875,318465.78125,324517.46875,312175.28125,316109.125,283086.28125,-0.072021484375,0.864501953125,-0.49462890625,-7.171630382537842,16.601560592651367,1.6174315214157104,100.0,232783.0,1.0
84979.3746846,317084.375,345523.28125,339050.40625,317391.03125,322826.09375,311153.1875,315194.65625,282272.875,-0.065673828125,0.869140625,-0.494873046875,-6.408690929412842,15.289305686950684,1.4038084745407104,100.0,232784.0,1.0
84979.3747201,316869.875,343884.65625,337745.875,316067.4375,320015.75,310189.5625,313886.375,281401.59375,-0.058349609375,0.875732421875,-0.496826171875,-6.134032726287842,14.343260765075684,1.2207030057907104,100.0,232785.0,1.0
84979.3798714,316769.125,343879.625,337945.0625,316295.09375,319901.21875,310584.75,313954.3125,281650.59375,-0.05224609375,0.87890625,-0.495361328125,-6.530761241912842,13.702391624450684,1.1291502714157104,100.0,232786.0,1.0
84979.3821655,316900.1875,345520.78125,339390.34375,317801.40625,322718.34375,311816.6875,315324.5625,282713.1875,-0.0478515625,0.885009765625,-0.496826171875,-7.324218273162842,13.610838890075684,0.7629393935203552,100.0,232787.0,1.0
84979.3822068,317093.5625,346529.3125,340074.125,318491.71875,324592.21875,312181.65625,316085.96875,283123.3125,-0.043212890625,0.886962890625,-0.495849609375,-8.331297874450684,13.641356468200684,0.5187987685203552,100.0,232788.0,1.0
84979.3872667,317079.53125,345531.53125,339058.28125,317419.1875,322923.53125,311163.21875,315164.4375,282310.40625,-0.036376953125,0.888916015625,-0.49755859375,-9.460448265075684,13.854979515075684,0.5187987685203552,100.0,232789.0,1.0
84979.3996992,316875.6875,343897.78125,337764.1875,316101.4375,320113.28125,310202.53125,313876.25,281439.40625,-0.032470703125,0.885986328125,-0.497802734375,-10.498045921325684,14.129637718200684,0.4882812201976776,100.0,232790.0,1.0
84979.4072372,316779.75,343889.125,337961.625,316321.625,319976.0625,310598.5,313958.78125,281686.8125,-0.03271484375,0.886474609375,-0.497802734375,-11.260985374450684,14.465331077575684,0.5798339247703552,100.0,232791.0,1.0
84979.4158266,316910.28125,345527.6875,339404.625,317824.3125,322789.6875,311835.8125,315328.0625,282744.65625,-0.035888671875,0.8837890625,-0.5,-11.718749046325684,14.434813499450684,0.7324218153953552,100.0,232792.0,1.0
84979.4321938,317103.15625,346533.40625,340090.84375,318515.25,324669.75,312201.3125,316095.78125,283146.625,-0.037353515625,0.883544921875,-0.5029296875,-12.084959983825684,14.282225608825684,0.8239745497703552,100.0,232793.0,1.0
84979.4347086,317095.71875,345539.46875,339090.1875,317456.9375,323002.9375,311186.90625,315185.1875,282335.28125,-0.037353515625,0.8818359375,-0.50146484375,-12.329100608825684,14.038084983825684,0.9765624403953552,100.0,232794.0,1.0
84979.4371129,316880.0625,343893.59375,337782.8125,316124.40625,320167.84375,310210.5,313876.1875,281452.65625,-0.037353515625,0.881103515625,-0.5009765625,-12.512206077575684,13.702391624450684,1.0681151151657104,100.0,232795.0,1.0
84979.439584,316779.03125,343881.25,337967.4375,316327.625,320009.21875,310601.1875,313945.5625,281694.40625,-0.03564453125,0.8798828125,-0.5,-12.634276390075684,13.336180686950684,1.0681151151657104,100.0,232796.0,1.0
84979.4422286,316912.34375,345527.40625,339409.28125,317826.875,322814.0,311848.15625,315325.0,282760.125,-0.03466796875,0.8779296875,-0.49755859375,-12.786864280700684,12.817381858825684,1.0070799589157104,100.0,232797.0,1.0
84979.4445868,317099.375,346540.84375,340093.78125,318521.125,324698.4375,312209.4375,316096.25,283167.65625,-0.03369140625,0.877685546875,-0.49560546875,-13.183592796325684,12.573241233825684,1.0070799589157104,100.0,232798.0,1.0
84979.5097231,317095.0,345559.6875,339101.09375,317466.75,323040.9375,311192.0,315190.46875,282363.34375,-0.03125,0.87646484375,-0.492431640625,-13.458250999450684,12.451170921325684,1.0986326932907104,100.0,232799.0,1.0
84979.5097665,316887.65625,343914.78125,337799.15625,316135.40625,320197.15625,310212.375,313884.5,281480.34375,-0.037841796875,0.86962890625,-0.487548828125,-13.977049827575684,12.512206077575684,1.1596678495407104,100.0,232800.0,1.0
84979.5122342,316773.6875,343881.96875,337963.84375,316316.4375,320009.84375,310589.21875,313938.21875,281702.625,-0.0439453125,0.862060546875,-0.47998046875,-14.434813499450684,12.725829124450684,1.2207030057907104,100.0,232801.0,1.0
84979.5146458,316889.5625,345514.09375,339389.71875,317799.71875,322804.4375,311829.65625,315307.5,282752.71875,-0.0517578125,0.85693359375,-0.474609375,-14.862059593200684,12.725829124450684,1.0070799589157104,100.0,232802.0,1.0
84979.5170758,317077.65625,346532.78125,340083.5,318499.40625,324709.25,312209.625,316091.59375,283164.96875,-0.05859375,0.85595703125,-0.474365234375,-15.289305686950684,12.603758811950684,0.7629393935203552,100.0,232803.0,1.0
84979.5197357,317087.125,345555.65625,339106.46875,317464.4375,323069.71875,311205.0625,315197.25,282364.59375,-0.062255859375,0.861083984375,-0.48046875,-15.899657249450684,12.329100608825684,0.4272460639476776,100.0,232804.0,1.0
84979.5221618,316876.75,343892.15625,337793.71875,316122.625,320210.21875,310214.25,313874.03125,281465.0625,-0.0634765625,0.8671875,-0.47998046875,-16.265867233276367,11.535643577575684,0.0915527269244194,100.0,232805.0,1.0
84979.5238194,316771.34375,343859.34375,337956.78125,316303.84375,320016.28125,310593.6875,313934.65625,281691.28125,-0.06201171875,0.870361328125,-0.484130859375,-16.571043014526367,10.681151390075684,-0.0915527269244194,100.0,232806.0,1.0
84979.5309343,316888.21875,345495.59375,339373.96875,317781.84375,322805.34375,311830.8125,315312.125,282746.8125,-0.0595703125,0.874755859375,-0.4853515625,-16.937253952026367,9.887694358825684,-0.2136230319738388,100.0,232807.0,1.0
84979.6096302,317068.53125,346519.46875,340062.40625,318481.15625,324706.125,312202.5625,316091.3125,283160.59375,-0.0576171875,0.8779296875,-0.487060546875,-17.028806686401367,9.246825218200684,-0.3356933295726776,100.0,232808.0,1.0
84979.6121707,317080.96875,345558.78125,339096.53125,317455.3125,323075.78125,311191.1875,315194.125,282366.21875,-0.055419921875,0.880126953125,-0.489990234375,-17.181394577026367,8.697508811950684,-0.5187987685203552,100.0,232809.0,1.0
84979.614518,316879.28125,343913.875,337798.71875,316126.8125,320222.90625,310196.28125,313873.84375,281474.625,-0.052001953125,0.881103515625,-0.49169921875,-17.456052780151367,8.453368186950684,-0.6713866591453552,100.0,232810.0,1.0
84979.617245,316767.5,343866.0625,337947.9375,316293.65625,320006.1875,310573.46875,313919.96875,281696.1875,-0.04736328125,0.88037109375,-0.491455078125,-17.791746139526367,8.392333030700684,-0.7019042372703552,100.0,232811.0,1.0
84979.6785212,316879.0,345484.9375,339353.5,317758.59375,322772.78125,311824.5625,315284.59375,282747.71875,-0.04833984375,0.8828125,-0.4912109375,-18.280027389526367,8.575438499450684,-0.7324218153953552,100.0,232812.0,1.0
84979.6785617,317067.90625,346513.65625,340054.28125,318471.96875,324683.5,312206.6875,316079.53125,283166.125,-0.048583984375,0.884521484375,-0.487060546875,-18.798826217651367,8.636473655700684,-0.6408690810203552,100.0,232813.0,1.0
84979.6785723,317091.0625,345559.15625,339104.78125,317465.59375,323068.90625,311189.3125,315197.0625,282371.75,-0.05126953125,0.887451171875,-0.4892578125,-19.409177780151367,8.728026390075684,-0.5493163466453552,100.0,232814.0,1.0
84979.6835249,316887.75,343901.1875,337803.1875,316132.09375,320206.53125,310182.15625,313868.75,281470.0,-0.05419921875,0.890869140625,-0.489501953125,-19.897459030151367,8.575438499450684,-0.3967284858226776,100.0,232815.0,1.0
84979.6859871,316754.0,343822.6875,337919.6875,316267.1875,319953.875,310534.6875,313890.03125,281666.6875,-0.05517578125,0.88818359375,-0.48779296875,-20.324705123901367,8.270262718200684,-0.3967284858226776,100.0,232816.0,1.0
84979.6883319,316862.625,345433.1875,339316.65625,317732.125,322719.5,311789.9375,315265.46875,282721.5,-0.05810546875,0.88427734375,-0.484619140625,-20.935056686401367,8.056639671325684,-0.2136230319738388,100.0,232817.0,1.0
84979.6933068,317044.9375,346465.03125,340021.71875,318449.6875,324645.34375,312179.125,316062.25,283139.5625,-0.0615234375,0.884033203125,-0.48291015625,-21.362302780151367,7.751464366912842,-0.2136230319738388,100.0,232818.0,1.0
84979.6958578,317085.4375,345548.0625,339107.1875,317468.625,323067.03125,311190.75,315193.40625,282365.03125,-0.062744140625,0.885009765625,-0.484375,-21.606443405151367,7.354735851287842,-0.2746581733226776,100.0,232819.0,1.0
84979.6983334,316888.65625,343903.34375,337814.1875,316139.875,320209.0625,310186.25,313863.84375,281466.6875,-0.06591796875,0.88623046875,-0.482177734375,-22.033689498901367,6.835937023162842,-0.1525878757238388,100.0,232820.0,1.0
84979.7010712,316757.75,343820.53125,337926.46875,316274.25,319945.65625,310544.34375,313885.46875,281665.625,-0.068359375,0.886474609375,-0.4833984375,-22.338865280151367,6.469726085662842,-0.1525878757238388,100.0,232821.0,1.0
84979.7659672,316859.15625,345425.9375,339312.09375,317731.03125,322702.96875,311801.40625,315260.09375,282722.65625,-0.070556640625,0.886962890625,-0.484375,-22.583005905151367,5.889892101287842,-0.03051757626235485,100.0,232822.0,1.0
84979.7683362,317050.84375,346476.90625,340031.21875,318464.375,324653.5625,312197.28125,316076.3125,283156.65625,-0.0712890625,0.8876953125,-0.482666015625,-22.888181686401367,5.340575695037842,0.0,100.0,232823.0,1.0
84979.770819,317082.5,345559.25,339116.75,317480.0,323076.6875,311189.3125,315193.40625,282366.5625,-0.073974609375,0.885498046875,-0.48388671875,-23.223875045776367,4.760741710662842,0.1220703050494194,100.0,232824.0,1.0
84979.7758589,316889.46875,343916.5625,337827.21875,316152.375,320221.46875,310178.65625,313855.96875,281461.84375,-0.07421875,0.883544921875,-0.483154296875,-23.406980514526367,4.180907726287842,0.1831054538488388,100.0,232825.0,1.0
84979.7784589,316752.5,343817.15625,337922.09375,316273.4375,319942.4375,310525.90625,313868.5,281652.90625,-0.072265625,0.882080078125,-0.48291015625,-23.620603561401367,3.723144292831421,0.1525878757238388,100.0,232826.0,1.0
84979.7809915,316846.8125,345406.25,339289.9375,317717.90625,322688.03125,311783.875,315240.53125,282705.9375,-0.069580078125,0.8818359375,-0.48095703125,-23.956296920776367,3.234863042831421,0.2441406100988388,100.0,232827.0,1.0
84979.7834868,317048.6875,346471.375,340024.21875,318461.0625,324655.875,312199.15625,316067.90625,283152.71875,-0.0703125,0.87939453125,-0.478759765625,-24.291990280151367,2.685546636581421,0.4272460639476776,100.0,232828.0,1.0
84979.7858911,317099.21875,345579.875,339138.375,317493.5,323106.46875,311201.5625,315197.875,282377.75,-0.06689453125,0.87744140625,-0.4775390625,-24.536130905151367,2.166747808456421,0.4882812201976776,100.0,232829.0,1.0
84979.7859307,316908.0625,343935.78125,337852.34375,316164.1875,320249.65625,310183.5625,313856.40625,281470.53125,-0.064697265625,0.877197265625,-0.481201171875,-24.688718795776367,1.8005369901657104,0.8850097060203552,100.0,232830.0,1.0
84979.8487371,316769.75,343818.40625,337931.9375,316271.84375,319954.25,310525.28125,313860.25,281656.40625,-0.063720703125,0.879150390625,-0.482421875,-24.841306686401367,1.2817381620407104,1.0375975370407104,100.0,232831.0,1.0
84979.8487726,316868.0,345400.625,339292.96875,317717.8125,322699.84375,311789.5,315234.96875,282714.71875,-0.06201171875,0.880615234375,-0.4833984375,-25.115964889526367,0.8239745497703552,1.3122557401657104,100.0,232832.0,1.0
84979.8487825,317074.96875,346480.9375,340037.28125,318473.75,324688.78125,312213.28125,316074.34375,283168.375,-0.060791015625,0.883544921875,-0.487548828125,-25.360105514526367,0.5493163466453552,1.7395018339157104,100.0,232833.0,1.0
84979.8560418,317132.1875,345612.96875,339170.65625,317516.28125,323158.3125,311215.25,315205.46875,282388.90625,-0.05810546875,0.878662109375,-0.49169921875,-25.360105514526367,0.2441406100988388,2.197265386581421,100.0,232834.0,1.0
84979.8560837,316950.96875,343982.28125,337897.875,316193.0625,320302.65625,310194.65625,313858.5625,281476.6875,-0.054931640625,0.8779296875,-0.484375,-25.604246139526367,-0.03051757626235485,2.624511480331421,100.0,232835.0,1.0
84979.8585093,316813.90625,343862.46875,337973.875,316299.0,319999.5625,310541.90625,313861.25,281662.9375,-0.05126953125,0.875244140625,-0.48291015625,-25.787351608276367,-0.3051757514476776,2.960204839706421,100.0,232836.0,1.0
84979.8609387,316903.5,345430.03125,339319.25,317732.75,322740.6875,311808.28125,315238.90625,282719.90625,-0.046875,0.871826171875,-0.483642578125,-25.878904342651367,-0.2136230319738388,3.356933355331421,100.0,232837.0,1.0
84979.8634583,317106.1875,346507.125,340063.75,318487.4375,324741.625,312235.1875,316079.4375,283171.40625,-0.0439453125,0.8701171875,-0.485595703125,-26.245115280151367,-0.2441406100988388,3.662109136581421,100.0,232838.0,1.0
84979.8658459,317165.53125,345655.15625,339211.78125,317541.0625,323227.96875,311244.3125,315216.21875,282396.5,-0.04541015625,0.86962890625,-0.486572265625,-26.367185592651367,-0.1831054538488388,4.119872570037842,100.0,232839.0,1.0
84979.8683353,316974.40625,344021.625,337932.03125,316206.03125,320367.125,310213.25,313860.625,281483.75,-0.040771484375,0.866943359375,-0.48486328125,-26.397703170776367,-0.0610351525247097,4.577636241912842,100.0,232840.0,1.0
84979.8709492,316817.65625,343870.25,337977.09375,316290.4375,320037.75,310537.1875,313844.53125,281659.625,-0.0380859375,0.864501953125,-0.486328125,-26.245115280151367,0.03051757626235485,4.852294445037842,100.0,232841.0,1.0
84979.9347797,316894.375,345415.75,339303.15625,317718.15625,322761.875,311808.90625,315218.625,282720.6875,-0.0361328125,0.8662109375,-0.4833984375,-25.726316452026367,0.0610351525247097,5.126952648162842,100.0,232842.0,1.0
84980.1020977,317094.65625,346499.96875,340056.25,318483.3125,324766.84375,312250.21875,316074.0625,283189.71875,-0.031494140625,0.868408203125,-0.481201171875,-25.299070358276367,0.1525878757238388,5.401610851287842,100.0,232843.0,1.0
84980.1021375,317163.75,345671.625,339228.0625,317549.09375,323263.8125,311249.65625,315219.4375,282416.8125,-0.0302734375,0.870849609375,-0.481689453125,-24.902341842651367,0.3051757514476776,5.615233898162842,100.0,232844.0,1.0
84980.1021467,316975.90625,344041.09375,337951.34375,316216.03125,320384.5625,310206.09375,313847.21875,281487.59375,-0.027587890625,0.871826171875,-0.479248046875,-24.444578170776367,0.6713866591453552,5.920409679412842,100.0,232845.0,1.0
84980.1021545,316809.0,343868.71875,337976.09375,316283.71875,320024.25,310522.15625,313815.03125,281653.8125,-0.02490234375,0.867919921875,-0.482666015625,-24.169919967651367,0.9155272841453552,6.195067882537842,100.0,232846.0,1.0
84980.1021631,316879.28125,345396.59375,339284.5625,317702.4375,322734.25,311791.03125,315189.03125,282714.53125,-0.021484375,0.865478515625,-0.479736328125,-24.017332077026367,1.4343260526657104,6.439208507537842,100.0,232847.0,1.0
84980.1021709,317077.75,346483.875,340037.5625,318469.71875,324751.28125,312237.875,316048.3125,283183.125,-0.021240234375,0.8603515625,-0.4794921875,-23.864744186401367,1.9836424589157104,6.805419445037842,100.0,232848.0,1.0
84980.1021789,317147.40625,345671.4375,339222.875,317540.34375,323264.90625,311250.125,315191.4375,282413.78125,-0.018310546875,0.854736328125,-0.479736328125,-23.559568405151367,2.685546636581421,7.110595226287842,100.0,232849.0,1.0
84980.1021867,316968.125,344057.90625,337961.625,316214.15625,320403.40625,310210.3125,313825.9375,281492.78125,-0.014892578125,0.85107421875,-0.477294921875,-23.071287155151367,3.326415777206421,7.171630382537842,100.0,232850.0,1.0
84980.1021945,316804.15625,343872.3125,337977.4375,316281.65625,320036.59375,310521.90625,313789.1875,281656.3125,-0.012939453125,0.847412109375,-0.478515625,-22.583005905151367,3.997802495956421,7.385253429412842,100.0,232851.0,1.0
84980.1022022,316866.3125,345374.53125,339261.9375,317688.84375,322733.375,311779.65625,315156.03125,282706.84375,-0.008544921875,0.845458984375,-0.47509765625,-22.094724655151367,4.638671398162842,7.812499523162842,100.0,232852.0,1.0
84980.10221,317076.9375,346471.28125,340026.46875,318470.71875,324772.46875,312232.25,316031.875,283185.25,-0.008544921875,0.845458984375,-0.4716796875,-21.575925827026367,5.249022960662842,8.178709983825684,100.0,232853.0,1.0
84980.1022181,317152.40625,345677.15625,339233.6875,317552.5,323311.65625,311246.625,315183.5625,282418.15625,-0.005859375,0.8427734375,-0.4736328125,-20.965574264526367,5.798339366912842,8.300780296325684,100.0,232854.0,1.0
84980.1022264,316970.8125,344063.1875,337973.875,316220.6875,320454.90625,310202.71875,313811.71875,281489.9375,-0.004150390625,0.84765625,-0.4736328125,-20.599363327026367,6.286620616912842,8.544920921325684,100.0,232855.0,1.0
84980.1022405,316796.5625,343855.125,337969.3125,316272.375,320079.3125,310509.71875,313766.75,281641.46875,-0.005615234375,0.853271484375,-0.475830078125,-19.897459030151367,6.896972179412842,8.819579124450684,100.0,232856.0,1.0
84980.1022484,316845.03125,345333.21875,339232.53125,317670.59375,322772.71875,311766.4375,315127.34375,282686.28125,-0.00390625,0.854248046875,-0.479248046875,-19.561765670776367,7.507323741912842,8.911131858825684,100.0,232857.0,1.0
84980.1022576,317047.71875,346428.4375,339996.875,318452.84375,324822.0,312223.5625,315998.59375,283162.90625,-0.00341796875,0.853271484375,-0.482177734375,-19.042966842651367,8.087157249450684,8.911131858825684,100.0,232858.0,1.0
84980.1061789,317134.625,345660.1875,339225.65625,317550.625,323383.09375,311247.25,315157.03125,282403.9375,-0.006103515625,0.854248046875,-0.4833984375,-18.341062545776367,8.819579124450684,8.819579124450684,100.0,232859.0,1.0
84980.1163628,316962.15625,344062.46875,337979.03125,316226.875,320528.59375,310203.96875,313786.59375,281479.09375,-0.00830078125,0.85546875,-0.48486328125,-17.639158248901367,9.674071311950684,8.514403343200684,100.0,232860.0,1.0
84980.1958846,316794.25,343859.15625,337973.78125,316277.1875,320144.40625,310513.125,313747.59375,281638.53125,-0.010986328125,0.85693359375,-0.4833984375,-17.150876998901367,10.528563499450684,8.209227561950684,100.0,232861.0,1.0
84980.1959258,316847.96875,345334.28125,339235.9375,317672.9375,322828.125,311781.375,315121.625,282696.28125,-0.013671875,0.861328125,-0.48388671875,-16.479490280151367,11.260985374450684,7.843017101287842,100.0,232862.0,1.0
84980.209631,317056.75,346440.34375,340008.3125,318464.4375,324882.0,312252.8125,316011.84375,283185.09375,-0.01904296875,0.867431640625,-0.482421875,-15.899657249450684,12.054442405700684,7.385253429412842,100.0,232863.0,1.0
84980.2096659,317142.84375,345682.71875,339247.8125,317566.09375,323446.84375,311272.46875,315177.125,282419.03125,-0.0224609375,0.87158203125,-0.478271484375,-15.472411155700684,12.573241233825684,6.805419445037842,100.0,232864.0,1.0
84980.2096745,316964.125,344082.875,337999.78125,316234.90625,320580.0,310213.78125,313802.15625,281480.4375,-0.025634765625,0.875732421875,-0.4755859375,-14.953612327575684,13.061522483825684,6.195067882537842,100.0,232865.0,1.0
84980.2096823,316778.9375,343853.25,337968.9375,316259.5,320150.5625,310500.71875,313743.9375,281619.5625,-0.029541015625,0.883544921875,-0.46728515625,-14.526366233825684,13.305663108825684,5.523681163787842,100.0,232866.0,1.0
84980.2096903,316821.59375,345316.5,339210.34375,317640.125,322800.59375,311760.28125,315111.59375,282666.78125,-0.030029296875,0.892333984375,-0.4638671875,-14.221190452575684,13.366698265075684,4.882812023162842,100.0,232867.0,1.0
84980.2096983,317033.84375,346429.4375,339990.15625,318440.3125,324849.625,312235.46875,316005.9375,283160.5,-0.033935546875,0.901123046875,-0.45947265625,-13.977049827575684,13.183592796325684,4.364013195037842,100.0,232868.0,1.0
84980.2121057,317137.125,345693.78125,339253.8125,317566.90625,323433.96875,311266.21875,315185.8125,282414.84375,-0.03515625,0.90478515625,-0.45654296875,-13.916014671325684,13.061522483825684,3.784179449081421,100.0,232869.0,1.0
84980.2147753,316959.5625,344089.3125,338003.1875,316234.5625,320559.4375,310202.1875,313800.71875,281475.875,-0.039306640625,0.909423828125,-0.45849609375,-13.977049827575684,12.817381858825684,3.234863042831421,100.0,232870.0,1.0
84980.2148128,316778.59375,343855.78125,337968.0625,316256.71875,320125.1875,310493.71875,313737.59375,281616.15625,-0.0380859375,0.912841796875,-0.45703125,-14.129637718200684,12.573241233825684,2.685546636581421,100.0,232871.0,1.0
84980.281078,316820.875,345313.28125,339204.09375,317632.0625,322778.59375,311760.90625,315103.65625,282667.0625,-0.033935546875,0.9111328125,-0.4560546875,-14.343260765075684,12.298583030700684,2.136230230331421,100.0,232872.0,1.0
84980.2811162,317025.625,346426.40625,339983.5625,318432.71875,324851.875,312235.03125,316005.84375,283165.875,-0.029296875,0.90771484375,-0.462158203125,-14.312743186950684,12.176512718200684,1.5869139432907104,100.0,232873.0,1.0
84980.2811251,317123.71875,345695.9375,339254.625,317566.625,323458.1875,311260.03125,315185.0,282420.65625,-0.028076171875,0.9052734375,-0.466064453125,-14.373778343200684,12.176512718200684,1.0070799589157104,100.0,232874.0,1.0
84980.2811333,316950.625,344096.09375,338011.0625,316239.03125,320587.25,310194.125,313791.59375,281480.53125,-0.0224609375,0.903076171875,-0.464111328125,-14.129637718200684,12.237547874450684,0.5187987685203552,100.0,232875.0,1.0
84980.2811411,316762.59375,343849.96875,337961.4375,316245.8125,320133.15625,310480.0625,313717.9375,281614.75,-0.021484375,0.89990234375,-0.465576171875,-13.885497093200684,12.298583030700684,0.1525878757238388,100.0,232876.0,1.0
84980.2811488,316794.40625,345293.875,339178.625,317605.53125,322760.28125,311737.90625,315074.59375,282657.65625,-0.018798828125,0.898681640625,-0.462158203125,-13.610838890075684,12.390135765075684,0.03051757626235485,100.0,232877.0,1.0
84980.2835497,317007.75,346419.6875,339968.96875,318418.0625,324835.9375,312229.84375,315986.28125,283165.0625,-0.018310546875,0.897705078125,-0.46337890625,-13.427733421325684,12.573241233825684,-0.3662109076976776,100.0,232878.0,1.0
84980.2835857,317110.375,345697.09375,339248.625,317560.28125,323444.78125,311254.125,315164.96875,282419.5,-0.0185546875,0.896484375,-0.4599609375,-13.031004905700684,12.847899436950684,-0.4882812201976776,100.0,232879.0,1.0
84980.2876776,316936.21875,344094.9375,338004.96875,316234.1875,320570.53125,310179.71875,313771.21875,281476.0625,-0.020263671875,0.898193359375,-0.4599609375,-12.786864280700684,12.817381858825684,-0.6408690810203552,100.0,232880.0,1.0
84980.2877179,316755.34375,343844.40625,337953.21875,316237.3125,320105.53125,310467.96875,313697.0,281609.46875,-0.01904296875,0.894775390625,-0.4609375,-12.573241233825684,12.908934593200684,-0.6713866591453552,100.0,232881.0,1.0
84980.2877275,316774.40625,345271.96875,339155.09375,317581.125,322717.0,311723.0,315047.0625,282637.03125,-0.023193359375,0.891357421875,-0.457763671875,-12.481688499450684,13.000487327575684,-0.7629393935203552,100.0,232882.0,1.0
84980.2997666,317005.15625,346418.0,339967.46875,318415.90625,324826.46875,312237.6875,315986.71875,283163.1875,-0.0244140625,0.888916015625,-0.461181640625,-12.145995140075684,12.939452171325684,-0.8850097060203552,100.0,232883.0,1.0
84980.3608171,317136.9375,345726.4375,339284.5625,317595.875,323480.4375,311291.78125,315198.78125,282447.28125,-0.02587890625,0.886474609375,-0.4609375,-11.749266624450684,12.908934593200684,-1.0070799589157104,100.0,232884.0,1.0
84980.3608369,316968.59375,344123.28125,338045.125,316271.125,320610.65625,310214.78125,313807.40625,281502.71875,-0.02685546875,0.88525390625,-0.458984375,-11.291502952575684,12.786864280700684,-1.1901854276657104,100.0,232885.0,1.0
84980.3608386,316771.0,343847.28125,337968.3125,316248.0625,320113.125,310480.0625,313709.875,281615.71875,-0.028564453125,0.883056640625,-0.462890625,-10.803221702575684,12.695311546325684,-1.2207030057907104,100.0,232886.0,1.0
84980.4558645,316785.75,345265.34375,339156.34375,317578.25,322708.15625,311730.75,315051.25,282639.15625,-0.029296875,0.88330078125,-0.463134765625,-10.345458030700684,12.451170921325684,-1.1596678495407104,100.0,232887.0,1.0
84980.4559003,316993.4375,346395.09375,339948.9375,318396.40625,324804.03125,312227.59375,315969.71875,283153.0,-0.029541015625,0.88330078125,-0.462158203125,-9.948729515075684,12.207030296325684,-1.1291502714157104,100.0,232888.0,1.0
84980.4559075,317121.90625,345706.3125,339269.1875,317584.25,323465.25,311277.375,315174.53125,282431.46875,-0.02978515625,0.886474609375,-0.458251953125,-9.582518577575684,11.901854515075684,-1.1901854276657104,100.0,232889.0,1.0
84980.4559176,317121.90625,345706.3125,339269.1875,317584.25,323465.25,311277.375,315174.53125,282431.46875,-0.02978515625,0.886474609375,-0.458251953125,-9.582518577575684,11.901854515075684,-1.1901854276657104,100.0,232890.0,0.0
84980.4559188,317121.90625,345706.3125,339269.1875,317584.25,323465.25,311277.375,315174.53125,282431.46875,-0.02978515625,0.886474609375,-0.458251953125,-9.582518577575684,11.901854515075684,-1.1901854276657104,100.0,232891.0,0.0
84980.4559199,317121.90625,345706.3125,339269.1875,317584.25,323465.25,311277.375,315174.53125,282431.46875,-0.02978515625,0.886474609375,-0.458251953125,-9.582518577575684,11.901854515075684,-1.1901854276657104,100.0,232892.0,0.0
84980.455921,317121.90625,345706.3125,339269.1875,317584.25,323465.25,311277.375,315174.53125,282431.46875,-0.02978515625,0.886474609375,-0.458251953125,-9.582518577575684,11.901854515075684,-1.1901854276657104,100.0,232893.0,0.0
84980.455922,317121.90625,345706.3125,339269.1875,317584.25,323465.25,311277.375,315174.53125,282431.46875,-0.02978515625,0.886474609375,-0.458251953125,-9.582518577575684,11.901854515075684,-1.1901854276657104,100.0,232894.0,0.0
84980.4559232,317121.90625,345706.3125,339269.1875,317584.25,323465.25,311277.375,315174.53125,282431.46875,-0.02978515625,0.886474609375,-0.458251953125,-9.582518577575684,11.901854515075684,-1.1901854276657104,100.0,232895.0,0.0
84980.4559242,317121.90625,345706.3125,339269.1875,317584.25,323465.25,311277.375,315174.53125,282431.46875,-0.02978515625,0.886474609375,-0.458251953125,-9.582518577575684,11.901854515075684,-1.1901854276657104,100.0,232896.0,0.0
84980.4559253,317121.90625,345706.3125,339269.1875,317584.25,323465.25,311277.375,315174.53125,282431.46875,-0.02978515625,0.886474609375,-0.458251953125,-9.582518577575684,11.901854515075684,-1.1901854276657104,100.0,232897.0,0.0
84980.4559263,317121.90625,345706.3125,339269.1875,317584.25,323465.25,311277.375,315174.53125,282431.46875,-0.02978515625,0.886474609375,-0.458251953125,-9.582518577575684,11.901854515075684,-1.1901854276657104,100.0,232898.0,0.0
84980.4559274,317121.90625,345706.3125,339269.1875,317584.25,323465.25,311277.375,315174.53125,282431.46875,-0.02978515625,0.886474609375,-0.458251953125,-9.582518577575684,11.901854515075684,-1.1901854276657104,100.0,232899.0,0.0
84980.4559284,316956.78125,344110.84375,338046.375,316278.90625,320671.90625,310195.90625,313744.125,281469.09375,-0.026123046875,0.883056640625,-0.466796875,-5.676269054412842,8.483885765075684,-2.319335699081421,100.0,232900.0,1.0
84980.4559352,316742.65625,343789.875,337931.5625,316213.71875,320108.75,310429.34375,313610.71875,281553.84375,-0.0224609375,0.886474609375,-0.4638671875,-5.371093273162842,8.270262718200684,-2.380370855331421,100.0,232901.0,1.0
84980.4559415,316751.40625,345196.6875,339103.875,317519.59375,322675.25,311683.125,314946.1875,282570.6875,-0.02392578125,0.886474609375,-0.46337890625,-5.218505382537842,8.178709983825684,-2.380370855331421,100.0,232902.0,1.0
84980.4559478,316957.40625,346346.375,339908.71875,318352.6875,324802.6875,312197.65625,315879.6875,283087.625,-0.0205078125,0.88720703125,-0.46630859375,-5.157470226287842,8.209227561950684,-2.380370855331421,100.0,232903.0,1.0
84980.4559541,317088.84375,345684.0625,339255.96875,317571.71875,323516.40625,311258.4375,315102.9375,282383.375,-0.020751953125,0.88525390625,-0.467529296875,-5.218505382537842,8.056639671325684,-2.380370855331421,100.0,232904.0,1.0
84980.4559602,316924.0625,344075.53125,338018.84375,316254.65625,320645.96875,310168.28125,313695.84375,281433.875,-0.0185546875,0.883544921875,-0.465576171875,-5.249022960662842,7.995604991912842,-2.349853277206421,100.0,232905.0,1.0
84980.4559663,316717.15625,343757.59375,337904.3125,316186.71875,320086.84375,310406.90625,313566.8125,281520.59375,-0.01904296875,0.88330078125,-0.470947265625,-5.218505382537842,7.965087413787842,-2.319335699081421,100.0,232906.0,1.0
84980.4559725,316760.4375,345193.125,339101.5625,317514.6875,322664.53125,311694.46875,314923.5,282565.5,-0.0185546875,0.88037109375,-0.477294921875,-5.035399913787842,7.873534679412842,-2.349853277206421,100.0,232907.0,1.0
84980.4559796,316971.25,346362.28125,339920.15625,318359.75,324798.21875,312224.1875,315870.125,283096.21875,-0.021240234375,0.87890625,-0.4755859375,-4.852294445037842,7.720946788787842,-2.502441167831421,100.0,232908.0,1.0
84980.4597434,317108.875,345712.125,339284.84375,317603.375,323545.90625,311291.34375,315112.3125,282399.71875,-0.0224609375,0.875244140625,-0.47607421875,-4.608153820037842,7.751464366912842,-2.746581792831421,100.0,232909.0,1.0
84980.4597797,317108.875,345712.125,339284.84375,317603.375,323545.90625,311291.34375,315112.3125,282399.71875,-0.0224609375,0.875244140625,-0.47607421875,-4.608153820037842,7.751464366912842,-2.746581792831421,100.0,232910.0,0.0
84980.4597814,317108.875,345712.125,339284.84375,317603.375,323545.90625,311291.34375,315112.3125,282399.71875,-0.0224609375,0.875244140625,-0.47607421875,-4.608153820037842,7.751464366912842,-2.746581792831421,100.0,232911.0,0.0
84980.4597827,317108.875,345712.125,339284.84375,317603.375,323545.90625,311291.34375,315112.3125,282399.71875,-0.0224609375,0.875244140625,-0.47607421875,-4.608153820037842,7.751464366912842,-2.746581792831421,100.0,232912.0,0.0
84980.459784,317108.875,345712.125,339284.84375,317603.375,323545.90625,311291.34375,315112.3125,282399.71875,-0.0224609375,0.875244140625,-0.47607421875,-4.608153820037842,7.751464366912842,-2.746581792831421,100.0,232913.0,0.0
84980.4597854,317108.875,345712.125,339284.84375,317603.375,323545.90625,311291.34375,315112.3125,282399.71875,-0.0224609375,0.875244140625,-0.47607421875,-4.608153820037842,7.751464366912842,-2.746581792831421,100.0,232914.0,0.0
84980.4597867,317108.875,345712.125,339284.84375,317603.375,323545.90625,311291.34375,315112.3125,282399.71875,-0.0224609375,0.875244140625,-0.47607421875,-4.608153820037842,7.751464366912842,-2.746581792831421,100.0,232915.0,0.0
84980.4597881,317108.875,345712.125,339284.84375,317603.375,323545.90625,311291.34375,315112.3125,282399.71875,-0.0224609375,0.875244140625,-0.47607421875,-4.608153820037842,7.751464366912842,-2.746581792831421,100.0,232916.0,0.0
84980.4597894,317108.875,345712.125,339284.84375,317603.375,323545.90625,311291.34375,315112.3125,282399.71875,-0.0224609375,0.875244140625,-0.47607421875,-4.608153820037842,7.751464366912842,-2.746581792831421,100.0,232917.0,0.0
84980.4597907,317108.875,345712.125,339284.84375,317603.375,323545.90625,311291.34375,315112.3125,282399.71875,-0.0224609375,0.875244140625,-0.47607421875,-4.608153820037842,7.751464366912842,-2.746581792831421,100.0,232918.0,0.0
84980.459792,317108.875,345712.125,339284.84375,317603.375,323545.90625,311291.34375,315112.3125,282399.71875,-0.0224609375,0.875244140625,-0.47607421875,-4.608153820037842,7.751464366912842,-2.746581792831421,100.0,232919.0,0.0
84980.4597933,316957.5,344100.375,338085.875,316327.34375,320774.09375,310211.28125,313715.59375,281406.34375,-0.036865234375,0.884033203125,-0.471923828125,-7.080077648162842,6.591796398162842,-3.753661870956421,100.0,232920.0,1.0
84980.4598033,316737.09375,343729.625,337929.25,316212.28125,320176.25,310409.78125,313547.5,281454.875,-0.03369140625,0.888427734375,-0.46533203125,-7.629394054412842,6.317138195037842,-3.662109136581421,100.0,232921.0,1.0
84980.4645242,316730.84375,345063.75,339050.40625,317458.09375,322664.625,311637.15625,314831.03125,282440.15625,-0.032470703125,0.895751953125,-0.462158203125,-8.239745140075684,5.950927257537842,-3.540038824081421,100.0,232922.0,1.0
84980.4662441,316955.0,346238.28125,339892.0,318328.90625,324829.78125,312195.40625,315790.125,282986.875,-0.031982421875,0.90478515625,-0.45947265625,-8.728026390075684,5.615233898162842,-3.326415777206421,100.0,232923.0,1.0
84980.4734474,317110.28125,345672.34375,339311.65625,317630.90625,323670.71875,311311.71875,315084.34375,282322.9375,-0.030029296875,0.915283203125,-0.462158203125,-9.552000999450684,5.126952648162842,-3.143310308456421,100.0,232924.0,1.0
84980.475815,316951.0625,344099.9375,338091.0625,316333.4375,320867.0,310218.8125,313701.84375,281359.21875,-0.026611328125,0.924560546875,-0.4638671875,-10.223387718200684,4.638671398162842,-2.899169683456421,100.0,232925.0,1.0
84980.4833396,316722.8125,343703.5,337913.15625,316190.125,320221.21875,310385.0,313506.75,281399.53125,-0.023681640625,0.93359375,-0.460693359375,-10.833739280700684,4.211425304412842,-2.593993902206421,100.0,232926.0,1.0
84980.4859787,316718.25,345024.21875,339027.25,317422.5,322681.875,311576.53125,314778.75,282393.28125,-0.01953125,0.94140625,-0.457763671875,-11.627196311950684,3.936767339706421,-2.166747808456421,100.0,232927.0,1.0
84980.4884693,316939.875,346207.53125,339867.78125,318292.25,324851.15625,312121.46875,315734.9375,282941.625,-0.014892578125,0.9453125,-0.4521484375,-12.542723655700684,3.753661870956421,-1.6479490995407104,100.0,232928.0,1.0
84980.4909292,317101.4375,345680.375,339310.84375,317618.65625,323725.96875,311257.53125,315040.0625,282302.375,-0.0126953125,0.942138671875,-0.447998046875,-13.519286155700684,3.692626714706421,-1.2207030057907104,100.0,232929.0,1.0
84980.4934426,316951.15625,344141.875,338107.0625,316338.53125,320950.15625,310181.34375,313675.71875,281380.125,-0.0107421875,0.93896484375,-0.441650390625,-14.434813499450684,3.845214605331421,-0.7324218153953552,100.0,232930.0,1.0
84980.5008252,316721.0,343730.40625,337908.40625,316182.6875,320304.34375,310359.0,313488.15625,281422.59375,-0.0107421875,0.9345703125,-0.441650390625,-15.319823265075684,4.241942882537842,-0.3967284858226776,100.0,232931.0,1.0
84980.5059378,316706.0,344997.5,338984.15625,317386.03125,322721.125,311554.46875,314736.09375,282388.5625,-0.009765625,0.929443359375,-0.442626953125,-16.021726608276367,4.547118663787842,-0.2136230319738388,100.0,232932.0,1.0
84980.5083269,316932.1875,346175.4375,339831.5625,318264.8125,324887.90625,312116.375,315698.125,282950.125,-0.0107421875,0.92138671875,-0.448486328125,-16.387937545776367,4.821776866912842,0.2136230319738388,100.0,232933.0,1.0
84980.513315,317107.0,345686.5625,339313.625,317626.875,323801.25,311270.5,315031.5,282325.96875,-0.0107421875,0.91259765625,-0.451904296875,-16.296384811401367,4.852294445037842,0.4882812201976776,100.0,232934.0,1.0
84980.515894,316967.5,344166.71875,338132.46875,316371.25,321025.25,310202.875,313681.0,281403.5625,-0.01318359375,0.906982421875,-0.448486328125,-16.021726608276367,4.913329601287842,0.7629393935203552,100.0,232935.0,1.0
84980.5185205,316720.65625,343709.40625,337899.46875,316190.84375,320308.03125,310346.9375,313471.875,281423.0625,-0.015380859375,0.90478515625,-0.447998046875,-15.716551780700684,5.004882335662842,1.0375975370407104,100.0,232936.0,1.0
84980.5185604,316699.46875,344932.5,338941.25,317369.46875,322658.8125,311531.3125,314710.4375,282385.875,-0.01513671875,0.908935546875,-0.4423828125,-15.594481468200684,5.096435070037842,1.3427733182907104,100.0,232937.0,1.0
84980.5234004,316925.9375,346109.8125,339788.375,318246.3125,324789.09375,312097.875,315672.625,282950.65625,-0.016357421875,0.9111328125,-0.43359375,-15.441893577575684,5.035399913787842,1.8310545682907104,100.0,232938.0,1.0
84980.5258397,317124.59375,345686.5625,339316.125,317645.84375,323733.125,311278.71875,315042.21875,282352.53125,-0.019775390625,0.91748046875,-0.424560546875,-15.533446311950684,5.065917491912842,2.197265386581421,100.0,232939.0,1.0
84980.5283037,317008.28125,344224.5625,338171.4375,316417.375,321010.0625,310240.15625,313728.75,281456.21875,-0.020263671875,0.919921875,-0.427978515625,-15.808104515075684,5.187987804412842,2.410888433456421,100.0,232940.0,1.0
84980.5420883,316752.84375,343734.09375,337913.0625,316213.53125,320269.21875,310371.6875,313498.25,281457.03125,-0.022705078125,0.924072265625,-0.425537109375,-16.143796920776367,5.157470226287842,2.838134527206421,100.0,232941.0,1.0
84980.542127,316701.96875,344888.6875,338905.125,317351.0625,322552.0625,311518.78125,314696.40625,282388.03125,-0.0244140625,0.92529296875,-0.41845703125,-16.571043014526367,5.004882335662842,3.143310308456421,100.0,232942.0,1.0
84980.5421356,316930.84375,346061.71875,339761.5625,318237.53125,324684.3125,312085.875,315659.5,282957.8125,-0.025146484375,0.92626953125,-0.416015625,-16.906736373901367,4.882812023162842,3.417968511581421,100.0,232943.0,1.0
84980.5421441,317145.25,345708.28125,339341.59375,317673.90625,323702.71875,311305.1875,315059.5625,282386.6875,-0.025634765625,0.927978515625,-0.4150390625,-17.211912155151367,4.577636241912842,3.692626714706421,100.0,232944.0,1.0
84980.5421519,317018.46875,344270.96875,338203.1875,316439.75,321007.90625,310258.6875,313741.53125,281472.59375,-0.024169921875,0.92919921875,-0.412109375,-17.486570358276367,4.302978038787842,4.028319835662842,100.0,232945.0,1.0
84980.5421596,316756.78125,343753.9375,337919.59375,316214.0,320253.125,310368.90625,313499.875,281452.65625,-0.023681640625,0.93212890625,-0.407958984375,-17.730710983276367,4.058837413787842,4.302978038787842,100.0,232946.0,1.0
84980.5421673,316702.59375,344853.375,338875.96875,317329.34375,322497.0625,311498.65625,314676.625,282373.28125,-0.02099609375,0.93359375,-0.404296875,-18.188474655151367,3.997802495956421,4.608153820037842,100.0,232947.0,1.0
84980.5421752,316938.8125,346038.28125,339737.59375,318226.71875,324637.375,312082.59375,315648.03125,282954.59375,-0.01904296875,0.937255859375,-0.395263671875,-18.676755905151367,3.814697027206421,4.974364757537842,100.0,232948.0,1.0
84980.5421829,317158.65625,345741.1875,339354.03125,317687.59375,323701.46875,311316.375,315062.0625,282385.78125,-0.01806640625,0.939453125,-0.393310546875,-19.165037155151367,3.723144292831421,5.187987804412842,100.0,232949.0,1.0
84980.5421907,317025.1875,344331.5,338235.03125,316462.09375,321046.25,310274.78125,313746.34375,281470.96875,-0.017822265625,0.941162109375,-0.3916015625,-19.561765670776367,3.692626714706421,5.401610851287842,100.0,232950.0,1.0
84980.5421985,316755.625,343775.46875,337931.40625,316220.59375,320283.15625,310380.4375,313491.625,281453.53125,-0.017822265625,0.94287109375,-0.39306640625,-20.019529342651367,3.631591558456421,5.493163585662842,100.0,232951.0,1.0
84980.5422067,316693.9375,344816.0,338851.21875,317310.21875,322487.3125,311491.59375,314648.75,282364.3125,-0.017333984375,0.945068359375,-0.392578125,-20.385740280151367,3.540038824081421,5.493163585662842,100.0,232952.0,1.0
84980.5422146,316919.40625,345979.28125,339699.9375,318196.84375,324604.65625,312053.4375,315602.4375,282925.09375,-0.016357421875,0.947021484375,-0.392822265625,-20.599363327026367,3.387450933456421,5.645751476287842,100.0,232953.0,1.0
84980.5422225,317154.0,345738.0625,339360.03125,317689.03125,323709.34375,311309.125,315040.0625,282373.09375,-0.0146484375,0.9443359375,-0.390869140625,-20.812986373901367,3.295898199081421,5.645751476287842,100.0,232954.0,1.0
84980.5422304,317030.71875,344372.1875,338269.71875,316481.75,321085.875,310283.53125,313748.6875,281478.9375,-0.015380859375,0.941162109375,-0.39111328125,-20.782468795776367,3.295898199081421,5.432128429412842,100.0,232955.0,1.0
84980.5422607,317030.71875,344372.1875,338269.71875,316481.75,321085.875,310283.53125,313748.6875,281478.9375,-0.015380859375,0.941162109375,-0.39111328125,-20.782468795776367,3.295898199081421,5.432128429412842,100.0,232956.0,0.0
84980.5422622,317030.71875,344372.1875,338269.71875,316481.75,321085.875,310283.53125,313748.6875,281478.9375,-0.015380859375,0.941162109375,-0.39111328125,-20.782468795776367,3.295898199081421,5.432128429412842,100.0,232957.0,0.0
84980.5422636,317030.71875,344372.1875,338269.71875,316481.75,321085.875,310283.53125,313748.6875,281478.9375,-0.015380859375,0.941162109375,-0.39111328125,-20.782468795776367,3.295898199081421,5.432128429412842,100.0,232958.0,0.0
84980.542265,317030.71875,344372.1875,338269.71875,316481.75,321085.875,310283.53125,313748.6875,281478.9375,-0.015380859375,0.941162109375,-0.39111328125,-20.782468795776367,3.295898199081421,5.432128429412842,100.0,232959.0,0.0
