Time,FZ,C3,CZ,C4,PZ,PO7,OZ,PO8,AccX,AccY,AccZ,Gyro1,Gyro2,Gyro3,Battery,Counter,Validation
483243.6034274,289265.21875,314231.75,415787.09375,339047.1875,396935.53125,271012.59375,383029.15625,276208.375,-0.0791015625,0.8759765625,-0.48095703125,3.295898199081421,4.028319835662842,1.8310545682907104,60.0,1145180.0,1.0
483243.6074245,289971.34375,316396.75,420059.75,341679.15625,399356.59375,271141.4375,385727.03125,276850.6875,-0.078125,0.876708984375,-0.480712890625,3.417968511581421,3.936767339706421,1.8920897245407104,60.0,1145181.0,1.0
483243.6074366,290036.53125,312490.46875,414712.0625,337980.21875,395856.65625,269520.75,381654.625,275201.21875,-0.07568359375,0.875732421875,-0.4814453125,3.356933355331421,3.875732183456421,1.8920897245407104,60.0,1145182.0,1.0
483243.6074385,289191.875,308093.40625,407204.625,332892.5,391308.78125,268478.34375,376238.78125,273551.125,-0.07568359375,0.876708984375,-0.47998046875,3.326415777206421,3.723144292831421,1.7700194120407104,60.0,1145183.0,1.0
483243.6144542,288471.375,308978.71875,407210.4375,332733.0,391536.34375,269353.09375,376188.90625,273979.375,-0.07568359375,0.87548828125,-0.481201171875,3.234863042831421,3.662109136581421,1.6479490995407104,60.0,1145184.0,1.0
483243.6284297,288828.4375,314002.875,414563.90625,337442.78125,396106.28125,271006.6875,381200.875,275871.9375,-0.075439453125,0.878662109375,-0.482421875,3.234863042831421,3.601073980331421,1.5869139432907104,60.0,1145185.0,1.0
483243.6335355,289644.8125,316257.96875,418910.6875,340170.9375,398572.125,271169.21875,383955.5,276556.0,-0.07568359375,0.882080078125,-0.483642578125,3.387450933456421,3.662109136581421,1.5258787870407104,60.0,1145186.0,1.0
483243.633552,289693.65625,312327.375,413548.0625,336538.96875,395049.65625,269533.09375,379873.8125,274898.5625,-0.074951171875,0.882080078125,-0.481201171875,3.265380620956421,3.601073980331421,1.6174315214157104,60.0,1145187.0,1.0
483243.6335545,288831.65625,307913.25,406031.625,331533.25,390495.8125,268484.53125,374451.71875,273260.90625,-0.07470703125,0.87939453125,-0.479736328125,3.234863042831421,3.479003667831421,1.4648436307907104,60.0,1145188.0,1.0
483243.6335573,288169.6875,308847.375,406100.28125,331515.53125,390771.8125,269372.96875,374474.0,273726.53125,-0.0751953125,0.8779296875,-0.48046875,3.082275152206421,3.509521245956421,1.3427733182907104,60.0,1145189.0,1.0
483243.6358942,288610.9375,313941.53125,413541.625,336404.5,395408.28125,271017.875,379624.90625,275650.125,-0.075439453125,0.876953125,-0.4814453125,2.899169683456421,3.387450933456421,1.2512205839157104,60.0,1145190.0,1.0
483243.6359118,289445.34375,316218.71875,417940.34375,339316.40625,397921.25,271160.375,382531.09375,276353.9375,-0.07666015625,0.876220703125,-0.4833984375,2.807616949081421,3.417968511581421,1.1596678495407104,60.0,1145191.0,1.0
483243.6534417,289475.84375,312280.15625,412621.625,335895.40625,394469.0625,269528.78125,378618.28125,274755.78125,-0.077880859375,0.874267578125,-0.4853515625,2.838134527206421,3.417968511581421,1.0375975370407104,60.0,1145192.0,1.0
483243.6558235,288554.6875,307813.3125,405103.75,331040.78125,389949.96875,268470.3125,373321.4375,273138.6875,-0.07763671875,0.874267578125,-0.484130859375,2.807616949081421,3.479003667831421,0.9155272841453552,60.0,1145193.0,1.0
483243.6558468,287875.90625,308728.03125,405165.625,331108.3125,390244.9375,269346.03125,373433.125,273606.28125,-0.07666015625,0.875,-0.483642578125,2.838134527206421,3.387450933456421,0.9155272841453552,60.0,1145194.0,1.0
483243.6584213,288381.875,313864.46875,412639.6875,336063.0625,394926.8125,271018.40625,378672.09375,275555.53125,-0.074462890625,0.876953125,-0.485107421875,2.838134527206421,3.417968511581421,0.7324218153953552,60.0,1145195.0,1.0
483243.6784363,289251.875,316148.90625,417043.78125,339012.40625,397450.6875,271167.4375,381621.28125,276270.15625,-0.072998046875,0.875732421875,-0.482666015625,2.746581792831421,3.540038824081421,0.7629393935203552,60.0,1145196.0,1.0
483243.6784762,289225.34375,312148.5625,411653.78125,335576.9375,393950.6875,269513.15625,377671.0,274646.53125,-0.074462890625,0.874755859375,-0.4833984375,2.716064214706421,3.540038824081421,0.6408690810203552,60.0,1145197.0,1.0
483243.6808912,288225.84375,307607.9375,404020.125,330650.4375,389350.0625,268444.375,372274.65625,273006.625,-0.07421875,0.8740234375,-0.4873046875,2.655029058456421,3.662109136581421,0.5798339247703552,60.0,1145198.0,1.0
483243.6834208,287502.375,308492.8125,403977.75,330582.21875,389567.15625,269323.875,372270.75,273445.625,-0.07421875,0.872314453125,-0.48291015625,2.593993902206421,3.631591558456421,0.5493163466453552,60.0,1145199.0,1.0
483243.6859481,287979.8125,313610.625,411323.34375,335351.65625,394150.3125,270995.78125,377356.21875,275347.40625,-0.07373046875,0.8720703125,-0.48583984375,2.655029058456421,3.814697027206421,0.4882812201976776,60.0,1145200.0,1.0
483243.6909069,288784.375,315851.875,415561.25,338113.875,396570.46875,271141.25,380131.9375,276015.09375,-0.0751953125,0.87109375,-0.485107421875,2.624511480331421,3.997802495956421,0.5798339247703552,60.0,1145201.0,1.0
483243.6935449,288589.65625,311727.375,409920.71875,334460.34375,392917.9375,269448.15625,375945.4375,274327.09375,-0.07666015625,0.871337890625,-0.486572265625,2.563476324081421,4.150390148162842,0.5187987685203552,60.0,1145202.0,1.0
483243.6959968,287422.34375,307066.75,402018.59375,329308.71875,388155.3125,268362.65625,370293.3125,272622.1875,-0.078369140625,0.872802734375,-0.48681640625,2.563476324081421,4.333495616912842,0.5493163466453552,60.0,1145203.0,1.0
483243.6960392,286614.09375,307897.96875,401766.1875,329051.65625,388245.0,269263.53125,370081.96875,273027.8125,-0.078857421875,0.87548828125,-0.48779296875,2.532958745956421,4.333495616912842,0.4882812201976776,60.0,1145204.0,1.0
483243.6984229,287045.125,312983.53125,408947.4375,333638.78125,392723.65625,270940.53125,374994.25,274901.34375,-0.08056640625,0.876953125,-0.48583984375,2.441406011581421,4.394530773162842,0.4577636420726776,60.0,1145205.0,1.0
483243.7310279,287773.71875,315157.46875,413012.15625,336242.75,395032.59375,271076.96875,377583.375,275527.375,-0.0810546875,0.877685546875,-0.48779296875,2.410888433456421,4.486083507537842,0.4882812201976776,60.0,1145206.0,1.0
483243.7310703,287487.71875,310946.21875,407189.71875,332514.75,391289.75,269393.25,373219.25,273829.71875,-0.082275390625,0.8798828125,-0.48486328125,2.258300542831421,4.516601085662842,0.3967284858226776,60.0,1145207.0,1.0
483243.7334978,286241.09375,306210.25,399103.1875,327299.1875,386436.90625,268308.84375,367392.15625,272123.03125,-0.08251953125,0.876708984375,-0.483154296875,2.075195074081421,4.516601085662842,0.3051757514476776,60.0,1145208.0,1.0
483243.7335371,285393.0625,307008.28125,398699.4375,326947.9375,386424.84375,269174.21875,367006.71875,272491.375,-0.08251953125,0.87890625,-0.484130859375,1.9531248807907104,4.455565929412842,0.4577636420726776,60.0,1145209.0,1.0
483243.735964,285912.53125,312175.125,405852.28125,331550.6875,390873.46875,270865.96875,371845.53125,274369.28125,-0.08251953125,0.877685546875,-0.485107421875,1.8920897245407104,4.638671398162842,0.3051757514476776,60.0,1145210.0,1.0
483243.7384705,286769.40625,314460.53125,409960.4375,334279.21875,393191.625,271023.5,374436.34375,275043.875,-0.081787109375,0.877197265625,-0.486083984375,1.7089842557907104,4.608153820037842,0.4882812201976776,60.0,1145211.0,1.0
483243.7409802,286548.3125,310299.4375,404152.46875,330684.34375,389411.40625,269330.75,370059.78125,273361.21875,-0.079833984375,0.876953125,-0.48876953125,1.4343260526657104,4.547118663787842,0.5798339247703552,60.0,1145212.0,1.0
483243.7435337,285416.84375,305635.8125,396115.9375,325594.65625,384535.75,268238.28125,364230.71875,271666.96875,-0.08056640625,0.879638671875,-0.48876953125,1.4648436307907104,4.547118663787842,0.6408690810203552,60.0,1145213.0,1.0
483243.7483407,284891.78125,306638.15625,395888.65625,325396.53125,384585.84375,269164.71875,363902.15625,272100.3125,-0.07958984375,0.880615234375,-0.489990234375,1.4038084745407104,4.577636241912842,0.7629393935203552,60.0,1145214.0,1.0
483243.7509651,285830.1875,312040.03125,403266.53125,330122.6875,389099.71875,270901.71875,368807.65625,274019.625,-0.08056640625,0.8798828125,-0.488525390625,1.2817381620407104,4.608153820037842,0.7019042372703552,60.0,1145215.0,1.0
483243.753465,286885.375,314425.9375,407507.71875,332963.75,391448.4375,271062.03125,371456.96875,274704.125,-0.079833984375,0.8779296875,-0.487548828125,1.1291502714157104,4.669188976287842,0.7324218153953552,60.0,1145216.0,1.0
483243.7584896,286761.53125,310300.625,401789.53125,329513.90625,387696.375,269364.46875,367137.96875,273045.0,-0.081787109375,0.878173828125,-0.48876953125,1.0070799589157104,4.699706554412842,0.7019042372703552,60.0,1145217.0,1.0
483243.7611111,285736.65625,305672.8125,393837.5625,324564.25,382844.4375,268269.9375,361367.28125,271367.53125,-0.08056640625,0.8779296875,-0.4892578125,0.8850097060203552,4.760741710662842,0.8239745497703552,60.0,1145218.0,1.0
483243.761152,285396.28125,306771.28125,393761.84375,324504.34375,382948.34375,269200.5,361148.6875,271819.5,-0.079345703125,0.87646484375,-0.487548828125,0.8544921278953552,4.638671398162842,0.9155272841453552,60.0,1145219.0,1.0
483243.7632996,286671.96875,312366.4375,401399.0,329397.84375,387571.75,270974.78125,366205.8125,273787.6875,-0.07958984375,0.87744140625,-0.488525390625,0.8544921278953552,4.882812023162842,0.9460448622703552,60.0,1145220.0,1.0
483243.765841,288533.0625,315153.875,406081.9375,332410.25,390050.84375,271194.53125,368968.5625,274521.8125,-0.079833984375,0.878173828125,-0.48681640625,0.7324218153953552,4.791259288787842,1.0986326932907104,60.0,1145221.0,1.0
483243.768513,289473.0625,311511.4375,400869.53125,329089.03125,386391.59375,269535.6875,364678.125,272888.09375,-0.079345703125,0.87939453125,-0.485595703125,0.5493163466453552,4.760741710662842,1.1901854276657104,60.0,1145222.0,1.0
483243.772252,288576.5,306889.09375,393028.1875,324154.21875,381535.96875,268398.25,358892.84375,271192.125,-0.0771484375,0.878662109375,-0.48779296875,0.3662109076976776,4.760741710662842,1.1901854276657104,60.0,1145223.0,1.0
483243.7722936,287935.0,307828.15625,392897.46875,324053.1875,381634.25,269307.78125,358687.84375,271639.59375,-0.076171875,0.87841796875,-0.489501953125,0.2441406100988388,4.791259288787842,1.4038084745407104,60.0,1145224.0,1.0
483243.7783447,288722.15625,313206.6875,400413.90625,328884.65625,386261.5,271055.40625,363791.5625,273613.09375,-0.0751953125,0.877197265625,-0.4892578125,0.1831054538488388,4.852294445037842,1.4953612089157104,60.0,1145225.0,1.0
483243.793062,289592.25,315539.40625,404774.8125,331843.125,388716.78125,271205.875,366621.65625,274347.03125,-0.072998046875,0.87451171875,-0.49072265625,0.1220703050494194,4.882812023162842,1.6174315214157104,60.0,1145226.0,1.0
483243.7931018,289054.65625,311191.90625,399000.46875,328463.71875,384978.0625,269466.75,362382.5,272698.0,-0.074951171875,0.875,-0.49072265625,0.0610351525247097,5.035399913787842,1.7089842557907104,60.0,1145227.0,1.0
483243.8055943,287588.375,306328.625,390935.875,323526.125,380110.21875,268345.5,356638.0,271024.46875,-0.07373046875,0.8740234375,-0.49560546875,0.0610351525247097,5.157470226287842,1.7395018339157104,60.0,1145228.0,1.0
483243.8056333,286969.84375,307328.53125,390848.6875,323452.09375,380259.59375,269298.03125,356492.8125,271504.875,-0.075439453125,0.8759765625,-0.492431640625,0.0610351525247097,5.218505382537842,1.7395018339157104,60.0,1145229.0,1.0
483243.8087283,287921.0625,312830.90625,398502.5625,328334.1875,384964.1875,271058.8125,361680.125,273497.21875,-0.072998046875,0.8759765625,-0.493896484375,0.0,5.218505382537842,1.7700194120407104,60.0,1145230.0,1.0
483243.8125536,288953.4375,315268.5,403013.3125,331403.15625,387502.28125,271214.375,364606.84375,274250.90625,-0.0732421875,0.874267578125,-0.49365234375,0.1220703050494194,5.249022960662842,1.7089842557907104,60.0,1145231.0,1.0
483243.8359694,288524.28125,310985.75,397374.53125,328204.34375,383855.8125,269477.03125,360481.0,272644.96875,-0.0732421875,0.87451171875,-0.49072265625,0.1525878757238388,5.432128429412842,1.6784666776657104,60.0,1145232.0,1.0
483243.8385538,287156.71875,306174.65625,389450.28125,323442.46875,379083.1875,268352.65625,354856.84375,271019.125,-0.072509765625,0.875732421875,-0.48974609375,0.0610351525247097,5.462646007537842,1.7395018339157104,60.0,1145233.0,1.0
483243.8434703,286630.1875,307219.75,389497.21875,323499.6875,379310.71875,269292.3125,354814.1875,271538.5625,-0.07470703125,0.875,-0.490234375,0.0,5.493163585662842,1.8310545682907104,60.0,1145234.0,1.0
483243.8459278,287699.40625,312786.65625,397301.03125,328499.125,384098.90625,271070.34375,360106.5625,273561.3125,-0.099365234375,0.871826171875,-0.4970703125,-0.0610351525247097,5.554198741912842,1.5869139432907104,60.0,1145235.0,1.0
483243.8484344,288853.9375,315275.46875,401970.3125,331708.3125,386738.75,271263.71875,363131.8125,274359.0,-0.07666015625,0.872802734375,-0.500244140625,-0.03051757626235485,5.065917491912842,1.5869139432907104,60.0,1145236.0,1.0
483243.8509856,288508.375,310988.40625,396431.09375,328603.125,383137.25,269521.625,359044.9375,272752.71875,-0.0634765625,0.872802734375,-0.495361328125,0.0,4.791259288787842,1.8615721464157104,60.0,1145237.0,1.0
483243.8558629,287205.71875,306183.34375,388591.1875,323912.8125,378397.0,268390.71875,353461.375,271131.9375,-0.064453125,0.87841796875,-0.4853515625,0.5187987685203552,5.187987804412842,1.8920897245407104,60.0,1145238.0,1.0
483243.8584471,286728.46875,307254.5,388737.8125,324046.84375,378688.0,269333.53125,353493.65625,271653.90625,-0.067138671875,0.8818359375,-0.483154296875,0.3967284858226776,5.371093273162842,1.9226073026657104,60.0,1145239.0,1.0
483243.8609098,287889.78125,312894.65625,396705.21875,329177.8125,383587.34375,271132.65625,358932.71875,273702.125,-0.068115234375,0.880126953125,-0.485595703125,0.1220703050494194,5.523681163787842,1.8615721464157104,60.0,1145240.0,1.0
483243.8635441,289202.71875,315476.46875,401553.03125,332539.0625,386310.03125,271303.53125,362117.21875,274501.78125,-0.068359375,0.880126953125,-0.4873046875,-0.0610351525247097,5.523681163787842,1.8920897245407104,60.0,1145241.0,1.0
483243.8659721,289098.28125,311314.65625,396217.0625,329642.46875,382802.4375,269564.65625,358182.59375,272930.625,-0.070068359375,0.87646484375,-0.490966796875,-0.3662109076976776,5.737304210662842,2.044677495956421,60.0,1145242.0,1.0
483243.868453,288100.40625,306653.34375,388607.0,325154.40625,378170.4375,268448.9375,352736.125,271345.1875,-0.07421875,0.8720703125,-0.494873046875,-0.6408690810203552,5.737304210662842,2.014159917831421,60.0,1145243.0,1.0
483243.8684926,287860.71875,307820.09375,388961.84375,325417.8125,378547.65625,269388.0625,352896.5,271869.5625,-0.0751953125,0.86962890625,-0.494873046875,-0.7324218153953552,5.676269054412842,2.075195074081421,60.0,1145244.0,1.0
483243.8708283,289137.25,313510.40625,397111.125,330669.3125,383560.0625,271196.21875,358503.75,273945.40625,-0.0751953125,0.865966796875,-0.49365234375,-0.5493163466453552,5.523681163787842,2.014159917831421,60.0,1145245.0,1.0
483243.8735644,290392.34375,316061.625,402062.65625,334150.375,386394.53125,271370.21875,361855.34375,274795.84375,-0.073974609375,0.866943359375,-0.497314453125,-0.3967284858226776,5.279540538787842,1.9836424589157104,60.0,1145246.0,1.0
483243.8758242,290046.8125,311754.46875,396721.84375,331339.0625,382954.4375,269599.96875,358055.84375,273243.84375,-0.074951171875,0.865966796875,-0.496337890625,-0.2441406100988388,5.157470226287842,1.8615721464157104,60.0,1145247.0,1.0
483243.8784424,288731.0,306893.59375,389040.625,326881.65625,378350.21875,268445.1875,352712.25,271651.59375,-0.07421875,0.866455078125,-0.494140625,-0.0610351525247097,5.096435070037842,1.8615721464157104,60.0,1145248.0,1.0
483243.8784824,288213.78125,307945.4375,389379.3125,327176.1875,378812.65625,269390.65625,353039.5625,272213.78125,-0.07470703125,0.86572265625,-0.496826171875,-0.03051757626235485,5.004882335662842,1.9226073026657104,60.0,1145249.0,1.0
483243.8809767,289221.46875,313541.6875,397505.0625,332393.625,383892.40625,271186.3125,358797.28125,274298.28125,-0.07373046875,0.866455078125,-0.49365234375,0.3967284858226776,4.943847179412842,1.7395018339157104,60.0,1145250.0,1.0
483243.8835681,290272.46875,316010.6875,402412.78125,335802.4375,386743.59375,271346.0625,362241.875,275129.25,-0.07373046875,0.866943359375,-0.494873046875,0.5187987685203552,4.821776866912842,1.5869139432907104,60.0,1145251.0,1.0
483243.8872388,289861.375,311666.21875,397034.59375,332896.625,383286.3125,269567.0625,358479.1875,273559.78125,-0.072509765625,0.867919921875,-0.492431640625,0.4882812201976776,4.638671398162842,1.5258787870407104,60.0,1145252.0,1.0
483243.8872796,288469.75,306752.0625,389273.53125,328300.125,378627.84375,268400.375,353117.53125,271916.5,-0.072021484375,0.866943359375,-0.492919921875,0.4272460639476776,4.486083507537842,1.4648436307907104,60.0,1145253.0,1.0
483243.9034565,287869.75,307765.75,389537.28125,328443.78125,379062.96875,269353.8125,353455.46875,272431.5625,-0.072021484375,0.865478515625,-0.495361328125,0.5798339247703552,4.394530773162842,1.4038084745407104,60.0,1145254.0,1.0
483243.9058981,288752.46875,313304.3125,397558.53125,333483.40625,384097.9375,271132.40625,359195.59375,274452.0625,-0.072998046875,0.864990234375,-0.49609375,0.6713866591453552,4.241942882537842,1.3427733182907104,60.0,1145255.0,1.0
483243.9059385,289739.59375,315749.78125,402396.5,336763.1875,386929.1875,271293.3125,362618.90625,275261.5625,-0.071044921875,0.8662109375,-0.496826171875,0.7019042372703552,4.119872570037842,1.3732908964157104,60.0,1145256.0,1.0
483243.9109628,289327.0625,311389.84375,396953.84375,333770.3125,383440.15625,269517.875,358808.46875,273676.90625,-0.070556640625,0.8671875,-0.49560546875,0.7019042372703552,4.089354991912842,1.2512205839157104,60.0,1145257.0,1.0
483243.9134835,287950.5625,306469.625,389141.46875,329112.28125,378753.90625,268345.03125,353404.96875,272024.84375,-0.070068359375,0.866943359375,-0.49560546875,0.6713866591453552,3.967284917831421,1.2512205839157104,60.0,1145258.0,1.0
483243.9159472,287315.5,307475.34375,389370.28125,329201.6875,379180.90625,269295.34375,353712.875,272555.75,-0.068359375,0.868896484375,-0.49365234375,0.7324218153953552,3.723144292831421,1.2512205839157104,60.0,1145259.0,1.0
483243.9184499,288142.15625,313013.125,397369.15625,334183.4375,384228.46875,271082.9375,359442.96875,274606.75,-0.069580078125,0.870361328125,-0.495361328125,0.8544921278953552,3.570556402206421,1.2817381620407104,60.0,1145260.0,1.0
483243.9243966,289055.8125,315419.78125,402100.40625,337301.96875,387003.65625,271243.96875,362769.1875,275381.46875,-0.0703125,0.871337890625,-0.494140625,0.9765624403953552,3.448486089706421,1.2817381620407104,60.0,1145261.0,1.0
483243.924437,288578.46875,310997.09375,396450.5,334040.03125,383368.46875,269443.5,358737.375,273716.625,-0.068359375,0.869873046875,-0.489501953125,0.9765624403953552,3.326415777206421,1.3122557401657104,60.0,1145262.0,1.0
483243.9347223,287145.1875,306039.65625,388451.34375,329147.78125,378563.75,268284.25,353133.25,272028.0,-0.06884765625,0.8671875,-0.49072265625,0.9460448622703552,3.265380620956421,1.3122557401657104,60.0,1145263.0,1.0
483243.9347641,286381.375,306979.15625,388530.1875,329102.4375,378910.09375,269226.875,353317.875,272523.03125,-0.07177734375,0.86767578125,-0.4921875,0.9155272841453552,3.143310308456421,1.4343260526657104,60.0,1145264.0,1.0
483243.9372131,287096.375,312483.03125,396514.25,334168.96875,383986.71875,271026.625,359095.1875,274600.21875,-0.072265625,0.86865234375,-0.494384765625,0.8239745497703552,2.960204839706421,1.4038084745407104,60.0,1145265.0,1.0
483243.9402695,287999.8125,314915.25,401394.15625,337615.4375,386904.25,271197.9375,362646.78125,275464.0625,-0.070556640625,0.869140625,-0.495849609375,0.8239745497703552,2.655029058456421,1.4953612089157104,60.0,1145266.0,1.0
483243.9696957,287620.46875,310558.1875,396002.65625,334825.84375,383463.5,269393.15625,358932.71875,273898.125,-0.07275390625,0.866455078125,-0.494873046875,0.8544921278953552,2.410888433456421,1.4648436307907104,60.0,1145267.0,1.0
483243.9747494,286298.84375,305649.9375,388261.96875,330365.875,378842.875,268228.1875,353640.09375,272289.78125,-0.074951171875,0.86474609375,-0.494140625,0.9155272841453552,2.258300542831421,1.4953612089157104,60.0,1145268.0,1.0
483243.974791,285572.875,306604.71875,388526.625,330578.21875,379331.84375,269161.59375,354064.0,272834.15625,-0.076171875,0.867431640625,-0.49560546875,0.9155272841453552,2.014159917831421,1.4648436307907104,60.0,1145269.0,1.0
483243.9785748,286195.9375,312064.875,396565.21875,335684.15625,384475.78125,270936.0625,359962.96875,274907.34375,-0.07666015625,0.869140625,-0.49462890625,0.9155272841453552,1.7395018339157104,1.5258787870407104,60.0,1145270.0,1.0
483243.9786139,286931.9375,314406.96875,401367.4375,339012.21875,387383.8125,271081.875,363516.28125,275737.40625,-0.077392578125,0.87060546875,-0.49609375,0.9155272841453552,1.5563963651657104,1.4343260526657104,60.0,1145271.0,1.0
483243.9786224,286333.1875,309926.4375,395805.5,336027.65625,383890.5,269277.65625,359734.09375,274140.03125,-0.076416015625,0.87060546875,-0.495849609375,0.8544921278953552,1.1901854276657104,1.3732908964157104,60.0,1145272.0,1.0
483243.9786314,284671.21875,304828.8125,387807.34375,331338.0625,379173.5,268075.125,354331.84375,272470.28125,-0.076416015625,0.871337890625,-0.492919921875,0.7629393935203552,0.8239745497703552,1.4343260526657104,60.0,1145273.0,1.0
483243.9808739,283539.65625,305596.09375,387847.125,331405.84375,379629.1875,269009.96875,354730.15625,273001.8125,-0.07763671875,0.87158203125,-0.490478515625,0.7324218153953552,0.6103515028953552,1.4038084745407104,60.0,1145274.0,1.0
483243.9809088,283748.96875,310879.34375,395715.125,336457.6875,384789.15625,270784.96875,360677.15625,275090.71875,-0.07666015625,0.871337890625,-0.490966796875,0.7019042372703552,0.3662109076976776,1.4648436307907104,60.0,1145275.0,1.0
483243.9835517,284188.125,313092.0,400393.875,339789.34375,387707.21875,270913.0,364283.75,275919.6875,-0.075927734375,0.870361328125,-0.488525390625,0.6103515028953552,0.03051757626235485,1.4953612089157104,60.0,1145276.0,1.0
483243.9859693,283570.53125,308622.4375,394835.28125,336905.4375,384261.09375,269130.9375,360591.15625,274352.125,-0.0771484375,0.869873046875,-0.489501953125,0.5798339247703552,-0.2136230319738388,1.4953612089157104,60.0,1145277.0,1.0
483243.9883335,282040.0625,303610.46875,386938.3125,332377.6875,379626.59375,267948.875,355318.71875,272729.90625,-0.07421875,0.869873046875,-0.493408203125,0.4577636420726776,-0.3662109076976776,1.4648436307907104,60.0,1145278.0,1.0
483243.9922255,281019.375,304441.40625,387101.125,332617.5625,380167.4375,268864.6875,355868.9375,273282.1875,-0.0751953125,0.868408203125,-0.49609375,0.5798339247703552,-0.5798339247703552,1.4343260526657104,60.0,1145279.0,1.0
483244.0035582,281321.125,309783.3125,395085.96875,337808.375,385416.78125,270629.75,361968.71875,275383.53125,-0.07373046875,0.87060546875,-0.49560546875,0.6408690810203552,-0.8544921278953552,1.4038084745407104,60.0,1145280.0,1.0
483244.0035988,281891.375,312080.53125,399864.15625,341223.34375,388418.0,270794.78125,365697.0,276238.0625,-0.072509765625,0.870361328125,-0.493896484375,0.6408690810203552,-1.0681151151657104,1.5869139432907104,60.0,1145281.0,1.0
483244.0309996,281489.125,307714.0625,394358.65625,338312.90625,384981.375,269025.78125,362015.84375,274651.625,-0.071533203125,0.871826171875,-0.49365234375,0.6408690810203552,-1.1291502714157104,1.4953612089157104,60.0,1145282.0,1.0
483244.031041,280267.375,302830.65625,386496.71875,333684.125,380299.9375,267850.1875,356669.75,272977.75,-0.071533203125,0.872314453125,-0.4951171875,0.6713866591453552,-1.3122557401657104,1.5258787870407104,60.0,1145283.0,1.0
483244.0460492,279617.28125,303833.90625,386748.40625,333842.0,380832.53125,268799.9375,357175.53125,273519.75,-0.072265625,0.87158203125,-0.494140625,0.7629393935203552,-1.4953612089157104,1.5563963651657104,60.0,1145284.0,1.0
483244.0460899,280346.59375,309380.78125,394892.125,339000.0625,386108.625,270604.1875,363271.21875,275630.0,-0.072265625,0.8720703125,-0.495361328125,0.7934569716453552,-1.7089842557907104,1.6784666776657104,60.0,1145285.0,1.0
483244.0461006,281482.59375,311932.46875,399889.53125,342405.84375,389124.5625,270781.75,366975.53125,276470.78125,-0.072265625,0.872802734375,-0.4970703125,0.7324218153953552,-1.8615721464157104,1.6174315214157104,60.0,1145286.0,1.0
483244.0485353,281768.15625,307876.34375,394653.25,339543.65625,385709.15625,269040.90625,363269.59375,274881.40625,-0.07275390625,0.872314453125,-0.495849609375,0.7324218153953552,-1.9836424589157104,1.5563963651657104,60.0,1145287.0,1.0
483244.0485781,281184.4375,303288.34375,387094.5,335044.53125,381112.28125,267908.125,357984.75,273261.1875,-0.07080078125,0.87255859375,-0.49658203125,0.6408690810203552,-2.105712652206421,1.5869139432907104,60.0,1145288.0,1.0
483244.0508267,280945.4375,304452.5,387578.28125,335301.3125,381702.1875,268847.15625,358556.78125,273810.5,-0.071044921875,0.869140625,-0.49365234375,0.6103515028953552,-2.197265386581421,1.6479490995407104,60.0,1145289.0,1.0
483244.0534777,281930.96875,310081.03125,395902.6875,340521.15625,387023.875,270636.625,364722.625,275915.84375,-0.0703125,0.867919921875,-0.494384765625,0.5798339247703552,-2.349853277206421,1.5869139432907104,60.0,1145290.0,1.0
483244.0558163,283290.03125,312710.9375,401065.3125,343977.09375,390083.1875,270817.59375,368490.6875,276760.9375,-0.07080078125,0.868896484375,-0.49609375,0.5798339247703552,-2.380370855331421,1.6174315214157104,60.0,1145291.0,1.0
483244.0583267,283747.71875,308703.8125,395948.3125,341116.96875,386683.9375,269065.03125,364803.46875,275157.125,-0.07080078125,0.86767578125,-0.4970703125,0.6713866591453552,-2.532958745956421,1.6479490995407104,60.0,1145292.0,1.0
483244.0609911,283252.125,304106.5,388435.59375,336581.4375,382076.1875,267911.34375,359500.03125,273492.28125,-0.06982421875,0.8671875,-0.4951171875,0.7629393935203552,-2.685546636581421,1.5869139432907104,60.0,1145293.0,1.0
483244.063458,283024.34375,305230.4375,388934.15625,336812.90625,382678.25,268836.15625,360088.5,274005.5,-0.06787109375,0.869384765625,-0.49560546875,0.7629393935203552,-2.746581792831421,1.5563963651657104,60.0,1145294.0,1.0
483244.0659562,283848.46875,310698.46875,397158.6875,341927.625,387945.84375,270574.3125,366220.65625,276047.0,-0.067626953125,0.87060546875,-0.498779296875,0.7934569716453552,-2.655029058456421,1.4953612089157104,60.0,1145295.0,1.0
483244.0684478,284924.75,313133.1875,402152.875,345248.375,390944.0,270729.15625,369947.21875,276881.34375,-0.064697265625,0.871826171875,-0.4970703125,0.7019042372703552,-2.532958745956421,1.6174315214157104,60.0,1145296.0,1.0
483244.0710034,284993.53125,308897.8125,396786.75,342238.21875,387475.1875,268959.53125,366206.875,275278.09375,-0.064208984375,0.873779296875,-0.494873046875,0.7019042372703552,-2.532958745956421,1.5563963651657104,60.0,1145297.0,1.0
483244.0710462,284016.21875,303993.9375,388925.28125,337507.6875,382738.40625,267764.53125,360801.4375,273591.90625,-0.065185546875,0.874267578125,-0.49365234375,0.6713866591453552,-2.349853277206421,1.5563963651657104,60.0,1145298.0,1.0
483244.0733378,283273.6875,304776.25,389022.21875,337544.09375,383190.46875,268664.75,361289.0625,274120.90625,-0.066650390625,0.870849609375,-0.4970703125,0.4577636420726776,-2.410888433456421,1.5869139432907104,60.0,1145299.0,1.0
483244.0759736,283653.3125,309942.09375,396846.65625,342479.15625,388309.53125,270367.53125,367316.78125,276165.03125,-0.065673828125,0.87060546875,-0.493896484375,0.4577636420726776,-2.441406011581421,1.6479490995407104,60.0,1145300.0,1.0
483244.103559,284516.1875,312200.78125,401510.5,345619.21875,391155.53125,270505.46875,370902.4375,276957.875,-0.06494140625,0.8720703125,-0.493896484375,0.4882812201976776,-2.319335699081421,1.5869139432907104,60.0,1145301.0,1.0
483244.1036022,284649.84375,307934.28125,395907.4375,342404.78125,387501.84375,268732.8125,366945.5625,275296.625,-0.067138671875,0.870849609375,-0.494384765625,0.5187987685203552,-2.166747808456421,1.5563963651657104,60.0,1145302.0,1.0
483244.1109931,283904.90625,303135.90625,387950.21875,337523.96875,382641.59375,267563.96875,361370.59375,273597.53125,-0.065185546875,0.87109375,-0.49462890625,0.5798339247703552,-2.105712652206421,1.4953612089157104,60.0,1145303.0,1.0
483244.1110354,283389.09375,304043.28125,388012.8125,337434.46875,383006.90625,268480.0625,361725.90625,274101.34375,-0.063232421875,0.871337890625,-0.49609375,0.4882812201976776,-2.105712652206421,1.4343260526657104,60.0,1145304.0,1.0
483244.1134885,283977.40625,309375.34375,395879.71875,342287.21875,388103.90625,270232.6875,367687.28125,276144.90625,-0.063720703125,0.871826171875,-0.496337890625,0.4882812201976776,-1.9226073026657104,1.3732908964157104,60.0,1145305.0,1.0
483244.115828,285030.53125,311815.4375,400612.5625,345331.15625,390930.6875,270414.8125,371191.15625,276924.71875,-0.063232421875,0.872802734375,-0.49609375,0.4882812201976776,-1.8310545682907104,1.3122557401657104,60.0,1145306.0,1.0
483244.1183321,285349.0,307735.6875,395086.25,341995.46875,387248.90625,268684.53125,367116.5,275238.3125,-0.064453125,0.87451171875,-0.495361328125,0.2136230319738388,-1.8005369901657104,1.4038084745407104,60.0,1145307.0,1.0
483244.1208651,284698.65625,303038.0,387121.59375,336970.28125,382322.9375,267534.3125,361388.75,273501.15625,-0.06396484375,0.8759765625,-0.492919921875,0.1831054538488388,-1.5869139432907104,1.4038084745407104,60.0,1145308.0,1.0
483244.1234718,284079.34375,303826.375,386942.15625,336679.875,382504.25,268393.0625,361487.375,273920.28125,-0.06640625,0.8740234375,-0.4931640625,0.0,-1.4038084745407104,1.4038084745407104,60.0,1145309.0,1.0
483244.1258115,284499.28125,308974.71875,394486.59375,341360.40625,387404.9375,270099.65625,367193.03125,275907.34375,-0.0654296875,0.871826171875,-0.492919921875,-0.0915527269244194,-1.3427733182907104,1.3122557401657104,60.0,1145310.0,1.0
483244.1283427,285395.84375,311250.65625,398914.1875,344249.15625,390036.8125,270243.96875,370444.96875,276630.125,-0.0673828125,0.870361328125,-0.493896484375,-0.2441406100988388,-1.1291502714157104,1.2512205839157104,60.0,1145311.0,1.0
483244.133339,285604.96875,307046.28125,393092.8125,340777.75,386163.40625,268494.96875,366121.875,274896.96875,-0.068603515625,0.87158203125,-0.4951171875,-0.2441406100988388,-1.0375975370407104,1.1596678495407104,60.0,1145312.0,1.0
483244.1349028,284886.5,302290.375,384916.625,335679.59375,381092.6875,267345.65625,360199.71875,273134.84375,-0.06884765625,0.872314453125,-0.49658203125,-0.1831054538488388,-1.0070799589157104,1.0070799589157104,60.0,1145313.0,1.0
483244.1446655,284305.625,303207.34375,384798.1875,335455.8125,381300.84375,268272.90625,360285.09375,273603.0625,-0.067626953125,0.8740234375,-0.494140625,-0.03051757626235485,-0.7629393935203552,1.0375975370407104,60.0,1145314.0,1.0
483244.1446792,284830.96875,308598.5625,392621.03125,340326.15625,386349.90625,270060.75,366118.5625,275665.6875,-0.068115234375,0.876708984375,-0.495361328125,-0.0610351525247097,-0.7019042372703552,0.9155272841453552,60.0,1145315.0,1.0
483244.1885053,285933.90625,311242.96875,397559.15625,343548.84375,389260.84375,270304.9375,369654.34375,276502.1875,-0.0703125,0.878173828125,-0.4912109375,-0.1220703050494194,-0.5798339247703552,0.9155272841453552,60.0,1145316.0,1.0
483244.1885307,286463.375,307526.84375,392484.40625,340525.71875,385801.0625,268663.875,365769.3125,274913.875,-0.071533203125,0.88037109375,-0.491943359375,-0.1831054538488388,-0.5493163466453552,0.8239745497703552,60.0,1145317.0,1.0
483244.1909659,286038.0625,303185.25,385031.96875,335870.375,381146.53125,267592.6875,360304.6875,273281.46875,-0.0732421875,0.87744140625,-0.49267578125,-0.3662109076976776,-0.5187987685203552,0.9155272841453552,60.0,1145318.0,1.0
483244.1935447,285531.375,304232.65625,385309.21875,335897.375,381570.3125,268489.4375,360661.59375,273777.9375,-0.074462890625,0.878173828125,-0.489501953125,-0.4882812201976776,-0.4272460639476776,0.8850097060203552,60.0,1145319.0,1.0
483244.1935713,286000.15625,309594.75,393276.1875,340826.46875,386689.84375,270219.625,366602.59375,275819.8125,-0.073974609375,0.8779296875,-0.49072265625,-0.6103515028953552,-0.3967284858226776,0.7934569716453552,60.0,1145320.0,1.0
483244.1957391,287027.25,312181.8125,398230.84375,343951.78125,389604.25,270442.09375,370118.96875,276622.4375,-0.07421875,0.877685546875,-0.49072265625,-0.7019042372703552,-0.2746581733226776,0.7324218153953552,60.0,1145321.0,1.0
483244.1984465,287510.5,308434.25,393100.15625,340720.1875,386105.3125,268806.21875,366112.90625,274997.625,-0.07470703125,0.876708984375,-0.492919921875,-0.7324218153953552,-0.2441406100988388,0.6103515028953552,60.0,1145322.0,1.0
483244.201009,286960.90625,303962.71875,385423.65625,335751.75,381299.6875,267701.3125,360398.28125,273286.84375,-0.0732421875,0.877197265625,-0.492431640625,-0.8850097060203552,-0.1220703050494194,0.6103515028953552,60.0,1145323.0,1.0
483244.2033371,286215.34375,304718.03125,385267.75,335432.8125,381462.21875,268518.5,360411.71875,273676.03125,-0.074951171875,0.877197265625,-0.490478515625,-0.8544921278953552,-0.1220703050494194,0.5798339247703552,60.0,1145324.0,1.0
483244.2058179,286443.875,309774.375,392781.3125,340109.15625,386331.9375,270184.15625,366051.6875,275649.0625,-0.072998046875,0.87451171875,-0.49169921875,-0.8850097060203552,0.0610351525247097,0.5493163466453552,60.0,1145325.0,1.0
483244.2084728,287337.9375,312206.78125,397473.03125,343113.875,389097.84375,270383.625,369390.40625,276423.40625,-0.073974609375,0.873046875,-0.49169921875,-0.9460448622703552,0.0610351525247097,0.4577636420726776,60.0,1145326.0,1.0
483244.210937,287815.28125,308471.0,392317.375,339902.71875,385576.28125,268781.625,365340.71875,274806.5,-0.072509765625,0.873779296875,-0.48974609375,-0.8850097060203552,0.1220703050494194,0.5493163466453552,60.0,1145327.0,1.0
483244.2133371,287314.15625,304091.125,384748.90625,335019.40625,380822.4375,267721.6875,359662.28125,273124.84375,-0.071044921875,0.872314453125,-0.49072265625,-0.8850097060203552,0.1831054538488388,0.4882812201976776,60.0,1145328.0,1.0
483244.2159917,286659.625,305021.9375,384834.5625,334835.84375,381115.9375,268592.53125,359800.875,273566.59375,-0.07177734375,0.870849609375,-0.486328125,-0.8239745497703552,0.3662109076976776,0.6103515028953552,60.0,1145329.0,1.0
483244.220992,286998.75,310297.75,392678.25,339670.09375,386169.21875,270310.03125,365622.625,275596.9375,-0.0712890625,0.86865234375,-0.488525390625,-0.7934569716453552,0.4882812201976776,0.7629393935203552,60.0,1145330.0,1.0
483244.2236184,287990.71875,312925.0625,397692.625,342807.1875,389111.875,270547.5,369137.5625,276414.1875,-0.072021484375,0.869140625,-0.488525390625,-0.8239745497703552,0.5798339247703552,0.7629393935203552,60.0,1145331.0,1.0
483244.2236612,288526.875,309305.59375,392773.1875,339670.8125,385705.65625,268961.78125,365196.9375,274812.75,-0.07177734375,0.86767578125,-0.486572265625,-0.8239745497703552,0.7324218153953552,0.9460448622703552,60.0,1145332.0,1.0
483244.2259569,288046.84375,304964.625,385332.5625,334805.53125,381014.28125,267895.6875,359567.4375,273133.78125,-0.0732421875,0.866943359375,-0.487060546875,-0.7629393935203552,0.8850097060203552,1.0070799589157104,60.0,1145333.0,1.0
483244.2310179,287351.625,305846.34375,385417.5,334573.8125,381303.25,268740.21875,359687.25,273559.625,-0.073486328125,0.8662109375,-0.48681640625,-0.6713866591453552,0.9765624403953552,1.0986326932907104,60.0,1145334.0,1.0
483244.2310601,287617.875,311038.5,393200.375,339330.0625,386314.6875,270432.0625,365453.625,275566.90625,-0.0732421875,0.8671875,-0.48486328125,-0.6103515028953552,0.9765624403953552,1.2207030057907104,60.0,1145335.0,1.0
483244.2333259,288596.71875,313646.5625,398217.0,342440.0,389261.09375,270686.25,368948.1875,276400.25,-0.0732421875,0.8662109375,-0.485595703125,-0.5187987685203552,1.1291502714157104,1.2512205839157104,60.0,1145336.0,1.0
483244.2356506,289132.6875,310027.375,393316.875,339256.75,385859.78125,269092.125,364977.09375,274793.25,-0.073486328125,0.86669921875,-0.486328125,-0.4577636420726776,1.0681151151657104,1.3732908964157104,60.0,1145337.0,1.0
483244.2356918,288652.59375,305670.21875,385874.46875,334350.90625,381165.3125,268017.1875,359310.03125,273108.90625,-0.07373046875,0.86962890625,-0.484619140625,-0.3662109076976776,1.1596678495407104,1.4343260526657104,60.0,1145338.0,1.0
483244.242083,287921.40625,306489.375,385905.375,334072.21875,381416.71875,268841.78125,359366.96875,273522.4375,-0.073486328125,0.869140625,-0.484619140625,-0.2136230319738388,1.1291502714157104,1.4343260526657104,60.0,1145339.0,1.0
483244.244637,288142.4375,311619.28125,393634.28125,338801.78125,386396.6875,270521.21875,365081.15625,275527.09375,-0.0732421875,0.869140625,-0.486083984375,-0.2746581733226776,1.2207030057907104,1.3732908964157104,60.0,1145340.0,1.0
483244.2446723,289083.09375,314187.40625,398634.71875,341897.9375,389325.9375,270759.21875,368537.71875,276339.0,-0.073486328125,0.872314453125,-0.4853515625,-0.2441406100988388,1.3427733182907104,1.4343260526657104,60.0,1145341.0,1.0
483244.2472495,289672.625,310617.75,393820.40625,338770.75,385984.34375,269202.09375,364604.8125,274770.09375,-0.072509765625,0.871337890625,-0.485595703125,-0.2136230319738388,1.3427733182907104,1.4038084745407104,60.0,1145342.0,1.0
483244.2496079,289195.65625,306262.09375,386413.40625,333880.90625,381300.75,268125.5625,358929.0625,273083.15625,-0.073974609375,0.8701171875,-0.488525390625,-0.2136230319738388,1.3427733182907104,1.3427733182907104,60.0,1145343.0,1.0
483244.252251,288444.28125,307060.15625,386442.5625,333613.3125,381549.40625,268936.90625,358965.46875,273492.65625,-0.07373046875,0.8720703125,-0.487548828125,-0.1831054538488388,1.4038084745407104,1.3427733182907104,60.0,1145344.0,1.0
483244.2784313,288639.28125,312162.15625,394158.5625,338368.15625,386519.15625,270606.875,364651.65625,275491.78125,-0.07421875,0.872802734375,-0.483642578125,-0.3051757514476776,1.4343260526657104,1.4038084745407104,60.0,1145345.0,1.0
483244.2810026,289574.09375,314736.34375,399201.625,341519.84375,389471.9375,270841.71875,368119.125,276312.625,-0.072509765625,0.873291015625,-0.488525390625,-0.2441406100988388,1.4648436307907104,1.3732908964157104,60.0,1145346.0,1.0
483244.2810449,290163.03125,311199.6875,394473.09375,338437.53125,386165.90625,269281.59375,364209.71875,274732.46875,-0.073974609375,0.874755859375,-0.48779296875,-0.2746581733226776,1.4648436307907104,1.3122557401657104,60.0,1145347.0,1.0
483244.2858859,289735.84375,306930.3125,387211.4375,333616.25,381564.3125,268228.1875,358605.5,273059.90625,-0.07421875,0.875732421875,-0.4873046875,-0.2746581733226776,1.4953612089157104,1.1901854276657104,60.0,1145348.0,1.0
483244.2883643,288991.8125,307752.78125,387314.1875,333393.53125,381857.9375,269040.8125,358686.25,273477.0,-0.07470703125,0.875,-0.485107421875,-0.3051757514476776,1.4648436307907104,1.2207030057907104,60.0,1145349.0,1.0
483244.288395,289141.5625,312799.90625,394999.25,338169.84375,386814.75,270693.40625,364370.75,275468.90625,-0.0771484375,0.87646484375,-0.48779296875,-0.4577636420726776,1.3122557401657104,1.1901854276657104,60.0,1145350.0,1.0
483244.2906722,290033.46875,315325.8125,400009.59375,341349.59375,389751.59375,270917.71875,367836.96875,276286.0,-0.076416015625,0.877197265625,-0.488525390625,-0.4882812201976776,1.2207030057907104,1.0375975370407104,60.0,1145351.0,1.0
483244.2933904,290605.40625,311749.375,395259.78125,338319.59375,386453.90625,269366.96875,363958.75,274725.40625,-0.077392578125,0.878662109375,-0.490234375,-0.4272460639476776,1.1901854276657104,1.0070799589157104,60.0,1145352.0,1.0
483244.2957467,290131.8125,307388.0,387903.46875,333526.5625,381824.6875,268303.46875,358354.1875,273065.28125,-0.0751953125,0.87744140625,-0.48974609375,-0.5798339247703552,1.0986326932907104,1.0375975370407104,60.0,1145353.0,1.0
483244.2984234,289295.78125,308078.84375,387851.78125,333282.125,382033.71875,269084.96875,358379.75,273452.15625,-0.075927734375,0.879638671875,-0.489990234375,-0.6103515028953552,1.0070799589157104,0.8850097060203552,60.0,1145354.0,1.0
483244.3009331,289368.1875,313035.65625,395432.6875,338047.8125,386926.5,270712.53125,364027.9375,275418.9375,-0.076904296875,0.87890625,-0.489501953125,-0.7324218153953552,0.8850097060203552,0.9460448622703552,60.0,1145355.0,1.0
483244.3009468,290249.125,315556.40625,400440.8125,341264.9375,389865.3125,270947.9375,367520.46875,276240.75,-0.07763671875,0.879150390625,-0.486083984375,-0.8850097060203552,0.7629393935203552,0.9460448622703552,60.0,1145356.0,1.0
483244.3034162,290831.625,312017.40625,395758.3125,338280.4375,386598.28125,269399.25,363687.3125,274677.84375,-0.0771484375,0.876953125,-0.487548828125,-0.8239745497703552,0.7324218153953552,0.8544921278953552,60.0,1145357.0,1.0
483244.307185,290392.4375,307724.09375,388502.125,333530.15625,382022.34375,268341.03125,358141.40625,273024.875,-0.075439453125,0.87548828125,-0.489990234375,-0.8850097060203552,0.6408690810203552,0.8544921278953552,60.0,1145358.0,1.0
483244.328375,289684.78125,308590.0,388664.3125,333393.625,382378.65625,269202.625,358307.34375,273486.5625,-0.076416015625,0.8759765625,-0.487060546875,-0.8850097060203552,0.5187987685203552,0.7629393935203552,60.0,1145359.0,1.0
483244.3283915,289882.03125,313751.71875,396529.53125,338228.9375,387427.8125,270870.34375,364101.625,275487.0625,-0.075439453125,0.87548828125,-0.489501953125,-0.8850097060203552,0.4577636420726776,0.7324218153953552,60.0,1145360.0,1.0
483244.3308941,290931.75,316553.28125,401955.5625,341544.25,390590.75,271163.40625,367803.4375,276358.78125,-0.074951171875,0.873779296875,-0.487548828125,-0.8544921278953552,0.3662109076976776,0.6713866591453552,60.0,1145361.0,1.0
483244.3333669,291664.625,313239.0625,397640.875,338635.75,387524.8125,269655.125,364152.40625,274836.53125,-0.07470703125,0.874267578125,-0.487060546875,-0.8239745497703552,0.3356933295726776,0.7629393935203552,60.0,1145362.0,1.0
483244.33489,291180.5625,308859.46875,390368.125,333822.0625,382928.6875,268545.84375,358580.375,273141.46875,-0.07470703125,0.87353515625,-0.48828125,-0.7019042372703552,0.2746581733226776,0.9155272841453552,60.0,1145363.0,1.0
483244.3446925,290238.3125,309346.1875,390117.625,333484.03125,383042.03125,269265.5625,358516.46875,273498.46875,-0.07763671875,0.87255859375,-0.488525390625,-0.6408690810203552,0.2441406100988388,1.0070799589157104,60.0,1145364.0,1.0
483244.3471398,290174.75,314057.125,397421.0,338117.28125,387792.78125,270829.125,364032.5,275428.9375,-0.076171875,0.873779296875,-0.48779296875,-0.6408690810203552,0.2441406100988388,0.9460448622703552,60.0,1145365.0,1.0
483244.347174,290984.21875,316441.15625,402285.71875,341265.1875,390664.6875,271039.59375,367464.84375,276242.375,-0.076171875,0.87451171875,-0.489013671875,-0.5493163466453552,0.1831054538488388,1.0375975370407104,60.0,1145366.0,1.0
483244.349576,291568.875,312863.09375,397581.9375,338269.34375,387404.5625,269500.90625,363638.84375,274694.5625,-0.0771484375,0.87255859375,-0.48828125,-0.3662109076976776,0.1220703050494194,1.0986326932907104,60.0,1145367.0,1.0
483244.3522359,291142.65625,308546.28125,390320.9375,333501.46875,382830.5,268467.09375,358092.3125,273048.125,-0.078125,0.873779296875,-0.48876953125,-0.3967284858226776,0.0915527269244194,1.0681151151657104,60.0,1145368.0,1.0
483244.3572115,290291.875,309178.71875,390206.40625,333199.15625,383006.375,269238.125,358085.59375,273431.21875,-0.0771484375,0.876220703125,-0.48828125,-0.2746581733226776,-0.0915527269244194,1.1596678495407104,60.0,1145369.0,1.0
483244.3596414,290283.09375,313985.78125,397595.96875,337841.625,387787.0625,270819.03125,363624.625,275368.3125,-0.078369140625,0.87548828125,-0.489990234375,-0.1525878757238388,-0.1525878757238388,1.1901854276657104,60.0,1145370.0,1.0
483244.3596805,291109.5,316397.1875,402472.59375,340996.71875,390658.09375,271040.9375,367052.6875,276193.90625,-0.0791015625,0.874267578125,-0.490478515625,-0.0915527269244194,-0.1831054538488388,1.1291502714157104,60.0,1145371.0,1.0
483244.3620884,291744.1875,312880.90625,397826.125,338025.28125,387428.71875,269518.78125,363253.875,274667.28125,-0.077392578125,0.871826171875,-0.486572265625,-0.1220703050494194,-0.2136230319738388,1.2207030057907104,60.0,1145372.0,1.0
483244.3783453,291372.78125,308646.59375,390662.75,333251.375,382887.8125,268477.8125,357735.65625,273013.4375,-0.075927734375,0.86962890625,-0.484130859375,-0.0915527269244194,-0.3051757514476776,1.2207030057907104,60.0,1145373.0,1.0
483244.3809996,290628.21875,309444.4375,390760.625,332995.40625,383161.59375,269279.25,357815.3125,273417.5625,-0.07421875,0.866943359375,-0.48388671875,-0.0610351525247097,-0.3051757514476776,1.2512205839157104,60.0,1145374.0,1.0
483244.3810412,290751.40625,314438.625,398403.875,337723.96875,388068.9375,270902.1875,363465.21875,275388.96875,-0.0712890625,0.864013671875,-0.48486328125,0.1525878757238388,-0.3051757514476776,1.1596678495407104,60.0,1145375.0,1.0
483244.3834716,291693.21875,317009.71875,403517.65625,340949.6875,391060.78125,271146.0,367001.625,276239.78125,-0.07080078125,0.863525390625,-0.48583984375,0.3356933295726776,-0.2136230319738388,1.2817381620407104,60.0,1145376.0,1.0
483244.385987,292407.21875,313588.90625,399041.78125,338022.6875,387921.34375,269648.875,363287.75,274737.28125,-0.0693359375,0.86376953125,-0.48828125,0.5187987685203552,-0.0915527269244194,1.4038084745407104,60.0,1145377.0,1.0
483244.38852,292077.0625,309368.625,391939.75,333269.8125,383418.625,268614.25,357802.625,273100.6875,-0.06982421875,0.865234375,-0.490478515625,0.6713866591453552,0.03051757626235485,1.4038084745407104,60.0,1145378.0,1.0
483244.3922772,291391.3125,310200.5625,392115.25,333046.71875,383736.03125,269421.40625,357917.0625,273520.71875,-0.068359375,0.86767578125,-0.492431640625,0.8544921278953552,0.1831054538488388,1.4953612089157104,60.0,1145379.0,1.0
483244.3923171,291557.34375,315220.6875,399836.875,337794.40625,388667.15625,271041.5625,363581.625,275488.46875,-0.066650390625,0.869873046875,-0.489013671875,0.9460448622703552,0.2441406100988388,1.6174315214157104,60.0,1145380.0,1.0
483244.4284593,292519.875,317782.71875,404992.0,341031.9375,391663.46875,271272.21875,367119.71875,276331.40625,-0.068359375,0.872802734375,-0.48681640625,0.9765624403953552,0.3967284858226776,1.6479490995407104,60.0,1145381.0,1.0
483244.4322448,293215.03125,314306.5,400498.03125,338087.3125,388498.28125,269738.90625,363379.75,274798.96875,-0.06982421875,0.874267578125,-0.48974609375,1.0986326932907104,0.4577636420726776,1.6174315214157104,60.0,1145382.0,1.0
483244.4322842,292908.09375,310068.5,393402.25,333340.78125,384003.625,268710.0,357901.59375,273164.25,-0.07373046875,0.873779296875,-0.488525390625,1.1291502714157104,0.5798339247703552,1.6479490995407104,60.0,1145383.0,1.0
483244.4322951,292196.59375,310791.46875,393448.3125,333064.34375,384233.03125,269475.78125,357927.25,273544.6875,-0.076904296875,0.87255859375,-0.4912109375,1.0681151151657104,0.5493163466453552,1.5563963651657104,60.0,1145384.0,1.0
483244.458689,292205.8125,315522.15625,400793.0,337712.4375,388954.625,271009.8125,363395.65625,275454.0625,-0.0771484375,0.86962890625,-0.4873046875,1.1291502714157104,0.5187987685203552,1.4343260526657104,60.0,1145385.0,1.0
483244.4587291,293017.71875,317854.0625,405637.78125,340910.0,391803.3125,271207.59375,366807.6875,276278.40625,-0.078857421875,0.869873046875,-0.49072265625,1.1291502714157104,0.4882812201976776,1.3122557401657104,60.0,1145386.0,1.0
483244.4587378,293622.625,314265.53125,400988.78125,337948.375,388565.6875,269664.59375,363017.1875,274733.25,-0.07958984375,0.866455078125,-0.491943359375,1.1596678495407104,0.3967284858226776,1.1901854276657104,60.0,1145387.0,1.0
483244.4587469,293271.25,309980.34375,393803.78125,333177.25,384018.8125,268624.4375,357500.15625,273079.78125,-0.079833984375,0.865234375,-0.4931640625,1.3122557401657104,0.4272460639476776,1.0375975370407104,60.0,1145388.0,1.0
483244.4622644,292629.15625,310761.78125,393871.8125,332932.28125,384259.5,269422.3125,357533.78125,273479.40625,-0.081298828125,0.86572265625,-0.4931640625,1.4343260526657104,0.3662109076976776,0.7934569716453552,60.0,1145389.0,1.0
483244.4623081,292905.15625,315761.9375,401497.6875,337664.0625,389100.15625,271019.46875,363092.75,275429.46875,-0.0810546875,0.8642578125,-0.493896484375,1.5258787870407104,0.3051757514476776,0.7324218153953552,60.0,1145390.0,1.0
483244.462319,294082.0,318406.6875,406688.59375,340938.40625,392071.875,271275.8125,366581.6875,276280.375,-0.08203125,0.866943359375,-0.492919921875,1.7395018339157104,0.1220703050494194,0.6408690810203552,60.0,1145391.0,1.0
483244.4647071,295217.90625,315209.3125,402464.71875,338094.125,389006.28125,269826.15625,362905.71875,274804.6875,-0.08056640625,0.869873046875,-0.4931640625,1.8920897245407104,-0.03051757626235485,0.5187987685203552,60.0,1145392.0,1.0
483244.4672223,295369.03125,311206.3125,395588.78125,333355.09375,384524.59375,268805.9375,357392.875,273150.3125,-0.077880859375,0.869140625,-0.49462890625,1.9531248807907104,-0.0915527269244194,0.4577636420726776,60.0,1145393.0,1.0
483244.4696925,294917.15625,312012.9375,395703.21875,333069.8125,384717.25,269562.9375,357340.125,273512.78125,-0.07470703125,0.873046875,-0.49609375,1.9836424589157104,-0.0610351525247097,0.3662109076976776,60.0,1145394.0,1.0
483244.472217,295196.5625,316907.15625,403235.0625,337750.96875,389463.875,271120.875,362783.40625,275422.84375,-0.075927734375,0.875,-0.49365234375,1.9836424589157104,-0.03051757626235485,0.3356933295726776,60.0,1145395.0,1.0
483244.477243,296289.71875,319461.34375,408377.9375,341030.9375,392408.3125,271366.1875,366244.78125,276270.53125,-0.07568359375,0.876953125,-0.495849609375,1.9836424589157104,0.0,0.3356933295726776,60.0,1145396.0,1.0
483244.479589,297144.0,316103.03125,404068.0625,338197.28125,389328.875,269889.8125,362579.90625,274782.78125,-0.07275390625,0.8759765625,-0.49609375,1.8005369901657104,0.1220703050494194,0.3662109076976776,60.0,1145397.0,1.0
483244.4822391,296958.5,311899.84375,397053.09375,333469.625,384829.8125,268850.46875,357085.75,273122.3125,-0.071533203125,0.87841796875,-0.496826171875,1.6784666776657104,0.1220703050494194,0.4882812201976776,60.0,1145398.0,1.0
483244.4845368,296458.53125,312630.03125,397078.125,333165.5625,384967.78125,269604.4375,356986.34375,273469.03125,-0.07470703125,0.87890625,-0.494873046875,1.6174315214157104,0.2441406100988388,0.5493163466453552,60.0,1145399.0,1.0
483244.4871937,296875.09375,317545.96875,404595.75,337828.40625,389666.90625,271162.71875,362368.65625,275376.46875,-0.075439453125,0.8798828125,-0.49755859375,1.4343260526657104,0.3662109076976776,0.5493163466453552,60.0,1145400.0,1.0
483244.4897043,297942.875,320052.0625,409691.65625,341088.71875,392570.21875,271381.84375,365791.9375,276212.6875,-0.072021484375,0.8779296875,-0.49755859375,1.3427733182907104,0.3356933295726776,0.6713866591453552,60.0,1145401.0,1.0
483244.4922483,298365.84375,316457.53125,405207.90625,338251.46875,389465.65625,269873.0,362157.46875,274717.625,-0.07275390625,0.879638671875,-0.497802734375,1.2512205839157104,0.3967284858226776,0.8544921278953552,60.0,1145402.0,1.0
483244.4972451,297606.78125,311946.5,397928.5625,333504.3125,384928.71875,268789.84375,356699.875,273055.0,-0.073974609375,0.877685546875,-0.494873046875,1.1596678495407104,0.5493163466453552,0.9155272841453552,60.0,1145403.0,1.0
483244.4972861,296557.6875,312361.0,397651.6875,333161.71875,385003.09375,269494.8125,356606.09375,273394.9375,-0.075439453125,0.874267578125,-0.494384765625,1.2512205839157104,0.6408690810203552,1.0375975370407104,60.0,1145404.0,1.0
483244.4997324,296439.21875,316992.90625,404896.0625,337798.8125,389662.53125,271030.28125,362013.96875,275309.40625,-0.076171875,0.873779296875,-0.49462890625,1.0070799589157104,0.6103515028953552,1.1291502714157104,60.0,1145405.0,1.0
483244.5022379,297152.0625,319390.0,409902.40625,341065.46875,392602.6875,271261.59375,365520.78125,276167.53125,-0.0771484375,0.871826171875,-0.49609375,0.9765624403953552,0.7019042372703552,1.1901854276657104,60.0,1145406.0,1.0
483244.5059929,297639.5,315971.25,405599.59375,338292.25,389623.375,269824.5625,362015.9375,274720.84375,-0.07763671875,0.870361328125,-0.49609375,0.9155272841453552,0.7629393935203552,1.3122557401657104,60.0,1145407.0,1.0
483244.5060348,297038.875,311659.15625,398524.65625,333581.375,385193.0,268792.53125,356650.71875,273085.65625,-0.076904296875,0.87060546875,-0.496337890625,0.9155272841453552,0.7324218153953552,1.3732908964157104,60.0,1145408.0,1.0
483244.5622389,296011.59375,312125.0625,398300.40625,333208.1875,385300.8125,269502.25,356577.3125,273427.03125,-0.075927734375,0.869140625,-0.49560546875,1.0070799589157104,0.7324218153953552,1.4648436307907104,60.0,1145409.0,1.0
483244.5672256,295847.53125,316704.46875,405459.78125,337791.75,389920.21875,271017.25,361935.1875,275328.8125,-0.076171875,0.8681640625,-0.4970703125,0.9155272841453552,0.7324218153953552,1.5563963651657104,60.0,1145410.0,1.0
483244.5672651,296531.125,319038.0,410353.375,341011.0,392810.46875,271246.3125,365382.71875,276186.9375,-0.074951171875,0.869140625,-0.494873046875,1.0681151151657104,0.7934569716453552,1.4953612089157104,60.0,1145411.0,1.0
483244.5772167,297007.84375,315599.40625,405989.875,338208.28125,389824.09375,269823.21875,361864.125,274761.0625,-0.075927734375,0.8671875,-0.495361328125,1.0681151151657104,0.8239745497703552,1.5258787870407104,60.0,1145412.0,1.0
483244.5789066,296310.90625,311206.65625,398785.90625,333440.125,385345.78125,268771.96875,356449.09375,273113.46875,-0.07373046875,0.86767578125,-0.498046875,0.9460448622703552,0.7629393935203552,1.3732908964157104,60.0,1145413.0,1.0
483244.6045624,295060.375,311504.75,398340.1875,332993.25,385355.28125,269426.96875,356285.75,273415.59375,-0.074462890625,0.86962890625,-0.4970703125,0.9765624403953552,0.9155272841453552,1.4038084745407104,60.0,1145414.0,1.0
483244.6071632,294578.9375,315879.0625,405251.1875,337509.84375,389874.53125,270898.3125,361563.625,275284.1875,-0.073974609375,0.869384765625,-0.495361328125,1.0070799589157104,0.9155272841453552,1.4038084745407104,60.0,1145415.0,1.0
483244.6097115,294888.1875,318020.625,409922.34375,340705.96875,392704.25,271099.03125,364981.5625,276123.71875,-0.073974609375,0.869384765625,-0.494873046875,0.9155272841453552,0.9460448622703552,1.4038084745407104,60.0,1145416.0,1.0
483244.612196,294972.78125,314413.25,405371.15625,337899.46875,389695.25,269652.8125,361485.03125,274685.15625,-0.07275390625,0.8701171875,-0.49658203125,0.8544921278953552,0.9460448622703552,1.4953612089157104,60.0,1145417.0,1.0
483244.6145798,293875.21875,309844.46875,397964.25,333145.875,385209.8125,268607.0,356120.15625,273055.28125,-0.072021484375,0.8681640625,-0.5,0.8239745497703552,1.0070799589157104,1.4343260526657104,60.0,1145418.0,1.0
483244.6172283,292104.59375,309855.09375,397174.96875,332658.4375,385131.9375,269212.75,355936.34375,273332.96875,-0.071533203125,0.8681640625,-0.49755859375,0.7629393935203552,1.1901854276657104,1.3122557401657104,60.0,1145419.0,1.0
483244.6195793,291069.71875,313925.96875,403711.6875,337163.65625,389566.96875,270638.25,361203.21875,275187.0,-0.0732421875,0.868408203125,-0.49755859375,0.7324218153953552,1.2207030057907104,1.2817381620407104,60.0,1145420.0,1.0
483244.6220916,290937.375,315866.03125,408104.34375,340395.0,392369.875,270845.125,364671.5,276046.75,-0.0732421875,0.8701171875,-0.495361328125,0.6103515028953552,1.3427733182907104,1.2207030057907104,60.0,1145421.0,1.0
483244.6245667,290769.5625,312184.5,403389.90625,337626.0625,389362.3125,269426.875,361242.5625,274629.71875,-0.0732421875,0.86962890625,-0.494873046875,0.6408690810203552,1.3732908964157104,1.1291502714157104,60.0,1145422.0,1.0
483244.6295861,289565.4375,307607.125,395868.53125,332882.65625,384865.40625,268385.71875,355914.53125,273001.34375,-0.074462890625,0.86865234375,-0.496826171875,0.6103515028953552,1.4343260526657104,1.1291502714157104,60.0,1145423.0,1.0
483244.6321641,287844.34375,307670.34375,394994.59375,332421.59375,384776.625,269025.15625,355745.09375,273304.4375,-0.073974609375,0.86767578125,-0.49755859375,0.6713866591453552,1.4953612089157104,1.1291502714157104,60.0,1145424.0,1.0
483244.6347377,286914.4375,311795.40625,401434.03125,336913.5,389160.15625,270457.8125,360967.625,275148.75,-0.07177734375,0.86767578125,-0.49609375,0.6408690810203552,1.5869139432907104,1.1291502714157104,60.0,1145425.0,1.0
483244.6372328,286805.25,313752.25,405726.375,340129.46875,391907.1875,270645.125,364388.34375,275976.8125,-0.071044921875,0.86865234375,-0.495849609375,0.6103515028953552,1.5563963651657104,1.1291502714157104,60.0,1145426.0,1.0
483244.6395791,286768.59375,310181.25,401010.25,337373.21875,388893.375,269236.34375,360954.6875,274550.59375,-0.072265625,0.8681640625,-0.494140625,0.6408690810203552,1.6479490995407104,1.0681151151657104,60.0,1145427.0,1.0
483244.6445833,286003.8125,305881.3125,393626.75,332657.71875,384424.625,268235.96875,355624.0625,272933.6875,-0.07275390625,0.868408203125,-0.49755859375,0.7324218153953552,1.7089842557907104,1.0070799589157104,60.0,1145428.0,1.0
483244.6471138,284806.21875,306229.8125,392898.34375,332225.34375,384348.8125,268916.4375,355422.15625,273244.1875,-0.073974609375,0.868896484375,-0.498046875,0.6408690810203552,1.8005369901657104,0.9460448622703552,60.0,1145429.0,1.0
483244.6513377,284395.03125,310610.6875,399466.90625,336721.4375,388707.59375,270365.46875,360574.15625,275072.125,-0.074462890625,0.868408203125,-0.5,0.5798339247703552,1.7395018339157104,0.8850097060203552,60.0,1145430.0,1.0
483244.658344,285176.1875,313075.71875,404137.0,340001.875,391528.03125,270651.21875,363988.53125,275940.15625,-0.073974609375,0.869873046875,-0.497802734375,0.5187987685203552,1.8920897245407104,0.8850097060203552,60.0,1145431.0,1.0
483244.6609636,286240.46875,310160.6875,399992.875,337358.5625,388670.125,269366.78125,360605.1875,274583.15625,-0.075439453125,0.870849609375,-0.498291015625,0.5798339247703552,1.8005369901657104,0.7324218153953552,60.0,1145432.0,1.0
483244.6634428,286139.96875,306204.6875,392943.34375,332643.59375,384226.59375,268352.03125,355223.0625,272920.625,-0.07568359375,0.8701171875,-0.4970703125,0.5187987685203552,1.7700194120407104,0.7934569716453552,60.0,1145433.0,1.0
483244.6659458,285187.0,306630.1875,392316.84375,332176.96875,384117.25,268983.0625,354957.875,273185.1875,-0.07568359375,0.870361328125,-0.4951171875,0.4882812201976776,1.6479490995407104,0.7934569716453552,60.0,1145434.0,1.0
483244.669863,284831.875,310983.15625,398888.4375,336657.625,388450.8125,270411.0625,360072.84375,275004.34375,-0.077392578125,0.869873046875,-0.496337890625,0.5493163466453552,1.6174315214157104,0.7934569716453552,60.0,1145435.0,1.0
483244.6699046,285633.3125,313418.3125,403574.34375,339932.3125,391254.34375,270680.875,363462.4375,275862.375,-0.078369140625,0.87109375,-0.50048828125,0.5493163466453552,1.5563963651657104,0.7324218153953552,60.0,1145436.0,1.0
483244.6699131,286802.5,310562.125,399539.15625,337308.65625,388413.4375,269397.0,360082.40625,274495.78125,-0.08056640625,0.87109375,-0.49755859375,0.3967284858226776,1.5258787870407104,0.6713866591453552,60.0,1145437.0,1.0
483244.6699223,286893.6875,306729.34375,392650.4375,332656.1875,384033.21875,268430.6875,354749.1875,272878.4375,-0.0791015625,0.869384765625,-0.49755859375,0.3662109076976776,1.4343260526657104,0.6103515028953552,60.0,1145438.0,1.0
483244.6734656,286075.78125,307198.90625,392092.875,332186.625,383930.21875,269067.1875,354475.78125,273150.21875,-0.07763671875,0.86865234375,-0.497314453125,0.2746581733226776,1.4038084745407104,0.6408690810203552,60.0,1145439.0,1.0
483244.6735071,285811.6875,311549.1875,398678.53125,336631.25,388236.78125,270478.03125,359547.6875,274957.84375,-0.078369140625,0.867919921875,-0.49609375,0.3051757514476776,1.2817381620407104,0.6408690810203552,60.0,1145440.0,1.0
483244.6735171,286760.375,314047.03125,403445.6875,339914.53125,391051.03125,270752.59375,362927.25,275825.375,-0.07763671875,0.868408203125,-0.493896484375,0.3051757514476776,1.2512205839157104,0.6103515028953552,60.0,1145441.0,1.0
483244.681066,288107.125,311295.53125,399556.75,337302.21875,388240.625,269475.40625,359551.59375,274455.21875,-0.076171875,0.87109375,-0.494384765625,0.3051757514476776,1.2512205839157104,0.5187987685203552,60.0,1145442.0,1.0
483244.6811078,288351.65625,307555.8125,392807.6875,332651.90625,383903.125,268528.875,354229.84375,272847.75,-0.076416015625,0.87255859375,-0.49560546875,0.3051757514476776,1.2207030057907104,0.5798339247703552,60.0,1145443.0,1.0
483244.6811178,287558.6875,307997.03125,392249.8125,332135.59375,383767.03125,269143.34375,353898.0625,273097.1875,-0.076171875,0.87353515625,-0.496826171875,0.1831054538488388,1.0986326932907104,0.6103515028953552,60.0,1145444.0,1.0
483244.6833345,287259.71875,312270.59375,398783.9375,336525.65625,388023.1875,270526.9375,358903.21875,274888.75,-0.07470703125,0.872314453125,-0.49658203125,0.1525878757238388,1.1596678495407104,0.7019042372703552,60.0,1145445.0,1.0
483244.6858414,288214.6875,314754.40625,403577.84375,339778.4375,390834.84375,270801.78125,362263.3125,275758.3125,-0.073974609375,0.871826171875,-0.49755859375,0.3051757514476776,1.0681151151657104,0.7324218153953552,60.0,1145446.0,1.0
483244.6883204,289666.90625,312101.4375,399842.875,337197.375,388097.90625,269567.3125,358937.375,274435.4375,-0.07666015625,0.870849609375,-0.494873046875,0.2441406100988388,1.0070799589157104,0.7629393935203552,60.0,1145447.0,1.0
483244.6934677,289978.21875,308410.09375,393195.90625,332542.46875,383792.34375,268626.40625,353624.71875,272836.125,-0.074951171875,0.872802734375,-0.494873046875,0.3051757514476776,1.0070799589157104,0.8544921278953552,60.0,1145448.0,1.0
483244.6959831,289167.03125,308811.96875,392641.5,331982.96875,383641.15625,269225.15625,353262.8125,273078.78125,-0.07373046875,0.872314453125,-0.49560546875,0.1220703050494194,1.0681151151657104,0.8850097060203552,60.0,1145449.0,1.0
483244.6983339,288757.8125,312964.59375,399090.25,336297.9375,387834.875,270563.9375,358196.75,274836.71875,-0.073486328125,0.872802734375,-0.49560546875,0.1220703050494194,1.0070799589157104,0.8544921278953552,60.0,1145450.0,1.0
483244.7008477,289617.1875,315377.59375,403845.15625,339520.59375,390618.375,270827.25,361522.3125,275697.25,-0.0732421875,0.87255859375,-0.494873046875,0.0915527269244194,1.0986326932907104,0.9155272841453552,60.0,1145451.0,1.0
483244.7034034,291000.59375,312713.15625,400145.34375,336953.71875,387904.34375,269608.1875,358213.625,274386.625,-0.074462890625,0.872314453125,-0.494873046875,0.03051757626235485,1.0375975370407104,0.9765624403953552,60.0,1145452.0,1.0
483244.7059095,291210.6875,308985.4375,393505.6875,332299.65625,383620.59375,268670.75,352926.8125,272800.28125,-0.073486328125,0.86962890625,-0.493896484375,-0.03051757626235485,1.0375975370407104,1.0375975370407104,60.0,1145453.0,1.0
483244.7084641,290206.65625,309251.40625,392836.9375,331693.28125,383425.6875,269233.84375,352531.0,273022.09375,-0.072265625,0.869140625,-0.49560546875,-0.0610351525247097,0.9460448622703552,1.0070799589157104,60.0,1145454.0,1.0
483244.7109773,289621.03125,313282.59375,399165.59375,335997.875,387588.75,270566.1875,357444.28125,274791.90625,-0.0732421875,0.870849609375,-0.49560546875,-0.03051757626235485,0.9765624403953552,1.0375975370407104,60.0,1145455.0,1.0
483244.7133886,290405.59375,315658.6875,403886.03125,339240.125,390378.875,270850.9375,360779.0,275671.9375,-0.072998046875,0.8701171875,-0.495361328125,0.0610351525247097,0.9460448622703552,1.1291502714157104,60.0,1145456.0,1.0
483244.7158464,291827.875,313046.46875,400248.40625,336681.75,387690.3125,269642.875,357485.40625,274357.3125,-0.071533203125,0.867919921875,-0.4951171875,0.1220703050494194,0.9765624403953552,1.0986326932907104,60.0,1145457.0,1.0
483244.715882,292098.6875,309361.125,393659.9375,332020.96875,383406.5625,268700.15625,352179.1875,272749.6875,-0.072998046875,0.869384765625,-0.495361328125,0.0915527269244194,1.0070799589157104,1.1291502714157104,60.0,1145458.0,1.0
483244.71847,291105.46875,309610.75,392977.03125,331403.59375,383188.125,269250.375,351749.25,272956.9375,-0.073974609375,0.870361328125,-0.49365234375,-0.03051757626235485,1.0986326932907104,1.1291502714157104,60.0,1145459.0,1.0
483244.7208078,290458.78125,313571.125,399230.96875,335687.375,387293.96875,270556.15625,356606.09375,274695.0,-0.072265625,0.870361328125,-0.49462890625,0.0915527269244194,1.0681151151657104,1.0681151151657104,60.0,1145460.0,1.0
483244.7235721,291234.5625,315951.3125,403973.46875,338971.1875,390099.75,270843.4375,359956.625,275588.0,-0.0732421875,0.868896484375,-0.49462890625,0.0915527269244194,1.2512205839157104,1.0681151151657104,60.0,1145461.0,1.0
483244.7236131,292711.21875,313409.375,400442.15625,336482.28125,387470.5625,269660.84375,356719.65625,274303.84375,-0.07373046875,0.86767578125,-0.49560546875,0.0915527269244194,1.2512205839157104,0.8850097060203552,60.0,1145462.0,1.0
483244.727063,293017.78125,309778.28125,393943.25,331877.28125,383235.25,268735.75,351468.15625,272719.28125,-0.073486328125,0.868896484375,-0.49365234375,0.1831054538488388,1.2207030057907104,0.7629393935203552,60.0,1145463.0,1.0
483244.7535736,291991.3125,310011.90625,393271.28125,331300.53125,383036.0625,269294.53125,351068.84375,272944.21875,-0.073974609375,0.869873046875,-0.49365234375,0.2441406100988388,1.1901854276657104,0.7934569716453552,60.0,1145464.0,1.0
483244.7536149,291266.59375,313912.5625,399489.34375,335608.875,387140.5625,270597.03125,355937.15625,274688.375,-0.073974609375,0.869384765625,-0.492919921875,0.3051757514476776,1.0681151151657104,0.8544921278953552,60.0,1145465.0,1.0
483244.7605222,291973.4375,316248.6875,404215.40625,338909.6875,389938.09375,270879.375,359290.28125,275571.8125,-0.073486328125,0.86865234375,-0.49072265625,0.3356933295726776,1.0986326932907104,0.7934569716453552,60.0,1145466.0,1.0
483244.7605631,293483.59375,313768.96875,400782.09375,336480.3125,387369.875,269726.90625,356122.84375,274315.46875,-0.072509765625,0.87109375,-0.49462890625,0.2746581733226776,1.2207030057907104,0.7629393935203552,60.0,1145467.0,1.0
483244.7670667,293791.53125,310148.71875,394325.28125,331892.40625,383148.71875,268792.78125,350889.875,272718.375,-0.072509765625,0.87109375,-0.494384765625,0.2441406100988388,1.2817381620407104,0.7019042372703552,60.0,1145468.0,1.0
483244.7695977,292690.46875,310316.34375,393605.21875,331299.4375,382910.875,269309.75,350466.0625,272910.6875,-0.07373046875,0.871337890625,-0.494140625,0.1525878757238388,1.2207030057907104,0.6713866591453552,60.0,1145469.0,1.0
483244.7747091,291890.46875,314157.625,399776.09375,335623.34375,387002.25,270601.40625,355338.5625,274656.5625,-0.07373046875,0.872314453125,-0.496826171875,0.2746581733226776,1.2817381620407104,0.5493163466453552,60.0,1145470.0,1.0
483244.7795818,292569.78125,316492.5,404521.34375,338969.6875,389829.71875,270892.6875,358736.40625,275563.84375,-0.07470703125,0.8720703125,-0.493408203125,0.2136230319738388,1.2207030057907104,0.4882812201976776,60.0,1145471.0,1.0
483244.782231,294091.9375,314043.71875,401150.96875,336582.34375,387301.03125,269746.0625,355616.1875,274318.15625,-0.0732421875,0.87109375,-0.494384765625,0.2746581733226776,1.2817381620407104,0.5493163466453552,60.0,1145472.0,1.0
483244.784558,294415.9375,310449.125,394755.15625,332040.46875,383120.0,268825.25,350429.3125,272733.21875,-0.074462890625,0.871337890625,-0.49365234375,0.2136230319738388,1.2512205839157104,0.5493163466453552,60.0,1145473.0,1.0
483244.7896918,293266.0,310565.0625,394002.96875,331452.34375,382875.5625,269334.875,350002.3125,272918.75,-0.072998046875,0.870849609375,-0.493408203125,0.1831054538488388,1.2817381620407104,0.4577636420726776,60.0,1145474.0,1.0
483244.7922194,292399.28125,314348.15625,400118.875,335791.0625,386961.46875,270623.75,354875.8125,274674.4375,-0.073486328125,0.8720703125,-0.496337890625,0.0610351525247097,1.2817381620407104,0.4882812201976776,60.0,1145475.0,1.0
483244.7971557,293003.5,316626.25,404809.875,339123.53125,389754.90625,270887.25,358250.75,275554.28125,-0.07470703125,0.870361328125,-0.494873046875,0.0610351525247097,1.3122557401657104,0.3967284858226776,60.0,1145476.0,1.0
483244.7971965,294522.15625,314189.8125,401471.9375,336765.34375,387239.78125,269744.625,355151.71875,274306.875,-0.075439453125,0.87060546875,-0.492919921875,0.0610351525247097,1.2207030057907104,0.4577636420726776,60.0,1145477.0,1.0
483244.7996993,294890.0625,310650.90625,395154.09375,332288.375,383120.375,268856.4375,350034.3125,272765.40625,-0.076904296875,0.86962890625,-0.4921875,0.03051757626235485,1.3427733182907104,0.5493163466453552,60.0,1145478.0,1.0
483244.8045957,293696.46875,310733.59375,394375.71875,331698.03125,382873.875,269360.78125,349614.03125,272954.0625,-0.0771484375,0.869140625,-0.496826171875,-0.03051757626235485,1.2512205839157104,0.4882812201976776,60.0,1145479.0,1.0
483244.8070869,292704.4375,314396.53125,400370.375,335967.46875,386890.3125,270605.875,354424.375,274665.75,-0.075439453125,0.869140625,-0.497802734375,0.1525878757238388,1.2512205839157104,0.4272460639476776,60.0,1145480.0,1.0
483244.8097744,293242.21875,316628.375,405023.09375,339279.1875,389677.125,270868.71875,357793.875,275548.03125,-0.07568359375,0.869384765625,-0.4970703125,0.1831054538488388,1.2207030057907104,0.4577636420726776,60.0,1145481.0,1.0
483244.8098156,294759.96875,314216.46875,401715.84375,336920.90625,387182.9375,269745.5,354713.09375,274309.90625,-0.07470703125,0.870361328125,-0.497314453125,0.1525878757238388,1.1291502714157104,0.4882812201976776,60.0,1145482.0,1.0
483244.8145404,295103.84375,310676.75,395399.6875,332415.6875,383056.4375,268847.5,349583.4375,272753.0625,-0.0751953125,0.869140625,-0.496826171875,0.0915527269244194,1.1901854276657104,0.5493163466453552,60.0,1145483.0,1.0
483244.819712,293854.71875,310713.65625,394567.21875,331791.625,382789.1875,269338.625,349136.0625,272941.375,-0.076416015625,0.871826171875,-0.49560546875,0.1220703050494194,1.1901854276657104,0.6408690810203552,60.0,1145484.0,1.0
483244.8222256,292790.0625,314315.625,400480.96875,336021.65625,386778.0,270577.53125,353913.4375,274663.6875,-0.076904296875,0.871337890625,-0.496337890625,0.1525878757238388,1.1596678495407104,0.7019042372703552,60.0,1145485.0,1.0
483244.8296991,293321.40625,316554.28125,405125.9375,339337.75,389578.3125,270877.21875,357288.90625,275580.9375,-0.076904296875,0.871826171875,-0.49658203125,0.0915527269244194,1.1291502714157104,0.8239745497703552,60.0,1145486.0,1.0
483244.8297378,294853.84375,314181.84375,401859.25,336967.125,387108.4375,269768.125,354222.0625,274353.28125,-0.077392578125,0.871337890625,-0.493408203125,0.0915527269244194,0.9765624403953552,0.7019042372703552,60.0,1145487.0,1.0
483244.8297481,295186.8125,310644.65625,395551.0625,332419.8125,382977.84375,268849.84375,349080.0,272774.8125,-0.07763671875,0.87060546875,-0.49462890625,0.1220703050494194,1.0375975370407104,0.7934569716453552,60.0,1145488.0,1.0
483244.8321485,293888.34375,310628.5625,394654.125,331749.625,382662.15625,269308.3125,348582.28125,272930.625,-0.07763671875,0.87109375,-0.49609375,-0.03051757626235485,1.0681151151657104,0.8850097060203552,60.0,1145489.0,1.0
483244.8321893,292741.96875,314140.46875,400458.875,335933.9375,386574.25,270512.34375,353285.53125,274612.5625,-0.078369140625,0.86962890625,-0.495361328125,0.1220703050494194,1.1291502714157104,0.9155272841453552,60.0,1145490.0,1.0
483244.8359757,293236.75,316352.125,405062.0,339240.75,389349.96875,270804.71875,356641.59375,275516.90625,-0.077392578125,0.870361328125,-0.497314453125,0.1525878757238388,1.1596678495407104,0.9155272841453552,60.0,1145491.0,1.0
483244.8534528,294817.65625,314052.5625,401874.46875,336920.75,386937.875,269729.5,353642.4375,274325.3125,-0.07666015625,0.872314453125,-0.498779296875,-0.03051757626235485,1.0681151151657104,1.0070799589157104,60.0,1145492.0,1.0
483244.8560371,295188.40625,310571.96875,395624.46875,332406.9375,382849.71875,268838.3125,348552.9375,272774.625,-0.076171875,0.869140625,-0.49755859375,-0.03051757626235485,1.0070799589157104,1.0070799589157104,60.0,1145493.0,1.0
483244.8560844,293873.40625,310541.90625,394702.5,331726.1875,382531.4375,269292.3125,348060.125,272931.0,-0.076171875,0.869873046875,-0.49609375,0.03051757626235485,0.9155272841453552,0.9460448622703552,60.0,1145494.0,1.0
483244.8609639,292726.59375,314045.4375,400481.5,335944.59375,386459.625,270514.0625,352791.28125,274642.875,-0.076416015625,0.86865234375,-0.496337890625,0.2746581733226776,0.9155272841453552,0.9765624403953552,60.0,1145495.0,1.0
483244.8633518,293204.65625,316248.9375,405072.625,339276.53125,389240.8125,270804.4375,356173.46875,275549.90625,-0.075927734375,0.869140625,-0.49462890625,0.1220703050494194,0.9155272841453552,0.9155272841453552,60.0,1145496.0,1.0
483244.8683342,294803.25,313997.6875,401935.15625,336987.6875,386868.125,269750.4375,353231.0625,274374.1875,-0.074462890625,0.86865234375,-0.494384765625,0.0915527269244194,0.9155272841453552,0.9460448622703552,60.0,1145497.0,1.0
483244.8699123,295176.96875,310546.125,395722.53125,332472.90625,382810.46875,268857.15625,348195.75,272825.6875,-0.074462890625,0.86865234375,-0.494140625,0.03051757626235485,0.8850097060203552,0.9155272841453552,60.0,1145498.0,1.0
483244.8770903,293840.59375,310493.09375,394781.71875,331801.8125,382498.625,269307.59375,347743.4375,272986.4375,-0.074951171875,0.868896484375,-0.49609375,0.0915527269244194,0.9155272841453552,0.9765624403953552,60.0,1145499.0,1.0
483244.9025152,292608.40625,313904.59375,400457.0,335986.0,386364.21875,270488.5625,352453.78125,274654.03125,-0.076416015625,0.868408203125,-0.49755859375,0.03051757626235485,0.9765624403953552,0.9155272841453552,60.0,1145500.0,1.0
483244.9131124,293051.5,316085.59375,405013.0,339305.75,389132.1875,270768.96875,355859.71875,275552.3125,-0.076416015625,0.866943359375,-0.500732421875,0.1831054538488388,0.9765624403953552,0.8544921278953552,60.0,1145501.0,1.0
483244.9131551,294653.0625,313875.5625,401916.5625,337002.90625,386790.78125,269723.34375,352986.1875,274377.5,-0.073974609375,0.8681640625,-0.49755859375,0.1525878757238388,1.0681151151657104,0.9460448622703552,60.0,1145502.0,1.0
483244.929569,295050.46875,310475.65625,395744.0,332487.40625,382768.28125,268856.71875,348020.0625,272839.625,-0.074951171875,0.867919921875,-0.496826171875,0.2136230319738388,1.0986326932907104,0.9765624403953552,60.0,1145503.0,1.0
483244.9322023,293712.03125,310422.375,394786.46875,331812.09375,382455.4375,269306.875,347599.3125,272995.09375,-0.073486328125,0.865966796875,-0.49658203125,0.2746581733226776,1.0375975370407104,0.9460448622703552,60.0,1145504.0,1.0
483244.9347099,292475.90625,313804.46875,400423.75,336010.5625,386312.625,270482.59375,352326.53125,274665.03125,-0.07373046875,0.86669921875,-0.495849609375,0.3051757514476776,1.1291502714157104,0.8544921278953552,60.0,1145505.0,1.0
483244.9370955,292920.59375,315989.5,404974.65625,339339.0,389084.625,270769.40625,355758.53125,275565.90625,-0.074462890625,0.868896484375,-0.496337890625,0.3051757514476776,1.0986326932907104,0.8850097060203552,60.0,1145506.0,1.0
483244.9396018,294547.28125,313840.0625,401931.5,337039.8125,386782.125,269747.9375,352943.8125,274410.6875,-0.07568359375,0.86865234375,-0.49755859375,0.3356933295726776,1.0681151151657104,0.8239745497703552,60.0,1145507.0,1.0
483244.9447001,294952.125,310478.09375,395799.0,332516.53125,382791.78125,268887.03125,348030.34375,272881.65625,-0.074462890625,0.870361328125,-0.497802734375,0.2746581733226776,1.1291502714157104,1.0375975370407104,60.0,1145508.0,1.0
483244.9545726,293593.9375,310390.46875,394802.0,331831.15625,382447.5,269313.78125,347591.28125,273011.8125,-0.07421875,0.869140625,-0.4970703125,0.1220703050494194,1.2817381620407104,0.9460448622703552,60.0,1145509.0,1.0
483244.959699,292336.96875,313717.375,400372.4375,336017.8125,386248.34375,270455.84375,352261.71875,274646.625,-0.074951171875,0.869384765625,-0.50048828125,0.1525878757238388,1.2207030057907104,0.9460448622703552,60.0,1145510.0,1.0
483244.9622428,292788.28125,315893.90625,404911.53125,339344.5625,389012.46875,270739.0,355676.25,275543.46875,-0.073486328125,0.86962890625,-0.498046875,0.0915527269244194,1.2512205839157104,0.8850097060203552,60.0,1145511.0,1.0
483244.9645763,294404.21875,313765.9375,401881.34375,337005.21875,386717.28125,269715.75,352859.75,274371.96875,-0.07421875,0.87158203125,-0.495849609375,0.0610351525247097,1.2512205839157104,0.7934569716453552,60.0,1145512.0,1.0
483244.9670973,294809.0625,310429.8125,395763.40625,332450.28125,382740.03125,268873.96875,347944.09375,272842.9375,-0.07275390625,0.87109375,-0.497314453125,0.1220703050494194,1.3427733182907104,0.7629393935203552,60.0,1145513.0,1.0
483244.9695876,293444.90625,310318.5,394730.40625,331736.125,382371.21875,269289.1875,347462.71875,272963.09375,-0.076416015625,0.87158203125,-0.49755859375,0.0,1.2817381620407104,0.7629393935203552,60.0,1145514.0,1.0
483244.9722596,292240.9375,313646.9375,400286.5,335943.96875,386169.125,270441.1875,352113.65625,274620.59375,-0.074951171875,0.870361328125,-0.49609375,-0.03051757626235485,1.2512205839157104,0.7324218153953552,60.0,1145515.0,1.0
483244.974588,292718.8125,315825.15625,404819.875,339276.15625,388919.21875,270735.78125,355500.65625,275518.15625,-0.0751953125,0.87109375,-0.499267578125,-0.1831054538488388,1.2817381620407104,0.6408690810203552,60.0,1145516.0,1.0
483244.9746268,294339.84375,313729.0,401814.5625,336915.1875,386634.9375,269737.8125,352679.625,274352.21875,-0.075439453125,0.872802734375,-0.49609375,-0.3662109076976776,1.1596678495407104,0.6103515028953552,60.0,1145517.0,1.0
483244.9793765,294728.6875,310403.78125,395700.375,332313.40625,382650.78125,268890.4375,347741.5625,272806.90625,-0.07568359375,0.87158203125,-0.49560546875,-0.3662109076976776,1.1596678495407104,0.6103515028953552,60.0,1145518.0,1.0
483244.979419,293426.375,310321.71875,394706.15625,331649.375,382303.71875,269308.75,347267.53125,272945.75,-0.076416015625,0.870849609375,-0.49609375,-0.3967284858226776,1.2207030057907104,0.6103515028953552,60.0,1145519.0,1.0
483244.9859881,292271.875,313626.5625,400271.125,335922.9375,386080.34375,270436.8125,351887.46875,274594.3125,-0.076171875,0.86865234375,-0.49609375,-0.3967284858226776,1.2207030057907104,0.6103515028953552,60.0,1145520.0,1.0
483244.9884228,292794.8125,315817.03125,404846.25,339312.5625,388836.6875,270726.5,355273.75,275497.875,-0.075439453125,0.86962890625,-0.49560546875,-0.4882812201976776,1.2512205839157104,0.5493163466453552,60.0,1145521.0,1.0
483244.9909102,294452.0625,313783.90625,401929.625,336988.6875,386605.90625,269745.59375,352500.34375,274360.53125,-0.0751953125,0.869140625,-0.49755859375,-0.5798339247703552,1.2512205839157104,0.5187987685203552,60.0,1145522.0,1.0
483244.9934397,294862.15625,310509.1875,395880.78125,332399.4375,382661.4375,268904.1875,347597.625,272832.03125,-0.07470703125,0.869140625,-0.500244140625,-0.6408690810203552,1.1901854276657104,0.5187987685203552,60.0,1145523.0,1.0
483244.9959602,293596.09375,310432.125,394915.65625,331777.15625,382316.40625,269324.5,347122.0625,272969.71875,-0.076171875,0.868896484375,-0.499267578125,-0.6103515028953552,1.1901854276657104,0.4882812201976776,60.0,1145524.0,1.0
483244.9985073,292525.0625,313756.5625,400535.5,336130.1875,386118.1875,270459.59375,351761.75,274635.53125,-0.075927734375,0.8701171875,-0.49755859375,-0.5493163466453552,1.2207030057907104,0.3662109076976776,60.0,1145525.0,1.0
483244.9985465,293093.625,315969.5625,405162.125,339549.9375,388902.40625,270750.34375,355170.40625,275553.3125,-0.076416015625,0.869384765625,-0.49755859375,-0.5798339247703552,1.2207030057907104,0.5187987685203552,60.0,1145526.0,1.0
483245.0009184,294670.40625,313913.28125,402221.625,337136.28125,386649.4375,269756.34375,352373.84375,274382.78125,-0.077392578125,0.867919921875,-0.4970703125,-0.5493163466453552,1.3122557401657104,0.4577636420726776,60.0,1145527.0,1.0
483245.0034361,295000.03125,310617.8125,396148.125,332474.25,382692.625,268906.6875,347456.375,272836.21875,-0.07568359375,0.869140625,-0.497314453125,-0.6103515028953552,1.3427733182907104,0.4577636420726776,60.0,1145528.0,1.0
483245.0059939,293731.4375,310538.96875,395185.21875,331839.65625,382362.625,269341.40625,346986.53125,272994.03125,-0.076171875,0.867431640625,-0.496826171875,-0.6103515028953552,1.4038084745407104,0.5493163466453552,60.0,1145529.0,1.0
483245.0060362,292693.96875,313855.96875,400807.65625,336216.46875,386164.65625,270487.6875,351612.4375,274674.96875,-0.075927734375,0.86572265625,-0.49462890625,-0.6408690810203552,1.3732908964157104,0.4882812201976776,60.0,1145530.0,1.0
483245.0085583,293229.96875,316036.78125,405399.6875,339590.78125,388920.1875,270755.46875,354976.375,275564.375,-0.076904296875,0.8681640625,-0.49755859375,-0.7019042372703552,1.3427733182907104,0.4882812201976776,60.0,1145531.0,1.0
483245.0109438,294721.09375,313958.4375,402411.34375,337070.03125,386651.59375,269759.71875,352148.875,274379.65625,-0.0771484375,0.864501953125,-0.496826171875,-0.5493163466453552,1.3427733182907104,0.5187987685203552,60.0,1145532.0,1.0
483245.0135572,294960.59375,310643.03125,396273.75,332282.9375,382672.25,268914.21875,347194.84375,272823.25,-0.078857421875,0.86669921875,-0.4970703125,-0.5187987685203552,1.2207030057907104,0.5187987685203552,60.0,1145533.0,1.0
483245.0136007,293651.78125,310525.03125,395242.96875,331583.0625,382299.4375,269333.4375,346666.0,272960.78125,-0.079345703125,0.866943359375,-0.4990234375,-0.5187987685203552,1.2817381620407104,0.6408690810203552,60.0,1145534.0,1.0
483245.0159533,292635.84375,313811.09375,400837.25,335968.46875,386073.9375,270468.5625,351241.9375,274633.65625,-0.078125,0.86865234375,-0.4970703125,-0.4272460639476776,1.2207030057907104,0.5493163466453552,60.0,1145535.0,1.0
483245.0322496,293201.78125,315995.84375,405437.78125,339374.40625,388828.09375,270756.53125,354589.53125,275535.59375,-0.078369140625,0.8671875,-0.49658203125,-0.3967284858226776,1.2207030057907104,0.5187987685203552,60.0,1145536.0,1.0
483245.0322913,294650.53125,313918.03125,402432.53125,336819.09375,386553.21875,269761.25,351751.46875,274345.5,-0.0791015625,0.86865234375,-0.496337890625,-0.4272460639476776,1.1291502714157104,0.6103515028953552,60.0,1145537.0,1.0
483245.0347807,294846.34375,310593.59375,396260.5,332012.28125,382573.28125,268928.78125,346796.09375,272800.09375,-0.079833984375,0.869384765625,-0.496826171875,-0.4882812201976776,1.0986326932907104,0.6713866591453552,60.0,1145538.0,1.0
483245.034822,293493.625,310392.4375,395137.71875,331311.15625,382147.875,269314.21875,346212.71875,272916.25,-0.07958984375,0.867919921875,-0.49658203125,-0.3356933295726776,1.0375975370407104,0.5798339247703552,60.0,1145539.0,1.0
483245.0370468,292484.5625,313590.4375,400638.78125,335747.90625,385866.125,270415.96875,350734.125,274574.375,-0.07861328125,0.86962890625,-0.494140625,-0.4882812201976776,1.0681151151657104,0.5493163466453552,60.0,1145540.0,1.0
483245.0434399,293044.4375,315722.78125,405169.03125,339198.65625,388590.625,270703.78125,354055.84375,275482.21875,-0.07958984375,0.86865234375,-0.49658203125,-0.3967284858226776,1.1901854276657104,0.6408690810203552,60.0,1145541.0,1.0
483245.0484438,294403.15625,313595.96875,402072.75,336597.53125,386271.34375,269694.5625,351181.78125,274270.5,-0.07861328125,0.86767578125,-0.497802734375,-0.4272460639476776,1.0986326932907104,0.5493163466453552,60.0,1145542.0,1.0
483245.0508866,294518.59375,310240.71875,395838.5,331755.15625,382254.71875,268856.1875,346195.53125,272698.96875,-0.07861328125,0.86865234375,-0.498046875,-0.3967284858226776,1.0986326932907104,0.5187987685203552,60.0,1145543.0,1.0
483245.050927,293231.9375,310106.34375,394775.0,331126.28125,381864.0,269274.4375,345641.40625,272843.375,-0.07861328125,0.8671875,-0.49609375,-0.4272460639476776,1.0681151151657104,0.4882812201976776,60.0,1145544.0,1.0
483245.0785535,292328.90625,313383.09375,400374.125,335647.59375,385619.5625,270399.0,350182.03125,274520.03125,-0.077392578125,0.867919921875,-0.493408203125,-0.3967284858226776,1.0681151151657104,0.5187987685203552,60.0,1145545.0,1.0
483245.0785953,292968.4375,315596.625,405011.46875,339156.0,388394.46875,270710.40625,353541.3125,275451.90625,-0.07763671875,0.869384765625,-0.496337890625,-0.4577636420726776,0.9765624403953552,0.5798339247703552,60.0,1145546.0,1.0
483245.0808402,294305.53125,313514.4375,401962.875,336547.0,386097.25,269698.40625,350692.4375,274236.53125,-0.07763671875,0.869140625,-0.498291015625,-0.4577636420726776,0.9460448622703552,0.6713866591453552,60.0,1145547.0,1.0
483245.0825122,294370.625,310187.15625,395738.625,331677.90625,382095.3125,268859.59375,345728.5,272663.75,-0.0771484375,0.86865234375,-0.498291015625,-0.3662109076976776,0.9460448622703552,0.6103515028953552,60.0,1145548.0,1.0
483245.0895337,293099.25,310093.1875,394721.1875,331080.40625,381739.03125,269298.21875,345205.53125,272828.09375,-0.077392578125,0.867431640625,-0.495849609375,-0.3051757514476776,0.9460448622703552,0.6713866591453552,60.0,1145549.0,1.0
483245.0921863,292239.25,313410.0,400391.1875,335657.78125,385539.09375,270446.1875,349783.0,274528.96875,-0.07763671875,0.868408203125,-0.496337890625,-0.4577636420726776,0.9155272841453552,0.6713866591453552,60.0,1145550.0,1.0
483245.0947161,292818.0625,315596.0,405027.03125,339142.40625,388299.8125,270717.46875,353127.53125,275420.0,-0.078125,0.870361328125,-0.496826171875,-0.4272460639476776,0.9155272841453552,0.6103515028953552,60.0,1145551.0,1.0
483245.0971149,294099.71875,313537.6875,402000.6875,336533.96875,386044.59375,269728.625,350320.59375,274224.1875,-0.078369140625,0.871826171875,-0.499755859375,-0.4882812201976776,0.9155272841453552,0.5798339247703552,60.0,1145552.0,1.0
483245.0997442,294096.9375,310210.40625,395764.03125,331632.84375,382057.3125,268885.96875,345354.59375,272653.84375,-0.0791015625,0.87060546875,-0.5,-0.4882812201976776,0.9155272841453552,0.5187987685203552,60.0,1145553.0,1.0
483245.099785,292778.1875,310076.1875,394714.65625,331004.75,381683.40625,269296.59375,344758.5,272796.25,-0.078857421875,0.871826171875,-0.494384765625,-0.4272460639476776,0.8544921278953552,0.6408690810203552,60.0,1145554.0,1.0
483245.1022377,291894.5,313335.8125,400362.3125,335584.0,385464.15625,270419.1875,349277.84375,274477.75,-0.0791015625,0.871337890625,-0.498779296875,-0.4577636420726776,0.8239745497703552,0.6103515028953552,60.0,1145555.0,1.0
483245.1047356,292467.75,315508.75,404997.4375,339088.3125,388245.96875,270705.03125,352629.09375,275397.65625,-0.079833984375,0.87109375,-0.495361328125,-0.4577636420726776,0.8850097060203552,0.6713866591453552,60.0,1145556.0,1.0
483245.1047779,293672.0625,313413.75,401919.34375,336442.9375,385979.59375,269715.21875,349823.25,274201.65625,-0.080322265625,0.87109375,-0.494384765625,-0.5493163466453552,0.8544921278953552,0.6103515028953552,60.0,1145557.0,1.0
483245.1072201,293589.28125,310032.5625,395614.8125,331508.65625,381969.0625,268865.3125,344863.03125,272621.65625,-0.079345703125,0.87255859375,-0.49560546875,-0.5798339247703552,0.9460448622703552,0.5798339247703552,60.0,1145558.0,1.0
483245.1298655,292261.9375,309869.03125,394531.90625,330888.90625,381579.6875,269274.53125,344306.65625,272759.96875,-0.07958984375,0.87255859375,-0.494873046875,-0.6103515028953552,1.0375975370407104,0.7019042372703552,60.0,1145559.0,1.0
483245.1299054,291448.53125,313146.0625,400200.59375,335498.8125,385364.5625,270401.5,348866.5,274450.28125,-0.0791015625,0.872802734375,-0.492919921875,-0.6103515028953552,1.0070799589157104,0.6103515028953552,60.0,1145560.0,1.0
483245.1299146,292121.9375,315387.0625,404911.78125,339051.9375,388183.9375,270706.09375,352269.21875,275391.75,-0.078125,0.870849609375,-0.4951171875,-0.6408690810203552,0.9155272841453552,0.6713866591453552,60.0,1145561.0,1.0
483245.1299236,293406.09375,313372.90625,401901.1875,336415.40625,385953.84375,269731.65625,349499.125,274211.65625,-0.07861328125,0.8720703125,-0.494873046875,-0.7324218153953552,0.8850097060203552,0.7019042372703552,60.0,1145562.0,1.0
483245.1322016,293418.78125,310086.3125,395671.75,331501.34375,381983.65625,268909.65625,344579.25,272654.5625,-0.077880859375,0.873291015625,-0.49560546875,-0.7629393935203552,0.9460448622703552,0.7324218153953552,60.0,1145563.0,1.0
483245.1345882,292210.28125,310006.625,394691.875,330925.28125,381647.21875,269335.03125,344063.90625,272817.8125,-0.076904296875,0.87353515625,-0.498046875,-0.6408690810203552,0.9765624403953552,0.7324218153953552,60.0,1145564.0,1.0
483245.1371957,291484.5625,313322.3125,400448.40625,335559.875,385455.75,270442.4375,348632.5,274495.78125,-0.076171875,0.873779296875,-0.498291015625,-0.7019042372703552,0.9155272841453552,0.7934569716453552,60.0,1145565.0,1.0
483245.1395504,292222.59375,315598.25,405239.28125,339132.125,388296.9375,270742.9375,352056.8125,275427.875,-0.075439453125,0.872802734375,-0.494384765625,-0.6408690810203552,0.8850097060203552,0.8544921278953552,60.0,1145566.0,1.0
483245.1434482,293550.84375,313626.0,402303.25,336503.46875,386098.25,269778.6875,349327.90625,274247.0625,-0.074951171875,0.871337890625,-0.49365234375,-0.7629393935203552,0.9765624403953552,0.8544921278953552,60.0,1145567.0,1.0
483245.1535796,293617.1875,310371.40625,396126.125,331579.90625,382154.3125,268948.90625,344441.1875,272689.40625,-0.07421875,0.86865234375,-0.49658203125,-0.8850097060203552,1.0681151151657104,0.8850097060203552,60.0,1145568.0,1.0
483245.1536203,292438.625,310287.03125,395162.21875,330990.0,381823.96875,269367.84375,343947.78125,272848.75,-0.076171875,0.866455078125,-0.494873046875,-0.9155272841453552,1.0375975370407104,1.0375975370407104,60.0,1145569.0,1.0
483245.1585593,291709.84375,313574.6875,400911.5625,335648.03125,385644.3125,270487.15625,348539.8125,274545.5,-0.076904296875,0.865966796875,-0.494873046875,-0.8850097060203552,1.0375975370407104,1.0681151151657104,60.0,1145570.0,1.0
483245.1585995,292391.40625,315786.34375,405651.625,339212.875,388471.0,270779.875,351957.65625,275474.0,-0.078369140625,0.866943359375,-0.49658203125,-0.8239745497703552,1.0986326932907104,1.0070799589157104,60.0,1145571.0,1.0
483245.178477,293629.875,313731.34375,402615.375,336542.90625,386231.53125,269796.65625,349200.5,274278.28125,-0.078125,0.8662109375,-0.49755859375,-0.7324218153953552,1.1596678495407104,0.9765624403953552,60.0,1145572.0,1.0
483245.1809333,293577.3125,310373.84375,396306.8125,331548.71875,382214.3125,268937.71875,344252.5625,272682.625,-0.0791015625,0.865234375,-0.49609375,-0.6713866591453552,1.1291502714157104,0.9460448622703552,60.0,1145573.0,1.0
483245.1809753,292334.375,310226.125,395270.6875,330924.21875,381843.28125,269339.53125,343720.59375,272825.5,-0.07958984375,0.865966796875,-0.496337890625,-0.6103515028953552,1.0681151151657104,0.9155272841453552,60.0,1145574.0,1.0
483245.1834344,291659.78125,313548.40625,401059.96875,335619.3125,385695.71875,270479.09375,348340.40625,274550.15625,-0.0810546875,0.86572265625,-0.4951171875,-0.5187987685203552,1.0070799589157104,0.8544921278953552,60.0,1145575.0,1.0
483245.1859689,292373.875,315784.65625,405818.125,339183.8125,388527.875,270777.90625,351758.28125,275483.125,-0.08154296875,0.8642578125,-0.49267578125,-0.4882812201976776,1.0681151151657104,0.7629393935203552,60.0,1145576.0,1.0
483245.1884338,293629.34375,313768.0,402812.34375,336499.90625,386298.5,269799.34375,349001.21875,274289.8125,-0.08154296875,0.865478515625,-0.494873046875,-0.4272460639476776,1.0681151151657104,0.7324218153953552,60.0,1145577.0,1.0
483245.1900132,293608.3125,310470.03125,396567.0,331504.71875,382316.5,268951.03125,344073.28125,272706.9375,-0.07958984375,0.865478515625,-0.496337890625,-0.3662109076976776,1.0681151151657104,0.7629393935203552,60.0,1145578.0,1.0
483245.1972355,292412.25,310390.375,395616.34375,330902.46875,381979.96875,269367.40625,343558.03125,272849.09375,-0.0771484375,0.865966796875,-0.4951171875,-0.3356933295726776,1.0375975370407104,0.7629393935203552,60.0,1145579.0,1.0
483245.2020643,291774.78125,313768.96875,401505.21875,335621.125,385864.96875,270511.03125,348188.25,274566.875,-0.076171875,0.86669921875,-0.49462890625,-0.3356933295726776,1.0986326932907104,0.8239745497703552,60.0,1145580.0,1.0
483245.204747,292569.40625,316098.28125,406409.4375,339260.0625,388779.8125,270841.46875,351667.25,275534.78125,-0.074951171875,0.8681640625,-0.494384765625,-0.2136230319738388,1.1291502714157104,0.7934569716453552,60.0,1145581.0,1.0
483245.2047888,293864.03125,314099.875,403439.09375,336594.03125,386567.28125,269861.5625,348909.75,274340.5,-0.074462890625,0.869140625,-0.496826171875,-0.1525878757238388,1.1596678495407104,0.8239745497703552,60.0,1145582.0,1.0
483245.2096658,293888.25,310798.6875,397186.59375,331603.25,382576.59375,269017.90625,343961.90625,272757.375,-0.077392578125,0.870849609375,-0.49853515625,-0.1525878757238388,1.1901854276657104,0.8239745497703552,60.0,1145583.0,1.0
483245.2120796,292736.25,310705.53125,396227.875,331021.03125,382238.8125,269437.6875,343437.875,272914.90625,-0.078369140625,0.87158203125,-0.493896484375,-0.2441406100988388,1.2207030057907104,0.8544921278953552,60.0,1145584.0,1.0
483245.2447601,292107.1875,314038.34375,402082.40625,335751.8125,386100.3125,270561.1875,348038.03125,274621.875,-0.0810546875,0.871826171875,-0.492919921875,-0.3356933295726776,1.2207030057907104,0.8544921278953552,60.0,1145585.0,1.0
483245.2448011,292862.3125,316285.4375,406901.53125,339356.1875,388944.34375,270849.875,351447.3125,275542.84375,-0.08056640625,0.872314453125,-0.494140625,-0.3051757514476776,1.0986326932907104,0.9155272841453552,60.0,1145586.0,1.0
483245.2472826,294161.125,314267.15625,403905.875,336678.96875,386705.3125,269863.34375,348667.84375,274334.0625,-0.0791015625,0.87109375,-0.496337890625,-0.2746581733226776,1.0986326932907104,0.8544921278953552,60.0,1145587.0,1.0
483245.2473258,294252.0625,311000.9375,397689.6875,331704.375,382722.0625,269026.78125,343724.6875,272753.78125,-0.077392578125,0.86669921875,-0.49462890625,-0.1525878757238388,1.0681151151657104,0.8544921278953552,60.0,1145588.0,1.0
483245.2831058,293217.625,310957.125,396786.21875,331121.09375,382368.09375,269431.78125,343171.34375,272880.9375,-0.07958984375,0.867919921875,-0.4931640625,-0.1525878757238388,1.1901854276657104,0.9155272841453552,60.0,1145589.0,1.0
483245.2831465,292763.96875,314385.71875,402746.625,335880.75,386255.25,270582.625,347783.25,274600.65625,-0.07763671875,0.868896484375,-0.49365234375,-0.1220703050494194,1.1901854276657104,0.8850097060203552,60.0,1145590.0,1.0
483245.2831555,293589.375,316671.3125,407620.90625,339516.03125,389125.90625,270888.125,351216.1875,275548.5625,-0.077880859375,0.869140625,-0.49462890625,-0.0915527269244194,1.1291502714157104,1.0070799589157104,60.0,1145591.0,1.0
483245.2831645,294831.875,314595.28125,404578.84375,336836.59375,386863.5625,269883.375,348425.8125,274336.125,-0.077392578125,0.869873046875,-0.496337890625,-0.1220703050494194,1.0986326932907104,1.0681151151657104,60.0,1145592.0,1.0
483245.297462,294781.78125,311224.8125,398263.84375,331857.4375,382849.1875,269027.40625,343471.3125,272745.21875,-0.076416015625,0.8681640625,-0.495849609375,-0.0610351525247097,1.0986326932907104,1.1901854276657104,60.0,1145593.0,1.0
483245.2975039,293556.75,311076.75,397265.96875,331289.96875,382500.59375,269436.34375,342946.75,272895.21875,-0.076904296875,0.8662109375,-0.496826171875,-0.0610351525247097,1.0986326932907104,1.1596678495407104,60.0,1145594.0,1.0
483245.297514,292813.59375,314342.96875,403075.09375,336029.96875,386351.1875,270558.75,347553.71875,274600.40625,-0.078369140625,0.867431640625,-0.495361328125,-0.1220703050494194,1.0375975370407104,1.1901854276657104,60.0,1145595.0,1.0
483245.3045538,293366.03125,316480.96875,407804.90625,339647.65625,389191.8125,270851.5625,350990.71875,275536.3125,-0.075927734375,0.869873046875,-0.494140625,-0.1220703050494194,1.0375975370407104,1.2512205839157104,60.0,1145596.0,1.0
483245.3086195,294392.0625,314293.4375,404646.875,336959.28125,386915.0625,269854.59375,348217.21875,274329.59375,-0.0771484375,0.87158203125,-0.4921875,-0.3662109076976776,1.0986326932907104,1.6784666776657104,60.0,1145597.0,1.0
483245.3086604,294205.9375,310840.0,398253.21875,331972.0625,382887.09375,269020.0625,343278.28125,272741.1875,-0.077880859375,0.8720703125,-0.4970703125,-0.4882812201976776,1.0375975370407104,1.7395018339157104,60.0,1145598.0,1.0
483245.3086707,292882.0,310633.28125,397193.1875,331370.15625,382512.21875,269427.84375,342752.5625,272866.34375,-0.080322265625,0.8720703125,-0.496826171875,-0.3356933295726776,1.0681151151657104,1.4648436307907104,60.0,1145599.0,1.0
483245.3107924,292020.5625,313871.875,402957.09375,336114.71875,386369.9375,270545.09375,347402.28125,274592.90625,-0.080810546875,0.8740234375,-0.49609375,0.0,1.0375975370407104,1.2207030057907104,60.0,1145600.0,1.0
483245.3134455,292287.53125,315890.875,407542.15625,339707.28125,389187.34375,270804.90625,350865.0,275528.09375,-0.0810546875,0.875244140625,-0.49462890625,-0.0915527269244194,0.8544921278953552,1.2207030057907104,60.0,1145601.0,1.0
483245.3160005,292887.78125,313513.90625,404146.1875,336998.53125,386874.75,269769.28125,348116.90625,274321.1875,-0.080810546875,0.8740234375,-0.49267578125,-0.1220703050494194,0.7934569716453552,1.0681151151657104,60.0,1145602.0,1.0
483245.3183224,292214.75,309850.53125,397462.84375,331966.15625,382794.5625,268878.53125,343189.15625,272726.0625,-0.081298828125,0.874267578125,-0.4921875,-0.2136230319738388,0.7324218153953552,0.9155272841453552,60.0,1145603.0,1.0
483245.3207999,290467.5625,309467.25,396140.875,331345.5,382384.90625,269260.84375,342683.1875,272869.3125,-0.08251953125,0.87353515625,-0.49365234375,-0.3051757514476776,0.6713866591453552,0.8850097060203552,60.0,1145604.0,1.0
483245.3234165,289401.5625,312622.15625,401745.1875,336077.28125,386225.46875,270390.3125,347342.90625,274595.5,-0.08203125,0.875,-0.49365234375,-0.3662109076976776,0.5798339247703552,0.7934569716453552,60.0,1145605.0,1.0
483245.3257525,289896.15625,314777.3125,406394.96875,339714.875,389078.0,270699.5625,350830.21875,275558.65625,-0.07958984375,0.872802734375,-0.494140625,-0.3967284858226776,0.4272460639476776,0.7019042372703552,60.0,1145606.0,1.0
483245.3283744,291114.40625,312726.5,403242.03125,337034.8125,386806.625,269710.1875,348075.6875,274365.8125,-0.077880859375,0.873046875,-0.493408203125,-0.4272460639476776,0.3356933295726776,0.7324218153953552,60.0,1145607.0,1.0
483245.3309683,291227.96875,309455.1875,396894.03125,332029.1875,382766.5,268866.90625,343116.1875,272770.78125,-0.07666015625,0.873046875,-0.49609375,-0.4882812201976776,0.2441406100988388,0.6408690810203552,60.0,1145608.0,1.0
483245.3332348,290275.25,309477.875,395966.8125,331472.375,382429.96875,269307.96875,342613.09375,272934.5625,-0.076171875,0.872802734375,-0.496337890625,-0.5798339247703552,0.1831054538488388,0.6103515028953552,60.0,1145609.0,1.0
483245.3359093,289883.0,312978.625,401938.125,336266.90625,386345.28125,270479.28125,347289.625,274678.625,-0.076416015625,0.873779296875,-0.500244140625,-0.4577636420726776,0.2136230319738388,0.7324218153953552,60.0,1145610.0,1.0
483245.3384249,290856.28125,315367.3125,406858.90625,339942.59375,389241.0625,270801.15625,350776.9375,275635.8125,-0.0751953125,0.873779296875,-0.4951171875,-0.4577636420726776,0.3051757514476776,0.7934569716453552,60.0,1145611.0,1.0
483245.33844,292333.65625,313411.0,403856.875,337274.15625,386982.46875,269812.3125,348005.59375,274430.15625,-0.074462890625,0.87255859375,-0.495849609375,-0.4577636420726776,0.3662109076976776,0.7629393935203552,60.0,1145612.0,1.0
483245.3408803,292568.0,310178.21875,397595.4375,332280.15625,382954.15625,268963.28125,343043.3125,272834.4375,-0.0751953125,0.868896484375,-0.492431640625,-0.4882812201976776,0.4577636420726776,0.8544921278953552,60.0,1145613.0,1.0
483245.3434023,291612.125,310179.09375,396697.34375,331725.125,382616.65625,269384.84375,342540.21875,272989.125,-0.07275390625,0.869873046875,-0.49462890625,-0.3967284858226776,0.4882812201976776,0.9155272841453552,60.0,1145614.0,1.0
483245.3459927,291152.0625,313628.875,402672.875,336528.875,386530.0,270542.84375,347225.25,274728.78125,-0.073486328125,0.868896484375,-0.4931640625,-0.3967284858226776,0.5187987685203552,0.9765624403953552,60.0,1145615.0,1.0
483245.3460114,292022.0625,315941.03125,407571.375,340192.59375,389411.5625,270840.46875,350711.3125,275671.9375,-0.0771484375,0.867431640625,-0.4931640625,-0.3967284858226776,0.7019042372703552,1.0681151151657104,60.0,1145616.0,1.0
483245.3483417,293428.875,313932.59375,404557.84375,337522.4375,387155.84375,269845.1875,347959.8125,274470.40625,-0.07666015625,0.864990234375,-0.489990234375,-0.4577636420726776,0.7019042372703552,1.0681151151657104,60.0,1145617.0,1.0
483245.3509187,293575.0625,310628.65625,398257.9375,332512.96875,383116.875,268981.1875,343004.78125,272869.3125,-0.075927734375,0.8642578125,-0.489013671875,-0.3356933295726776,0.6408690810203552,1.2207030057907104,60.0,1145618.0,1.0
483245.3509392,292517.75,310561.15625,397315.15625,331938.4375,382766.40625,269400.75,342501.53125,273016.1875,-0.075439453125,0.866943359375,-0.494140625,-0.2136230319738388,0.6713866591453552,1.1901854276657104,60.0,1145619.0,1.0
483245.3544704,291956.09375,313962.28125,403270.28125,336747.46875,386691.8125,270567.78125,347212.0,274768.5,-0.07421875,0.865966796875,-0.4951171875,-0.1831054538488388,0.8239745497703552,1.2817381620407104,60.0,1145620.0,1.0
483245.3659366,292719.25,316221.21875,408131.4375,340399.46875,389576.875,270858.90625,350713.625,275714.78125,-0.074462890625,0.8662109375,-0.49609375,0.03051757626235485,0.8239745497703552,1.3122557401657104,60.0,1145621.0,1.0
483245.3659625,294025.78125,314150.03125,405061.09375,337703.21875,387303.96875,269843.0625,347950.15625,274505.375,-0.074462890625,0.8642578125,-0.4931640625,0.1220703050494194,0.8544921278953552,1.4343260526657104,60.0,1145622.0,1.0
483245.368425,294111.96875,310814.0,398731.71875,332681.78125,383264.75,268989.21875,342998.96875,272914.09375,-0.07568359375,0.864990234375,-0.4921875,0.1831054538488388,0.8239745497703552,1.4038084745407104,60.0,1145623.0,1.0
483245.3722151,293023.4375,310744.59375,397788.65625,332115.5625,382933.78125,269422.84375,342518.59375,273078.34375,-0.075927734375,0.863525390625,-0.493896484375,0.1525878757238388,0.7934569716453552,1.2817381620407104,60.0,1145624.0,1.0
483245.3758481,292401.6875,314117.75,403719.8125,336909.8125,386848.09375,270574.9375,347217.03125,274812.03125,-0.075439453125,0.86328125,-0.493896484375,0.3051757514476776,0.9155272841453552,1.1596678495407104,60.0,1145625.0,1.0
483245.3758889,293130.90625,316368.3125,408579.53125,340572.21875,389737.90625,270875.96875,350724.1875,275763.59375,-0.07470703125,0.86474609375,-0.49365234375,0.3051757514476776,0.9155272841453552,1.1291502714157104,60.0,1145626.0,1.0
483245.4024256,294407.8125,314282.34375,405491.34375,337850.375,387455.53125,269854.59375,347956.15625,274544.96875,-0.075927734375,0.86669921875,-0.495361328125,0.3051757514476776,0.9765624403953552,1.1901854276657104,60.0,1145627.0,1.0
483245.4097718,294466.09375,310929.84375,399143.0,332807.5625,383409.40625,268994.40625,343000.84375,272951.5625,-0.07421875,0.865966796875,-0.4951171875,0.3967284858226776,0.9460448622703552,1.0375975370407104,60.0,1145628.0,1.0
483245.4098133,293324.8125,310832.125,398178.5625,332232.84375,383069.5,269418.1875,342511.8125,273107.5625,-0.07421875,0.869140625,-0.496337890625,0.3356933295726776,0.9155272841453552,0.9765624403953552,60.0,1145629.0,1.0
483245.412077,292686.90625,314221.90625,404130.375,337058.15625,387017.15625,270594.53125,347244.125,274868.4375,-0.07568359375,0.8701171875,-0.49560546875,0.4272460639476776,0.8544921278953552,0.9765624403953552,60.0,1145630.0,1.0
483245.4146596,293376.75,316459.0625,408975.6875,340721.34375,389906.4375,270882.6875,350749.40625,275809.28125,-0.077392578125,0.871826171875,-0.495849609375,0.3356933295726776,0.8544921278953552,0.8850097060203552,60.0,1145631.0,1.0
483245.4172079,294607.53125,314338.21875,405846.71875,337987.28125,387600.09375,269841.71875,347953.375,274570.53125,-0.077392578125,0.87060546875,-0.49169921875,0.3051757514476776,0.8850097060203552,0.8850097060203552,60.0,1145632.0,1.0
483245.419544,294636.875,310963.84375,399461.71875,332940.34375,383542.53125,268974.90625,342982.53125,272969.875,-0.078369140625,0.8720703125,-0.49169921875,0.2746581733226776,0.9765624403953552,0.7934569716453552,60.0,1145633.0,1.0
483245.422218,293461.6875,310847.34375,398462.15625,332353.8125,383186.625,269396.375,342477.8125,273113.21875,-0.077392578125,0.872802734375,-0.48876953125,0.1525878757238388,1.0070799589157104,0.7019042372703552,60.0,1145634.0,1.0
483245.4246444,292771.75,314210.28125,404375.625,337159.1875,387107.03125,270563.6875,347186.4375,274850.21875,-0.07666015625,0.875244140625,-0.49267578125,0.0,0.9460448622703552,0.6713866591453552,60.0,1145635.0,1.0
483245.4272761,293437.90625,316447.53125,409221.375,340837.5625,390003.8125,270867.46875,350705.40625,275804.09375,-0.0771484375,0.873291015625,-0.4931640625,-0.1525878757238388,0.9155272841453552,0.6713866591453552,60.0,1145636.0,1.0
483245.427317,294661.375,314331.96875,406095.09375,338123.625,387711.6875,269849.6875,347929.3125,274585.28125,-0.07861328125,0.872314453125,-0.49462890625,-0.2136230319738388,0.8850097060203552,0.7324218153953552,60.0,1145637.0,1.0
483245.4295073,294655.46875,310921.8125,399668.53125,333056.84375,383623.46875,268978.84375,342930.59375,272972.46875,-0.079833984375,0.873046875,-0.4931640625,-0.1831054538488388,0.9155272841453552,0.7934569716453552,60.0,1145638.0,1.0
483245.4320772,293444.34375,310779.84375,398629.15625,332441.1875,383237.9375,269384.03125,342396.65625,273099.09375,-0.079833984375,0.87255859375,-0.49462890625,-0.2441406100988388,0.9155272841453552,0.7324218153953552,60.0,1145639.0,1.0
483245.4534281,292717.375,314123.46875,404518.3125,337217.03125,387147.34375,270534.625,347092.125,274820.875,-0.0791015625,0.873046875,-0.49658203125,-0.1831054538488388,0.8239745497703552,0.6408690810203552,60.0,1145640.0,1.0
483245.453471,293343.3125,316338.8125,409331.625,340858.75,390026.6875,270823.5,350592.84375,275758.3125,-0.080322265625,0.8740234375,-0.49560546875,-0.3356933295726776,0.7934569716453552,0.6103515028953552,60.0,1145641.0,1.0
483245.4559907,294556.75,314217.4375,406181.375,338135.34375,387729.84375,269807.75,347808.28125,274545.40625,-0.08251953125,0.875732421875,-0.49462890625,-0.3662109076976776,0.7324218153953552,0.6713866591453552,60.0,1145642.0,1.0
483245.4560322,294558.09375,310820.0625,399743.0,333066.40625,383641.875,268946.84375,342806.75,272939.9375,-0.080810546875,0.876953125,-0.493896484375,-0.4577636420726776,0.5798339247703552,0.6103515028953552,60.0,1145643.0,1.0
483245.4584456,293378.8125,310713.21875,398729.46875,332475.15625,383284.34375,269388.875,342300.625,273100.5,-0.081298828125,0.87548828125,-0.4970703125,-0.6408690810203552,0.4882812201976776,0.7019042372703552,60.0,1145644.0,1.0
483245.4634634,292675.625,314091.28125,404647.875,337279.15625,387219.5,270557.34375,347024.53125,274849.5,-0.08203125,0.876220703125,-0.49462890625,-0.6408690810203552,0.4272460639476776,0.7019042372703552,60.0,1145645.0,1.0
483245.4684598,293278.9375,316297.59375,409451.6875,340911.15625,390087.9375,270835.03125,350517.3125,275774.3125,-0.0791015625,0.8740234375,-0.495361328125,-0.7324218153953552,0.5187987685203552,0.7324218153953552,60.0,1145646.0,1.0
483245.471008,294472.8125,314161.75,406286.78125,338167.78125,387770.96875,269810.6875,347712.59375,274548.71875,-0.080810546875,0.87451171875,-0.493896484375,-0.6713866591453552,0.5187987685203552,0.8239745497703552,60.0,1145647.0,1.0
483245.4735295,294467.09375,310754.625,399836.875,333079.71875,383671.09375,268937.90625,342691.6875,272938.6875,-0.0810546875,0.87353515625,-0.4951171875,-0.7324218153953552,0.3967284858226776,0.8544921278953552,60.0,1145648.0,1.0
483245.4735702,293259.71875,310622.125,398801.28125,332459.25,383295.5,269366.875,342160.625,273083.6875,-0.0791015625,0.870849609375,-0.494384765625,-0.7629393935203552,0.4577636420726776,0.8544921278953552,60.0,1145649.0,1.0
483245.4759763,292544.375,313999.46875,404718.5,337252.53125,387230.40625,270540.4375,346881.84375,274830.90625,-0.079833984375,0.870849609375,-0.494873046875,-0.7629393935203552,0.4272460639476776,0.9765624403953552,60.0,1145650.0,1.0
483245.4795881,293191.78125,316256.28125,409577.6875,340927.96875,390149.625,270849.59375,350423.6875,275799.875,-0.0810546875,0.87060546875,-0.494140625,-0.7019042372703552,0.5798339247703552,1.0375975370407104,60.0,1145651.0,1.0
483245.5035354,294387.59375,314112.03125,406403.71875,338172.625,387826.5625,269807.28125,347608.34375,274561.6875,-0.079345703125,0.871337890625,-0.496826171875,-0.7019042372703552,0.4272460639476776,1.0986326932907104,60.0,1145652.0,1.0
483245.5035766,294385.0,310692.84375,399935.40625,333061.46875,383704.0,268922.25,342561.78125,272930.5625,-0.079833984375,0.869140625,-0.49365234375,-0.6713866591453552,0.4577636420726776,1.1596678495407104,60.0,1145653.0,1.0
483245.5059861,293199.75,310578.3125,398907.40625,332436.09375,383329.5,269360.78125,342030.25,273077.71875,-0.078857421875,0.869873046875,-0.491943359375,-0.5493163466453552,0.5493163466453552,1.2817381620407104,60.0,1145654.0,1.0
483245.5060287,292480.90625,313957.8125,404826.40625,337217.9375,387260.875,270538.1875,346746.75,274822.40625,-0.078369140625,0.87060546875,-0.493408203125,-0.4577636420726776,0.5187987685203552,1.2207030057907104,60.0,1145655.0,1.0
483245.5074852,293115.6875,316208.28125,409676.46875,340880.46875,390169.46875,270846.375,350274.65625,275781.125,-0.078857421875,0.871826171875,-0.494140625,-0.4577636420726776,0.6103515028953552,1.1901854276657104,60.0,1145656.0,1.0
483245.5170803,294321.71875,314071.8125,406500.5625,338114.3125,387843.03125,269807.28125,347452.875,274553.09375,-0.079833984375,0.8720703125,-0.495361328125,-0.3967284858226776,0.5798339247703552,1.1901854276657104,60.0,1145657.0,1.0
483245.5197617,294342.90625,310668.0625,400036.6875,332998.625,383725.125,268929.75,342404.875,272936.90625,-0.07861328125,0.87060546875,-0.4931640625,-0.2746581733226776,0.7019042372703552,1.1901854276657104,60.0,1145658.0,1.0
483245.5198027,293186.40625,310583.125,399029.0,332384.125,383375.53125,269382.53125,341886.84375,273106.9375,-0.0791015625,0.864990234375,-0.491455078125,-0.3051757514476776,0.7324218153953552,1.1596678495407104,60.0,1145659.0,1.0
483245.522225,292450.5,313952.71875,404937.375,337152.5625,387294.5,270546.15625,346579.8125,274836.0,-0.076171875,0.859375,-0.4892578125,-0.2746581733226776,0.7324218153953552,1.2207030057907104,60.0,1145660.0,1.0
483245.5222681,293056.96875,316177.34375,409770.78125,340790.71875,390180.28125,270831.09375,350076.25,275774.21875,-0.0712890625,0.857177734375,-0.492431640625,-0.1220703050494194,0.7934569716453552,1.1901854276657104,60.0,1145661.0,1.0
483245.524724,294237.46875,314007.78125,406562.96875,337990.40625,387820.5625,269772.4375,347207.375,274520.125,-0.069091796875,0.856689453125,-0.490966796875,0.0610351525247097,1.0681151151657104,1.2817381620407104,60.0,1145662.0,1.0
483245.5296961,294274.40625,310610.84375,400091.15625,332859.5,383693.5625,268903.46875,342140.21875,272907.125,-0.069091796875,0.857177734375,-0.494140625,0.1831054538488388,1.1596678495407104,1.3732908964157104,60.0,1145663.0,1.0
483245.5320618,293125.4375,310525.46875,399081.125,332229.90625,383338.96875,269352.03125,341609.15625,273076.0,-0.071044921875,0.858642578125,-0.495361328125,0.4272460639476776,1.2512205839157104,1.3427733182907104,60.0,1145664.0,1.0
483245.5358496,292410.28125,313915.15625,405015.25,337014.15625,387279.5625,270531.125,346319.65625,274825.4375,-0.07373046875,0.861083984375,-0.495849609375,0.6103515028953552,1.3732908964157104,1.4038084745407104,60.0,1145665.0,1.0
483245.5534747,293035.5,316166.6875,409872.53125,340672.96875,390183.59375,270832.78125,349828.875,275778.875,-0.072509765625,0.865234375,-0.495361328125,0.8239745497703552,1.5258787870407104,1.3427733182907104,60.0,1145666.0,1.0
483245.5571692,294242.03125,314020.03125,406677.21875,337888.5625,387832.75,269785.84375,346963.28125,274537.0,-0.072509765625,0.868408203125,-0.49462890625,1.0070799589157104,1.6174315214157104,1.3427733182907104,60.0,1145667.0,1.0
483245.5572094,294273.96875,310610.40625,400189.0625,332744.28125,383691.75,268913.5,341873.625,272915.96875,-0.072998046875,0.869384765625,-0.493896484375,1.0681151151657104,1.7395018339157104,1.3732908964157104,60.0,1145668.0,1.0
483245.5572197,293118.09375,310515.625,399159.0,332104.28125,383314.65625,269350.875,341312.75,273067.59375,-0.075439453125,0.870361328125,-0.496826171875,1.0375975370407104,1.7700194120407104,1.3122557401657104,60.0,1145669.0,1.0
483245.5595851,292404.46875,313917.5625,405097.5,336909.28125,387250.6875,270528.53125,346013.96875,274808.625,-0.07568359375,0.871826171875,-0.49560546875,0.9155272841453552,1.8310545682907104,1.4038084745407104,60.0,1145670.0,1.0
483245.5645789,293036.21875,316184.9375,409965.0,340599.90625,390159.28125,270843.6875,349531.6875,275766.625,-0.079833984375,0.870849609375,-0.49462890625,0.8850097060203552,1.8005369901657104,1.3122557401657104,60.0,1145671.0,1.0
483245.5672153,294236.15625,314033.0,406760.90625,337837.6875,387808.96875,269798.34375,346670.03125,274527.34375,-0.080810546875,0.871337890625,-0.495849609375,0.8850097060203552,1.7089842557907104,1.1596678495407104,60.0,1145672.0,1.0
483245.5696953,294235.15625,310582.875,400228.375,332688.46875,383636.5,268897.84375,341553.09375,272880.21875,-0.084228515625,0.867919921875,-0.494384765625,0.9765624403953552,1.6479490995407104,1.0070799589157104,60.0,1145673.0,1.0
483245.5722186,293068.65625,310476.21875,399189.03125,332072.09375,383257.15625,269335.9375,340994.90625,273029.625,-0.085693359375,0.86767578125,-0.4970703125,1.0375975370407104,1.5563963651657104,0.8850097060203552,60.0,1145674.0,1.0
483245.5760126,292374.78125,313905.5,405159.53125,336924.5,387227.53125,270532.46875,345733.65625,274789.5,-0.087158203125,0.865966796875,-0.495849609375,0.9155272841453552,1.5563963651657104,0.6408690810203552,60.0,1145675.0,1.0
483245.5760533,292992.84375,316169.5625,410030.96875,340625.75,390147.3125,270838.4375,349267.46875,275744.90625,-0.085205078125,0.866455078125,-0.49658203125,1.0681151151657104,1.4038084745407104,0.4882812201976776,60.0,1145676.0,1.0
483245.6059456,294155.3125,313977.90625,406790.6875,337839.84375,387772.21875,269764.1875,346394.03125,274480.6875,-0.085205078125,0.8681640625,-0.499267578125,1.0375975370407104,1.2512205839157104,0.3967284858226776,60.0,1145677.0,1.0
483245.6161485,294178.9375,310546.75,400275.78125,332722.09375,383625.15625,268884.71875,341309.90625,272861.4375,-0.084228515625,0.86962890625,-0.499755859375,1.1901854276657104,1.1291502714157104,0.3051757514476776,60.0,1145678.0,1.0
483245.6161621,293018.6875,310446.4375,399234.625,332112.875,383243.65625,269330.9375,340754.5,273009.6875,-0.083740234375,0.87158203125,-0.5,1.1596678495407104,1.1291502714157104,0.1525878757238388,60.0,1145679.0,1.0
483245.616164,292307.09375,313866.0625,405194.5,336941.46875,387201.96875,270519.15625,345489.0625,274759.0,-0.081787109375,0.873291015625,-0.49951171875,1.0070799589157104,1.0986326932907104,0.2136230319738388,60.0,1145680.0,1.0
483245.6578645,292952.0,316164.28125,410105.28125,340675.125,390155.8125,270842.4375,349064.71875,275739.625,-0.0810546875,0.872802734375,-0.49755859375,0.8850097060203552,1.0375975370407104,0.2136230319738388,60.0,1145681.0,1.0
483245.6578812,294119.46875,313974.34375,406860.40625,337910.28125,387776.78125,269777.15625,346192.6875,274476.21875,-0.080078125,0.876953125,-0.4990234375,0.8850097060203552,0.9765624403953552,0.1220703050494194,60.0,1145682.0,1.0
483245.6578839,294142.09375,310536.09375,400327.0,332786.46875,383615.0625,268894.90625,341100.25,272845.25,-0.07958984375,0.8779296875,-0.5009765625,0.8544921278953552,0.9765624403953552,0.2441406100988388,60.0,1145683.0,1.0
483245.6578869,292980.96875,310436.0625,399285.59375,332161.15625,383228.1875,269325.21875,340546.09375,272985.09375,-0.078857421875,0.87890625,-0.499755859375,0.7019042372703552,0.9765624403953552,0.2746581733226776,60.0,1145684.0,1.0
483245.6633088,292270.09375,313859.53125,405253.6875,336984.9375,387183.90625,270510.03125,345280.65625,274725.84375,-0.07958984375,0.876708984375,-0.49951171875,0.6713866591453552,1.0681151151657104,0.4272460639476776,60.0,1145685.0,1.0
483245.6657725,292896.1875,316143.71875,410155.96875,340705.15625,390125.9375,270829.65625,348846.71875,275697.15625,-0.07861328125,0.875732421875,-0.497314453125,0.5187987685203552,1.0986326932907104,0.5798339247703552,60.0,1145686.0,1.0
483245.6657917,294061.71875,313949.9375,406908.875,337933.71875,387749.6875,269764.125,345977.125,274440.8125,-0.078857421875,0.873291015625,-0.498779296875,0.3662109076976776,0.9765624403953552,0.5798339247703552,60.0,1145687.0,1.0
483245.6707459,294094.34375,310511.34375,400372.78125,332804.34375,383590.46875,268883.53125,340887.53125,272818.15625,-0.080078125,0.8720703125,-0.49755859375,0.3356933295726776,0.9765624403953552,0.6713866591453552,60.0,1145688.0,1.0
483245.675915,292941.53125,310415.40625,399333.25,332168.21875,383208.6875,269323.5,340338.5,272964.4375,-0.082763671875,0.872314453125,-0.497802734375,0.1831054538488388,0.8850097060203552,0.8850097060203552,60.0,1145689.0,1.0
483245.6759367,292237.09375,313857.03125,405324.21875,336985.90625,387192.40625,270523.4375,345104.15625,274725.75,-0.083251953125,0.871337890625,-0.49609375,0.1831054538488388,0.9155272841453552,0.9460448622703552,60.0,1145690.0,1.0
483245.6784256,292825.46875,316120.1875,410205.65625,340666.34375,390122.375,270821.34375,348662.8125,275678.5625,-0.08251953125,0.872314453125,-0.4990234375,0.1220703050494194,0.8850097060203552,1.0986326932907104,60.0,1145691.0,1.0
483245.6859149,293992.34375,313941.1875,406971.09375,337892.3125,387770.875,269770.90625,345821.65625,274446.96875,-0.08251953125,0.8720703125,-0.5,0.0610351525247097,0.8850097060203552,1.1901854276657104,60.0,1145692.0,1.0
483245.6884049,293982.75,310465.84375,400387.71875,332713.875,383578.21875,268876.375,340695.84375,272808.6875,-0.08056640625,0.868896484375,-0.498779296875,0.0610351525247097,0.8850097060203552,1.3122557401657104,60.0,1145693.0,1.0
483245.6908471,292815.8125,310365.25,399341.125,332063.0,383202.34375,269326.90625,340147.4375,272967.21875,-0.08154296875,0.867431640625,-0.49853515625,0.0610351525247097,0.9155272841453552,1.2207030057907104,60.0,1145694.0,1.0
483245.6959598,292105.5,313821.28125,405351.40625,336899.09375,387214.75,270540.875,344939.65625,274753.375,-0.080810546875,0.8671875,-0.498779296875,-0.0915527269244194,0.9155272841453552,1.1596678495407104,60.0,1145695.0,1.0
483245.6987107,292657.46875,316063.53125,410221.40625,340554.5,390138.09375,270825.09375,348486.78125,275696.0,-0.080322265625,0.86572265625,-0.5009765625,-0.0610351525247097,0.8544921278953552,1.3122557401657104,60.0,1145696.0,1.0
