Time,FZ,C3,CZ,C4,PZ,PO7,OZ,PO8,AccX,AccY,AccZ,Gyro1,Gyro2,Gyro3,Battery,Counter,Validation
1125852.6173177,278483.71875,247287.109375,283859.375,262502.84375,262500.34375,226826.234375,238130.40625,241688.4375,-0.0830078125,0.950439453125,-0.20068359375,3.143310308456421,-3.814697027206421,5.462646007537842,80.0,252607.0,1.0
1125852.6233464,278384.65625,247312.140625,283677.96875,262418.6875,262384.09375,226843.3125,238051.359375,241373.453125,-0.07958984375,0.951416015625,-0.192626953125,3.601073980331421,-4.089354991912842,5.554198741912842,80.0,252608.0,1.0
1125852.6314441,278389.46875,247325.28125,283666.53125,262433.09375,262369.53125,226857.796875,238018.015625,241239.796875,-0.07568359375,0.950927734375,-0.184814453125,3.692626714706421,-4.302978038787842,5.462646007537842,80.0,252609.0,1.0
1125852.6314765,278489.6875,247311.25,283858.5,262526.53125,262497.5625,226863.15625,238082.5625,241545.296875,-0.076171875,0.95068359375,-0.172119140625,3.784179449081421,-4.486083507537842,5.584716320037842,80.0,252610.0,1.0
1125852.6334071,278535.46875,247277.71875,283963.09375,262557.71875,262568.1875,226834.71875,238133.34375,241801.453125,-0.07861328125,0.9501953125,-0.166015625,3.326415777206421,-4.547118663787842,5.767821788787842,80.0,252611.0,1.0
1125852.6371019,278470.21875,247277.71875,283850.90625,262496.5,262499.15625,226821.3125,238093.828125,241667.34375,-0.079345703125,0.9482421875,-0.166748046875,2.960204839706421,-4.608153820037842,5.767821788787842,80.0,252612.0,1.0
1125852.648434,278371.0625,247300.421875,283668.6875,262412.1875,262377.84375,226829.171875,238006.390625,241348.25,-0.080078125,0.9501953125,-0.171875,2.532958745956421,-4.638671398162842,5.676269054412842,80.0,252613.0,1.0
1125852.6515005,278368.09375,247308.921875,283647.6875,262414.84375,262350.65625,226832.671875,237959.453125,241197.15625,-0.080078125,0.95263671875,-0.178466796875,2.349853277206421,-4.608153820037842,5.218505382537842,80.0,252614.0,1.0
1125852.6515328,278479.40625,247313.296875,283849.28125,262519.375,262487.375,226844.46875,238050.46875,241510.703125,-0.0771484375,0.9580078125,-0.185546875,1.9836424589157104,-4.638671398162842,4.882812023162842,80.0,252615.0,1.0
1125852.6534089,278538.34375,247288.171875,283964.09375,262562.1875,262566.5,226816.03125,238123.78125,241775.34375,-0.07177734375,0.959228515625,-0.19189453125,1.7395018339157104,-4.669188976287842,4.638671398162842,80.0,252616.0,1.0
1125852.662185,278471.28125,247279.15625,283848.75,262495.40625,262491.125,226792.796875,238083.375,241632.921875,-0.06298828125,0.960693359375,-0.1923828125,1.6174315214157104,-4.577636241912842,4.577636241912842,80.0,252617.0,1.0
1125852.6652924,278369.96875,247296.9375,283666.09375,262410.5625,262369.875,226797.703125,237996.203125,241308.640625,-0.052001953125,0.9638671875,-0.19091796875,1.3732908964157104,-4.425048351287842,4.577636241912842,80.0,252618.0,1.0
1125852.6653234,278384.375,247320.359375,283661.4375,262427.28125,262360.6875,226815.5,237969.640625,241176.140625,-0.04541015625,0.967529296875,-0.1923828125,1.1291502714157104,-4.180907726287842,4.547118663787842,80.0,252619.0,1.0
1125852.6734333,278506.6875,247328.046875,283872.8125,262536.4375,262504.34375,226837.21875,238064.0625,241497.734375,-0.044677734375,0.973876953125,-0.19140625,1.0070799589157104,-3.906249761581421,4.486083507537842,80.0,252620.0,1.0
1125852.6765526,278566.84375,247299.625,283990.28125,262580.53125,262587.78125,226816.9375,238136.75,241773.46875,-0.047119140625,0.98193359375,-0.193115234375,0.6713866591453552,-3.479003667831421,4.486083507537842,80.0,252621.0,1.0
1125852.6765845,278491.46875,247285.40625,283870.46875,262507.21875,262512.03125,226792.078125,238099.28125,241641.0625,-0.04833984375,0.99072265625,-0.18994140625,0.2136230319738388,-3.082275152206421,4.425048351287842,80.0,252622.0,1.0
1125852.7008846,278388.40625,247305.796875,283686.46875,262420.3125,262394.375,226806.203125,238018.46875,241327.234375,-0.048583984375,0.99853515625,-0.188232421875,-0.3051757514476776,-2.746581792831421,4.333495616912842,80.0,252623.0,1.0
1125852.703397,278390.8125,247316.34375,283669.21875,262430.0625,262377.75,226820.859375,237987.890625,241193.75,-0.0546875,1.0029296875,-0.187255859375,-0.9765624403953552,-2.441406011581421,4.211425304412842,80.0,252624.0,1.0
1125852.7059318,278496.84375,247309.375,283867.53125,262532.53125,262514.71875,226834.640625,238081.40625,241516.25,-0.06005859375,1.006591796875,-0.183349609375,-1.7700194120407104,-2.166747808456421,3.997802495956421,80.0,252625.0,1.0
1125852.7084082,278551.65625,247280.40625,283982.6875,262571.9375,262593.40625,226817.203125,238147.5625,241790.984375,-0.066650390625,1.01220703125,-0.181640625,-2.807616949081421,-2.136230230331421,3.814697027206421,80.0,252626.0,1.0
1125852.7109306,278483.34375,247275.03125,283870.9375,262504.1875,262518.375,226801.640625,238104.03125,241661.078125,-0.068603515625,1.0126953125,-0.181640625,-3.356933355331421,-2.075195074081421,3.814697027206421,80.0,252627.0,1.0
1125852.7134353,278385.625,247301.234375,283693.8125,262423.875,262404.21875,226821.3125,238028.125,241354.953125,-0.072021484375,1.010498046875,-0.183837890625,-4.486083507537842,-1.9836424589157104,3.692626714706421,80.0,252628.0,1.0
1125852.715931,278389.03125,247314.546875,283678.34375,262433.8125,262388.40625,226834.8125,237994.5,241222.359375,-0.07421875,1.0068359375,-0.18701171875,-5.523681163787842,-1.8920897245407104,3.509521245956421,80.0,252629.0,1.0
1125852.7184453,278495.875,247311.15625,283873.6875,262531.34375,262521.78125,226844.375,238072.640625,241535.203125,-0.078369140625,1.00146484375,-0.189208984375,-6.347655773162842,-1.9531248807907104,3.082275152206421,80.0,252630.0,1.0
1125852.7209066,278549.15625,247278.25,283986.15625,262567.21875,262598.3125,226820.859375,238132.640625,241808.875,-0.084716796875,0.99462890625,-0.19140625,-6.958007335662842,-2.014159917831421,2.746581792831421,80.0,252631.0,1.0
1125852.7233847,278476.71875,247256.625,283867.71875,262495.0625,262518.46875,226797.96875,238087.9375,241682.890625,-0.0908203125,0.98876953125,-0.187744140625,-7.537841320037842,-2.258300542831421,1.8310545682907104,80.0,252632.0,1.0
1125852.7327125,278378.21875,247273.0625,283684.875,262412.96875,262399.65625,226810.765625,238009.078125,241378.109375,-0.095947265625,0.98388671875,-0.18505859375,-7.812499523162842,-2.410888433456421,1.1291502714157104,80.0,252633.0,1.0
1125852.7327536,278379.46875,247284.421875,283663.84375,262418.53125,262376.3125,226818.546875,237963.65625,241231.578125,-0.1015625,0.97998046875,-0.1845703125,-8.056639671325684,-2.899169683456421,0.6103515028953552,80.0,252634.0,1.0
1125852.7353243,278494.53125,247291.578125,283867.25,262524.1875,262511.0625,226837.9375,238044.5625,241544.5,-0.102783203125,0.97314453125,-0.181884765625,-8.331297874450684,-3.234863042831421,0.0,80.0,252635.0,1.0
1125852.7353557,278554.25,247267.890625,283985.8125,262568.0,262590.375,226821.84375,238114.3125,241824.96875,-0.1044921875,0.96826171875,-0.181884765625,-8.392333030700684,-3.540038824081421,-0.5493163466453552,80.0,252636.0,1.0
1125852.7371809,278482.71875,247264.03125,283872.0,262501.5,262518.125,226801.734375,238076.578125,241704.890625,-0.101806640625,0.96142578125,-0.181884765625,-8.575438499450684,-3.936767339706421,-1.0986326932907104,80.0,252637.0,1.0
1125852.7484067,278379.53125,247291.75,283687.71875,262415.84375,262400.09375,226814.421875,237996.375,241398.671875,-0.102783203125,0.95703125,-0.180419921875,-8.483885765075684,-4.333495616912842,-1.4953612089157104,80.0,252638.0,1.0
1125852.751461,278368.8125,247299.09375,283659.125,262414.78125,262372.125,226824.265625,237952.296875,241252.765625,-0.0986328125,0.951416015625,-0.1767578125,-8.300780296325684,-4.669188976287842,-1.9226073026657104,80.0,252639.0,1.0
1125852.7514918,278477.53125,247296.40625,283855.1875,262516.4375,262501.9375,226844.5625,238034.5625,241564.703125,-0.100830078125,0.9482421875,-0.17578125,-8.056639671325684,-4.760741710662842,-2.380370855331421,80.0,252640.0,1.0
1125852.7533874,278537.78125,247265.203125,283973.84375,262559.15625,262577.9375,226822.203125,238097.140625,241844.015625,-0.10205078125,0.9443359375,-0.176513671875,-7.659911632537842,-5.004882335662842,-2.838134527206421,80.0,252641.0,1.0
1125852.7621535,278470.90625,247255.1875,283863.78125,262497.65625,262511.6875,226819.34375,238069.328125,241728.9375,-0.103515625,0.938232421875,-0.1767578125,-7.232665538787842,-5.249022960662842,-3.265380620956421,80.0,252642.0,1.0
1125852.7664432,278359.0625,247265.109375,283667.4375,262403.15625,262384.375,226829.09375,237981.625,241407.171875,-0.104248046875,0.93310546875,-0.177978515625,-6.622313976287842,-5.310058116912842,-3.723144292831421,80.0,252643.0,1.0
1125852.7664736,278358.90625,247277.1875,283641.3125,262406.90625,262360.84375,226850.09375,237946.3125,241257.328125,-0.106689453125,0.927734375,-0.177490234375,-6.103515148162842,-5.554198741912842,-4.028319835662842,80.0,252644.0,1.0
1125852.7796313,278477.53125,247279.859375,283846.96875,262514.09375,262497.75,226871.375,238033.390625,241566.578125,-0.109375,0.92041015625,-0.173583984375,-5.432128429412842,-5.737304210662842,-4.333495616912842,80.0,252645.0,1.0
1125852.782749,278545.125,247255.015625,283977.84375,262563.90625,262585.8125,226855.734375,238105.90625,241854.203125,-0.114013671875,0.91259765625,-0.172607421875,-4.730224132537842,-5.981444835662842,-4.699706554412842,80.0,252646.0,1.0
1125852.7827807,278472.34375,247239.265625,283863.21875,262493.53125,262508.09375,226825.421875,238060.390625,241727.328125,-0.119140625,0.90771484375,-0.170654296875,-3.814697027206421,-6.286620616912842,-5.004882335662842,80.0,252647.0,1.0
1125852.7915017,278364.96875,247261.796875,283672.09375,262402.25,262382.9375,226828.203125,237971.4375,241403.953125,-0.128662109375,0.90625,-0.16796875,-2.929687261581421,-6.652831554412842,-5.279540538787842,80.0,252648.0,1.0
1125852.7915358,278369.34375,247282.546875,283650.71875,262411.5625,262361.03125,226837.9375,237934.328125,241253.65625,-0.132080078125,0.904052734375,-0.16748046875,-2.044677495956421,-7.080077648162842,-5.645751476287842,80.0,252649.0,1.0
1125852.7934347,278478.875,247285.5,283849.8125,262513.75,262495.15625,226850.453125,238015.78125,241556.390625,-0.13720703125,0.902587890625,-0.166259765625,-1.2207030057907104,-7.690429210662842,-5.859374523162842,80.0,252650.0,1.0
1125852.8072234,278540.5625,247259.75,283977.75,262560.6875,262584.8125,226835.4375,238087.578125,241842.125,-0.137939453125,0.904296875,-0.16162109375,-0.3662109076976776,-8.300780296325684,-6.103515148162842,80.0,252651.0,1.0
1125852.8097862,278476.71875,247248.125,283870.84375,262497.46875,262515.53125,226820.5,238057.171875,241725.546875,-0.14013671875,0.907958984375,-0.164794921875,0.2746581733226776,-8.941649436950684,-6.317138195037842,80.0,252652.0,1.0
1125852.8129381,278376.6875,247272.796875,283685.03125,262413.59375,262393.5,226833.734375,237980.546875,241410.109375,-0.140625,0.912841796875,-0.165771484375,1.0070799589157104,-9.460448265075684,-6.408690929412842,80.0,252653.0,1.0
1125852.8129837,278376.15625,247291.9375,283659.21875,262418.0625,262369.53125,226848.84375,237948.640625,241258.296875,-0.139892578125,0.9150390625,-0.164306640625,1.6784666776657104,-10.009764671325684,-6.469726085662842,80.0,252654.0,1.0
1125852.814736,278490.0625,247299.359375,283858.3125,262521.96875,262503.625,226866.546875,238037.78125,241562.46875,-0.138427734375,0.9248046875,-0.164306640625,2.441406011581421,-10.650633811950684,-6.530761241912842,80.0,252655.0,1.0
1125852.8235336,278551.65625,247275.578125,283984.65625,262567.125,262592.15625,226849.109375,238113.953125,241850.171875,-0.135498046875,0.9306640625,-0.16455078125,2.929687261581421,-11.077879905700684,-6.469726085662842,80.0,252656.0,1.0
1125852.8271056,278475.9375,247260.1875,283868.875,262494.25,262517.5,226826.3125,238078.1875,241731.53125,-0.132568359375,0.93701171875,-0.16650390625,3.173827886581421,-11.566161155700684,-6.256103038787842,80.0,252657.0,1.0
1125852.8342274,278370.96875,247282.640625,283681.65625,262409.03125,262399.03125,226842.328125,237999.234375,241418.515625,-0.130615234375,0.943603515625,-0.16650390625,3.234863042831421,-11.962889671325684,-6.011962413787842,80.0,252658.0,1.0
1125852.8342723,278368.71875,247301.953125,283655.28125,262416.03125,262380.78125,226861.8125,237959.984375,241266.34375,-0.128173828125,0.94580078125,-0.16796875,3.265380620956421,-12.207030296325684,-5.859374523162842,80.0,252659.0,1.0
1125852.8359834,278479.875,247305.875,283852.78125,262517.59375,262512.3125,226882.203125,238037.953125,241564.96875,-0.12353515625,0.95068359375,-0.166259765625,3.265380620956421,-12.481688499450684,-5.432128429412842,80.0,252660.0,1.0
1125852.8391235,278545.125,247281.203125,283981.25,262565.34375,262599.65625,226863.421875,238103.578125,241852.0625,-0.117919921875,0.9541015625,-0.167236328125,3.417968511581421,-12.725829124450684,-5.004882335662842,80.0,252661.0,1.0
1125852.8391747,278481.8125,247275.65625,283875.84375,262503.09375,262533.15625,226841.78125,238072.734375,241741.375,-0.110595703125,0.958740234375,-0.170166015625,3.509521245956421,-12.939452171325684,-4.608153820037842,80.0,252662.0,1.0
1125852.8472623,278380.34375,247299.625,283690.84375,262419.3125,262416.46875,226850.1875,238000.84375,241432.203125,-0.10546875,0.962646484375,-0.175048828125,3.417968511581421,-12.817381858825684,-4.058837413787842,80.0,252663.0,1.0
1125852.8505352,278367.21875,247303.109375,283654.46875,262412.71875,262381.875,226855.828125,237957.046875,241266.0,-0.09814453125,0.96630859375,-0.177978515625,3.234863042831421,-12.725829124450684,-3.448486089706421,80.0,252664.0,1.0
1125852.8505792,278476.65625,247304.0,283851.625,262514.09375,262512.59375,226878.53125,238040.1875,241563.546875,-0.09228515625,0.969970703125,-0.176513671875,3.173827886581421,-12.451170921325684,-2.838134527206421,80.0,252665.0,1.0
1125852.8610347,278546.8125,247284.328125,283988.21875,262569.4375,262611.03125,226874.0625,238122.4375,241861.359375,-0.088623046875,0.972900390625,-0.17822265625,2.960204839706421,-12.237547874450684,-2.075195074081421,80.0,252666.0,1.0
1125852.8641076,278476.71875,247270.5625,283876.375,262498.71875,262535.90625,226849.03125,238073.625,241734.75,-0.085205078125,0.975830078125,-0.179931640625,2.655029058456421,-11.840819358825684,-1.4343260526657104,80.0,252667.0,1.0
1125852.8641502,278372.5625,247291.3125,283685.40625,262409.21875,262410.9375,226853.3125,237988.328125,241416.90625,-0.080078125,0.9775390625,-0.18408203125,2.349853277206421,-11.444090843200684,-0.6713866591453552,80.0,252668.0,1.0
1125852.8660355,278367.46875,247302.3125,283651.96875,262409.84375,262379.90625,226855.109375,237949.34375,241254.453125,-0.076416015625,0.978271484375,-0.185546875,2.105712652206421,-10.925292015075684,0.1220703050494194,80.0,252669.0,1.0
1125852.8723874,278482.53125,247303.734375,283850.375,262514.0,262510.625,226870.21875,238032.046875,241546.015625,-0.072265625,0.981689453125,-0.189453125,1.6784666776657104,-10.314940452575684,0.8544921278953552,80.0,252670.0,1.0
1125852.8791118,278556.125,247283.984375,283988.9375,262569.34375,262603.40625,226858.234375,238109.03125,241839.0,-0.0712890625,0.982421875,-0.18701171875,1.3122557401657104,-9.735106468200684,1.4953612089157104,80.0,252671.0,1.0
1125852.8791764,278490.78125,247271.8125,283884.5,262505.78125,262534.5625,226835.796875,238075.859375,241730.90625,-0.0673828125,0.98583984375,-0.186767578125,0.9460448622703552,-9.216307640075684,2.105712652206421,80.0,252672.0,1.0
1125852.8877969,278375.15625,247284.609375,283688.53125,262411.1875,262409.75,226836.328125,237992.625,241419.0625,-0.0712890625,0.9873046875,-0.183837890625,0.4577636420726776,-8.605956077575684,2.624511480331421,80.0,252673.0,1.0
1125852.8878379,278364.78125,247297.828125,283655.1875,262413.15625,262382.21875,226856.1875,237956.328125,241259.28125,-0.0693359375,0.989013671875,-0.1826171875,0.1220703050494194,-8.056639671325684,3.082275152206421,80.0,252674.0,1.0
1125852.8903196,278487.0,247314.734375,283864.125,262523.125,262522.25,226894.625,238047.703125,241553.34375,-0.06787109375,0.984375,-0.183349609375,-0.3356933295726776,-7.446288585662842,3.448486089706421,80.0,252675.0,1.0
1125852.8903509,278558.4375,247289.34375,284001.8125,262576.59375,262615.65625,226888.015625,238130.21875,241846.6875,-0.067138671875,0.984619140625,-0.183837890625,-0.7019042372703552,-6.744384288787842,3.662109136581421,80.0,252676.0,1.0
1125852.8986389,278490.5,247276.203125,283898.28125,262514.0,262550.125,226870.75,238103.21875,241743.609375,-0.0673828125,0.983154296875,-0.1806640625,-1.1596678495407104,-6.164550304412842,3.845214605331421,80.0,252677.0,1.0
1125852.90103,278386.78125,247303.203125,283712.9375,262430.875,262433.09375,226890.6875,238024.71875,241437.390625,-0.065185546875,0.982177734375,-0.1806640625,-1.5869139432907104,-5.584716320037842,4.058837413787842,80.0,252678.0,1.0
1125852.9047678,278376.25,247313.484375,283671.46875,262424.34375,262397.25,226903.390625,237978.046875,241264.734375,-0.064453125,0.982177734375,-0.17919921875,-2.136230230331421,-4.943847179412842,4.058837413787842,80.0,252679.0,1.0
1125852.9190684,278483.53125,247307.578125,283860.8125,262520.625,262516.15625,226910.0,238048.953125,241540.828125,-0.065673828125,0.983642578125,-0.177978515625,-2.624511480331421,-4.394530773162842,4.180907726287842,80.0,252680.0,1.0
1125852.9191124,278550.59375,247275.84375,283996.28125,262572.46875,262606.28125,226889.078125,238123.25,241831.046875,-0.065185546875,0.984375,-0.17919921875,-3.082275152206421,-3.997802495956421,4.150390148162842,80.0,252681.0,1.0
1125852.921708,278476.03125,247254.46875,283887.71875,262504.8125,262538.96875,226866.46875,238093.921875,241725.453125,-0.067626953125,0.982666015625,-0.17578125,-3.540038824081421,-3.356933355331421,4.180907726287842,80.0,252682.0,1.0
1125852.9218393,278360.40625,247266.546875,283693.53125,262413.25,262417.8125,226880.234375,238017.125,241423.171875,-0.067626953125,0.98388671875,-0.171142578125,-3.997802495956421,-2.838134527206421,4.028319835662842,80.0,252683.0,1.0
1125852.9235032,278352.625,247280.84375,283656.09375,262412.25,262387.40625,226898.921875,237979.578125,241261.703125,-0.067626953125,0.982421875,-0.169921875,-4.486083507537842,-2.288818120956421,3.936767339706421,80.0,252684.0,1.0
1125852.9410471,278463.3125,247281.921875,283847.9375,262512.84375,262513.75,226913.40625,238056.8125,241538.78125,-0.06787109375,0.980224609375,-0.168212890625,-4.882812023162842,-1.8920897245407104,3.723144292831421,80.0,252685.0,1.0
1125852.949031,278521.875,247243.65625,283970.4375,262550.5,262592.25,226884.4375,238121.8125,241817.359375,-0.068115234375,0.978759765625,-0.168212890625,-5.462646007537842,-1.2817381620407104,3.448486089706421,80.0,252686.0,1.0
1125852.9490733,278460.625,247233.734375,283871.46875,262489.34375,262527.875,226863.953125,238098.75,241724.46875,-0.06591796875,0.97607421875,-0.16796875,-5.889892101287842,-0.8544921278953552,3.356933355331421,80.0,252687.0,1.0
1125852.9490843,278355.59375,247259.65625,283686.03125,262404.125,262412.71875,226878.078125,238023.828125,241427.734375,-0.06787109375,0.976318359375,-0.164794921875,-6.256103038787842,-0.5493163466453552,3.082275152206421,80.0,252688.0,1.0
1125852.949095,278344.78125,247275.484375,283649.0,262403.15625,262383.125,226888.1875,237978.671875,241260.09375,-0.06884765625,0.97900390625,-0.164794921875,-6.744384288787842,-0.1831054538488388,2.868652105331421,80.0,252689.0,1.0
1125852.9517603,278451.15625,247272.4375,283839.71875,262501.03125,262507.5625,226895.34375,238049.9375,241533.234375,-0.0703125,0.97802734375,-0.16162109375,-7.232665538787842,0.1831054538488388,2.593993902206421,80.0,252690.0,1.0
1125852.9518909,278526.53125,247250.890625,283980.34375,262557.625,262601.71875,226890.875,238126.375,241824.25,-0.07177734375,0.978271484375,-0.158447265625,-7.781981945037842,0.5187987685203552,2.319335699081421,80.0,252691.0,1.0
1125852.9622869,278465.46875,247245.078125,283885.125,262500.6875,262542.8125,226892.75,238104.03125,241734.03125,-0.075439453125,0.97607421875,-0.15625,-8.453368186950684,0.9155272841453552,1.8615721464157104,80.0,252692.0,1.0
1125852.9666072,278348.53125,247264.75,283689.34375,262406.28125,262419.875,226912.5,238024.28125,241437.828125,-0.07568359375,0.97509765625,-0.154541015625,-8.972167015075684,1.1901854276657104,1.5869139432907104,80.0,252693.0,1.0
1125852.9666493,278337.25,247278.515625,283647.3125,262403.0625,262388.03125,226928.15625,237980.46875,241273.328125,-0.07666015625,0.973388671875,-0.15283203125,-9.460448265075684,1.4038084745407104,1.3122557401657104,80.0,252694.0,1.0
1125852.9804105,278458.59375,247285.3125,283846.875,262511.15625,262519.5625,226947.828125,238062.890625,241549.0625,-0.076171875,0.973388671875,-0.14892578125,-9.765624046325684,1.6479490995407104,1.0681151151657104,80.0,252695.0,1.0
1125852.9804513,278529.46875,247257.78125,283985.09375,262561.40625,262609.6875,226930.828125,238134.609375,241835.6875,-0.076904296875,0.9755859375,-0.148681640625,-10.131834983825684,1.8310545682907104,0.8850097060203552,80.0,252696.0,1.0
1125852.9836238,278471.1875,247243.65625,283888.53125,262501.75,262547.90625,226918.3125,238106.34375,241739.578125,-0.074462890625,0.974853515625,-0.146484375,-10.437010765075684,2.044677495956421,0.6103515028953552,80.0,252697.0,1.0
1125852.9836677,278363.375,247262.96875,283699.625,262416.03125,262430.40625,226929.5,238037.953125,241447.484375,-0.07666015625,0.977783203125,-0.14208984375,-10.772704124450684,2.258300542831421,0.4577636420726776,80.0,252698.0,1.0
1125852.98368,278347.375,247274.671875,283657.875,262412.34375,262394.75,226939.328125,237998.703125,241281.453125,-0.079833984375,0.978759765625,-0.137939453125,-11.108397483825684,2.502441167831421,0.3051757514476776,80.0,252699.0,1.0
1125852.9859838,278456.34375,247278.796875,283850.90625,262509.71875,262519.65625,226956.046875,238074.796875,241548.15625,-0.081787109375,0.978515625,-0.1376953125,-11.322020530700684,2.685546636581421,0.2136230319738388,80.0,252700.0,1.0
1125852.9997854,278527.6875,247251.796875,283992.25,262562.375,262612.09375,226939.328125,238146.765625,241837.296875,-0.079833984375,0.978271484375,-0.137939453125,-11.444090843200684,2.838134527206421,0.1525878757238388,80.0,252701.0,1.0
1125853.0046492,278465.09375,247236.5,283893.46875,262504.09375,262549.3125,226920.109375,238120.828125,241746.734375,-0.079833984375,0.978271484375,-0.136474609375,-11.657713890075684,2.960204839706421,0.1220703050494194,80.0,252702.0,1.0
1125853.0046908,278346.65625,247249.203125,283691.40625,262405.375,262422.28125,226918.3125,238040.640625,241446.140625,-0.082763671875,0.978271484375,-0.13525390625,-11.810301780700684,3.051757574081421,0.1220703050494194,80.0,252703.0,1.0
1125853.0047029,278321.875,247257.78125,283634.625,262389.03125,262375.4375,226917.25,237980.375,241262.859375,-0.082763671875,0.98046875,-0.1337890625,-11.901854515075684,3.173827886581421,0.0915527269244194,80.0,252704.0,1.0
1125853.0086406,278439.90625,247268.515625,283833.625,262496.75,262505.0625,226943.359375,238060.84375,241533.40625,-0.083740234375,0.979736328125,-0.1337890625,-11.962889671325684,3.234863042831421,0.1525878757238388,80.0,252705.0,1.0
1125853.0147652,278516.15625,247246.875,283980.96875,262555.0625,262605.75,226930.125,238142.734375,241830.953125,-0.0830078125,0.9794921875,-0.134033203125,-12.054442405700684,3.509521245956421,0.2441406100988388,80.0,252706.0,1.0
1125853.024113,278454.5625,247235.15625,283884.15625,262494.59375,262546.65625,226910.984375,238115.015625,241739.046875,-0.083740234375,0.97900390625,-0.13330078125,-12.176512718200684,3.570556402206421,0.3967284858226776,80.0,252707.0,1.0
1125853.0241584,278343.875,247258.234375,283691.40625,262405.375,262428.0,226921.8125,238035.0,241437.5625,-0.085693359375,0.977294921875,-0.13134765625,-12.176512718200684,3.509521245956421,0.5187987685203552,80.0,252708.0,1.0
1125853.0265628,278332.59375,247273.96875,283649.09375,262404.21875,262394.03125,226939.953125,237993.703125,241264.828125,-0.087646484375,0.97900390625,-0.1328125,-12.115477561950684,3.631591558456421,0.6103515028953552,80.0,252709.0,1.0
1125853.0266043,278442.65625,247269.21875,283841.96875,262504.875,262515.625,226956.578125,238069.421875,241531.359375,-0.08740234375,0.979248046875,-0.133544921875,-12.023924827575684,3.692626714706421,0.6713866591453552,80.0,252710.0,1.0
1125853.0411734,278519.65625,247242.40625,283989.84375,262563.1875,262611.71875,226945.59375,238147.03125,241832.125,-0.087646484375,0.973876953125,-0.13134765625,-11.932372093200684,3.753661870956421,0.9460448622703552,80.0,252711.0,1.0
1125853.044124,278458.40625,247224.15625,283889.96875,262499.4375,262547.09375,226922.875,238120.296875,241742.53125,-0.086669921875,0.97607421875,-0.13037109375,-11.535643577575684,3.723144292831421,1.1291502714157104,80.0,252712.0,1.0
1125853.0441672,278348.96875,247250.8125,283696.40625,262408.5,262431.75,226939.328125,238049.9375,241449.015625,-0.086181640625,0.976806640625,-0.132568359375,-11.260985374450684,3.692626714706421,1.3427733182907104,80.0,252713.0,1.0
1125853.0460283,278337.625,247272.890625,283653.3125,262406.0,262400.375,226955.953125,238014.890625,241280.484375,-0.08935546875,0.97607421875,-0.13671875,-11.047362327575684,3.723144292831421,1.5258787870407104,80.0,252714.0,1.0
1125853.048539,278450.1875,247278.078125,283844.46875,262504.875,262520.0,226956.859375,238084.890625,241539.578125,-0.091064453125,0.97607421875,-0.1357421875,-10.681151390075684,3.753661870956421,1.6784666776657104,80.0,252715.0,1.0
1125853.0573927,278523.59375,247249.734375,283987.34375,262557.71875,262609.75,226929.578125,238154.1875,241831.671875,-0.09326171875,0.9765625,-0.1298828125,-10.437010765075684,3.540038824081421,1.8310545682907104,80.0,252716.0,1.0
1125853.0641251,278468.3125,247242.84375,283897.21875,262504.4375,262556.75,226915.90625,238137.828125,241752.453125,-0.095458984375,0.97509765625,-0.128173828125,-10.009764671325684,3.479003667831421,1.9226073026657104,80.0,252717.0,1.0
1125853.0641676,278354.96875,247264.75,283701.84375,262412.96875,262435.78125,226924.125,238064.6875,241456.609375,-0.09521484375,0.97412109375,-0.129638671875,-9.796141624450684,3.448486089706421,1.9226073026657104,80.0,252718.0,1.0
1125853.0659968,278339.84375,247282.09375,283655.0,262405.5625,262398.40625,226941.203125,238025.34375,241280.828125,-0.094970703125,0.9716796875,-0.13330078125,-9.521483421325684,3.204345464706421,1.9531248807907104,80.0,252719.0,1.0
1125853.0778552,278449.90625,247279.234375,283841.96875,262500.25,262513.75,226950.421875,238087.578125,241531.359375,-0.093505859375,0.9716796875,-0.134765625,-9.063719749450684,2.990722417831421,1.9836424589157104,80.0,252720.0,1.0
1125853.0778988,278536.0,247254.65625,283994.46875,262562.03125,262612.4375,226934.765625,238163.75,241831.9375,-0.092041015625,0.970947265625,-0.13525390625,-8.514403343200684,2.929687261581421,1.9531248807907104,80.0,252721.0,1.0
1125853.0798553,278477.4375,247241.421875,283900.78125,262500.59375,262552.46875,226910.890625,238129.859375,241740.125,-0.091796875,0.969482421875,-0.134765625,-8.117674827575684,2.807616949081421,2.044677495956421,80.0,252722.0,1.0
1125853.0835276,278364.625,247263.859375,283708.28125,262411.1875,262435.0625,226927.4375,238058.15625,241445.875,-0.091064453125,0.967529296875,-0.13671875,-7.476806163787842,2.593993902206421,2.166747808456421,80.0,252723.0,1.0
1125853.0878576,278341.71875,247275.390625,283654.28125,262403.21875,262393.65625,226937.984375,238016.671875,241270.1875,-0.088134765625,0.966064453125,-0.13525390625,-6.988524913787842,2.471923589706421,2.166747808456421,80.0,252724.0,1.0
1125853.0878997,278449.1875,247275.390625,283839.53125,262499.15625,262511.59375,226945.765625,238085.25,241522.328125,-0.086669921875,0.96533203125,-0.132080078125,-6.561278820037842,2.349853277206421,2.197265386581421,80.0,252725.0,1.0
1125853.096054,278528.0625,247253.75,283987.6875,262556.65625,262611.375,226934.234375,238160.890625,241823.0,-0.0888671875,0.963623046875,-0.13037109375,-5.920409679412842,2.197265386581421,2.166747808456421,80.0,252726.0,1.0
1125853.1005563,278468.25,247240.875,283895.40625,262499.53125,262553.625,226915.90625,238136.65625,241742.53125,-0.090576171875,0.9638671875,-0.1318359375,-5.310058116912842,2.136230230331421,2.166747808456421,80.0,252727.0,1.0
1125853.1006021,278349.5,247254.109375,283696.21875,262403.875,262429.59375,226920.109375,238058.421875,241444.71875,-0.090576171875,0.962890625,-0.130126953125,-4.821776866912842,1.9836424589157104,1.9531248807907104,80.0,252728.0,1.0
1125853.1060418,278337.15625,247275.84375,283650.1875,262400.28125,262394.375,226934.328125,238015.25,241266.0,-0.0908203125,0.96484375,-0.13232421875,-4.241942882537842,1.9836424589157104,1.9531248807907104,80.0,252729.0,1.0
1125853.1154468,278448.65625,247284.78125,283838.46875,262499.875,262513.21875,226947.640625,238082.5625,241516.6875,-0.09326171875,0.964111328125,-0.1318359375,-3.723144292831421,1.8615721464157104,1.8310545682907104,80.0,252730.0,1.0
1125853.1154925,278526.71875,247276.015625,283984.5625,262555.9375,262606.28125,226930.65625,238155.875,241816.203125,-0.09228515625,0.96435546875,-0.131591796875,-3.234863042831421,1.6784666776657104,1.8005369901657104,80.0,252731.0,1.0
1125853.1172896,278456.78125,247268.859375,283883.53125,262489.6875,262541.1875,226902.9375,238125.484375,241735.109375,-0.09326171875,0.96484375,-0.12939453125,-2.868652105331421,1.5258787870407104,1.5869139432907104,80.0,252732.0,1.0
1125853.1267091,278339.3125,247279.953125,283687.0,262397.78125,262419.9375,226910.71875,238047.4375,241440.515625,-0.096435546875,0.96435546875,-0.12744140625,-2.471923589706421,1.4038084745407104,1.4648436307907104,80.0,252733.0,1.0
1125853.1267529,278326.53125,247295.0625,283641.78125,262397.15625,262389.5625,226940.84375,238010.953125,241266.890625,-0.093994140625,0.965087890625,-0.130859375,-1.9836424589157104,1.1901854276657104,1.2207030057907104,80.0,252734.0,1.0
1125853.1310302,278437.9375,247294.53125,283831.75,262497.28125,262512.40625,226963.46875,238080.25,241517.140625,-0.093994140625,0.965576171875,-0.1318359375,-1.7089842557907104,0.9155272841453552,1.0375975370407104,80.0,252735.0,1.0
1125853.1334416,278516.53125,247265.203125,283980.34375,262552.8125,262610.125,226952.828125,238154.359375,241818.4375,-0.095703125,0.964111328125,-0.132568359375,-1.3122557401657104,0.7934569716453552,0.7934569716453552,80.0,252736.0,1.0
1125853.1427371,278462.59375,247251.515625,283893.375,262498.09375,262555.5,226943.265625,238134.0625,241746.28125,-0.09521484375,0.966552734375,-0.130126953125,-0.9155272841453552,0.7019042372703552,0.5798339247703552,80.0,252737.0,1.0
1125853.1427788,278348.34375,247267.96875,283695.78125,262407.15625,262430.0625,226955.0625,238058.703125,241450.703125,-0.094482421875,0.968505859375,-0.130859375,-0.5187987685203552,0.6103515028953552,0.3356933295726776,80.0,252738.0,1.0
1125853.1486397,278322.78125,247277.1875,283633.90625,262391.625,262384.28125,226962.578125,238008.453125,241261.078125,-0.092529296875,0.968017578125,-0.13232421875,-0.2441406100988388,0.4272460639476776,0.1831054538488388,80.0,252739.0,1.0
1125853.1509907,278437.03125,247277.890625,283821.40625,262488.0,262504.4375,226970.625,238072.546875,241508.46875,-0.093994140625,0.966796875,-0.131103515625,-0.0915527269244194,0.2441406100988388,0.0610351525247097,80.0,252740.0,1.0
1125853.1535329,278523.59375,247251.703125,283979.1875,262550.3125,262607.34375,226952.109375,238150.96875,241820.3125,-0.09619140625,0.967529296875,-0.130126953125,0.03051757626235485,0.2136230319738388,-0.0915527269244194,80.0,252741.0,1.0
1125853.1648068,278468.78125,247237.390625,283895.59375,262497.28125,262554.78125,226930.484375,238129.421875,241749.421875,-0.0947265625,0.9697265625,-0.130126953125,0.2746581733226776,0.0915527269244194,-0.3051757514476776,80.0,252742.0,1.0
1125853.1704935,278351.125,247260.015625,283699.0,262404.75,262431.65625,226945.59375,238054.5,241455.890625,-0.0966796875,0.968994140625,-0.131103515625,0.5187987685203552,-0.0610351525247097,-0.3356933295726776,80.0,252743.0,1.0
1125853.1705366,278332.34375,247286.296875,283645.09375,262399.21875,262394.65625,226967.578125,238014.4375,241274.9375,-0.099365234375,0.97265625,-0.130126953125,0.7629393935203552,-0.1831054538488388,-0.4882812201976776,80.0,252744.0,1.0
1125853.1722802,278440.0,247291.3125,283826.03125,262493.625,262509.53125,226971.609375,238072.46875,241511.421875,-0.099853515625,0.97412109375,-0.128662109375,0.8850097060203552,-0.3662109076976776,-0.6103515028953552,80.0,252745.0,1.0
1125853.1747349,278516.4375,247263.59375,283976.0625,262548.53125,262605.90625,226948.265625,238147.03125,241818.4375,-0.102294921875,0.976318359375,-0.1298828125,0.8850097060203552,-0.5493163466453552,-0.7324218153953552,80.0,252746.0,1.0
1125853.177294,278461.0,247249.90625,283889.6875,262492.375,262554.25,226925.46875,238123.6875,241749.859375,-0.10400390625,0.977783203125,-0.1357421875,0.8239745497703552,-0.6713866591453552,-0.8544921278953552,80.0,252747.0,1.0
1125853.1867122,278346.28125,247277.625,283693.53125,262399.125,262435.34375,226937.265625,238046.71875,241455.359375,-0.103271484375,0.97802734375,-0.130859375,0.7934569716453552,-0.8544921278953552,-0.9155272841453552,80.0,252748.0,1.0
1125853.1867567,278320.625,247293.71875,283633.46875,262387.40625,262388.03125,226949.796875,237997.984375,241262.59375,-0.101806640625,0.9794921875,-0.128173828125,0.7019042372703552,-1.1291502714157104,-0.8850097060203552,80.0,252749.0,1.0
1125853.1885007,278439.4375,247299.53125,283827.21875,262494.6875,262512.3125,226973.125,238075.6875,241513.46875,-0.098876953125,0.98046875,-0.13134765625,0.4882812201976776,-1.4038084745407104,-1.0070799589157104,80.0,252750.0,1.0
1125853.1972902,278523.03125,247268.328125,283984.65625,262555.125,262614.15625,226957.65625,238149.890625,241822.015625,-0.097412109375,0.979248046875,-0.13232421875,0.4882812201976776,-1.6479490995407104,-0.9765624403953552,80.0,252751.0,1.0
1125853.2016063,278460.5625,247240.796875,283892.8125,262492.0,262552.1875,226926.984375,238110.734375,241743.609375,-0.095947265625,0.97900390625,-0.132568359375,0.3051757514476776,-1.7395018339157104,-0.7629393935203552,80.0,252752.0,1.0
1125853.2016494,278346.8125,247261.71875,283698.0,262405.5625,262435.96875,226945.40625,238038.671875,241457.5,-0.09619140625,0.9794921875,-0.133056640625,0.3051757514476776,-1.9226073026657104,-0.6408690810203552,80.0,252753.0,1.0
1125853.209912,278323.84375,247280.578125,283639.0,262396.875,262392.6875,226960.15625,237993.96875,241271.53125,-0.094482421875,0.98095703125,-0.13330078125,0.2441406100988388,-1.9226073026657104,-0.5493163466453552,80.0,252754.0,1.0
1125853.2128801,278429.71875,247283.0,283820.6875,262492.0,262505.78125,226973.21875,238052.171875,241507.296875,-0.093505859375,0.982177734375,-0.132080078125,0.0915527269244194,-1.9226073026657104,-0.4882812201976776,80.0,252755.0,1.0
1125853.2129231,278510.15625,247258.046875,283978.84375,262552.625,262609.5,226962.21875,238127.8125,241822.28125,-0.09375,0.982421875,-0.1357421875,0.0,-1.9226073026657104,-0.1831054538488388,80.0,252756.0,1.0
1125853.2147291,278454.75,247242.3125,283892.28125,262498.0,262556.5625,226943.984375,238108.046875,241759.875,-0.092041015625,0.98193359375,-0.134765625,-0.1220703050494194,-2.044677495956421,0.03051757626235485,80.0,252757.0,1.0
1125853.2291051,278337.53125,247258.671875,283690.5,262401.4375,262433.09375,226953.015625,238033.84375,241470.015625,-0.089599609375,0.979736328125,-0.134033203125,-0.2746581733226776,-2.105712652206421,0.2746581733226776,80.0,252758.0,1.0
1125853.2291482,278319.28125,247278.171875,283633.0,262393.65625,262392.78125,226963.015625,237989.5,241281.375,-0.08837890625,0.979736328125,-0.13623046875,-0.3051757514476776,-2.044677495956421,0.4577636420726776,80.0,252759.0,1.0
1125853.2311008,278433.09375,247286.5625,283822.46875,262495.9375,262514.46875,226976.609375,238058.15625,241522.5,-0.085693359375,0.97802734375,-0.134033203125,-0.3967284858226776,-1.9836424589157104,0.7324218153953552,80.0,252760.0,1.0
1125853.2335264,278517.9375,247257.0625,283981.53125,262558.71875,262617.375,226956.765625,238131.03125,241836.40625,-0.08642578125,0.9775390625,-0.13623046875,-0.4882812201976776,-1.8920897245407104,0.8850097060203552,80.0,252761.0,1.0
1125853.2372915,278457.25,247232.5625,283890.5,262498.1875,262560.0625,226927.53125,238102.5,241767.46875,-0.083984375,0.976806640625,-0.1328125,-0.5798339247703552,-1.8005369901657104,1.1291502714157104,80.0,252762.0,1.0
1125853.2510794,278337.625,247251.078125,283690.40625,262402.96875,262434.15625,226931.734375,238024.359375,241472.875,-0.08349609375,0.977783203125,-0.13525390625,-0.5798339247703552,-1.8005369901657104,1.3732908964157104,80.0,252763.0,1.0
1125853.2542415,278318.84375,247268.953125,283630.96875,262394.65625,262390.34375,226948.265625,237975.71875,241282.0,-0.0859375,0.97802734375,-0.135009765625,-0.6103515028953552,-1.6784666776657104,1.5258787870407104,80.0,252764.0,1.0
1125853.2542842,278423.1875,247266.453125,283809.78125,262483.78125,262499.71875,226957.296875,238020.703125,241511.765625,-0.08642578125,0.97802734375,-0.13232421875,-0.7934569716453552,-1.5869139432907104,1.6174315214157104,80.0,252765.0,1.0
1125853.2559909,278512.59375,247249.90625,283977.0625,262549.40625,262607.15625,226945.671875,238087.84375,241830.953125,-0.083984375,0.979736328125,-0.132568359375,-0.8544921278953552,-1.4648436307907104,1.7700194120407104,80.0,252766.0,1.0
1125853.2603895,278466.71875,247252.234375,283903.75,262503.1875,262566.125,226924.671875,238064.328125,241775.703125,-0.08349609375,0.980712890625,-0.13134765625,-1.0375975370407104,-1.4343260526657104,1.9226073026657104,80.0,252767.0,1.0
1125853.2604431,278354.15625,247282.28125,283708.125,262410.75,262448.90625,226933.34375,237979.75,241484.40625,-0.086181640625,0.979736328125,-0.134521484375,-1.3732908964157104,-1.2512205839157104,2.014159917831421,80.0,252768.0,1.0
1125853.2891051,278324.21875,247294.078125,283637.9375,262390.8125,262393.5625,226940.765625,237907.78125,241279.765625,-0.0869140625,0.97900390625,-0.13427734375,-1.4648436307907104,-1.1596678495407104,2.014159917831421,80.0,252769.0,1.0
1125853.2891488,278432.28125,247301.234375,283818.96875,262487.0,262504.34375,226952.734375,237956.421875,241505.609375,-0.08544921875,0.97900390625,-0.1328125,-1.6174315214157104,-1.0681151151657104,2.075195074081421,80.0,252770.0,1.0
1125853.2948988,278521.0,247280.84375,283983.75,262552.53125,262610.75,226938.078125,238032.953125,241826.125,-0.08837890625,0.980224609375,-0.132080078125,-1.7395018339157104,-1.0375975370407104,2.044677495956421,80.0,252771.0,1.0
1125853.3027296,278478.25,247276.375,283913.3125,262506.84375,262567.75,226924.21875,238011.9375,241772.9375,-0.087158203125,0.978759765625,-0.130615234375,-1.7700194120407104,-0.9155272841453552,2.075195074081421,80.0,252772.0,1.0
1125853.3027699,278357.09375,247292.921875,283711.25,262408.875,262440.53125,226933.609375,237925.75,241481.46875,-0.08740234375,0.97802734375,-0.12890625,-2.014159917831421,-0.8850097060203552,1.9531248807907104,80.0,252773.0,1.0
1125853.3027802,278332.875,247319.296875,283649.0,262397.6875,262397.6875,226961.140625,237874.78125,241293.53125,-0.08837890625,0.977783203125,-0.132568359375,-2.136230230331421,-0.7934569716453552,1.9226073026657104,80.0,252774.0,1.0
1125853.3027908,278442.59375,247327.25,283831.0625,262495.875,262512.40625,226981.078125,237935.578125,241526.875,-0.08544921875,0.9794921875,-0.1328125,-2.288818120956421,-0.7629393935203552,1.7700194120407104,80.0,252775.0,1.0
1125853.3059399,278529.21875,247302.21875,283991.625,262560.59375,262617.4375,226967.40625,238008.265625,241844.1875,-0.087646484375,0.978759765625,-0.13427734375,-2.380370855331421,-0.6408690810203552,1.6479490995407104,80.0,252776.0,1.0
1125853.3059828,278477.96875,247289.078125,283912.6875,262506.40625,262567.65625,226947.375,237978.40625,241783.390625,-0.087158203125,0.97900390625,-0.13330078125,-2.532958745956421,-0.6408690810203552,1.5258787870407104,80.0,252777.0,1.0
1125853.3059949,278355.125,247306.0625,283705.875,262404.03125,262439.96875,226957.484375,237893.296875,241488.796875,-0.086181640625,0.979736328125,-0.132080078125,-2.655029058456421,-0.5798339247703552,1.3732908964157104,80.0,252778.0,1.0
1125853.3090737,278325.53125,247322.328125,283635.5,262385.71875,262390.625,226978.84375,237840.0,241290.84375,-0.084716796875,0.98095703125,-0.1298828125,-2.868652105331421,-0.5187987685203552,1.2817381620407104,80.0,252779.0,1.0
1125853.3091095,278431.65625,247325.734375,283813.15625,262482.90625,262501.65625,226996.546875,237896.59375,241516.515625,-0.084228515625,0.980224609375,-0.12890625,-2.960204839706421,-0.4272460639476776,1.1596678495407104,80.0,252780.0,1.0
1125853.3109902,278522.78125,247306.421875,283981.25,262551.5625,262609.9375,226986.796875,237973.671875,241837.921875,-0.083251953125,0.97998046875,-0.12841796875,-3.204345464706421,-0.3662109076976776,1.0375975370407104,80.0,252781.0,1.0
1125853.3410371,278473.4375,247292.015625,283906.78125,262499.78125,262559.15625,226964.453125,237950.6875,241782.3125,-0.08251953125,0.978759765625,-0.130126953125,-3.265380620956421,-0.3356933295726776,0.9460448622703552,80.0,252782.0,1.0
1125853.3446409,278356.84375,247314.015625,283708.125,262403.0625,262434.96875,226971.609375,237872.375,241488.609375,-0.082763671875,0.980712890625,-0.130615234375,-3.326415777206421,-0.1831054538488388,1.0070799589157104,80.0,252783.0,1.0
1125853.3446806,278331.96875,247337.796875,283643.90625,262391.875,262392.78125,226992.171875,237832.046875,241296.296875,-0.084228515625,0.97900390625,-0.1298828125,-3.387450933456421,-0.03051757626235485,0.9155272841453552,80.0,252784.0,1.0
1125853.3446918,278434.53125,247334.21875,283817.0,262484.40625,262501.5,227004.421875,237891.0625,241516.421875,-0.0830078125,0.975830078125,-0.135498046875,-3.356933355331421,0.03051757626235485,0.8544921278953552,80.0,252785.0,1.0
1125853.3476909,278528.3125,247311.15625,283987.34375,262555.5,262613.6875,226991.1875,237974.390625,241840.078125,-0.082763671875,0.97509765625,-0.132080078125,-3.356933355331421,0.1831054538488388,0.8544921278953552,80.0,252786.0,1.0
1125853.3477391,278475.3125,247294.171875,283906.34375,262503.5625,262564.6875,226960.25,237953.46875,241787.5,-0.083251953125,0.974609375,-0.13037109375,-3.356933355331421,0.1831054538488388,0.8544921278953552,80.0,252787.0,1.0
1125853.3536763,278355.9375,247320.8125,283707.84375,262411.8125,262448.65625,226977.140625,237885.421875,241509.453125,-0.0849609375,0.97412109375,-0.130615234375,-3.143310308456421,0.3662109076976776,0.8544921278953552,80.0,252788.0,1.0
1125853.355987,278328.84375,247351.203125,283641.40625,262398.9375,262402.59375,226993.6875,237835.984375,241313.46875,-0.083251953125,0.972412109375,-0.130859375,-2.899169683456421,0.5493163466453552,0.8850097060203552,80.0,252789.0,1.0
1125853.3585538,278433.0,247356.3125,283815.40625,262489.96875,262507.3125,226995.125,237890.609375,241526.078125,-0.08154296875,0.9716796875,-0.132568359375,-2.807616949081421,0.6103515028953552,0.9155272841453552,80.0,252790.0,1.0
1125853.3610157,278528.9375,247339.859375,283989.3125,262559.25,262616.75,226982.953125,237969.5625,241845.796875,-0.083251953125,0.971435546875,-0.128662109375,-2.807616949081421,0.6713866591453552,0.9765624403953552,80.0,252791.0,1.0
1125853.3636437,278480.5625,247320.640625,283917.0625,262511.78125,262572.46875,226959.0,237951.234375,241795.375,-0.083251953125,0.970458984375,-0.12841796875,-2.655029058456421,0.7324218153953552,1.0681151151657104,80.0,252792.0,1.0
1125853.3660045,278361.3125,247330.921875,283715.53125,262415.84375,262452.3125,226967.84375,237877.015625,241510.96875,-0.08642578125,0.97216796875,-0.129638671875,-2.410888433456421,0.7934569716453552,1.0375975370407104,80.0,252793.0,1.0
1125853.3690566,278337.78125,247352.375,283651.15625,262403.875,262410.21875,226995.65625,237832.234375,241318.828125,-0.087890625,0.9736328125,-0.1279296875,-2.288818120956421,0.8850097060203552,1.0681151151657104,80.0,252794.0,1.0
1125853.369099,278443.75,247348.078125,283825.40625,262498.625,262515.8125,227010.765625,237889.625,241532.15625,-0.0859375,0.97705078125,-0.12744140625,-2.136230230331421,1.0070799589157104,1.0681151151657104,80.0,252795.0,1.0
1125853.3772695,278530.5625,247306.5,283986.53125,262560.59375,262613.4375,226986.453125,237958.46875,241841.5,-0.084716796875,0.978759765625,-0.126220703125,-2.044677495956421,1.0070799589157104,1.0070799589157104,80.0,252796.0,1.0
1125853.3805449,278486.9375,247286.5625,283916.34375,262512.21875,262569.875,226967.765625,237942.5625,241796.09375,-0.087646484375,0.979248046875,-0.127685546875,-1.8920897245407104,0.9460448622703552,0.9460448622703552,80.0,252797.0,1.0
1125853.380588,278377.40625,247312.234375,283726.4375,262420.21875,262455.90625,226984.484375,237874.515625,241517.3125,-0.0908203125,0.97998046875,-0.1259765625,-1.8310545682907104,0.8239745497703552,1.0070799589157104,80.0,252798.0,1.0
1125853.385974,278349.875,247331.8125,283658.75,262406.625,262409.84375,226999.765625,237826.78125,241322.671875,-0.090087890625,0.98046875,-0.12451171875,-1.6784666776657104,0.8239745497703552,0.9460448622703552,80.0,252799.0,1.0
1125853.3954313,278450.28125,247330.640625,283827.125,262497.65625,262515.8125,227004.15625,237884.53125,241533.046875,-0.090576171875,0.982421875,-0.1240234375,-1.7395018339157104,0.7019042372703552,0.9155272841453552,80.0,252800.0,1.0
1125853.3954745,278545.40625,247306.953125,283997.78125,262567.84375,262627.03125,226988.0625,237966.96875,241853.3125,-0.091552734375,0.979736328125,-0.124267578125,-1.6784666776657104,0.6408690810203552,1.0681151151657104,80.0,252801.0,1.0
1125853.3972869,278495.5,247281.5625,283923.75,262517.3125,262578.46875,226963.921875,237937.109375,241800.46875,-0.09228515625,0.97900390625,-0.12109375,-1.8005369901657104,0.4577636420726776,0.9765624403953552,80.0,252802.0,1.0
1125853.4036377,278376.40625,247294.703125,283726.4375,262420.59375,262457.0625,226977.140625,237860.390625,241520.71875,-0.090087890625,0.975341796875,-0.1201171875,-1.8920897245407104,0.3662109076976776,0.9765624403953552,80.0,252803.0,1.0
1125853.4104305,278343.0625,247313.578125,283654.125,262401.71875,262405.28125,226996.375,237814.34375,241323.125,-0.088623046875,0.970947265625,-0.122314453125,-1.9226073026657104,0.2746581733226776,1.1291502714157104,80.0,252804.0,1.0
1125853.41048,278444.90625,247320.359375,283828.28125,262498.71875,262512.65625,227010.671875,237874.078125,241532.34375,-0.0869140625,0.9716796875,-0.12744140625,-1.6174315214157104,0.2136230319738388,1.1291502714157104,80.0,252805.0,1.0
1125853.412281,278533.15625,247294.609375,283998.40625,262569.71875,262623.53125,226991.71875,237951.234375,241853.578125,-0.08642578125,0.97607421875,-0.13037109375,-1.2512205839157104,0.1525878757238388,1.0986326932907104,80.0,252806.0,1.0
1125853.4290337,278482.09375,247273.6875,283925.8125,262517.5,262579.1875,226962.21875,237927.53125,241812.453125,-0.086181640625,0.980712890625,-0.130615234375,-1.0070799589157104,0.1525878757238388,1.2207030057907104,80.0,252807.0,1.0
1125853.4290828,278373.90625,247302.75,283737.875,262431.03125,262468.78125,226972.671875,237859.671875,241543.953125,-0.084228515625,0.978515625,-0.130615234375,-0.8239745497703552,0.03051757626235485,1.2817381620407104,80.0,252808.0,1.0
1125853.4308701,278346.375,247327.78125,283665.03125,262416.28125,262418.4375,226985.734375,237814.171875,241347.625,-0.083251953125,0.979736328125,-0.128173828125,-0.7324218153953552,-0.03051757626235485,1.2512205839157104,80.0,252809.0,1.0
1125853.4333853,278440.53125,247321.078125,283824.34375,262498.625,262513.125,226978.9375,237862.265625,241540.296875,-0.0810546875,0.97705078125,-0.12841796875,-0.7019042372703552,0.03051757626235485,1.3122557401657104,80.0,252810.0,1.0
1125853.4359605,278530.65625,247287.109375,283991.96875,262564.875,262621.9375,226959.265625,237936.921875,241854.203125,-0.080078125,0.972900390625,-0.1328125,-0.6408690810203552,-0.0915527269244194,1.3427733182907104,80.0,252811.0,1.0
1125853.4385439,278479.59375,247258.234375,283917.6875,262512.03125,262572.75,226930.03125,237912.34375,241807.359375,-0.081787109375,0.970703125,-0.136474609375,-0.3967284858226776,-0.0610351525247097,1.4648436307907104,80.0,252812.0,1.0
1125853.4479532,278363.625,247277.0,283722.25,262418.6875,262454.46875,226946.390625,237843.40625,241532.421875,-0.082763671875,0.9677734375,-0.134765625,-0.1220703050494194,-0.03051757626235485,1.4648436307907104,80.0,252813.0,1.0
1125853.4479987,278331.4375,247296.046875,283645.71875,262399.3125,262399.5625,226959.890625,237794.5,241328.40625,-0.08642578125,0.970458984375,-0.1357421875,0.3662109076976776,-0.0915527269244194,1.2512205839157104,80.0,252814.0,1.0
1125853.4501831,278437.40625,247302.9375,283815.65625,262493.28125,262501.9375,226965.96875,237853.5,241525.1875,-0.088134765625,0.972412109375,-0.134765625,0.6408690810203552,-0.2136230319738388,1.0681151151657104,80.0,252815.0,1.0
1125853.4502273,278532.34375,247288.53125,283988.84375,262566.84375,262612.53125,226950.328125,237942.46875,241845.890625,-0.090576171875,0.975341796875,-0.13232421875,0.7934569716453552,-0.2441406100988388,0.9460448622703552,80.0,252816.0,1.0
1125853.4560598,278481.8125,247287.46875,283919.03125,262515.34375,262566.9375,226922.4375,237925.390625,241801.890625,-0.090087890625,0.974365234375,-0.130859375,0.8544921278953552,-0.3051757514476776,0.7629393935203552,80.0,252817.0,1.0
1125853.4584913,278363.09375,247321.171875,283722.15625,262418.53125,262445.0625,226929.140625,237854.21875,241525.265625,-0.089599609375,0.9716796875,-0.1337890625,1.0070799589157104,-0.3662109076976776,0.6103515028953552,80.0,252818.0,1.0
1125853.4724042,278330.71875,247356.84375,283645.625,262399.03125,262392.78125,226943.4375,237808.359375,241319.90625,-0.088134765625,0.969482421875,-0.1376953125,1.1901854276657104,-0.5187987685203552,0.5187987685203552,80.0,252819.0,1.0
1125853.4804372,278432.375,247369.1875,283810.65625,262489.875,262496.3125,226953.453125,237857.890625,241512.84375,-0.08740234375,0.96923828125,-0.13916015625,1.3732908964157104,-0.4882812201976776,0.3967284858226776,80.0,252820.0,1.0
1125853.4804842,278526.71875,247338.609375,283982.59375,262558.71875,262606.0,226937.359375,237934.953125,241830.78125,-0.084716796875,0.969482421875,-0.13818359375,1.6174315214157104,-0.6713866591453552,0.2746581733226776,80.0,252821.0,1.0
1125853.4859837,278482.8125,247308.75,283918.9375,262511.15625,262565.40625,226919.125,237926.375,241798.59375,-0.083740234375,0.972900390625,-0.1396484375,1.8615721464157104,-0.6103515028953552,0.1525878757238388,80.0,252822.0,1.0
1125853.4885373,278364.09375,247318.75,283721.625,262416.03125,262448.65625,226930.5625,237859.59375,241523.84375,-0.083251953125,0.974609375,-0.139892578125,2.197265386581421,-0.6713866591453552,0.0610351525247097,80.0,252823.0,1.0
1125853.4912035,278327.34375,247331.546875,283641.9375,262395.0,262395.46875,226941.65625,237814.25,241319.375,-0.080810546875,0.97412109375,-0.138427734375,2.227782964706421,-0.7019042372703552,0.0915527269244194,80.0,252824.0,1.0
1125853.4935024,278429.34375,247333.78125,283811.375,262488.875,262501.84375,226955.515625,237875.140625,241516.6875,-0.07958984375,0.975830078125,-0.138427734375,2.380370855331421,-0.5798339247703552,0.2136230319738388,80.0,252825.0,1.0
1125853.4960578,278528.59375,247315.09375,283990.375,262566.40625,262619.5,226938.34375,237968.21875,241840.796875,-0.077392578125,0.976318359375,-0.141357421875,2.410888433456421,-0.6408690810203552,0.2136230319738388,80.0,252826.0,1.0
1125853.4985363,278491.46875,247302.484375,283931.375,262525.53125,262586.96875,226916.34375,237964.546875,241811.734375,-0.076904296875,0.975830078125,-0.141357421875,2.471923589706421,-0.5798339247703552,0.3051757514476776,80.0,252827.0,1.0
1125853.5023481,278370.59375,247316.34375,283732.34375,262427.03125,262468.40625,226921.171875,237897.3125,241535.015625,-0.075927734375,0.973876953125,-0.136962890625,2.441406011581421,-0.4882812201976776,0.4272460639476776,80.0,252828.0,1.0
1125853.51413,278335.03125,247338.6875,283653.5625,262404.75,262416.46875,226934.59375,237853.953125,241331.078125,-0.074951171875,0.97607421875,-0.138916015625,2.655029058456421,-0.4882812201976776,0.3967284858226776,80.0,252829.0,1.0
1125853.5141727,278440.875,247351.5625,283823.71875,262501.125,262522.40625,226944.0625,237920.734375,241530.375,-0.07568359375,0.976806640625,-0.139404296875,2.624511480331421,-0.2441406100988388,0.5493163466453552,80.0,252830.0,1.0
1125853.5166326,278530.65625,247325.015625,283991.34375,262567.84375,262625.6875,226917.609375,237998.53125,241842.84375,-0.07568359375,0.978759765625,-0.138671875,2.685546636581421,-0.1525878757238388,0.7019042372703552,80.0,252831.0,1.0
1125853.5166753,278489.96875,247307.84375,283929.65625,262522.59375,262584.375,226888.1875,237984.578125,241807.0,-0.07568359375,0.98046875,-0.138427734375,2.471923589706421,-0.1220703050494194,0.8544921278953552,80.0,252832.0,1.0
1125853.5186052,278374.0,247326.359375,283732.53125,262423.0,262462.0625,226894.0,237915.375,241530.546875,-0.07763671875,0.979248046875,-0.13525390625,2.349853277206421,-0.0915527269244194,0.8239745497703552,80.0,252833.0,1.0
1125853.5273517,278339.9375,247349.421875,283654.46875,262401.625,262405.46875,226912.15625,237867.28125,241325.1875,-0.076416015625,0.97900390625,-0.1376953125,2.075195074081421,-0.0610351525247097,0.8850097060203552,80.0,252834.0,1.0
1125853.5340933,278440.53125,247358.625,283820.125,262496.5625,262509.71875,226926.09375,237923.515625,241519.734375,-0.078857421875,0.98095703125,-0.13671875,1.8005369901657104,-0.03051757626235485,0.8850097060203552,80.0,252835.0,1.0
1125853.5341353,278538.15625,247342.09375,283997.625,262571.84375,262627.5625,226914.46875,238012.828125,241849.90625,-0.0791015625,0.980712890625,-0.133544921875,1.6174315214157104,0.03051757626235485,0.8544921278953552,80.0,252836.0,1.0
1125853.5359833,278493.28125,247319.203125,283934.75,262525.09375,262587.5,226887.109375,238000.40625,241819.328125,-0.0791015625,0.98193359375,-0.1376953125,1.3427733182907104,-0.1525878757238388,0.8239745497703552,80.0,252837.0,1.0
1125853.5397849,278375.0,247332.703125,283738.25,262427.1875,262464.75,226896.765625,237925.921875,241544.5,-0.081298828125,0.9833984375,-0.13720703125,1.1291502714157104,-0.2136230319738388,0.6713866591453552,80.0,252838.0,1.0
1125853.5586477,278333.9375,247348.96875,283651.15625,262398.84375,262404.03125,226913.40625,237874.703125,241333.046875,-0.082763671875,0.9833984375,-0.13720703125,0.8544921278953552,-0.2136230319738388,0.6408690810203552,80.0,252839.0,1.0
1125853.5616226,278430.96875,247351.65625,283809.40625,262488.0,262499.71875,226918.234375,237919.75,241513.109375,-0.083740234375,0.983154296875,-0.13818359375,0.6103515028953552,-0.1831054538488388,0.6103515028953552,80.0,252840.0,1.0
1125853.5616659,278525.71875,247327.609375,283983.21875,262560.0625,262610.125,226898.640625,238001.921875,241839.265625,-0.08544921875,0.98388671875,-0.139892578125,0.2136230319738388,-0.2746581733226776,0.3967284858226776,80.0,252841.0,1.0
1125853.5635537,278487.90625,247310.984375,283927.875,262519.8125,262576.59375,226878.796875,237992.09375,241814.421875,-0.084228515625,0.982177734375,-0.137939453125,-0.0610351525247097,-0.4272460639476776,0.1525878757238388,80.0,252842.0,1.0
1125853.5660385,278369.4375,247327.875,283732.875,262425.6875,262459.46875,226897.21875,237915.90625,241540.65625,-0.084716796875,0.98193359375,-0.137939453125,-0.3662109076976776,-0.5798339247703552,0.0,80.0,252843.0,1.0
1125853.5687014,278334.03125,247353.09375,283652.9375,262407.34375,262407.875,226931.453125,237867.1875,241332.59375,-0.08447265625,0.982177734375,-0.13720703125,-0.6103515028953552,-0.6408690810203552,-0.1831054538488388,80.0,252844.0,1.0
1125853.5710499,278435.59375,247361.765625,283816.125,262498.375,262510.6875,226948.09375,237916.8125,241513.828125,-0.08447265625,0.98046875,-0.135498046875,-0.7629393935203552,-0.7324218153953552,-0.3662109076976776,80.0,252845.0,1.0
1125853.5735533,278529.65625,247338.25,283992.78125,262569.4375,262623.0,226921.453125,237992.171875,241835.34375,-0.085205078125,0.979248046875,-0.13623046875,-1.0070799589157104,-0.9155272841453552,-0.6103515028953552,80.0,252846.0,1.0
1125853.5822942,278496.40625,247328.328125,283946.03125,262535.5625,262593.03125,226905.359375,237987.078125,241817.546875,-0.085205078125,0.97802734375,-0.137939453125,-1.2817381620407104,-1.0070799589157104,-0.8239745497703552,80.0,252847.0,1.0
1125853.5892073,278385.28125,247351.921875,283757.46875,262446.96875,262478.15625,226927.53125,237913.234375,241548.703125,-0.08447265625,0.978759765625,-0.13818359375,-1.3732908964157104,-1.0070799589157104,-0.9460448622703552,80.0,252848.0,1.0
1125853.589253,278338.34375,247358.453125,283661.1875,262412.25,262409.59375,226932.265625,237844.203125,241321.0625,-0.084716796875,0.9765625,-0.135986328125,-1.5563963651657104,-1.0986326932907104,-1.0681151151657104,80.0,252849.0,1.0
1125853.5910589,278434.09375,247357.296875,283813.625,262496.75,262501.84375,226926.625,237883.28125,241477.0,-0.0849609375,0.973388671875,-0.13623046875,-1.6784666776657104,-1.0986326932907104,-1.3122557401657104,80.0,252850.0,1.0
1125853.594722,278534.125,247337.0,283991.1875,262573.90625,262616.125,226900.96875,237961.328125,241790.28125,-0.086669921875,0.972412109375,-0.1357421875,-1.8005369901657104,-1.1596678495407104,-1.4343260526657104,80.0,252851.0,1.0
1125853.6041479,278493.625,247315.53125,283932.78125,262529.5625,262578.28125,226866.46875,237939.609375,241759.703125,-0.08544921875,0.9736328125,-0.13720703125,-1.8310545682907104,-1.2817381620407104,-1.4953612089157104,80.0,252852.0,1.0
1125853.6041923,278374.375,247327.421875,283733.25,262430.25,262457.0625,226872.8125,237862.0,241485.671875,-0.08544921875,0.97265625,-0.13623046875,-1.9836424589157104,-1.3732908964157104,-1.5563963651657104,80.0,252853.0,1.0
1125853.6067035,278340.65625,247351.203125,283652.15625,262409.40625,262402.15625,226898.296875,237818.109375,241280.125,-0.084716796875,0.971435546875,-0.1357421875,-2.105712652206421,-1.4648436307907104,-1.5869139432907104,80.0,252854.0,1.0
1125853.6067488,278433.90625,247351.484375,283806.0,262492.71875,262494.34375,226907.671875,237867.0,241460.90625,-0.0859375,0.97021484375,-0.13720703125,-2.075195074081421,-1.5258787870407104,-1.6174315214157104,80.0,252855.0,1.0
1125853.6172262,278528.9375,247321.53125,283978.125,262560.84375,262602.34375,226883.53125,237943.359375,241787.6875,-0.088134765625,0.972412109375,-0.13525390625,-1.9836424589157104,-1.5563963651657104,-1.6479490995407104,80.0,252856.0,1.0
1125853.6204262,278491.03125,247297.75,283921.15625,262519.5625,262567.375,226851.359375,237925.484375,241764.609375,-0.08984375,0.97607421875,-0.13818359375,-1.8310545682907104,-1.6174315214157104,-1.6784666776657104,80.0,252857.0,1.0
1125853.6204696,278374.28125,247312.046875,283724.46875,262423.71875,262447.125,226854.390625,237847.421875,241485.9375,-0.087890625,0.98095703125,-0.139404296875,-1.7700194120407104,-1.6479490995407104,-1.6784666776657104,80.0,252858.0,1.0
1125853.6260346,278334.65625,247336.28125,283635.5,262397.34375,262389.375,226879.15625,237794.3125,241266.0,-0.089111328125,0.98291015625,-0.135009765625,-1.7395018339157104,-1.7395018339157104,-1.7089842557907104,80.0,252859.0,1.0
1125853.6329899,278432.375,247342.984375,283792.78125,262486.46875,262487.1875,226896.6875,237841.890625,241441.859375,-0.08935546875,0.981201171875,-0.13525390625,-1.7395018339157104,-1.7700194120407104,-1.6784666776657104,80.0,252860.0,1.0
1125853.6330328,278532.34375,247321.53125,283975.34375,262565.25,262602.15625,226883.265625,237923.25,241777.578125,-0.0869140625,0.98046875,-0.13525390625,-1.8005369901657104,-1.8310545682907104,-1.6479490995407104,80.0,252861.0,1.0
1125853.638484,278496.03125,247304.0,283923.5,262524.03125,262566.03125,226861.8125,237910.015625,241761.671875,-0.0888671875,0.980224609375,-0.1337890625,-1.9836424589157104,-1.8920897245407104,-1.5258787870407104,80.0,252862.0,1.0
1125853.6478813,278383.125,247327.78125,283731.53125,262431.21875,262451.4375,226875.40625,237836.078125,241489.6875,-0.0888671875,0.97998046875,-0.1357421875,-1.9226073026657104,-1.9531248807907104,-1.4648436307907104,80.0,252863.0,1.0
1125853.6479311,278344.3125,247354.34375,283645.78125,262408.15625,262393.21875,226892.65625,237781.265625,241269.65625,-0.0908203125,0.97802734375,-0.135498046875,-1.9836424589157104,-2.105712652206421,-1.4648436307907104,80.0,252864.0,1.0
1125853.6504264,278445.875,247362.5625,283808.59375,262497.65625,262491.75,226909.015625,237829.375,241448.65625,-0.09130859375,0.97607421875,-0.13720703125,-1.8615721464157104,-2.136230230331421,-1.3427733182907104,80.0,252865.0,1.0
1125853.6504691,278541.46875,247337.984375,283986.53125,262569.96875,262611.09375,226901.515625,237914.03125,241791.53125,-0.093505859375,0.975341796875,-0.13720703125,-1.8615721464157104,-2.288818120956421,-1.3427733182907104,80.0,252866.0,1.0
1125853.6611399,278502.3125,247317.421875,283933.59375,262529.75,262580.625,226878.984375,237909.5625,241787.859375,-0.0966796875,0.975341796875,-0.13720703125,-1.5869139432907104,-2.227782964706421,-1.3427733182907104,80.0,252867.0,1.0
1125853.6660635,278382.6875,247330.46875,283737.71875,262433.46875,262461.78125,226876.03125,237839.296875,241520.09375,-0.095458984375,0.975830078125,-0.1337890625,-1.4343260526657104,-2.471923589706421,-1.3122557401657104,80.0,252868.0,1.0
1125853.6686116,278344.21875,247354.15625,283651.0625,262409.59375,262405.8125,226895.078125,237791.90625,241305.6875,-0.098876953125,0.975830078125,-0.135498046875,-1.3427733182907104,-2.563476324081421,-1.3122557401657104,80.0,252869.0,1.0
1125853.6710373,278447.125,247365.515625,283813.875,262502.03125,262508.375,226920.828125,237848.140625,241489.0625,-0.098876953125,0.974609375,-0.13623046875,-1.2817381620407104,-2.716064214706421,-1.1291502714157104,80.0,252870.0,1.0
1125853.6773976,278549.875,247342.09375,284001.28125,262580.71875,262627.28125,226909.828125,237930.75,241829.609375,-0.100830078125,0.9716796875,-0.134521484375,-1.1291502714157104,-2.929687261581421,-1.2207030057907104,80.0,252871.0,1.0
1125853.6797569,278512.9375,247314.375,283950.40625,262539.03125,262590.90625,226876.65625,237914.125,241817.8125,-0.101806640625,0.972412109375,-0.1357421875,-0.9765624403953552,-3.082275152206421,-1.2207030057907104,80.0,252872.0,1.0
1125853.6841385,278391.0,247324.5625,283749.34375,262440.0625,262467.875,226885.59375,237843.21875,241545.5625,-0.101806640625,0.970703125,-0.133544921875,-0.8239745497703552,-3.173827886581421,-1.1291502714157104,80.0,252873.0,1.0
1125853.6841814,278350.84375,247350.765625,283659.375,262416.09375,262409.40625,226914.828125,237797.8125,241328.40625,-0.102783203125,0.96826171875,-0.131591796875,-0.7629393935203552,-3.326415777206421,-1.0986326932907104,80.0,252874.0,1.0
1125853.6978832,278446.78125,247355.59375,283813.15625,262500.15625,262504.1875,226923.6875,237843.140625,241494.421875,-0.101318359375,0.96728515625,-0.136474609375,-0.6103515028953552,-3.509521245956421,-1.1596678495407104,80.0,252875.0,1.0
1125853.6979263,278545.5,247331.546875,283995.28125,262575.625,262622.28125,226908.21875,237924.40625,241831.484375,-0.10205078125,0.967529296875,-0.1357421875,-0.4272460639476776,-3.631591558456421,-1.1901854276657104,80.0,252876.0,1.0
1125853.699863,278510.15625,247312.671875,283947.0,262536.0,262592.34375,226882.203125,237915.90625,241825.234375,-0.1015625,0.968017578125,-0.135986328125,-0.2136230319738388,-3.814697027206421,-1.0986326932907104,80.0,252877.0,1.0
1125853.7022618,278389.28125,247326.890625,283747.8125,262438.28125,262473.34375,226886.671875,237847.421875,241552.984375,-0.1015625,0.969970703125,-0.1328125,-0.1220703050494194,-4.028319835662842,-1.0681151151657104,80.0,252878.0,1.0
1125853.7060533,278345.5625,247347.359375,283651.6875,262408.96875,262409.9375,226902.9375,237795.390625,241327.421875,-0.1005859375,0.972900390625,-0.134521484375,-0.0610351525247097,-4.211425304412842,-1.0681151151657104,80.0,252879.0,1.0
1125853.7154303,278440.25,247355.765625,283806.625,262499.4375,262506.0625,226926.71875,237846.171875,241494.609375,-0.097900390625,0.97412109375,-0.13330078125,0.0915527269244194,-4.333495616912842,-0.9765624403953552,80.0,252880.0,1.0
1125853.7154733,278536.71875,247329.9375,283990.09375,262576.78125,262621.75,226910.890625,237925.03125,241829.25,-0.10009765625,0.975341796875,-0.1337890625,0.03051757626235485,-4.547118663787842,-0.8850097060203552,80.0,252881.0,1.0
1125853.7179875,278499.09375,247304.71875,283940.46875,262534.125,262586.34375,226877.1875,237910.375,241816.734375,-0.097900390625,0.97802734375,-0.13232421875,0.0610351525247097,-4.699706554412842,-0.7324218153953552,80.0,252882.0,1.0
1125853.7180323,278387.0625,247327.15625,283748.53125,262442.65625,262470.8125,226889.4375,237845.453125,241548.078125,-0.098876953125,0.9794921875,-0.132080078125,-0.1525878757238388,-4.821776866912842,-0.4577636420726776,80.0,252883.0,1.0
1125853.7359989,278342.4375,247344.6875,283650.625,262411.1875,262404.03125,226912.0625,237787.96875,241313.734375,-0.095947265625,0.9814453125,-0.133056640625,-0.1831054538488388,-4.882812023162842,-0.3051757514476776,80.0,252884.0,1.0
1125853.7415132,278437.75,247344.78125,283801.375,262494.53125,262493.0,226923.421875,237828.5625,241470.90625,-0.093505859375,0.982421875,-0.127197265625,-0.2441406100988388,-4.943847179412842,-0.1831054538488388,80.0,252885.0,1.0
1125853.7415632,278544.59375,247323.21875,283993.78125,262579.0,262616.75,226908.578125,237912.96875,241816.109375,-0.093505859375,0.981689453125,-0.129638671875,-0.3662109076976776,-4.913329601287842,0.03051757626235485,80.0,252886.0,1.0
1125853.7435418,278504.96875,247295.15625,283943.0625,262535.46875,262581.0625,226878.984375,237900.453125,241806.1875,-0.08984375,0.98095703125,-0.129150390625,-0.4577636420726776,-4.974364757537842,0.2441406100988388,80.0,252887.0,1.0
1125853.7460991,278382.5,247309.90625,283744.0625,262435.6875,262459.375,226876.203125,237828.296875,241531.0,-0.08740234375,0.984619140625,-0.128173828125,-0.5493163466453552,-4.882812023162842,0.4577636420726776,80.0,252888.0,1.0
1125853.7510084,278343.0625,247334.046875,283651.0625,262408.78125,262401.8125,226895.078125,237776.4375,241306.140625,-0.087158203125,0.9833984375,-0.129638671875,-0.6408690810203552,-4.852294445037842,0.5798339247703552,80.0,252889.0,1.0
1125853.7566315,278444.90625,247345.84375,283808.53125,262499.625,262501.125,226913.671875,237828.65625,241470.640625,-0.08544921875,0.98388671875,-0.13037109375,-0.9155272841453552,-4.882812023162842,0.7324218153953552,80.0,252890.0,1.0
1125853.7566747,278545.5,247325.8125,283993.9375,262575.25,262617.625,226900.796875,237912.515625,241810.75,-0.0859375,0.985107421875,-0.1298828125,-1.0070799589157104,-4.699706554412842,0.9460448622703552,80.0,252891.0,1.0
1125853.7583793,278513.84375,247308.46875,283952.46875,262537.875,262591.25,226883.1875,237908.5,241808.875,-0.08544921875,0.98388671875,-0.12841796875,-1.1291502714157104,-4.547118663787842,1.0375975370407104,80.0,252892.0,1.0
1125853.7827017,278394.46875,247322.25,283757.03125,262443.8125,262473.0625,226898.015625,237837.6875,241536.890625,-0.084716796875,0.984130859375,-0.12890625,-1.3427733182907104,-4.302978038787842,1.3427733182907104,80.0,252893.0,1.0
1125853.7827409,278344.78125,247341.109375,283655.71875,262410.9375,262406.1875,226913.046875,237774.109375,241300.6875,-0.084716796875,0.9833984375,-0.1279296875,-1.4343260526657104,-4.211425304412842,1.3732908964157104,80.0,252894.0,1.0
1125853.7827514,278442.59375,247355.5,283810.3125,262498.71875,262504.53125,226925.109375,237821.328125,241462.328125,-0.08251953125,0.98046875,-0.125732421875,-1.4648436307907104,-3.997802495956421,1.4038084745407104,80.0,252895.0,1.0
1125853.782763,278554.6875,247348.4375,284009.5,262584.1875,262632.75,226921.0,237911.796875,241811.734375,-0.083984375,0.980712890625,-0.127197265625,-1.5869139432907104,-3.784179449081421,1.3732908964157104,80.0,252896.0,1.0
1125853.7858097,278527.25,247332.4375,283969.90625,262550.125,262608.875,226899.453125,237909.390625,241814.859375,-0.08349609375,0.978515625,-0.129638671875,-1.6479490995407104,-3.662109136581421,1.2512205839157104,80.0,252897.0,1.0
1125853.7858433,278404.75,247346.921875,283770.53125,262452.75,262488.0,226909.375,237842.78125,241551.734375,-0.084228515625,0.978759765625,-0.13037109375,-1.6174315214157104,-3.479003667831421,1.0986326932907104,80.0,252898.0,1.0
1125853.7858549,278352.90625,247368.015625,283665.90625,262418.0,262417.1875,226925.921875,237783.328125,241318.75,-0.082275390625,0.979248046875,-0.1318359375,-1.5563963651657104,-3.265380620956421,1.1596678495407104,80.0,252899.0,1.0
1125853.7883969,278443.21875,247373.109375,283809.15625,262499.25,262503.5625,226934.59375,237830.0,241474.046875,-0.082275390625,0.9775390625,-0.127197265625,-1.5563963651657104,-3.082275152206421,1.0986326932907104,80.0,252900.0,1.0
1125853.7908989,278548.625,247353.625,284002.71875,262580.625,262628.625,226920.28125,237923.875,241822.015625,-0.082763671875,0.976806640625,-0.12646484375,-1.4953612089157104,-2.838134527206421,0.9155272841453552,80.0,252901.0,1.0
1125853.7996549,278514.46875,247327.078125,283959.625,262540.75,262600.65625,226894.09375,237914.75,241823.53125,-0.0810546875,0.975830078125,-0.1298828125,-1.2817381620407104,-2.502441167831421,0.7324218153953552,80.0,252902.0,1.0
1125853.8065015,278388.75,247332.703125,283756.84375,262439.25,262475.21875,226897.046875,237839.375,241554.328125,-0.08056640625,0.976318359375,-0.130126953125,-1.2512205839157104,-2.166747808456421,0.5798339247703552,80.0,252903.0,1.0
1125853.8065364,278335.65625,247345.671875,283650.96875,262404.03125,262402.53125,226915.375,237779.75,241321.875,-0.081298828125,0.975830078125,-0.130615234375,-1.0986326932907104,-2.014159917831421,0.3051757514476776,80.0,252904.0,1.0
1125853.8121302,278423.8125,247345.9375,283793.5,262484.0625,262486.65625,226924.21875,237818.28125,241469.03125,-0.081787109375,0.975830078125,-0.12890625,-0.9765624403953552,-1.8310545682907104,0.1831054538488388,80.0,252905.0,1.0
1125853.8214954,278537.0,247329.125,283989.9375,262570.5,262616.90625,226919.03125,237911.796875,241821.5625,-0.080810546875,0.97412109375,-0.128662109375,-0.8239745497703552,-1.5258787870407104,-0.0610351525247097,80.0,252906.0,1.0
1125853.8215308,278515.53125,247313.125,283959.625,262542.1875,262598.15625,226899.546875,237911.53125,241834.171875,-0.0810546875,0.974853515625,-0.12841796875,-0.7019042372703552,-1.3122557401657104,-0.1831054538488388,80.0,252907.0,1.0
1125853.8254107,278395.71875,247328.234375,283764.34375,262446.5,262479.3125,226906.34375,237840.359375,241565.0625,-0.082763671875,0.975341796875,-0.1318359375,-0.6103515028953552,-0.8850097060203552,-0.3051757514476776,80.0,252908.0,1.0
1125853.825444,278343.875,247349.953125,283657.34375,262411.1875,262410.9375,226917.0625,237781.796875,241330.359375,-0.0830078125,0.9736328125,-0.134033203125,-0.4882812201976776,-0.6408690810203552,-0.5187987685203552,80.0,252909.0,1.0
1125853.8365216,278436.6875,247357.640625,283805.3125,262496.75,262500.5,226925.296875,237824.453125,241479.40625,-0.083251953125,0.972412109375,-0.1318359375,-0.2441406100988388,-0.4882812201976776,-0.6713866591453552,80.0,252910.0,1.0
1125853.8365538,278546.8125,247335.921875,284002.09375,262578.46875,262624.59375,226917.15625,237916.1875,241824.34375,-0.0830078125,0.974609375,-0.129638671875,-0.0610351525247097,-0.2441406100988388,-0.7934569716453552,80.0,252911.0,1.0
1125853.8453238,278519.5625,247310.796875,283968.5625,262544.84375,262603.25,226895.78125,237916.8125,241834.0,-0.0849609375,0.974609375,-0.128662109375,0.03051757626235485,0.0,-0.8850097060203552,80.0,252912.0,1.0
1125853.8453571,278403.25,247324.03125,283776.0625,262452.9375,262489.15625,226909.5625,237854.578125,241574.265625,-0.0859375,0.9755859375,-0.127197265625,0.1220703050494194,0.2136230319738388,-1.0681151151657104,80.0,252913.0,1.0
1125853.8477687,278349.9375,247344.859375,283671.28125,262418.34375,262420.21875,226928.15625,237802.546875,241338.59375,-0.089111328125,0.976806640625,-0.130126953125,0.1831054538488388,0.4577636420726776,-1.1901854276657104,80.0,252914.0,1.0
1125853.8478011,278438.03125,247348.34375,283813.625,262499.0,262505.15625,226940.3125,237846.171875,241481.828125,-0.09375,0.97802734375,-0.1279296875,0.3662109076976776,0.4577636420726776,-1.3122557401657104,80.0,252915.0,1.0
1125853.8634225,278542.625,247327.34375,284006.8125,262580.4375,262629.34375,226934.234375,237938.0,241828.984375,-0.096435546875,0.978515625,-0.1298828125,0.4272460639476776,0.4882812201976776,-1.3732908964157104,80.0,252916.0,1.0
1125853.8664317,278518.3125,247306.328125,283974.09375,262550.5625,262612.8125,226918.140625,237941.3125,241840.34375,-0.1005859375,0.977783203125,-0.126708984375,0.3356933295726776,0.4882812201976776,-1.4648436307907104,80.0,252917.0,1.0
1125853.866452,278397.78125,247312.40625,283774.0,262450.09375,262491.65625,226918.9375,237871.125,241567.734375,-0.100830078125,0.9765625,-0.12744140625,0.3662109076976776,0.5187987685203552,-1.6174315214157104,80.0,252918.0,1.0
1125853.8689059,278350.84375,247333.0625,283668.59375,262415.65625,262421.5625,226928.234375,237817.75,241328.75,-0.101806640625,0.9736328125,-0.127197265625,0.3967284858226776,0.5493163466453552,-1.6479490995407104,80.0,252919.0,1.0
1125853.8689256,278446.25,247346.5625,283815.40625,262501.03125,262510.15625,226944.515625,237860.5625,241471.1875,-0.102783203125,0.97265625,-0.126953125,0.5493163466453552,0.4272460639476776,-1.7395018339157104,80.0,252920.0,1.0
1125853.877111,278553.09375,247327.078125,284010.40625,262584.71875,262635.59375,226935.75,237952.5625,241821.65625,-0.102783203125,0.973388671875,-0.1298828125,0.6103515028953552,0.1831054538488388,-1.7395018339157104,80.0,252921.0,1.0
1125853.8826611,278527.4375,247304.453125,283975.8125,262552.71875,262616.28125,226913.671875,237952.21875,241836.3125,-0.103271484375,0.97509765625,-0.1279296875,0.6408690810203552,0.0915527269244194,-1.5258787870407104,80.0,252922.0,1.0
1125853.8826812,278403.875,247312.765625,283773.1875,262449.09375,262491.125,226916.796875,237873.71875,241559.96875,-0.104736328125,0.97607421875,-0.12890625,0.7934569716453552,0.03051757626235485,-1.4343260526657104,80.0,252923.0,1.0
1125853.8871937,278351.46875,247336.546875,283664.75,262413.59375,262419.59375,226937.984375,237820.609375,241319.375,-0.1025390625,0.97900390625,-0.12841796875,0.7324218153953552,-0.1525878757238388,-1.2817381620407104,80.0,252924.0,1.0
1125853.8897073,278446.78125,247351.296875,283811.125,262500.59375,262510.15625,226956.765625,237866.5625,241459.015625,-0.10302734375,0.97705078125,-0.127197265625,0.8239745497703552,-0.3662109076976776,-1.0986326932907104,80.0,252925.0,1.0
1125853.8934573,278559.53125,247338.0625,284014.0625,262589.75,262644.0,226955.25,237971.25,241814.5,-0.10546875,0.977294921875,-0.126953125,0.6713866591453552,-0.4577636420726776,-0.7934569716453552,80.0,252926.0,1.0
1125853.9027447,278537.09375,247318.125,283986.625,262558.90625,262626.03125,226926.0,237974.46875,241834.171875,-0.107177734375,0.9755859375,-0.129150390625,0.6713866591453552,-0.6103515028953552,-0.5798339247703552,80.0,252927.0,1.0
1125853.9027792,278419.875,247333.0625,283790.53125,262461.625,262503.71875,226923.6875,237904.734375,241568.71875,-0.111572265625,0.9755859375,-0.12890625,0.6713866591453552,-0.8544921278953552,-0.4577636420726776,80.0,252928.0,1.0
1125853.9053261,278357.71875,247348.53125,283673.25,262418.96875,262422.53125,226936.28125,237843.9375,241318.03125,-0.113037109375,0.9755859375,-0.130615234375,0.7019042372703552,-1.1291502714157104,-0.3967284858226776,80.0,252929.0,1.0
1125853.9053575,278435.15625,247343.609375,283801.53125,262487.46875,262497.8125,226938.25,237875.140625,241445.25,-0.11328125,0.97412109375,-0.129150390625,0.7324218153953552,-1.4038084745407104,-0.2746581733226776,80.0,252930.0,1.0
1125853.9135238,278546.1875,247328.6875,284000.75,262573.03125,262625.59375,226935.578125,237963.296875,241798.40625,-0.115234375,0.97509765625,-0.126953125,0.8239745497703552,-1.6784666776657104,-0.2441406100988388,80.0,252931.0,1.0
1125853.9204289,278526.4375,247313.21875,283972.59375,262545.5625,262606.90625,226925.921875,237966.609375,241820.765625,-0.11474609375,0.97607421875,-0.12548828125,0.7629393935203552,-2.044677495956421,0.0,80.0,252932.0,1.0
1125853.9204723,278406.0,247336.734375,283774.90625,262447.40625,262487.8125,226935.125,237898.5625,241559.0625,-0.113525390625,0.974365234375,-0.125244140625,0.7019042372703552,-2.349853277206421,0.1525878757238388,80.0,252933.0,1.0
1125853.9223733,278345.3125,247362.75,283659.5625,262405.375,262411.71875,226947.015625,237836.78125,241314.625,-0.114501953125,0.973876953125,-0.1259765625,0.7324218153953552,-2.685546636581421,0.2441406100988388,80.0,252934.0,1.0
1125853.9360033,278432.125,247381.34375,283797.78125,262485.40625,262495.5,226959.71875,237877.734375,241450.171875,-0.1142578125,0.97412109375,-0.12744140625,0.6408690810203552,-2.899169683456421,0.3967284858226776,80.0,252935.0,1.0
1125853.9391304,278548.875,247368.375,284005.125,262576.9375,262631.75,226958.109375,237977.15625,241808.6875,-0.11181640625,0.974609375,-0.13037109375,0.6408690810203552,-3.143310308456421,0.4577636420726776,80.0,252936.0,1.0
1125853.9391742,278527.4375,247335.125,283979.09375,262551.1875,262616.46875,226934.671875,237980.015625,241833.015625,-0.1083984375,0.9765625,-0.134765625,0.6103515028953552,-3.417968511581421,0.7019042372703552,80.0,252937.0,1.0
1125853.9410131,278410.125,247343.171875,283787.25,262456.53125,262498.71875,226938.25,237912.25,241574.359375,-0.106201171875,0.9765625,-0.134521484375,0.6103515028953552,-3.662109136581421,0.6713866591453552,80.0,252938.0,1.0
1125853.9449188,278351.84375,247363.734375,283673.4375,262415.3125,262425.6875,226952.828125,237854.765625,241331.171875,-0.103515625,0.978759765625,-0.1318359375,0.6713866591453552,-3.784179449081421,0.9155272841453552,80.0,252939.0,1.0
1125853.9485531,278439.71875,247372.21875,283809.40625,262494.34375,262508.375,226966.0625,237890.703125,241461.4375,-0.10107421875,0.98046875,-0.13232421875,0.6408690810203552,-3.906249761581421,1.0681151151657104,80.0,252940.0,1.0
1125853.9804385,278552.46875,247352.8125,284007.8125,262580.09375,262634.8125,226958.015625,237981.09375,241814.765625,-0.098388671875,0.98046875,-0.13330078125,0.6408690810203552,-3.936767339706421,1.1596678495407104,80.0,252941.0,1.0
1125853.9804807,278532.34375,247329.3125,283980.1875,262550.84375,262619.96875,226932.890625,237987.4375,241842.40625,-0.098876953125,0.978759765625,-0.134765625,0.5493163466453552,-3.906249761581421,1.2817381620407104,80.0,252942.0,1.0
1125853.9848105,278407.1875,247335.125,283777.40625,262447.03125,262497.8125,226933.96875,237917.875,241577.75,-0.095703125,0.97998046875,-0.135009765625,0.3967284858226776,-3.936767339706421,1.2817381620407104,80.0,252943.0,1.0
1125853.9874228,278349.15625,247355.59375,283662.25,262406.375,262421.46875,226949.15625,237857.625,241330.546875,-0.09423828125,0.981201171875,-0.13427734375,0.4577636420726776,-3.814697027206421,1.2207030057907104,80.0,252944.0,1.0
1125853.9923014,278437.75,247363.8125,283797.6875,262484.5,262500.34375,226953.28125,237891.421875,241453.921875,-0.094482421875,0.981689453125,-0.1337890625,0.3967284858226776,-3.875732183456421,1.1901854276657104,80.0,252945.0,1.0
1125853.9947678,278554.0625,247346.46875,284002.0,262574.53125,262630.40625,226948.53125,237978.9375,241808.78125,-0.09375,0.981689453125,-0.13134765625,0.2136230319738388,-3.753661870956421,1.1901854276657104,80.0,252946.0,1.0
1125853.9973085,278532.78125,247319.734375,283976.0625,262544.5,262612.4375,226926.28125,237973.671875,241833.015625,-0.094970703125,0.980712890625,-0.130126953125,0.03051757626235485,-3.631591558456421,1.1596678495407104,80.0,252947.0,1.0
1125853.9999122,278418.34375,247334.578125,283786.53125,262451.4375,262499.625,226934.046875,237908.765625,241576.5,-0.0927734375,0.983642578125,-0.13232421875,-0.03051757626235485,-3.631591558456421,1.1291502714157104,80.0,252948.0,1.0
1125854.0048018,278361.3125,247353.453125,283673.875,262413.6875,262426.375,226953.546875,237852.34375,241330.546875,-0.090087890625,0.984130859375,-0.131591796875,-0.2441406100988388,-3.479003667831421,1.0681151151657104,80.0,252949.0,1.0
1125854.0072948,278443.65625,247354.15625,283804.125,262489.875,262503.90625,226968.65625,237887.296875,241450.171875,-0.087158203125,0.98486328125,-0.132080078125,-0.3356933295726776,-3.326415777206421,1.0681151151657104,80.0,252950.0,1.0
1125854.0104787,278545.5,247325.015625,283996.625,262568.46875,262626.84375,226959.984375,237967.046875,241796.265625,-0.0859375,0.983154296875,-0.13330078125,-0.3662109076976776,-3.143310308456421,1.0986326932907104,80.0,252951.0,1.0
1125854.0105216,278536.8125,247312.859375,283984.375,262552.09375,262624.0625,226951.671875,237981.890625,241839.09375,-0.084228515625,0.983642578125,-0.133544921875,-0.6713866591453552,-2.929687261581421,0.9155272841453552,80.0,252952.0,1.0
1125854.0123514,278422.8125,247329.03125,283796.34375,262462.40625,262510.875,226962.125,237919.046875,241587.328125,-0.0849609375,0.984619140625,-0.1328125,-0.7324218153953552,-2.746581792831421,0.9765624403953552,80.0,252953.0,1.0
1125854.0147893,278342.8125,247329.578125,283656.96875,262400.28125,262412.25,226956.3125,237833.484375,241317.578125,-0.082763671875,0.983154296875,-0.134033203125,-0.8544921278953552,-2.380370855331421,1.0375975370407104,80.0,252954.0,1.0
1125854.0173035,278430.5,247339.3125,283790.1875,262483.15625,262496.125,226969.09375,237875.59375,241447.75,-0.08251953125,0.980712890625,-0.133056640625,-1.0070799589157104,-2.136230230331421,1.0986326932907104,80.0,252955.0,1.0
1125854.0197957,278545.03125,247326.984375,283996.28125,262574.1875,262632.21875,226967.671875,237965.09375,241808.25,-0.08154296875,0.97900390625,-0.13134765625,-1.0681151151657104,-1.8005369901657104,1.1596678495407104,80.0,252956.0,1.0
1125854.022957,278528.0625,247308.921875,283977.75,262547.96875,262619.15625,226955.515625,237964.1875,241840.796875,-0.080078125,0.97900390625,-0.130615234375,-1.1596678495407104,-1.4038084745407104,1.2512205839157104,80.0,252957.0,1.0
1125854.023004,278406.0,247321.171875,283785.71875,262451.25,262500.34375,226959.984375,237896.0625,241581.328125,-0.07861328125,0.979248046875,-0.132080078125,-1.1901854276657104,-1.1291502714157104,1.1596678495407104,80.0,252958.0,1.0
1125854.0254697,278350.125,247348.53125,283674.125,262414.0625,262428.34375,226978.046875,237840.90625,241338.40625,-0.08056640625,0.97705078125,-0.132568359375,-1.1901854276657104,-0.7324218153953552,1.1901854276657104,80.0,252959.0,1.0
1125854.0255125,278438.71875,247357.734375,283806.0,262493.28125,262513.03125,226990.109375,237878.984375,241459.46875,-0.079345703125,0.974853515625,-0.133544921875,-1.1901854276657104,-0.4882812201976776,1.2207030057907104,80.0,252960.0,1.0
1125854.0385275,278554.875,247339.046875,284009.6875,262583.03125,262645.875,226993.515625,237972.421875,241817.1875,-0.080322265625,0.973388671875,-0.13720703125,-1.2512205839157104,-0.1220703050494194,1.3122557401657104,80.0,252961.0,1.0
1125854.0416036,278537.53125,247315.0,283991.09375,262557.0,262632.375,226974.90625,237982.078125,241852.953125,-0.08251953125,0.973876953125,-0.13525390625,-1.1596678495407104,0.1220703050494194,1.3427733182907104,80.0,252962.0,1.0
1125854.0416495,278415.5625,247319.921875,283794.65625,262454.71875,262510.6875,226974.90625,237916.09375,241591.875,-0.083740234375,0.972900390625,-0.133056640625,-1.0986326932907104,0.4272460639476776,1.3427733182907104,80.0,252963.0,1.0
1125854.0436757,278352.8125,247334.765625,283671.71875,262408.96875,262428.90625,226981.625,237851.71875,241339.21875,-0.084716796875,0.973876953125,-0.1357421875,-1.0375975370407104,0.7324218153953552,1.1901854276657104,80.0,252964.0,1.0
1125854.0497926,278436.59375,247340.75,283799.75,262486.28125,262507.65625,226991.625,237886.5,241453.296875,-0.08642578125,0.973876953125,-0.13330078125,-1.0070799589157104,0.8850097060203552,1.2817381620407104,80.0,252965.0,1.0
1125854.0559867,278548.0,247321.078125,284001.90625,262573.46875,262636.21875,226984.84375,237977.421875,241806.1875,-0.08740234375,0.9736328125,-0.132080078125,-0.9155272841453552,1.0681151151657104,1.2207030057907104,80.0,252966.0,1.0
1125854.0678676,278535.84375,247301.5,283989.65625,262552.8125,262628.4375,226955.59375,237990.75,241847.9375,-0.08935546875,0.973876953125,-0.1328125,-0.8544921278953552,1.2207030057907104,1.2512205839157104,80.0,252967.0,1.0
1125854.0679106,278414.78125,247309.453125,283796.4375,262454.46875,262512.59375,226956.40625,237926.734375,241594.296875,-0.08935546875,0.9755859375,-0.132080078125,-0.7324218153953552,1.3427733182907104,1.1596678495407104,80.0,252968.0,1.0
1125854.0699522,278355.3125,247335.203125,283679.5,262415.125,262439.90625,226984.5625,237869.78125,241347.703125,-0.091796875,0.975830078125,-0.132568359375,-0.7324218153953552,1.6174315214157104,1.1291502714157104,80.0,252969.0,1.0
1125854.0723022,278442.21875,247347.546875,283809.84375,262493.625,262519.09375,227003.96875,237905.453125,241459.921875,-0.09326171875,0.975830078125,-0.131591796875,-0.7934569716453552,1.7395018339157104,1.0375975370407104,80.0,252970.0,1.0
1125854.0798115,278554.34375,247327.875,284010.75,262579.53125,262644.09375,226989.484375,237993.25,241813.609375,-0.093505859375,0.973388671875,-0.130615234375,-0.7934569716453552,1.8615721464157104,1.0986326932907104,80.0,252971.0,1.0
1125854.0916305,278537.15625,247301.59375,283992.15625,262551.5625,262631.3125,226949.4375,237999.234375,241852.953125,-0.09326171875,0.9736328125,-0.13427734375,-0.7324218153953552,1.8310545682907104,0.9460448622703552,80.0,252972.0,1.0
1125854.0916739,278420.0625,247310.984375,283799.5625,262456.53125,262516.5,226945.9375,237940.59375,241601.71875,-0.09423828125,0.974365234375,-0.13427734375,-0.7019042372703552,1.8615721464157104,1.0681151151657104,80.0,252973.0,1.0
1125854.0936383,278360.0625,247334.140625,283680.65625,262420.3125,262445.625,226966.328125,237893.296875,241362.109375,-0.093994140625,0.975341796875,-0.13037109375,-0.5798339247703552,1.8005369901657104,0.9460448622703552,80.0,252974.0,1.0
1125854.0960544,278437.40625,247340.65625,283803.59375,262492.5625,262520.4375,226981.53125,237924.40625,241469.84375,-0.095458984375,0.975341796875,-0.129150390625,-0.5187987685203552,1.7395018339157104,0.9155272841453552,80.0,252975.0,1.0
1125854.0985522,278539.3125,247310.703125,283995.28125,262567.90625,262635.78125,226960.15625,238001.296875,241810.21875,-0.0966796875,0.97412109375,-0.130859375,-0.4577636420726776,1.7700194120407104,1.0070799589157104,80.0,252976.0,1.0
1125854.1010417,278530.71875,247289.34375,283985.71875,262548.25,262629.25,226933.96875,238012.65625,241856.703125,-0.096923828125,0.973876953125,-0.129638671875,-0.4882812201976776,1.6174315214157104,1.0070799589157104,80.0,252977.0,1.0
1125854.1036409,278417.28125,247302.84375,283796.8125,262455.1875,262517.59375,226938.96875,237958.5625,241612.984375,-0.09619140625,0.974365234375,-0.13134765625,-0.5187987685203552,1.5563963651657104,1.0986326932907104,80.0,252978.0,1.0
1125854.1078968,278348.34375,247320.1875,283667.875,262403.59375,262432.1875,226945.9375,237890.15625,241352.53125,-0.098876953125,0.972412109375,-0.131591796875,-0.6713866591453552,1.5258787870407104,1.2207030057907104,80.0,252979.0,1.0
1125854.1079399,278426.65625,247326.796875,283789.65625,262475.03125,262498.0,226952.46875,237909.125,241444.984375,-0.099853515625,0.974609375,-0.131103515625,-0.6408690810203552,1.2512205839157104,1.2817381620407104,80.0,252980.0,1.0
1125854.1160613,278547.8125,247318.046875,284001.8125,262570.78125,262633.1875,226949.609375,238008.625,241805.296875,-0.103515625,0.973876953125,-0.13037109375,-0.6103515028953552,1.0681151151657104,1.3122557401657104,80.0,252981.0,1.0
1125854.1190759,278536.625,247297.390625,283991.96875,262550.65625,262624.875,226922.078125,238015.515625,241852.5,-0.103271484375,0.974365234375,-0.12890625,-0.6713866591453552,1.0375975370407104,1.4038084745407104,80.0,252982.0,1.0
1125854.1191159,278419.25,247308.921875,283802.25,262453.84375,262507.3125,226924.75,237944.796875,241598.9375,-0.103271484375,0.973876953125,-0.129150390625,-0.6408690810203552,0.8544921278953552,1.5563963651657104,80.0,252983.0,1.0
1125854.124936,278350.65625,247330.46875,283678.25,262408.6875,262429.96875,226948.53125,237885.6875,241346.90625,-0.102294921875,0.975341796875,-0.13330078125,-0.5798339247703552,0.7934569716453552,1.5258787870407104,80.0,252984.0,1.0
1125854.1284951,278428.1875,247337.796875,283797.96875,262483.15625,262501.84375,226963.375,237913.59375,241448.5625,-0.10205078125,0.9736328125,-0.130615234375,-0.5187987685203552,0.4882812201976776,1.6174315214157104,80.0,252985.0,1.0
1125854.1428065,278538.25,247310.078125,283997.625,262569.4375,262627.03125,226952.921875,238000.21875,241800.109375,-0.101318359375,0.97265625,-0.131103515625,-0.4577636420726776,0.4272460639476776,1.6479490995407104,80.0,252986.0,1.0
1125854.1428543,278523.40625,247285.671875,283983.9375,262545.65625,262620.59375,226926.1875,238010.234375,241847.765625,-0.100830078125,0.974609375,-0.1328125,-0.4577636420726776,0.2441406100988388,1.6479490995407104,80.0,252987.0,1.0
1125854.1471786,278410.65625,247303.640625,283797.0625,262453.75,262511.3125,226934.5,237952.921875,241605.03125,-0.099365234375,0.9765625,-0.1279296875,-0.4272460639476776,0.0915527269244194,1.8310545682907104,80.0,252988.0,1.0
1125854.1472235,278345.46875,247326.0,283671.90625,262407.34375,262431.9375,226948.890625,237893.203125,241352.265625,-0.0986328125,0.97705078125,-0.126953125,-0.4272460639476776,-0.1220703050494194,1.8920897245407104,80.0,252989.0,1.0
1125854.147236,278426.125,247331.546875,283792.25,262478.5,262502.46875,226952.734375,237922.96875,241447.84375,-0.0986328125,0.978271484375,-0.13037109375,-0.4577636420726776,-0.2746581733226776,1.9531248807907104,80.0,252990.0,1.0
1125854.1499207,278542.625,247314.734375,283999.59375,262571.84375,262635.78125,226945.046875,238016.40625,241805.828125,-0.097412109375,0.977294921875,-0.133544921875,-0.3356933295726776,-0.4272460639476776,2.136230230331421,80.0,252991.0,1.0
1125854.1609431,278530.5625,247286.65625,283989.9375,262548.53125,262626.21875,226917.515625,238022.21875,241852.40625,-0.098876953125,0.9775390625,-0.131591796875,-0.3662109076976776,-0.6408690810203552,2.044677495956421,80.0,252992.0,1.0
1125854.1654367,278423.4375,247300.515625,283810.21875,262462.0625,262520.1875,226932.265625,237966.609375,241612.4375,-0.09716796875,0.97900390625,-0.131591796875,-0.3662109076976776,-0.7019042372703552,2.105712652206421,80.0,252993.0,1.0
1125854.1654809,278356.9375,247319.203125,283682.625,262415.40625,262437.9375,226953.1875,237905.8125,241357.453125,-0.0986328125,0.9814453125,-0.131591796875,-0.3662109076976776,-0.8239745497703552,2.014159917831421,80.0,252994.0,1.0
1125854.1791336,278435.5,247330.375,283800.90625,262489.4375,262509.53125,226967.578125,237932.8125,241451.953125,-0.09765625,0.981201171875,-0.1318359375,-0.3356933295726776,-1.0375975370407104,2.014159917831421,80.0,252995.0,1.0
1125854.1791765,278548.15625,247313.921875,284006.71875,262580.78125,262639.4375,226960.96875,238020.25,241805.75,-0.098388671875,0.98291015625,-0.1328125,-0.3662109076976776,-1.1901854276657104,1.9836424589157104,80.0,252996.0,1.0
1125854.1853289,278533.875,247288.265625,283996.625,262558.1875,262628.90625,226938.34375,238026.875,241857.15625,-0.100341796875,0.984375,-0.12939453125,-0.5493163466453552,-1.3122557401657104,1.9531248807907104,80.0,252997.0,1.0
1125854.1853725,278415.3125,247296.40625,283804.9375,262459.84375,262511.875,226949.703125,237962.40625,241609.9375,-0.100830078125,0.984619140625,-0.128173828125,-0.6713866591453552,-1.4343260526657104,1.8615721464157104,80.0,252998.0,1.0
1125854.1916661,278350.5,247320.640625,283679.25,262414.3125,262432.1875,226975.71875,237904.46875,241358.078125,-0.100341796875,0.982421875,-0.1259765625,-0.7324218153953552,-1.6479490995407104,1.7395018339157104,80.0,252999.0,1.0
1125854.1917119,278429.53125,247333.15625,283797.25,262488.53125,262504.96875,226994.3125,237941.125,241453.296875,-0.095458984375,0.978759765625,-0.12890625,-0.8239745497703552,-1.8615721464157104,1.5869139432907104,80.0,253000.0,1.0
1125854.1998105,278545.9375,247315.453125,284004.5,262580.78125,262641.6875,226989.3125,238032.40625,241810.390625,-0.092041015625,0.974853515625,-0.12744140625,-0.9460448622703552,-1.9531248807907104,1.5563963651657104,80.0,253001.0,1.0
1125854.2047549,278532.6875,247279.421875,283993.21875,262556.03125,262628.90625,226947.203125,238025.4375,241855.625,-0.089111328125,0.971435546875,-0.131103515625,-0.9460448622703552,-2.014159917831421,1.5869139432907104,80.0,253002.0,1.0
1125854.2047991,278424.6875,247295.15625,283810.21875,262465.8125,262521.15625,226951.40625,237968.578125,241614.234375,-0.0888671875,0.97314453125,-0.13427734375,-0.7629393935203552,-1.8615721464157104,1.4953612089157104,80.0,253003.0,1.0
1125854.2048112,278358.4375,247316.4375,283681.03125,262416.09375,262440.4375,226965.703125,237910.28125,241355.046875,-0.0859375,0.976318359375,-0.135498046875,-0.5493163466453552,-1.8615721464157104,1.4343260526657104,80.0,253004.0,1.0
1125854.2086652,278431.21875,247318.9375,283790.90625,262481.90625,262503.71875,226967.765625,237932.90625,241437.296875,-0.0849609375,0.97998046875,-0.130615234375,-0.4272460639476776,-1.7395018339157104,1.4648436307907104,80.0,253005.0,1.0
1125854.2148165,278550.3125,247302.390625,284000.28125,262576.15625,262640.15625,226957.484375,238025.796875,241795.375,-0.081787109375,0.980224609375,-0.1259765625,-0.4272460639476776,-1.7089842557907104,1.5869139432907104,80.0,253006.0,1.0
1125854.2241195,278539.40625,247275.390625,283994.03125,262556.375,262635.0625,226924.125,238037.859375,241853.671875,-0.079345703125,0.977294921875,-0.130859375,-0.6408690810203552,-1.5869139432907104,1.8005369901657104,80.0,253007.0,1.0
1125854.2241678,278421.03125,247284.0625,283806.1875,262461.0,262519.46875,226922.78125,237976.625,241610.828125,-0.075439453125,0.973876953125,-0.130126953125,-0.7019042372703552,-1.4953612089157104,1.8310545682907104,80.0,253008.0,1.0
1125854.2329065,278354.25,247312.59375,283679.78125,262415.65625,262441.0625,226944.0625,237919.484375,241359.328125,-0.076416015625,0.970703125,-0.13232421875,-0.6408690810203552,-1.1596678495407104,1.9836424589157104,80.0,253009.0,1.0
1125854.2329496,278432.75,247326.890625,283794.84375,262487.375,262508.5625,226958.640625,237947.65625,241444.1875,-0.078369140625,0.969482421875,-0.132080078125,-0.3662109076976776,-1.0681151151657104,1.9836424589157104,80.0,253010.0,1.0
1125854.2354918,278552.625,247317.0625,284003.96875,262582.125,262647.5,226957.5625,238043.671875,241804.21875,-0.083740234375,0.969482421875,-0.131591796875,-0.0915527269244194,-0.8850097060203552,1.8005369901657104,80.0,253011.0,1.0
1125854.235537,278542.28125,247287.734375,283997.4375,262564.34375,262645.09375,226930.296875,238051.1875,241862.515625,-0.087646484375,0.972900390625,-0.13330078125,0.03051757626235485,-0.7324218153953552,1.6174315214157104,80.0,253012.0,1.0
1125854.2422797,278425.78125,247295.328125,283809.59375,262467.96875,262530.5625,226943.171875,237986.90625,241617.1875,-0.091064453125,0.978759765625,-0.127685546875,0.03051757626235485,-0.7019042372703552,1.4343260526657104,80.0,253013.0,1.0
1125854.2742661,278356.9375,247318.671875,283677.96875,262415.46875,262443.90625,226968.203125,237923.421875,241357.8125,-0.094482421875,0.98046875,-0.1259765625,-0.2136230319738388,-0.6713866591453552,1.1291502714157104,80.0,253014.0,1.0
1125854.2743089,278429.53125,247328.953125,283789.21875,262482.625,262507.21875,226986.984375,237942.46875,241435.0625,-0.0927734375,0.977294921875,-0.125732421875,-0.2746581733226776,-0.7324218153953552,0.9460448622703552,80.0,253015.0,1.0
1125854.27432,278549.25,247316.4375,283999.84375,262573.1875,262641.3125,226985.734375,238029.640625,241785.53125,-0.0927734375,0.976806640625,-0.129638671875,-0.3967284858226776,-0.7019042372703552,0.7019042372703552,80.0,253016.0,1.0
1125854.2743294,278546.03125,247297.125,284000.90625,262558.4375,262640.96875,226954.796875,238043.59375,241850.625,-0.089599609375,0.976806640625,-0.12939453125,-0.4272460639476776,-0.7324218153953552,0.6408690810203552,80.0,253017.0,1.0
1125854.2743403,278434.0,247314.375,283817.625,262466.71875,262533.21875,226958.8125,237986.015625,241618.609375,-0.0888671875,0.97509765625,-0.132568359375,-0.3967284858226776,-0.8239745497703552,0.4272460639476776,80.0,253018.0,1.0
1125854.2759524,278362.90625,247336.90625,283686.03125,262417.8125,262454.03125,226980.90625,237926.546875,241364.703125,-0.092041015625,0.975830078125,-0.131103515625,-0.3356933295726776,-0.9155272841453552,0.2136230319738388,80.0,253019.0,1.0
1125854.2786672,278425.15625,247335.390625,283786.25,262476.625,262509.8125,226988.6875,237937.28125,241431.390625,-0.090576171875,0.977783203125,-0.12841796875,-0.2136230319738388,-0.9765624403953552,0.1220703050494194,80.0,253020.0,1.0
1125854.2810525,278540.9375,247318.21875,283994.84375,262569.625,262642.9375,226988.328125,238027.671875,241790.1875,-0.08935546875,0.977783203125,-0.1279296875,-0.3051757514476776,-0.9765624403953552,0.0,80.0,253021.0,1.0
1125854.2835288,278536.1875,247292.921875,283994.46875,262554.6875,262641.5,226960.34375,238044.5625,241857.234375,-0.091064453125,0.977294921875,-0.12646484375,-0.3967284858226776,-0.9155272841453552,-0.0610351525247097,80.0,253022.0,1.0
1125854.2884408,278428.1875,247302.84375,283811.8125,262464.9375,262530.28125,226967.578125,237988.59375,241619.6875,-0.089599609375,0.9765625,-0.12841796875,-0.4882812201976776,-0.9765624403953552,-0.1220703050494194,80.0,253023.0,1.0
1125854.2973785,278359.15625,247324.390625,283680.21875,262415.21875,262445.53125,226993.515625,237929.59375,241363.625,-0.08935546875,0.975830078125,-0.1298828125,-0.4577636420726776,-0.9460448622703552,-0.0610351525247097,80.0,253024.0,1.0
1125854.3029694,278437.5625,247339.859375,283794.40625,262487.375,262514.0,227020.0625,237960.171875,241442.75,-0.08935546875,0.974853515625,-0.1318359375,-0.3662109076976776,-1.0375975370407104,0.0,80.0,253025.0,1.0
1125854.303013,278556.46875,247328.046875,284007.34375,262582.3125,262651.15625,227024.890625,238056.28125,241799.578125,-0.087890625,0.97314453125,-0.130859375,-0.2441406100988388,-1.0986326932907104,0.1831054538488388,80.0,253026.0,1.0
1125854.3047783,278550.5,247299.796875,284010.75,262568.5625,262650.625,227002.984375,238070.59375,241869.40625,-0.0869140625,0.9775390625,-0.130126953125,-0.2136230319738388,-1.0986326932907104,0.2746581733226776,80.0,253027.0,1.0
1125854.3073132,278435.34375,247304.890625,283822.28125,262472.0625,262538.25,227005.671875,238006.125,241629.609375,-0.089111328125,0.978515625,-0.129638671875,-0.1831054538488388,-1.1596678495407104,0.1831054538488388,80.0,253028.0,1.0
1125854.3098879,278364.09375,247328.859375,283686.375,262419.15625,262453.40625,227028.5625,237945.953125,241371.765625,-0.087890625,0.9794921875,-0.130126953125,-0.2136230319738388,-1.0986326932907104,0.4577636420726776,80.0,253029.0,1.0
1125854.3147754,278434.875,247339.59375,283793.59375,262487.1875,262514.8125,227043.046875,237972.0625,241442.75,-0.0908203125,0.980224609375,-0.128662109375,-0.2136230319738388,-1.1596678495407104,0.6713866591453552,80.0,253030.0,1.0
1125854.3179162,278558.0,247331.1875,284009.40625,262586.4375,262655.71875,227046.4375,238070.40625,241806.015625,-0.092041015625,0.9814453125,-0.128173828125,-0.2441406100988388,-1.2512205839157104,0.7629393935203552,80.0,253031.0,1.0
1125854.3179587,278550.5,247302.3125,284009.59375,262566.84375,262652.5,227014.515625,238075.234375,241873.25,-0.09375,0.981201171875,-0.128662109375,-0.2441406100988388,-1.2512205839157104,0.7934569716453552,80.0,253032.0,1.0
1125854.3198838,278431.84375,247308.75,283818.53125,262468.21875,262534.75,227018.1875,238012.296875,241629.34375,-0.092529296875,0.979736328125,-0.128173828125,-0.3356933295726776,-1.3122557401657104,0.9460448622703552,80.0,253033.0,1.0
1125854.3285444,278360.25,247332.96875,283685.75,262420.125,262454.09375,227050.015625,237961.59375,241375.875,-0.09423828125,0.979736328125,-0.129638671875,-0.2746581733226776,-1.4343260526657104,0.9460448622703552,80.0,253034.0,1.0
1125854.3315391,278433.28125,247340.921875,283792.96875,262486.03125,262513.46875,227064.765625,237968.03125,241437.125,-0.095458984375,0.980224609375,-0.12744140625,-0.3051757514476776,-1.4343260526657104,0.9765624403953552,80.0,253035.0,1.0
1125854.3315709,278552.46875,247332.078125,284004.84375,262579.375,262646.59375,227049.03125,238050.03125,241785.453125,-0.091796875,0.976806640625,-0.128173828125,-0.2746581733226776,-1.6174315214157104,1.0070799589157104,80.0,253036.0,1.0
1125854.3472677,278550.40625,247306.5,284012.625,262567.375,262649.90625,227013.09375,238064.15625,241858.3125,-0.09375,0.97705078125,-0.128662109375,-0.3051757514476776,-1.6479490995407104,0.9460448622703552,80.0,253037.0,1.0
1125854.3503131,278444.09375,247318.75,283837.5,262482.0,262548.0625,227028.734375,238010.859375,241632.734375,-0.093505859375,0.978515625,-0.1298828125,-0.3662109076976776,-1.7089842557907104,0.9765624403953552,80.0,253038.0,1.0
1125854.3503631,278374.71875,247343.609375,283706.0625,262434.78125,262470.65625,227057.96875,237952.75,241379.890625,-0.093994140625,0.977294921875,-0.129638671875,-0.4272460639476776,-1.8005369901657104,0.7934569716453552,80.0,253039.0,1.0
1125854.3521932,278445.96875,247354.25,283809.40625,262502.125,262534.3125,227074.515625,237972.859375,241447.9375,-0.09326171875,0.977294921875,-0.129150390625,-0.3967284858226776,-1.8920897245407104,0.7324218153953552,80.0,253040.0,1.0
1125854.3548029,278565.4375,247338.515625,284020.0625,262596.875,262668.875,227072.015625,238059.140625,241802.078125,-0.093017578125,0.977294921875,-0.124267578125,-0.3662109076976776,-1.9226073026657104,0.6103515028953552,80.0,253041.0,1.0
1125854.3572619,278558.375,247308.5625,284022.1875,262577.75,262667.53125,227047.59375,238069.25,241873.25,-0.09326171875,0.97900390625,-0.12255859375,-0.5187987685203552,-1.9531248807907104,0.6103515028953552,80.0,253042.0,1.0
1125854.3685129,278438.03125,247311.15625,283832.65625,262477.96875,262551.28125,227052.703125,238003.078125,241634.4375,-0.091064453125,0.97705078125,-0.126220703125,-0.5493163466453552,-2.014159917831421,0.6408690810203552,80.0,253043.0,1.0
1125854.3717628,278359.96875,247328.859375,283692.03125,262422.1875,262464.46875,227076.390625,237939.96875,241374.796875,-0.0908203125,0.97705078125,-0.126953125,-0.5187987685203552,-2.014159917831421,0.6103515028953552,80.0,253044.0,1.0
1125854.3718063,278430.34375,247340.03125,283794.46875,262488.25,262521.4375,227096.234375,237959.359375,241437.65625,-0.091064453125,0.9775390625,-0.12890625,-0.6713866591453552,-2.044677495956421,0.3662109076976776,80.0,253045.0,1.0
1125854.3735612,278553.0,247329.3125,284008.53125,262586.4375,262658.125,227093.5625,238051.90625,241793.046875,-0.091552734375,0.97607421875,-0.130615234375,-0.5493163466453552,-2.136230230331421,0.4272460639476776,80.0,253046.0,1.0
1125854.3773176,278556.65625,247303.921875,284020.0625,262576.6875,262662.875,227068.703125,238068.359375,241875.921875,-0.0888671875,0.975830078125,-0.13037109375,-0.5798339247703552,-2.105712652206421,0.2746581733226776,80.0,253047.0,1.0
1125854.38601,278446.4375,247311.96875,283838.03125,262485.125,262552.53125,227068.796875,238006.484375,241644.625,-0.08935546875,0.9765625,-0.126708984375,-0.6103515028953552,-2.044677495956421,0.3356933295726776,80.0,253048.0,1.0
1125854.3892675,278374.4375,247335.390625,283701.6875,262433.28125,262467.78125,227084.890625,237945.421875,241385.890625,-0.09033203125,0.977294921875,-0.128173828125,-0.4882812201976776,-1.9836424589157104,0.2746581733226776,80.0,253049.0,1.0
1125854.3893112,278445.71875,247350.046875,283806.90625,262501.84375,262530.0,227098.5625,237963.203125,241447.40625,-0.08935546875,0.9775390625,-0.129150390625,-0.5798339247703552,-1.8615721464157104,0.2746581733226776,80.0,253050.0,1.0
1125854.3934326,278562.28125,247336.640625,284017.5625,262595.90625,262664.21875,227094.0,238048.6875,241796.984375,-0.087158203125,0.977294921875,-0.12890625,-0.6713866591453552,-1.8615721464157104,0.3051757514476776,80.0,253051.0,1.0
1125854.4010463,278556.46875,247307.671875,284023.71875,262579.0,262667.34375,227076.203125,238064.78125,241876.734375,-0.086181640625,0.977294921875,-0.127197265625,-0.7934569716453552,-1.7089842557907104,0.3662109076976776,80.0,253052.0,1.0
1125854.4041595,278435.6875,247309.8125,283834.8125,262479.3125,262551.125,227077.109375,238000.765625,241641.859375,-0.0869140625,0.9775390625,-0.12841796875,-0.7019042372703552,-1.6174315214157104,0.3662109076976776,80.0,253053.0,1.0
1125854.4042018,278354.875,247328.046875,283689.34375,262420.3125,262459.28125,227093.90625,237930.84375,241372.125,-0.08740234375,0.97802734375,-0.128173828125,-0.7629393935203552,-1.5869139432907104,0.3051757514476776,80.0,253054.0,1.0
1125854.4124227,278425.3125,247340.84375,283790.625,262486.65625,262517.125,227108.125,237951.59375,241428.09375,-0.0888671875,0.97705078125,-0.130859375,-0.7324218153953552,-1.5258787870407104,0.3356933295726776,80.0,253055.0,1.0
1125854.4154796,278552.46875,247331.453125,284007.0,262586.0625,262655.1875,227107.859375,238046.71875,241783.84375,-0.0859375,0.9755859375,-0.1298828125,-0.6408690810203552,-1.4343260526657104,0.3051757514476776,80.0,253056.0,1.0
1125854.4155226,278558.71875,247310.984375,284022.8125,262578.375,262664.5625,227087.65625,238071.484375,241871.28125,-0.086181640625,0.975341796875,-0.128173828125,-0.6408690810203552,-1.4343260526657104,0.2746581733226776,80.0,253057.0,1.0
1125854.4172825,278451.0625,247330.109375,283844.28125,262490.3125,262558.09375,227098.203125,238018.375,241646.6875,-0.08935546875,0.97607421875,-0.127197265625,-0.6713866591453552,-1.2817381620407104,0.3051757514476776,80.0,253058.0,1.0
1125854.4310364,278368.71875,247347.09375,283694.875,262430.0625,262462.96875,227110.09375,237945.421875,241376.5,-0.089111328125,0.975830078125,-0.126953125,-0.6713866591453552,-1.1901854276657104,0.3051757514476776,80.0,253059.0,1.0
1125854.4340538,278432.84375,247355.40625,283791.09375,262493.8125,262518.65625,227118.59375,237964.109375,241429.15625,-0.087890625,0.977294921875,-0.126220703125,-0.5798339247703552,-1.0681151151657104,0.3967284858226776,80.0,253060.0,1.0
1125854.434096,278553.34375,247344.234375,284005.9375,262590.8125,262656.0,227107.5,238058.34375,241783.21875,-0.088134765625,0.978515625,-0.126708984375,-0.5798339247703552,-1.0681151151657104,0.4272460639476776,80.0,253061.0,1.0
1125854.4359011,278552.625,247314.828125,284017.375,262575.875,262658.59375,227066.640625,238063.703125,241861.71875,-0.089599609375,0.976318359375,-0.12744140625,-0.6103515028953552,-1.0375975370407104,0.5493163466453552,80.0,253062.0,1.0
1125854.4396448,278434.71875,247316.078125,283831.21875,262478.25,262544.3125,227063.15625,237998.078125,241627.734375,-0.091552734375,0.978515625,-0.1259765625,-0.6103515028953552,-1.0375975370407104,0.4882812201976776,80.0,253063.0,1.0
1125854.4485138,278364.25,247342.8125,283691.125,262425.5,262460.09375,227089.265625,237943.359375,241370.953125,-0.092041015625,0.9794921875,-0.125244140625,-0.6103515028953552,-1.0070799589157104,0.5798339247703552,80.0,253064.0,1.0
1125854.4516075,278428.90625,247352.375,283783.46875,262484.15625,262510.78125,227099.453125,237956.6875,241419.59375,-0.092041015625,0.98095703125,-0.126220703125,-0.6103515028953552,-0.9155272841453552,0.4577636420726776,80.0,253065.0,1.0
1125854.45166,278553.53125,247343.515625,284002.71875,262583.5625,262648.21875,227096.0625,238046.625,241774.8125,-0.09130859375,0.984130859375,-0.12548828125,-0.5798339247703552,-0.9155272841453552,0.5798339247703552,80.0,253066.0,1.0
1125854.4673164,278560.78125,247323.3125,284024.0,262579.1875,262663.84375,227069.421875,238072.109375,241871.546875,-0.092041015625,0.9814453125,-0.125,-0.6713866591453552,-0.8850097060203552,0.6103515028953552,80.0,253067.0,1.0
1125854.4704955,278442.21875,247326.890625,283836.84375,262482.34375,262552.46875,227065.578125,238015.421875,241647.21875,-0.092041015625,0.980712890625,-0.1240234375,-0.8850097060203552,-0.7019042372703552,0.5798339247703552,80.0,253068.0,1.0
1125854.4705413,278365.5,247352.546875,283694.25,262427.90625,262465.28125,227091.671875,237953.015625,241383.828125,-0.092529296875,0.98046875,-0.1240234375,-0.9155272841453552,-0.7629393935203552,0.6103515028953552,80.0,253069.0,1.0
1125854.4723392,278438.5625,247371.5,283795.46875,262494.34375,262525.1875,227112.875,237972.328125,241435.15625,-0.092529296875,0.981689453125,-0.12744140625,-1.0375975370407104,-0.7629393935203552,0.5798339247703552,80.0,253070.0,1.0
1125854.4747317,278559.0,247359.890625,284010.5625,262590.0,262660.8125,227102.3125,238062.453125,241786.25,-0.093017578125,0.980224609375,-0.126953125,-1.0375975370407104,-0.7934569716453552,0.7019042372703552,80.0,253071.0,1.0
1125854.4773028,278556.84375,247326.09375,284020.84375,262576.3125,262664.125,227060.03125,238068.265625,241869.484375,-0.093505859375,0.975830078125,-0.12890625,-1.0681151151657104,-0.7324218153953552,0.7629393935203552,80.0,253072.0,1.0
1125854.4823301,278440.4375,247327.34375,283835.0625,262479.0625,262548.875,227048.21875,237995.9375,241638.375,-0.0927734375,0.976318359375,-0.129638671875,-0.8850097060203552,-0.6103515028953552,0.7324218153953552,80.0,253073.0,1.0
1125854.4849084,278361.5625,247347.453125,283689.96875,262422.09375,262459.03125,227066.5625,237932.546875,241373.453125,-0.091552734375,0.977294921875,-0.12890625,-0.8850097060203552,-0.5798339247703552,0.7934569716453552,80.0,253074.0,1.0
1125854.4911955,278426.03125,247359.078125,283783.3125,262483.53125,262511.78125,227079.78125,237952.296875,241419.859375,-0.09228515625,0.975830078125,-0.1259765625,-0.8850097060203552,-0.5798339247703552,0.7629393935203552,80.0,253075.0,1.0
1125854.4941518,278554.0625,247355.765625,284005.21875,262587.59375,262655.53125,227084.4375,238053.15625,241782.3125,-0.092529296875,0.9755859375,-0.127197265625,-0.8544921278953552,-0.6103515028953552,0.8544921278953552,80.0,253076.0,1.0
1125854.4941949,278559.0,247329.390625,284023.1875,262579.09375,262666.8125,227053.046875,238073.625,241875.484375,-0.091552734375,0.976318359375,-0.126953125,-0.7019042372703552,-0.5798339247703552,1.0070799589157104,80.0,253077.0,1.0
1125854.5035601,278446.34375,247333.859375,283841.6875,262483.15625,262554.15625,227051.0,238009.34375,241644.8125,-0.091552734375,0.975830078125,-0.1240234375,-0.6408690810203552,-0.6713866591453552,1.0070799589157104,80.0,253078.0,1.0
1125854.5090886,278364.96875,247355.5,283694.96875,262422.8125,262463.21875,227072.015625,237942.375,241375.34375,-0.094482421875,0.97607421875,-0.12451171875,-0.5798339247703552,-0.5798339247703552,0.9460448622703552,80.0,253079.0,1.0
1125854.5091311,278428.71875,247364.078125,283784.46875,262485.125,262513.84375,227089.796875,237958.296875,241418.609375,-0.0947265625,0.974609375,-0.12451171875,-0.5187987685203552,-0.6103515028953552,0.9460448622703552,80.0,253080.0,1.0
1125854.5112351,278557.1875,247355.953125,284003.59375,262587.5,262653.46875,227095.078125,238049.75,241776.421875,-0.093017578125,0.9755859375,-0.125,-0.3967284858226776,-0.6103515028953552,1.1291502714157104,80.0,253081.0,1.0
1125854.5148049,278563.625,247323.046875,284022.75,262577.03125,262662.875,227071.65625,238068.53125,241870.921875,-0.09326171875,0.975830078125,-0.125244140625,-0.3051757514476776,-0.6713866591453552,1.1291502714157104,80.0,253082.0,1.0
1125854.5310602,278455.4375,247329.125,283846.15625,262488.25,262556.21875,227079.25,238011.3125,241648.390625,-0.09326171875,0.977783203125,-0.12548828125,-0.3356933295726776,-0.7019042372703552,1.1596678495407104,80.0,253083.0,1.0
1125854.5340809,278370.53125,247346.296875,283695.40625,262428.0,262460.8125,227098.390625,237940.046875,241377.03125,-0.09423828125,0.9765625,-0.122802734375,-0.3051757514476776,-0.7324218153953552,1.1901854276657104,80.0,253084.0,1.0
1125854.5341308,278428.4375,247354.875,283782.9375,262485.125,262509.90625,227106.15625,237950.875,241414.9375,-0.09326171875,0.977294921875,-0.12646484375,-0.1831054538488388,-0.6713866591453552,1.2512205839157104,80.0,253085.0,1.0
1125854.5361912,278553.8125,247347.8125,284002.96875,262586.78125,262650.34375,227103.390625,238046.0,241770.609375,-0.093017578125,0.977294921875,-0.1240234375,-0.2441406100988388,-0.6408690810203552,1.2207030057907104,80.0,253086.0,1.0
1125854.5410779,278563.1875,247326.265625,284026.3125,262584.09375,262664.40625,227072.359375,238070.765625,241874.59375,-0.09228515625,0.97900390625,-0.123779296875,-0.0915527269244194,-0.7324218153953552,1.1901854276657104,80.0,253087.0,1.0
1125854.5435859,278447.75,247330.296875,283842.75,262487.46875,262554.15625,227062.984375,238010.140625,241650.71875,-0.092529296875,0.979736328125,-0.126708984375,-0.03051757626235485,-0.8239745497703552,1.1596678495407104,80.0,253088.0,1.0
1125854.5460588,278360.78125,247352.8125,283692.03125,262425.9375,262461.25,227078.53125,237942.375,241384.453125,-0.09326171875,0.978759765625,-0.126708984375,0.0,-0.7629393935203552,1.2207030057907104,80.0,253089.0,1.0
1125854.5505521,278423.09375,247364.796875,283780.34375,262485.9375,262513.65625,227091.765625,237958.296875,241421.46875,-0.09130859375,0.978515625,-0.1259765625,-0.03051757626235485,-0.7324218153953552,1.1901854276657104,80.0,253090.0,1.0
1125854.5505965,278556.5625,247360.59375,284007.1875,262593.3125,262661.0,227090.6875,238056.28125,241779.640625,-0.0908203125,0.9794921875,-0.12353515625,-0.03051757626235485,-0.7019042372703552,1.3122557401657104,80.0,253091.0,1.0
1125854.5610883,278570.4375,247337.890625,284037.3125,262592.15625,262678.6875,227057.703125,238074.609375,241882.71875,-0.091064453125,0.979248046875,-0.123291015625,-0.1525878757238388,-0.7019042372703552,1.2817381620407104,80.0,253092.0,1.0
1125854.5641545,278458.59375,247343.171875,283858.5,262497.125,262571.5,227059.40625,238019.265625,241663.046875,-0.090576171875,0.980224609375,-0.125244140625,-0.1525878757238388,-0.7629393935203552,1.3732908964157104,80.0,253093.0,1.0
1125854.5641977,278372.5625,247366.671875,283706.0625,262435.40625,262478.25,227078.71875,237961.421875,241398.5,-0.089599609375,0.97802734375,-0.12744140625,-0.1525878757238388,-0.7324218153953552,1.4038084745407104,80.0,253094.0,1.0
1125854.5697685,278432.46875,247378.5625,283789.84375,262494.0625,262528.03125,227087.125,237980.28125,241434.078125,-0.0888671875,0.97802734375,-0.12841796875,-0.0610351525247097,-0.6713866591453552,1.2817381620407104,80.0,253095.0,1.0
1125854.5728645,278549.34375,247358.546875,283997.875,262585.90625,262658.84375,227076.390625,238067.09375,241776.234375,-0.088134765625,0.978759765625,-0.128173828125,-0.1220703050494194,-0.7019042372703552,1.2817381620407104,80.0,253096.0,1.0
1125854.5729166,278555.59375,247326.984375,284020.21875,262578.75,262669.75,227041.25,238087.390625,241877.453125,-0.088134765625,0.97607421875,-0.12744140625,-0.0915527269244194,-0.6713866591453552,1.2817381620407104,80.0,253097.0,1.0
1125854.584787,278445.34375,247332.796875,283843.9375,262489.15625,262563.625,227037.859375,238031.875,241660.359375,-0.087890625,0.977294921875,-0.12841796875,-0.0915527269244194,-0.5187987685203552,1.3122557401657104,80.0,253098.0,1.0
1125854.5891237,278358.34375,247351.03125,283689.59375,262428.1875,262467.34375,227050.109375,237962.3125,241389.109375,-0.088134765625,0.978515625,-0.1279296875,-0.1220703050494194,-0.4272460639476776,1.3122557401657104,80.0,253099.0,1.0
1125854.5891665,278414.9375,247354.25,283766.59375,262476.5625,262504.34375,227057.53125,237967.765625,241413.6875,-0.086669921875,0.978271484375,-0.128662109375,-0.1220703050494194,-0.4272460639476776,1.3427733182907104,80.0,253100.0,1.0
1125854.6203838,278538.875,247339.59375,283983.03125,262572.5625,262637.65625,227059.671875,238056.734375,241761.578125,-0.0849609375,0.97998046875,-0.123779296875,-0.0915527269244194,-0.4577636420726776,1.3732908964157104,80.0,253101.0,1.0
1125854.6204227,278559.25,247322.15625,284023.28125,262577.65625,262663.3125,227044.203125,238088.734375,241875.296875,-0.087646484375,0.97900390625,-0.125732421875,-0.1525878757238388,-0.3967284858226776,1.4038084745407104,80.0,253102.0,1.0
1125854.6228621,278455.1875,247338.34375,283856.4375,262492.28125,262564.0,227045.1875,238035.265625,241657.328125,-0.08837890625,0.978271484375,-0.126953125,-0.1525878757238388,-0.3356933295726776,1.3427733182907104,80.0,253103.0,1.0
1125854.6228928,278369.625,247362.03125,283703.03125,262430.5,262469.75,227058.78125,237971.34375,241385.0,-0.08837890625,0.976806640625,-0.1279296875,0.0,-0.3356933295726776,1.3427733182907104,80.0,253104.0,1.0
1125854.6258778,278426.125,247365.6875,283776.34375,262480.65625,262507.75,227061.90625,237977.6875,241403.859375,-0.0888671875,0.977294921875,-0.1279296875,0.0,-0.3356933295726776,1.3427733182907104,80.0,253105.0,1.0
1125854.6259089,278553.09375,247355.859375,283995.1875,262584.0,262647.40625,227058.78125,238071.65625,241757.375,-0.087646484375,0.977294921875,-0.12841796875,0.1220703050494194,-0.2746581733226776,1.3732908964157104,80.0,253106.0,1.0
1125854.6259199,278559.96875,247329.3125,284023.53125,262581.0625,262662.78125,227029.1875,238094.734375,241866.09375,-0.087158203125,0.97607421875,-0.12841796875,0.1525878757238388,-0.2136230319738388,1.3427733182907104,80.0,253107.0,1.0
1125854.6335234,278455.4375,247338.421875,283854.03125,262494.59375,262561.40625,227036.78125,238044.84375,241655.1875,-0.0849609375,0.97705078125,-0.13037109375,0.1831054538488388,-0.3051757514476776,1.2817381620407104,80.0,253108.0,1.0
1125854.6335715,278369.625,247357.46875,283699.0,262428.0,262463.59375,227057.4375,237977.0625,241383.109375,-0.086669921875,0.978271484375,-0.13232421875,0.2441406100988388,-0.1831054538488388,1.1901854276657104,80.0,253109.0,1.0
1125854.6335846,278425.21875,247362.125,283772.65625,262476.90625,262501.3125,227065.484375,237982.34375,241398.140625,-0.088623046875,0.97802734375,-0.1298828125,0.2136230319738388,-0.2136230319738388,1.2512205839157104,80.0,253110.0,1.0
1125854.636323,278548.09375,247350.578125,283988.21875,262575.4375,262638.03125,227062.984375,238074.078125,241746.46875,-0.087890625,0.977294921875,-0.12841796875,0.3051757514476776,-0.1220703050494194,1.2512205839157104,80.0,253111.0,1.0
1125854.6389204,278560.25,247323.40625,284021.9375,262576.40625,262661.875,227036.78125,238102.78125,241862.15625,-0.08984375,0.979736328125,-0.125244140625,0.2746581733226776,-0.0610351525247097,1.1901854276657104,80.0,253112.0,1.0
1125854.6412716,278455.375,247334.765625,283853.21875,262492.5625,262566.03125,227041.15625,238056.640625,241660.453125,-0.09033203125,0.97802734375,-0.126953125,0.2136230319738388,-0.0915527269244194,1.2207030057907104,80.0,253113.0,1.0
1125854.6434332,278370.6875,247359.703125,283700.78125,262431.9375,262474.65625,227066.109375,237995.21875,241393.125,-0.08935546875,0.97802734375,-0.12646484375,0.0610351525247097,-0.1220703050494194,1.2207030057907104,80.0,253114.0,1.0
