Time,FZ,C3,CZ,C4,PZ,PO7,OZ,PO8,AccX,AccY,AccZ,Gyro1,Gyro2,Gyro3,Battery,Counter,Validation
1126028.7025606,277869.5625,245428.15625,283409.5,259863.890625,262417.90625,232554.890625,237598.875,240996.34375,-0.053466796875,0.966796875,-0.265625,-14.068602561950684,-0.2441406100988388,-2.105712652206421,80.0,296681.0,1.0
1126028.7062821,277934.03125,245406.25,283538.15625,259927.015625,262514.1875,232543.359375,237677.375,241302.5625,-0.05712890625,0.962158203125,-0.26123046875,-14.801024436950684,-0.8239745497703552,-2.288818120956421,80.0,296682.0,1.0
1126028.7063258,277905.96875,245395.171875,283492.8125,259889.828125,262484.40625,232524.671875,237670.3125,241284.046875,-0.058349609375,0.957275390625,-0.253173828125,-15.472411155700684,-1.4343260526657104,-2.563476324081421,80.0,296683.0,1.0
1126028.706338,277833.34375,245424.3125,283354.0625,259810.96875,262384.8125,232533.078125,237603.890625,241035.140625,-0.057861328125,0.95556640625,-0.248291015625,-16.265867233276367,-2.105712652206421,-2.868652105331421,80.0,296684.0,1.0
1126028.7106958,277815.3125,245447.828125,283296.125,259792.8125,262338.9375,232547.65625,237553.375,240835.40625,-0.055419921875,0.95068359375,-0.24951171875,-17.150876998901367,-2.807616949081421,-3.112792730331421,80.0,296685.0,1.0
1126028.7108496,277887.4375,245449.25,283420.5,259873.375,262428.53125,232567.59375,237609.421875,241014.671875,-0.052490234375,0.9423828125,-0.25390625,-17.517087936401367,-3.387450933456421,-3.234863042831421,80.0,296686.0,1.0
1126028.7108672,277950.125,245417.515625,283545.3125,259932.109375,262520.28125,232556.59375,237685.875,241321.78125,-0.050048828125,0.935302734375,-0.25927734375,-17.639158248901367,-3.997802495956421,-3.417968511581421,80.0,296687.0,1.0
1126028.7108798,277919.5625,245390.78125,283495.9375,259890.546875,262483.15625,232532.0,237670.21875,241296.5625,-0.042724609375,0.927001953125,-0.263671875,-17.456052780151367,-4.577636241912842,-3.601073980331421,80.0,296688.0,1.0
1126028.7124989,277857.5,245426.90625,283371.21875,259825.0,262399.21875,232553.640625,237618.09375,241062.59375,-0.036376953125,0.922119140625,-0.263916015625,-17.059324264526367,-5.096435070037842,-3.631591558456421,80.0,296689.0,1.0
1126028.7150907,277841.125,245449.078125,283318.125,259811.859375,262359.5,232573.40625,237576.703125,240870.359375,-0.026123046875,0.918701171875,-0.262451171875,-16.601560592651367,-5.554198741912842,-3.570556402206421,80.0,296690.0,1.0
1126028.7238019,277899.15625,245430.125,283428.53125,259878.296875,262436.40625,232577.6875,237615.234375,241031.03125,-0.01708984375,0.917236328125,-0.26171875,-16.174314498901367,-5.920409679412842,-3.356933355331421,80.0,296691.0,1.0
1126028.7358111,277959.875,245402.859375,283554.4375,259938.46875,262530.71875,232569.375,237693.203125,241339.21875,-0.010009765625,0.913818359375,-0.259033203125,-15.686034202575684,-6.103515148162842,-2.990722417831421,80.0,296692.0,1.0
1126028.7358557,277931.53125,245393.015625,283511.5,259906.28125,262500.5,232551.578125,237690.421875,241326.34375,-0.000732421875,0.91064453125,-0.258544921875,-15.289305686950684,-6.164550304412842,-2.532958745956421,80.0,296693.0,1.0
1126028.7381861,277855.0,245428.609375,283376.59375,259829.46875,262406.53125,232561.859375,237627.046875,241082.4375,0.00048828125,0.909912109375,-0.25390625,-14.709471702575684,-6.256103038787842,-2.014159917831421,80.0,296694.0,1.0
1126028.7382291,277833.53125,245459.359375,283319.625,259811.234375,262361.125,232580.28125,237580.453125,240883.515625,0.0,0.907958984375,-0.25439453125,-14.221190452575684,-6.256103038787842,-1.4038084745407104,80.0,296695.0,1.0
1126028.7469332,277904.34375,245454.890625,283438.5625,259887.234375,262445.34375,232591.734375,237629.546875,241052.3125,-0.005859375,0.906982421875,-0.252197265625,-13.793944358825684,-6.286620616912842,-1.1901854276657104,80.0,296696.0,1.0
1126028.7469782,277969.4375,245426.09375,283567.84375,259951.96875,262545.21875,232585.296875,237713.765625,241370.328125,-0.01171875,0.910888671875,-0.24951171875,-13.244627952575684,-6.317138195037842,-1.0375975370407104,80.0,296697.0,1.0
1126028.7556348,277941.625,245412.421875,283524.5625,259918.34375,262518.125,232570.53125,237710.90625,241360.234375,-0.02099609375,0.9169921875,-0.246826171875,-12.542723655700684,-6.652831554412842,-0.7324218153953552,80.0,296698.0,1.0
1126028.7556779,277857.5,245435.75,283379.09375,259834.484375,262415.84375,232572.6875,237642.78125,241110.875,-0.03076171875,0.924560546875,-0.2412109375,-12.145995140075684,-7.110595226287842,-0.6713866591453552,80.0,296699.0,1.0
1126028.7582708,277833.34375,245461.421875,283318.375,259810.96875,262369.09375,232586.453125,237597.09375,240911.40625,-0.038818359375,0.931884765625,-0.24072265625,-11.962889671325684,-7.690429210662842,-0.5493163466453552,80.0,296700.0,1.0
1126028.7583153,277898.90625,245455.78125,283437.21875,259885.53125,262456.15625,232603.171875,237648.859375,241076.625,-0.0439453125,0.935791015625,-0.239013671875,-11.688231468200684,-8.300780296325684,-0.7019042372703552,80.0,296701.0,1.0
1126028.7688465,277951.1875,245413.046875,283558.625,259940.609375,262547.71875,232593.875,237728.15625,241384.90625,-0.050537109375,0.94091796875,-0.239013671875,-11.566161155700684,-8.911131858825684,-0.6408690810203552,80.0,296702.0,1.0
1126028.7719143,277916.34375,245392.578125,283512.125,259903.765625,262514.375,232573.21875,237721.8125,241370.0625,-0.05517578125,0.946044921875,-0.24072265625,-11.383055686950684,-9.857176780700684,-1.0681151151657104,80.0,296703.0,1.0
1126028.7719577,277840.78125,245424.9375,283377.5625,259832.15625,262423.4375,232590.296875,237664.671875,241135.640625,-0.0595703125,0.948974609375,-0.236083984375,-11.230467796325684,-10.559081077575684,-1.5869139432907104,80.0,296704.0,1.0
1126028.7738067,277811.71875,245446.9375,283312.75,259807.65625,262375.78125,232605.671875,237612.015625,240934.03125,-0.061279296875,0.95166015625,-0.23974609375,-11.138915061950684,-11.352538108825684,-2.075195074081421,80.0,296705.0,1.0
1126028.7876649,277874.5,245436.828125,283422.1875,259875.4375,262452.6875,232608.0,237651.71875,241087.09375,-0.064697265625,0.956298828125,-0.237548828125,-11.047362327575684,-12.268065452575684,-2.563476324081421,80.0,296706.0,1.0
1126028.7900887,277939.3125,245405.09375,283549.59375,259935.6875,262545.40625,232595.296875,237731.28125,241393.84375,-0.064208984375,0.96142578125,-0.234130859375,-11.108397483825684,-13.092040061950684,-2.899169683456421,80.0,296707.0,1.0
1126028.7926242,277913.375,245391.140625,283510.6875,259903.234375,262516.59375,232576.796875,237726.28125,241383.03125,-0.06298828125,0.961669921875,-0.2333984375,-11.291502952575684,-13.946532249450684,-3.448486089706421,80.0,296708.0,1.0
1126028.7950264,277842.125,245423.78125,283380.15625,259834.578125,262428.34375,232590.5625,237664.671875,241147.265625,-0.063232421875,0.959228515625,-0.23388671875,-11.352538108825684,-14.801024436950684,-3.906249761581421,80.0,296709.0,1.0
1126028.8039506,277809.65625,245443.09375,283312.84375,259806.59375,262377.125,232601.828125,237611.921875,240942.78125,-0.060546875,0.958984375,-0.23681640625,-11.413573265075684,-15.380858421325684,-4.364013195037842,80.0,296710.0,1.0
1126028.8068916,277869.5625,245427.890625,283422.71875,259872.75,262451.875,232606.921875,237651.984375,241093.4375,-0.059326171875,0.958984375,-0.2353515625,-11.444090843200684,-15.930174827575684,-4.821776866912842,80.0,296711.0,1.0
1126028.806934,277932.25,245394.71875,283551.46875,259932.03125,262546.90625,232595.65625,237728.96875,241397.15625,-0.055908203125,0.9580078125,-0.235595703125,-11.444090843200684,-16.479490280151367,-5.249022960662842,80.0,296712.0,1.0
1126028.8088439,277903.53125,245385.15625,283511.34375,259899.390625,262519.28125,232575.71875,237723.15625,241385.984375,-0.054443359375,0.955810546875,-0.2353515625,-11.535643577575684,-16.967771530151367,-5.584716320037842,80.0,296713.0,1.0
1126028.8231931,277826.90625,245422.875,283374.53125,259826.796875,262428.1875,232588.59375,237661.734375,241152.0,-0.051025390625,0.951171875,-0.23486328125,-11.657713890075684,-17.303464889526367,-5.950927257537842,80.0,296714.0,1.0
1126028.8232359,277795.0,245450.59375,283303.09375,259799.53125,262375.34375,232604.0625,237608.890625,240949.484375,-0.047607421875,0.948974609375,-0.230224609375,-11.627196311950684,-17.547605514526367,-6.439208507537842,80.0,296715.0,1.0
1126028.8363837,277860.53125,245443.4375,283413.4375,259867.296875,262450.4375,232611.84375,237646.703125,241094.78125,-0.0439453125,0.94873046875,-0.230712890625,-11.627196311950684,-17.639158248901367,-6.591796398162842,80.0,296716.0,1.0
1126028.8364279,277931.53125,245407.6875,283546.5625,259930.0625,262543.96875,232598.171875,237722.53125,241394.109375,-0.043701171875,0.946044921875,-0.23291015625,-11.566161155700684,-17.639158248901367,-7.019042491912842,80.0,296717.0,1.0
1126028.8364405,277904.625,245386.046875,283507.46875,259896.53125,262512.21875,232577.421875,237717.96875,241381.6875,-0.040771484375,0.944091796875,-0.23046875,-11.596678733825684,-17.486570358276367,-7.263183116912842,80.0,296718.0,1.0
1126028.8388567,277827.625,245415.453125,283369.875,259819.546875,262423.25,232588.59375,237658.953125,241148.25,-0.038330078125,0.94287109375,-0.226806640625,-11.474608421325684,-17.272947311401367,-7.324218273162842,80.0,296719.0,1.0
1126028.8413555,277801.0,245436.109375,283305.25,259797.203125,262373.71875,232600.84375,237608.796875,240945.296875,-0.03857421875,0.943115234375,-0.22509765625,-11.383055686950684,-17.028806686401367,-7.507323741912842,80.0,296720.0,1.0
1126028.8437927,277869.125,245422.25,283418.78125,259867.5625,262447.59375,232603.625,237647.421875,241087.09375,-0.041259765625,0.939697265625,-0.22021484375,-11.291502952575684,-16.632078170776367,-7.690429210662842,80.0,296721.0,1.0
1126028.84651,277937.96875,245392.484375,283551.75,259930.5,262538.96875,232584.390625,237720.109375,241385.53125,-0.0419921875,0.943359375,-0.220458984375,-11.413573265075684,-16.265867233276367,-7.720946788787842,80.0,296722.0,1.0
1126028.8500869,277913.125,245377.015625,283514.90625,259901.53125,262514.0,232562.84375,237714.84375,241375.25,-0.041259765625,0.9462890625,-0.216796875,-11.444090843200684,-15.808104515075684,-7.690429210662842,80.0,296723.0,1.0
1126028.8592803,277829.0625,245394.53125,283373.8125,259822.5,262423.625,232573.40625,237652.875,241136.4375,-0.0380859375,0.94677734375,-0.21337890625,-11.596678733825684,-15.350340843200684,-7.690429210662842,80.0,296724.0,1.0
1126028.8593183,277799.90625,245408.125,283306.59375,259798.625,262374.53125,232591.28125,237604.15625,240935.09375,-0.032470703125,0.9453125,-0.21044921875,-11.871336936950684,-14.801024436950684,-7.476806163787842,80.0,296725.0,1.0
1126028.8655359,277862.5,245393.828125,283412.8125,259861.75,262442.46875,232593.875,237637.671875,241073.234375,-0.03125,0.945068359375,-0.20849609375,-12.023924827575684,-14.251708030700684,-7.232665538787842,80.0,296726.0,1.0
1126028.865568,277939.9375,245370.578125,283555.75,259934.171875,262546.90625,232593.875,237728.6875,241388.03125,-0.025390625,0.94677734375,-0.207763671875,-12.329100608825684,-13.641356468200684,-6.896972179412842,80.0,296727.0,1.0
1126028.8675808,277910.875,245348.859375,283517.21875,259901.984375,262523.75,232578.578125,237731.203125,241389.203125,-0.0224609375,0.9501953125,-0.207763671875,-12.390135765075684,-12.847899436950684,-6.530761241912842,80.0,296728.0,1.0
1126028.8794038,277819.15625,245377.109375,283366.125,259814.09375,262423.71875,232584.671875,237659.859375,241146.90625,-0.020751953125,0.955078125,-0.205810546875,-12.542723655700684,-11.993407249450684,-6.164550304412842,80.0,296729.0,1.0
1126028.8794538,277791.34375,245397.484375,283298.28125,259792.109375,262375.4375,232603.265625,237612.28125,240948.78125,-0.021240234375,0.958984375,-0.2060546875,-12.664793968200684,-11.596678733825684,-5.859374523162842,80.0,296730.0,1.0
1126028.8813975,277858.75,245384.703125,283411.71875,259860.140625,262451.59375,232610.953125,237651.09375,241092.09375,-0.022705078125,0.96484375,-0.20947265625,-13.000487327575684,-10.742186546325684,-5.371093273162842,80.0,296731.0,1.0
1126028.8850971,277931.25,245364.3125,283548.96875,259924.6875,262548.625,232600.578125,237730.9375,241399.125,-0.02294921875,0.96826171875,-0.207275390625,-13.488768577575684,-9.857176780700684,-4.638671398162842,80.0,296732.0,1.0
1126028.8920589,277903.53125,245358.78125,283511.78125,259894.296875,262521.78125,232579.203125,237723.6875,241394.5625,-0.021484375,0.970703125,-0.208251953125,-13.977049827575684,-9.094237327575684,-3.967284917831421,80.0,296733.0,1.0
1126028.8921024,277817.625,245396.5,283371.5,259818.828125,262427.90625,232595.21875,237660.828125,241159.953125,-0.020263671875,0.9697265625,-0.20654296875,-14.404295921325684,-8.178709983825684,-3.387450933456421,80.0,296734.0,1.0
1126028.8975592,277785.96875,245424.84375,283302.03125,259795.40625,262375.15625,232609.609375,237609.6875,240957.265625,-0.022705078125,0.969970703125,-0.20703125,-14.709471702575684,-7.232665538787842,-2.929687261581421,80.0,296735.0,1.0
1126028.9069616,277857.9375,245408.484375,283416.5625,259863.71875,262447.40625,232612.65625,237647.25,241092.984375,-0.026123046875,0.968994140625,-0.21142578125,-14.862059593200684,-6.317138195037842,-2.410888433456421,80.0,296736.0,1.0
1126028.9070064,277930.0,245374.421875,283552.8125,259924.328125,262540.125,232594.234375,237721.28125,241388.84375,-0.02880859375,0.963134765625,-0.213623046875,-15.014647483825684,-5.462646007537842,-1.9531248807907104,80.0,296737.0,1.0
1126028.9088495,277910.34375,245368.796875,283523.21875,259898.765625,262522.875,232579.390625,237722.796875,241387.859375,-0.030029296875,0.956298828125,-0.21630859375,-15.045165061950684,-4.608153820037842,-1.7089842557907104,80.0,296738.0,1.0
1126028.9177039,277826.28125,245400.34375,283380.875,259824.828125,262431.5625,232592.984375,237664.40625,241158.25,-0.030029296875,0.950439453125,-0.218017578125,-14.892577171325684,-3.784179449081421,-1.3427733182907104,80.0,296739.0,1.0
1126028.920645,277794.125,245415.8125,283308.5625,259798.625,262379.625,232609.34375,237612.109375,240957.984375,-0.032958984375,0.94189453125,-0.223876953125,-14.617918968200684,-2.990722417831421,-1.1901854276657104,80.0,296740.0,1.0
1126028.9206869,277867.4375,245404.28125,283423.625,259869.171875,262453.3125,232619.171875,237649.125,241094.0625,-0.032470703125,0.9345703125,-0.225830078125,-14.007567405700684,-2.136230230331421,-1.1291502714157104,80.0,296741.0,1.0
1126028.9263943,277942.96875,245377.734375,283564.625,259933.90625,262548.4375,232610.765625,237726.8125,241395.71875,-0.033935546875,0.92919921875,-0.2255859375,-13.336180686950684,-1.3427733182907104,-1.0375975370407104,80.0,296742.0,1.0
1126028.9355601,277910.25,245359.046875,283522.15625,259898.9375,262518.65625,232585.015625,237720.734375,241392.859375,-0.035400390625,0.927001953125,-0.2255859375,-12.695311546325684,-0.6408690810203552,-0.9765624403953552,80.0,296743.0,1.0
1126028.9356051,277824.6875,245375.671875,283379.09375,259822.328125,262429.4375,232599.953125,237661.90625,241163.078125,-0.035888671875,0.92431640625,-0.224609375,-11.932372093200684,0.1525878757238388,-0.9155272841453552,80.0,296744.0,1.0
1126028.9420703,277783.46875,245397.9375,283298.53125,259787.90625,262372.3125,232612.375,237606.46875,240953.96875,-0.036865234375,0.91748046875,-0.226806640625,-11.016844749450684,1.0070799589157104,-0.9155272841453552,80.0,296745.0,1.0
1126028.9421179,277847.5,245403.84375,283405.5625,259855.84375,262442.40625,232619.796875,237643.3125,241086.90625,-0.036865234375,0.916748046875,-0.228515625,-10.009764671325684,1.7700194120407104,-0.8544921278953552,80.0,296746.0,1.0
1126028.9438395,277931.0,245375.3125,283556.84375,259933.453125,262549.0625,232616.046875,237729.765625,241396.703125,-0.038330078125,0.91748046875,-0.2265625,-9.094237327575684,2.441406011581421,-0.7934569716453552,80.0,296747.0,1.0
1126028.9475414,277901.3125,245338.03125,283518.40625,259899.296875,262520.96875,232591.375,237723.859375,241393.578125,-0.038818359375,0.915283203125,-0.228759765625,-7.934569835662842,3.051757574081421,-0.8850097060203552,80.0,296748.0,1.0
1126028.9613462,277811.46875,245354.21875,283368.0,259813.46875,262422.375,232601.03125,237660.125,241159.328125,-0.04052734375,0.9130859375,-0.2236328125,-6.927489757537842,3.753661870956421,-0.7934569716453552,80.0,296749.0,1.0
1126028.9645556,277783.03125,245379.15625,283299.15625,259791.203125,262375.53125,232623.109375,237616.40625,240958.4375,-0.04345703125,0.91455078125,-0.222412109375,-6.103515148162842,4.394530773162842,-0.7629393935203552,80.0,296750.0,1.0
1126028.9645984,277856.15625,245372.71875,283416.28125,259864.796875,262451.875,232630.171875,237652.515625,241087.53125,-0.049072265625,0.913330078125,-0.22265625,-5.126952648162842,5.004882335662842,-0.7629393935203552,80.0,296751.0,1.0
1126028.9663384,277931.25,245340.53125,283557.0,259929.25,262549.3125,232613.625,237727.359375,241389.015625,-0.05029296875,0.916259765625,-0.221435546875,-4.302978038787842,5.432128429412842,-0.7934569716453552,80.0,296752.0,1.0
1126028.9688678,277909.90625,245324.984375,283526.625,259897.953125,262526.96875,232592.625,237724.578125,241390.8125,-0.052734375,0.916748046875,-0.223388671875,-3.417968511581421,5.981444835662842,-0.8850097060203552,80.0,296753.0,1.0
1126028.9750959,277819.15625,245342.421875,283377.84375,259813.03125,262427.5625,232597.984375,237660.390625,241155.75,-0.054931640625,0.920166015625,-0.219482421875,-2.746581792831421,6.439208507537842,-0.9765624403953552,80.0,296754.0,1.0
1126028.9795583,277790.09375,245368.078125,283305.78125,259790.671875,262374.09375,232613.1875,237607.546875,240946.265625,-0.056884765625,0.923095703125,-0.215087890625,-1.9226073026657104,6.591796398162842,-1.0375975370407104,80.0,296755.0,1.0
1126028.9796045,277859.5625,245366.109375,283418.78125,259862.5625,262443.375,232620.34375,237644.921875,241073.40625,-0.05859375,0.927978515625,-0.2158203125,-1.2207030057907104,6.835937023162842,-1.0070799589157104,80.0,296756.0,1.0
1126028.9901016,277937.78125,245335.265625,283563.71875,259932.203125,262543.78125,232606.65625,237721.71875,241381.0625,-0.059326171875,0.93359375,-0.214111328125,-0.7019042372703552,7.019042491912842,-1.0681151151657104,80.0,296757.0,1.0
1126028.9931944,277914.0,245305.578125,283529.03125,259901.984375,262520.90625,232580.28125,237713.765625,241384.90625,-0.059326171875,0.9375,-0.21044921875,-0.3051757514476776,7.171630382537842,-0.9765624403953552,80.0,296758.0,1.0
1126028.9932371,277825.59375,245324.171875,283382.40625,259819.46875,262428.1875,232589.40625,237655.46875,241156.203125,-0.060546875,0.94482421875,-0.20947265625,-0.1220703050494194,7.141112804412842,-1.0070799589157104,80.0,296759.0,1.0
1126029.0014,277791.6875,245350.28125,283308.1875,259791.484375,262376.84375,232608.890625,237609.25,240948.515625,-0.061767578125,0.95068359375,-0.20654296875,0.1831054538488388,7.141112804412842,-0.9765624403953552,80.0,296760.0,1.0
1126029.0045622,277870.28125,245353.234375,283429.34375,259868.359375,262454.90625,232626.5,237650.46875,241078.6875,-0.062255859375,0.95361328125,-0.20166015625,0.1831054538488388,7.202147960662842,-0.9460448622703552,80.0,296761.0,1.0
1126029.0046087,277949.6875,245324.265625,283577.125,259939.265625,262557.375,232620.6875,237733.703125,241388.84375,-0.064697265625,0.95947265625,-0.201171875,0.1220703050494194,7.080077648162842,-0.8850097060203552,80.0,296762.0,1.0
1126029.0063952,277926.15625,245304.78125,283543.4375,259908.59375,262536.09375,232602.1875,237736.109375,241397.421875,-0.06640625,0.963623046875,-0.197509765625,-0.03051757626235485,6.896972179412842,-0.9460448622703552,80.0,296763.0,1.0
1126029.0151008,277840.15625,245327.3125,283396.625,259827.953125,262442.84375,232617.03125,237675.5,241168.546875,-0.068359375,0.96826171875,-0.193115234375,-0.3662109076976776,6.652831554412842,-0.7934569716453552,80.0,296764.0,1.0
1126029.0194484,277800.375,245347.78125,283314.625,259793.359375,262385.09375,232632.859375,237613.71875,240949.84375,-0.06884765625,0.972900390625,-0.193115234375,-0.7324218153953552,6.378173351287842,-0.6408690810203552,80.0,296765.0,1.0
1126029.0194929,277865.09375,245344.03125,283421.375,259860.953125,262451.96875,232636.78125,237641.4375,241069.390625,-0.0703125,0.97509765625,-0.19287109375,-1.1596678495407104,6.103515148162842,-0.4882812201976776,80.0,296766.0,1.0
1126029.0215501,277940.375,245317.65625,283564.15625,259929.515625,262551.84375,232625.703125,237722.703125,241380.875,-0.07080078125,0.97607421875,-0.191162109375,-1.7395018339157104,5.798339366912842,-0.3356933295726776,80.0,296767.0,1.0
1126029.0325978,277906.75,245291.71875,283526.78125,259893.84375,262525.09375,232595.65625,237718.953125,241387.9375,-0.072021484375,0.975830078125,-0.19287109375,-2.227782964706421,5.401610851287842,-0.2441406100988388,80.0,296768.0,1.0
1126029.0356522,277817.4375,245316.125,283378.03125,259814.0,262428.0,232602.09375,237657.265625,241152.796875,-0.0712890625,0.97900390625,-0.187255859375,-2.838134527206421,4.943847179412842,0.0,80.0,296769.0,1.0
1126029.0356938,277785.53125,245342.6875,283297.28125,259784.59375,262369.625,232617.75,237603.796875,240936.625,-0.07080078125,0.98095703125,-0.188232421875,-3.509521245956421,4.547118663787842,0.2136230319738388,80.0,296770.0,1.0
1126029.0436958,277868.3125,245364.140625,283418.25,259862.640625,262448.5625,232631.328125,237648.40625,241072.421875,-0.068603515625,0.984619140625,-0.187255859375,-4.089354991912842,4.119872570037842,0.3051757514476776,80.0,296771.0,1.0
1126029.0502254,277945.46875,245343.125,283565.78125,259933.453125,262549.5,232615.15625,237727.4375,241385.265625,-0.070068359375,0.983642578125,-0.185546875,-4.638671398162842,3.631591558456421,0.5187987685203552,80.0,296772.0,1.0
1126029.0525875,277925.34375,245314.515625,283534.03125,259902.609375,262526.53125,232588.59375,237717.34375,241384.1875,-0.07080078125,0.984375,-0.18115234375,-5.249022960662842,3.234863042831421,0.7019042372703552,80.0,296773.0,1.0
1126029.0550894,277846.78125,245332.046875,283392.78125,259827.234375,262438.28125,232600.578125,237661.546875,241155.671875,-0.0693359375,0.985107421875,-0.18115234375,-6.042479991912842,2.899169683456421,0.9460448622703552,80.0,296774.0,1.0
1126029.058852,277806.96875,245341.078125,283311.9375,259794.78125,262381.5,232609.15625,237607.640625,240940.015625,-0.071044921875,0.987548828125,-0.177734375,-6.622313976287842,2.593993902206421,1.1291502714157104,80.0,296775.0,1.0
1126029.0657994,277876.1875,245345.640625,283423.34375,259864.96875,262454.46875,232619.625,237645.09375,241061.875,-0.069091796875,0.988525390625,-0.17529296875,-7.202147960662842,2.197265386581421,1.2207030057907104,80.0,296776.0,1.0
1126029.0658439,277956.75,245327.75,283570.59375,259934.625,262556.21875,232606.390625,237721.8125,241376.765625,-0.0703125,0.9873046875,-0.173095703125,-7.812499523162842,1.8920897245407104,1.3122557401657104,80.0,296777.0,1.0
1126029.0719452,277942.71875,245311.390625,283550.84375,259914.6875,262544.75,232592.078125,237731.828125,241401.890625,-0.069580078125,0.988525390625,-0.175537109375,-8.422850608825684,1.5563963651657104,1.4648436307907104,80.0,296778.0,1.0
1126029.0719885,277848.65625,245317.203125,283400.65625,259830.453125,262447.9375,232599.421875,237670.765625,241169.96875,-0.06884765625,0.9873046875,-0.175537109375,-8.850096702575684,1.2512205839157104,1.4343260526657104,80.0,296779.0,1.0
1126029.0800491,277799.5625,245330.875,283310.6875,259792.375,262384.28125,232612.015625,237614.703125,240950.5625,-0.069580078125,0.98486328125,-0.177001953125,-9.277342796325684,1.0681151151657104,1.4953612089157104,80.0,296780.0,1.0
1126029.0831503,277863.3125,245332.21875,283413.96875,259858.796875,262449.90625,232619.359375,237644.5625,241065.8125,-0.069580078125,0.98291015625,-0.177490234375,-9.582518577575684,0.8239745497703552,1.7700194120407104,80.0,296781.0,1.0
1126029.0831926,277947.71875,245310.046875,283567.5625,259934.96875,262555.0625,232612.5625,237725.125,241381.953125,-0.066650390625,0.9794921875,-0.175537109375,-9.979247093200684,0.3967284858226776,1.8310545682907104,80.0,296782.0,1.0
1126029.085235,277925.53125,245292.171875,283537.96875,259907.796875,262533.9375,232587.25,237723.859375,241397.25,-0.066162109375,0.974365234375,-0.177490234375,-10.162352561950684,0.2136230319738388,1.8005369901657104,80.0,296783.0,1.0
1126029.1014018,277839.34375,245316.9375,283392.0625,259827.78125,262441.0625,232600.21875,237666.015625,241171.765625,-0.064697265625,0.97021484375,-0.17724609375,-10.192870140075684,0.1525878757238388,1.8920897245407104,80.0,296784.0,1.0
1126029.1044002,277797.5,245340.71875,283309.8125,259795.859375,262383.125,232620.34375,237616.578125,240957.09375,-0.06494140625,0.9658203125,-0.17626953125,-10.131834983825684,0.0,2.014159917831421,80.0,296785.0,1.0
1126029.1044419,277868.3125,245343.578125,283422.09375,259866.75,262456.25,232633.03125,237654.9375,241081.546875,-0.0615234375,0.962158203125,-0.17919921875,-10.009764671325684,-0.2441406100988388,1.9226073026657104,80.0,296786.0,1.0
1126029.106401,277955.21875,245320.328125,283574.28125,259940.515625,262560.0625,232626.15625,237734.59375,241402.703125,-0.0576171875,0.95947265625,-0.179931640625,-9.857176780700684,-0.3051757514476776,1.9531248807907104,80.0,296787.0,1.0
1126029.1089534,277933.5,245294.21875,283542.875,259909.3125,262535.5625,232596.375,237724.046875,241412.53125,-0.0546875,0.9580078125,-0.18017578125,-9.460448265075684,-0.2746581733226776,2.044677495956421,80.0,296788.0,1.0
1126029.1125938,277848.28125,245324.53125,283399.9375,259831.171875,262447.40625,232609.96875,237675.5,241191.703125,-0.0517578125,0.954345703125,-0.183349609375,-9.155272483825684,-0.3051757514476776,2.166747808456421,80.0,296789.0,1.0
1126029.1213997,277807.25,245347.421875,283319.1875,259798.71875,262393.5625,232629.90625,237627.484375,240980.15625,-0.04736328125,0.95263671875,-0.1826171875,-8.758543968200684,-0.2746581733226776,2.288818120956421,80.0,296790.0,1.0
1126029.1244305,277868.59375,245342.6875,283422.1875,259863.1875,262457.59375,232634.734375,237652.875,241082.890625,-0.045166015625,0.95166015625,-0.180908203125,-8.300780296325684,-0.0610351525247097,2.319335699081421,80.0,296791.0,1.0
1126029.1244753,277948.4375,245315.40625,283571.21875,259934.625,262556.375,232620.78125,237732.71875,241392.421875,-0.042236328125,0.94775390625,-0.18115234375,-7.781981945037842,-0.0610351525247097,2.502441167831421,80.0,296792.0,1.0
1126029.1301667,277929.5625,245288.328125,283543.59375,259908.875,262534.5625,232592.078125,237731.375,241407.53125,-0.042236328125,0.950439453125,-0.181640625,-7.232665538787842,0.0915527269244194,2.532958745956421,80.0,296793.0,1.0
1126029.1369509,277839.875,245313.453125,283396.0,259827.234375,262438.46875,232597.09375,237669.328125,241177.03125,-0.042236328125,0.948486328125,-0.186279296875,-6.591796398162842,0.3356933295726776,2.655029058456421,80.0,296794.0,1.0
1126029.1369934,277797.5,245341.078125,283310.625,259793.4375,262379.8125,232613.359375,237616.046875,240960.484375,-0.04541015625,0.94775390625,-0.1826171875,-5.981444835662842,0.4272460639476776,2.532958745956421,80.0,296795.0,1.0
1126029.1450396,277865.375,245336.421875,283413.6875,259858.984375,262447.75,232624.984375,237648.046875,241071.4375,-0.04638671875,0.94775390625,-0.185791015625,-5.401610851287842,0.4882812201976776,2.593993902206421,80.0,296796.0,1.0
1126029.1587418,277947.34375,245296.90625,283562.28125,259927.203125,262550.3125,232613.546875,237726.015625,241384.375,-0.04638671875,0.947998046875,-0.182373046875,-4.638671398162842,0.5493163466453552,2.441406011581421,80.0,296797.0,1.0
1126029.1587901,277926.0625,245263.296875,283532.6875,259896.171875,262526.4375,232584.125,237724.5,241401.625,-0.0498046875,0.9482421875,-0.18212890625,-3.997802495956421,0.5493163466453552,2.410888433456421,80.0,296798.0,1.0
1126029.1588038,277842.75,245291.453125,283390.625,259820.4375,262436.40625,232601.390625,237669.6875,241179.0,-0.049072265625,0.949951171875,-0.180908203125,-3.509521245956421,0.6103515028953552,2.288818120956421,80.0,296799.0,1.0
1126029.1620244,277800.0,245322.828125,283305.875,259789.421875,262378.46875,232617.65625,237613.453125,240962.015625,-0.048828125,0.9482421875,-0.181396484375,-2.990722417831421,0.6103515028953552,2.227782964706421,80.0,296800.0,1.0
1126029.1620675,277865.53125,245320.515625,283410.03125,259856.75,262444.53125,232624.09375,237643.484375,241069.203125,-0.05029296875,0.948974609375,-0.181640625,-2.441406011581421,0.7629393935203552,2.136230230331421,80.0,296801.0,1.0
1126029.1638686,277950.03125,245287.421875,283564.875,259931.21875,262550.5,232617.828125,237724.671875,241383.03125,-0.046875,0.948974609375,-0.1826171875,-1.8310545682907104,0.7934569716453552,2.044677495956421,80.0,296802.0,1.0
1126029.1675417,277930.1875,245261.40625,283541.0,259904.9375,262533.21875,232593.96875,237726.546875,241406.359375,-0.04638671875,0.950927734375,-0.18212890625,-1.2512205839157104,0.7934569716453552,1.8310545682907104,80.0,296803.0,1.0
1126029.1814148,277844.0,245280.8125,283396.4375,259824.828125,262439.96875,232603.53125,237669.859375,241184.71875,-0.047119140625,0.95361328125,-0.184814453125,-0.6713866591453552,0.7934569716453552,1.6479490995407104,80.0,296804.0,1.0
1126029.1901553,277805.71875,245309.78125,283314.90625,259792.546875,262384.28125,232622.578125,237619.703125,240971.3125,-0.045166015625,0.955810546875,-0.185546875,-0.0610351525247097,0.8239745497703552,1.4648436307907104,80.0,296805.0,1.0
1126029.1901979,277866.53125,245309.78125,283415.125,259855.21875,262446.3125,232626.15625,237647.15625,241073.59375,-0.04443359375,0.957763671875,-0.183837890625,0.4577636420726776,0.8544921278953552,1.2207030057907104,80.0,296806.0,1.0
1126029.1902099,277950.46875,245296.8125,283569.4375,259930.59375,262551.90625,232617.390625,237730.296875,241387.5,-0.046142578125,0.9599609375,-0.1806640625,0.9155272841453552,0.8239745497703552,1.2207030057907104,80.0,296807.0,1.0
1126029.1931864,277933.59375,245284.03125,283546.46875,259907.078125,262536.8125,232593.875,237732.546875,241413.328125,-0.045654296875,0.9599609375,-0.18408203125,1.2817381620407104,0.7629393935203552,1.0375975370407104,80.0,296808.0,1.0
1126029.1932289,277843.09375,245306.921875,283398.5,259826.34375,262443.8125,232601.828125,237672.90625,241189.734375,-0.04638671875,0.9619140625,-0.181396484375,1.6784666776657104,0.8544921278953552,0.8544921278953552,80.0,296809.0,1.0
1126029.195035,277801.1875,245331.234375,283312.03125,259792.8125,262384.09375,232621.046875,237621.3125,240970.859375,-0.0478515625,0.96240234375,-0.183837890625,2.105712652206421,0.8850097060203552,0.6713866591453552,80.0,296810.0,1.0
1126029.2037719,277864.46875,245323.1875,283411.09375,259854.59375,262446.0625,232626.59375,237649.21875,241067.953125,-0.0498046875,0.962646484375,-0.184814453125,2.288818120956421,0.7934569716453552,0.3967284858226776,80.0,296811.0,1.0
1126029.213304,277949.3125,245286.796875,283566.125,259929.4375,262550.84375,232617.65625,237729.59375,241379.453125,-0.0517578125,0.965087890625,-0.184814453125,2.563476324081421,0.6713866591453552,0.1831054538488388,80.0,296812.0,1.0
1126029.2133509,277931.09375,245254.796875,283544.9375,259906.8125,262537.15625,232589.9375,237730.125,241405.734375,-0.05126953125,0.967529296875,-0.18212890625,2.746581792831421,0.6408690810203552,-0.03051757626235485,80.0,296813.0,1.0
1126029.2194407,277840.875,245269.375,283400.375,259826.25,262446.40625,232598.609375,237670.484375,241182.125,-0.049072265625,0.967529296875,-0.1787109375,2.929687261581421,0.4882812201976776,-0.2136230319738388,80.0,296814.0,1.0
1126029.2194835,277796.0,245288.40625,283314.0,259790.671875,262389.28125,232616.046875,237616.125,240964.875,-0.0498046875,0.969482421875,-0.184326171875,3.051757574081421,0.3967284858226776,-0.2136230319738388,80.0,296815.0,1.0
1126029.2256302,277863.75,245278.9375,283416.1875,259858.71875,262453.21875,232620.96875,237641.078125,241061.421875,-0.050537109375,0.970703125,-0.182861328125,3.173827886581421,0.3051757514476776,-0.4577636420726776,80.0,296816.0,1.0
1126029.2256686,277951.5625,245247.640625,283571.5,259933.8125,262559.78125,232611.390625,237722.078125,241374.359375,-0.049560546875,0.969970703125,-0.182861328125,3.051757574081421,0.1525878757238388,-0.5493163466453552,80.0,296817.0,1.0
1126029.2394581,277939.84375,245232.53125,283555.5,259913.609375,262547.53125,232592.265625,237727.890625,241406.0,-0.049560546875,0.9716796875,-0.18603515625,3.204345464706421,0.1220703050494194,-0.6103515028953552,80.0,296818.0,1.0
1126029.2395026,277855.25,245270.265625,283413.96875,259837.171875,262458.5625,232604.25,237673.796875,241187.140625,-0.049072265625,0.970458984375,-0.185546875,3.204345464706421,0.03051757626235485,-0.6713866591453552,80.0,296819.0,1.0
1126029.242045,277810.65625,245298.875,283323.46875,259798.0,262396.96875,232622.75,237618.640625,240968.453125,-0.049072265625,0.970703125,-0.187255859375,3.173827886581421,0.03051757626235485,-0.7019042372703552,80.0,296820.0,1.0
1126029.242089,277869.75,245283.046875,283419.25,259857.28125,262455.8125,232625.703125,237642.328125,241062.140625,-0.04736328125,0.970947265625,-0.1875,3.173827886581421,-0.03051757626235485,-0.7629393935203552,80.0,296821.0,1.0
1126029.2475453,277953.625,245247.90625,283572.84375,259933.015625,262558.71875,232610.40625,237723.234375,241376.140625,-0.04638671875,0.9697265625,-0.1845703125,3.234863042831421,0.03051757626235485,-0.6103515028953552,80.0,296822.0,1.0
1126029.2693741,277936.71875,245217.515625,283554.875,259910.65625,262543.6875,232587.34375,237730.390625,241410.390625,-0.0439453125,0.9697265625,-0.1884765625,3.021239995956421,0.0,-0.4272460639476776,80.0,296823.0,1.0
1126029.2694226,277846.3125,245233.0625,283406.625,259827.0625,262447.40625,232597.1875,237671.109375,241186.59375,-0.0419921875,0.968017578125,-0.188232421875,2.990722417831421,-0.03051757626235485,-0.4272460639476776,80.0,296824.0,1.0
1126029.2694349,277799.125,245261.234375,283314.46875,259786.375,262381.15625,232612.921875,237615.6875,240967.109375,-0.04296875,0.96826171875,-0.185546875,2.838134527206421,0.0,-0.3967284858226776,80.0,296825.0,1.0
1126029.2694475,277862.25,245260.15625,283412.25,259848.15625,262440.53125,232617.5625,237641.875,241062.328125,-0.043212890625,0.9677734375,-0.18798828125,2.716064214706421,0.03051757626235485,-0.2441406100988388,80.0,296826.0,1.0
1126029.2719421,277946.5625,245231.90625,283567.65625,259922.8125,262541.8125,232604.0625,237719.125,241371.046875,-0.0419921875,0.9677734375,-0.189453125,2.685546636581421,0.1220703050494194,-0.03051757626235485,80.0,296827.0,1.0
1126029.2719861,277936.28125,245212.953125,283553.25,259902.78125,262531.0,232583.328125,237725.296875,241403.671875,-0.041259765625,0.966796875,-0.19140625,2.655029058456421,0.2441406100988388,0.0915527269244194,80.0,296828.0,1.0
1126029.2739222,277850.625,245226.625,283408.78125,259823.21875,262439.34375,232591.640625,237672.71875,241187.21875,-0.041015625,0.965087890625,-0.19140625,2.593993902206421,0.4272460639476776,0.2136230319738388,80.0,296829.0,1.0
1126029.2775747,277803.84375,245247.46875,283314.90625,259783.4375,262374.09375,232603.53125,237619.53125,240968.09375,-0.04296875,0.963623046875,-0.192138671875,2.593993902206421,0.4882812201976776,0.2136230319738388,80.0,296830.0,1.0
1126029.2819099,277867.6875,245253.984375,283410.21875,259846.109375,262432.03125,232608.171875,237643.125,241054.015625,-0.042236328125,0.96240234375,-0.19189453125,2.502441167831421,0.4272460639476776,0.2441406100988388,80.0,296831.0,1.0
1126029.2819527,277949.15625,245228.875,283562.5625,259921.75,262537.6875,232595.921875,237719.84375,241363.171875,-0.043701171875,0.958984375,-0.19140625,2.319335699081421,0.5493163466453552,0.3967284858226776,80.0,296832.0,1.0
1126029.2950444,277933.3125,245203.46875,283546.09375,259900.28125,262525.8125,232571.15625,237726.015625,241398.3125,-0.04345703125,0.9580078125,-0.194580078125,2.227782964706421,0.6408690810203552,0.4272460639476776,80.0,296833.0,1.0
1126029.2983045,277847.75,245227.34375,283402.625,259820.0,262435.34375,232581.171875,237670.40625,241181.953125,-0.04443359375,0.958984375,-0.193603515625,2.197265386581421,0.7324218153953552,0.5187987685203552,80.0,296834.0,1.0
1126029.2983488,277809.9375,245260.421875,283320.34375,259789.6875,262381.78125,232607.28125,237623.375,240968.265625,-0.044677734375,0.961181640625,-0.194091796875,2.075195074081421,0.7934569716453552,0.4272460639476776,80.0,296835.0,1.0
1126029.3001125,277872.0625,245261.6875,283415.40625,259851.828125,262441.84375,232615.328125,237649.03125,241056.0625,-0.045654296875,0.961181640625,-0.195068359375,2.136230230331421,0.8850097060203552,0.4272460639476776,80.0,296836.0,1.0
1126029.3194644,277957.1875,245240.9375,283572.3125,259927.375,262548.0625,232606.65625,237731.015625,241370.234375,-0.044921875,0.962890625,-0.19580078125,2.044677495956421,0.8850097060203552,0.4272460639476776,80.0,296837.0,1.0
1126029.3195073,277940.8125,245211.703125,283558.09375,259905.296875,262536.09375,232584.75,237737.09375,241409.21875,-0.04541015625,0.96435546875,-0.1943359375,1.9836424589157104,0.9765624403953552,0.4577636420726776,80.0,296838.0,1.0
1126029.3213586,277851.15625,245225.375,283412.90625,259823.03125,262442.9375,232592.796875,237682.5625,241195.8125,-0.045654296875,0.96484375,-0.193603515625,1.7395018339157104,1.0070799589157104,0.3662109076976776,80.0,296839.0,1.0
1126029.3465196,277803.0625,245246.75,283318.9375,259783.515625,262378.1875,232608.796875,237624.625,240971.75,-0.046875,0.96435546875,-0.192138671875,1.5563963651657104,1.1291502714157104,0.4272460639476776,80.0,296840.0,1.0
1126029.3488226,277863.5,245241.03125,283410.5625,259844.765625,262435.0625,232612.5625,237646.34375,241056.0625,-0.047119140625,0.963623046875,-0.194580078125,1.4038084745407104,1.0986326932907104,0.3356933295726776,80.0,296841.0,1.0
1126029.3513388,277946.375,245210.1875,283562.375,259919.234375,262535.375,232599.78125,237721.0,241362.90625,-0.04541015625,0.966552734375,-0.19140625,1.1596678495407104,1.1291502714157104,0.3662109076976776,80.0,296842.0,1.0
1126029.3538604,277933.40625,245184.875,283547.34375,259899.296875,262521.78125,232575.453125,237726.109375,241402.15625,-0.045166015625,0.96728515625,-0.196533203125,0.8544921278953552,1.1596678495407104,0.4577636420726776,80.0,296843.0,1.0
1126029.356464,277846.3125,245206.96875,283402.625,259818.125,262428.09375,232585.015625,237673.703125,241188.75,-0.046142578125,0.966552734375,-0.192626953125,0.7324218153953552,1.2207030057907104,0.5187987685203552,80.0,296844.0,1.0
1126029.3587164,277799.46875,245230.5625,283310.25,259780.296875,262362.90625,232603.34375,237615.953125,240966.296875,-0.046142578125,0.969482421875,-0.19091796875,0.4882812201976776,1.2817381620407104,0.6713866591453552,80.0,296845.0,1.0
1126029.3651226,277856.6875,245227.4375,283401.90625,259840.65625,262419.0625,232608.890625,237638.75,241048.46875,-0.0458984375,0.969482421875,-0.188232421875,0.1525878757238388,1.2817381620407104,0.7324218153953552,80.0,296846.0,1.0
1126029.367597,277944.65625,245199.625,283560.875,259921.75,262531.34375,232600.671875,237727.71875,241369.703125,-0.04248046875,0.970703125,-0.19140625,0.0,1.2207030057907104,0.7934569716453552,80.0,296847.0,1.0
1126029.3702098,277931.53125,245173.078125,283546.90625,259899.921875,262520.1875,232573.40625,237731.734375,241409.046875,-0.043212890625,0.97216796875,-0.191650390625,-0.2136230319738388,1.4038084745407104,0.8544921278953552,80.0,296848.0,1.0
1126029.3726121,277839.0,245183.09375,283398.0625,259813.109375,262423.25,232578.234375,237666.640625,241187.765625,-0.0419921875,0.9716796875,-0.19287109375,-0.4272460639476776,1.4953612089157104,0.8239745497703552,80.0,296849.0,1.0
1126029.3757096,277791.53125,245211.34375,283305.15625,259776.90625,262362.46875,232596.828125,237617.203125,240969.875,-0.0419921875,0.97216796875,-0.190673828125,-0.6103515028953552,1.6174315214157104,0.8544921278953552,80.0,296850.0,1.0
1126029.3757521,277854.375,245229.5,283400.8125,259841.1875,262423.875,232608.625,237644.734375,241050.25,-0.041748046875,0.97119140625,-0.188232421875,-0.8544921278953552,1.6174315214157104,0.9765624403953552,80.0,296851.0,1.0
1126029.3774618,277941.71875,245214.03125,283558.96875,259917.0,262533.0625,232597.984375,237721.1875,241360.234375,-0.042236328125,0.972412109375,-0.1923828125,-1.0375975370407104,1.5869139432907104,0.9460448622703552,80.0,296852.0,1.0
1126029.3802067,277929.21875,245197.125,283545.84375,259896.078125,262523.125,232571.078125,237725.203125,241403.234375,-0.042724609375,0.972900390625,-0.192626953125,-1.2207030057907104,1.5869139432907104,0.9765624403953552,80.0,296853.0,1.0
1126029.3831898,277843.65625,245227.171875,283404.65625,259817.859375,262434.625,232581.796875,237668.171875,241189.375,-0.043212890625,0.971923828125,-0.1923828125,-1.4648436307907104,1.6174315214157104,0.9765624403953552,80.0,296854.0,1.0
1126029.3832318,277798.5,245264.90625,283314.375,259779.234375,262375.15625,232605.578125,237616.40625,240967.546875,-0.043212890625,0.972900390625,-0.190673828125,-1.6174315214157104,1.6784666776657104,0.9765624403953552,80.0,296855.0,1.0
1126029.3850577,277855.1875,245266.0625,283404.75,259840.5625,262431.03125,232614.609375,237642.5,241045.875,-0.04541015625,0.971435546875,-0.19189453125,-1.8005369901657104,1.6479490995407104,0.8850097060203552,80.0,296856.0,1.0
1126029.3881953,277937.15625,245238.53125,283558.4375,259916.828125,262535.375,232604.875,237722.078125,241360.5,-0.0458984375,0.971435546875,-0.18896484375,-1.8005369901657104,1.4953612089157104,0.7934569716453552,80.0,296857.0,1.0
1126029.3882382,277922.9375,245213.671875,283545.5625,259896.171875,262526.53125,232579.03125,237728.875,241407.609375,-0.04736328125,0.969970703125,-0.19091796875,-1.8615721464157104,1.4343260526657104,0.7324218153953552,80.0,296858.0,1.0
1126029.3965085,277837.90625,245229.765625,283403.0625,259816.6875,262438.0,232589.046875,237675.59375,241196.796875,-0.047119140625,0.9677734375,-0.189208984375,-1.9836424589157104,1.4038084745407104,0.5493163466453552,80.0,296859.0,1.0
1126029.3994326,277788.03125,245246.03125,283306.6875,259775.203125,262374.8125,232607.375,237619.53125,240973.1875,-0.046142578125,0.96826171875,-0.190673828125,-1.9531248807907104,1.3122557401657104,0.3051757514476776,80.0,296860.0,1.0
1126029.3994774,277844.34375,245237.8125,283395.09375,259835.28125,262429.25,232613.984375,237639.5625,241046.59375,-0.04443359375,0.968994140625,-0.18994140625,-1.9531248807907104,1.3122557401657104,0.2136230319738388,80.0,296861.0,1.0
1126029.4076223,277935.28125,245218.5,283554.875,259915.3125,262536.28125,232604.25,237716.890625,241359.0625,-0.047607421875,0.970703125,-0.18896484375,-2.044677495956421,1.1291502714157104,0.1220703050494194,80.0,296862.0,1.0
1126029.4119515,277932.59375,245198.5625,283553.0,259904.21875,262532.6875,232580.90625,237729.328125,241413.78125,-0.050048828125,0.970947265625,-0.186279296875,-2.075195074081421,0.9460448622703552,-0.0915527269244194,80.0,296863.0,1.0
1126029.4119956,277849.90625,245216.4375,283412.8125,259825.546875,262441.9375,232588.328125,237672.8125,241201.53125,-0.0517578125,0.970458984375,-0.18505859375,-2.075195074081421,0.9155272841453552,-0.3356933295726776,80.0,296864.0,1.0
1126029.4176674,277806.90625,245253.546875,283322.84375,259789.953125,262381.5,232612.109375,237623.015625,240979.171875,-0.052001953125,0.9697265625,-0.183837890625,-2.105712652206421,0.6713866591453552,-0.5187987685203552,80.0,296865.0,1.0
1126029.4294399,277861.15625,245251.9375,283409.21875,259847.453125,262434.0,232613.984375,237642.234375,241048.46875,-0.049560546875,0.968994140625,-0.18310546875,-2.258300542831421,0.3662109076976776,-0.4882812201976776,80.0,296866.0,1.0
1126029.4294827,277945.28125,245236.46875,283567.5625,259926.65625,262542.53125,232606.921875,237724.3125,241365.140625,-0.0478515625,0.96240234375,-0.18310546875,-2.410888433456421,0.2136230319738388,-0.5798339247703552,80.0,296867.0,1.0
1126029.4319418,277935.1875,245218.140625,283557.8125,259908.328125,262534.3125,232581.0,237732.359375,241417.71875,-0.045166015625,0.96142578125,-0.187255859375,-2.380370855331421,-0.0610351525247097,-0.6103515028953552,80.0,296868.0,1.0
1126029.4319852,277850.34375,245231.640625,283414.21875,259825.359375,262439.8125,232588.515625,237674.6875,241207.609375,-0.04443359375,0.96435546875,-0.18896484375,-2.197265386581421,-0.1525878757238388,-0.7324218153953552,80.0,296869.0,1.0
1126029.4338504,277800.71875,245257.828125,283316.5,259784.0625,262375.78125,232611.3125,237623.109375,240987.21875,-0.0439453125,0.96826171875,-0.19091796875,-1.8310545682907104,-0.3356933295726776,-0.7934569716453552,80.0,296870.0,1.0
1126029.4427367,277856.6875,245258.375,283402.78125,259843.59375,262431.5,232620.0625,237642.5,241054.546875,-0.045166015625,0.970947265625,-0.18896484375,-1.7089842557907104,-0.4272460639476776,-0.7629393935203552,80.0,296871.0,1.0
1126029.4469203,277940.125,245230.296875,283557.90625,259919.328125,262534.46875,232605.140625,237715.109375,241360.859375,-0.044189453125,0.971923828125,-0.1865234375,-1.6784666776657104,-0.7019042372703552,-0.8239745497703552,80.0,296872.0,1.0
1126029.4469619,277929.28125,245212.328125,283550.5625,259904.125,262526.0,232578.671875,237726.109375,241414.140625,-0.043701171875,0.967041015625,-0.1845703125,-1.8005369901657104,-0.8544921278953552,-0.6408690810203552,80.0,296873.0,1.0
1126029.4551321,277849.53125,245236.921875,283415.3125,259830.015625,262441.9375,232591.1875,237678.0,241210.46875,-0.044677734375,0.962158203125,-0.189453125,-1.7089842557907104,-0.9155272841453552,-0.6408690810203552,80.0,296874.0,1.0
1126029.4656958,277805.28125,245255.515625,283322.59375,259793.09375,262377.84375,232612.65625,237623.28125,240983.375,-0.047119140625,0.959716796875,-0.192138671875,-1.5869139432907104,-1.0681151151657104,-0.5187987685203552,80.0,296875.0,1.0
1126029.4657403,277859.375,245250.421875,283404.125,259847.0,262428.34375,232616.578125,237640.09375,241044.171875,-0.04931640625,0.958251953125,-0.193115234375,-1.3427733182907104,-1.2512205839157104,-0.6408690810203552,80.0,296876.0,1.0
1126029.4674347,277947.09375,245226.28125,283563.28125,259925.59375,262540.90625,232612.5625,237724.046875,241359.6875,-0.053466796875,0.958740234375,-0.19189453125,-1.0986326932907104,-1.3427733182907104,-0.7019042372703552,80.0,296877.0,1.0
1126029.4699559,277937.0625,245196.953125,283558.1875,259907.265625,262534.5625,232588.328125,237730.296875,241411.71875,-0.05615234375,0.960693359375,-0.18798828125,-0.9155272841453552,-1.6174315214157104,-0.9765624403953552,80.0,296878.0,1.0
1126029.473682,277856.875,245227.96875,283420.40625,259829.5625,262448.46875,232599.421875,237676.921875,241205.640625,-0.05712890625,0.9619140625,-0.185546875,-0.8239745497703552,-1.8920897245407104,-1.1596678495407104,80.0,296879.0,1.0
1126029.4825754,277806.09375,245264.90625,283320.8125,259789.234375,262382.03125,232617.203125,237620.953125,240981.140625,-0.055419921875,0.963623046875,-0.1865234375,-0.8850097060203552,-2.166747808456421,-1.3122557401657104,80.0,296880.0,1.0
1126029.4857652,277864.84375,245271.96875,283406.375,259849.140625,262433.09375,232624.984375,237642.234375,241047.390625,-0.056884765625,0.962646484375,-0.18603515625,-0.8544921278953552,-2.441406011581421,-1.5258787870407104,80.0,296881.0,1.0
1126029.4858112,277951.28125,245250.859375,283565.78125,259925.765625,262540.5625,232617.921875,237721.359375,241358.96875,-0.05908203125,0.960693359375,-0.18994140625,-0.7934569716453552,-2.716064214706421,-1.7700194120407104,80.0,296882.0,1.0
1126029.4876196,277940.1875,245216.796875,283561.03125,259909.3125,262535.03125,232591.734375,237728.34375,241413.25,-0.058349609375,0.959228515625,-0.19091796875,-0.6408690810203552,-2.960204839706421,-1.8005369901657104,80.0,296883.0,1.0
1126029.5019848,277854.46875,245235.484375,283420.40625,259830.453125,262443.8125,232597.53125,237675.765625,241207.609375,-0.056396484375,0.96044921875,-0.19140625,-0.4882812201976776,-3.326415777206421,-1.9836424589157104,80.0,296884.0,1.0
1126029.5020302,277803.9375,245265.171875,283323.84375,259789.953125,262379.09375,232618.015625,237625.515625,240985.25,-0.056396484375,0.962158203125,-0.190185546875,-0.2746581733226776,-3.570556402206421,-2.166747808456421,80.0,296885.0,1.0
1126029.5038912,277857.0625,245261.40625,283406.90625,259847.09375,262432.65625,232630.171875,237647.15625,241048.90625,-0.05615234375,0.9619140625,-0.189453125,-0.1220703050494194,-3.875732183456421,-2.288818120956421,80.0,296886.0,1.0
1126029.5065006,277942.53125,245225.109375,283562.8125,259924.6875,262539.84375,232621.234375,237719.9375,241358.265625,-0.05419921875,0.961181640625,-0.189208984375,-0.03051757626235485,-4.119872570037842,-2.410888433456421,80.0,296887.0,1.0
1126029.5107872,277935.90625,245203.390625,283559.4375,259910.125,262536.53125,232594.859375,237729.765625,241418.609375,-0.052490234375,0.96142578125,-0.189697265625,0.0610351525247097,-4.241942882537842,-2.349853277206421,80.0,296888.0,1.0
1126029.5108328,277850.625,245214.65625,283419.6875,259831.4375,262446.5,232602.1875,237677.546875,241213.421875,-0.0517578125,0.958251953125,-0.18896484375,0.1831054538488388,-4.333495616912842,-2.258300542831421,80.0,296889.0,1.0
1126029.5125602,277795.53125,245232.0,283317.59375,259788.4375,262377.5,232617.921875,237619.890625,240983.828125,-0.05029296875,0.958984375,-0.19189453125,0.3051757514476776,-4.516601085662842,-2.349853277206421,80.0,296890.0,1.0
1126029.5269443,277855.09375,245247.734375,283402.0625,259847.71875,262428.71875,232629.09375,237640.453125,241041.40625,-0.052001953125,0.95849609375,-0.194091796875,0.4272460639476776,-4.608153820037842,-2.319335699081421,80.0,296891.0,1.0
1126029.5269867,277948.5,245233.421875,283566.125,259929.703125,262537.25,232622.75,237723.15625,241356.46875,-0.051025390625,0.9599609375,-0.19189453125,0.7019042372703552,-4.730224132537842,-2.227782964706421,80.0,296892.0,1.0
1126029.528976,277949.15625,245215.640625,283570.0625,259916.734375,262534.03125,232597.984375,237731.734375,241415.484375,-0.05126953125,0.961181640625,-0.197021484375,0.8544921278953552,-4.913329601287842,-2.349853277206421,80.0,296893.0,1.0
1126029.5313889,277862.15625,245227.890625,283427.71875,259833.953125,262440.78125,232598.4375,237669.328125,241202.6875,-0.0498046875,0.9619140625,-0.193603515625,1.0070799589157104,-4.943847179412842,-2.197265386581421,80.0,296894.0,1.0
1126029.5450821,277805.65625,245247.734375,283326.34375,259791.828125,262376.0625,232617.125,237613.71875,240977.46875,-0.05029296875,0.96533203125,-0.189697265625,1.0375975370407104,-4.882812023162842,-2.105712652206421,80.0,296895.0,1.0
1126029.5481907,277855.71875,245258.46875,283406.8125,259845.484375,262427.28125,232627.671875,237629.71875,241034.96875,-0.052734375,0.96435546875,-0.193115234375,1.0375975370407104,-4.974364757537842,-1.9531248807907104,80.0,296896.0,1.0
1126029.5482338,277946.0,245237.890625,283568.8125,259927.828125,262541.46875,232626.0625,237716.453125,241353.96875,-0.05126953125,0.962890625,-0.193359375,1.1596678495407104,-5.065917491912842,-1.8920897245407104,80.0,296897.0,1.0
1126029.5502189,277941.1875,245199.09375,283568.46875,259915.3125,262541.375,232600.84375,237728.609375,241418.4375,-0.049072265625,0.96337890625,-0.193359375,1.1596678495407104,-5.096435070037842,-1.8310545682907104,80.0,296898.0,1.0
1126029.5538734,277858.84375,245208.296875,283430.9375,259839.21875,262453.21875,232606.84375,237676.484375,241216.640625,-0.051025390625,0.96240234375,-0.195068359375,1.1291502714157104,-5.096435070037842,-1.8005369901657104,80.0,296899.0,1.0
1126029.5630046,277808.78125,245233.609375,283331.8125,259796.9375,262388.46875,232632.765625,237625.078125,240989.28125,-0.052978515625,0.961181640625,-0.1953125,1.2817381620407104,-5.279540538787842,-1.7395018339157104,80.0,296900.0,1.0
1126029.5630477,277867.0625,245248.359375,283415.03125,259854.15625,262439.34375,232645.546875,237644.921875,241042.65625,-0.05322265625,0.95947265625,-0.195068359375,1.2817381620407104,-5.279540538787842,-1.8310545682907104,80.0,296901.0,1.0
1126029.5719451,277955.5,245223.953125,283574.1875,259930.234375,262547.96875,232631.609375,237724.765625,241358.890625,-0.0537109375,0.962646484375,-0.191650390625,1.3732908964157104,-5.249022960662842,-1.7089842557907104,80.0,296902.0,1.0
1126029.5719882,277950.03125,245188.015625,283573.09375,259912.71875,262545.84375,232598.875,237728.25,241417.71875,-0.0537109375,0.962158203125,-0.19384765625,1.4038084745407104,-5.249022960662842,-1.8310545682907104,80.0,296903.0,1.0
1126029.5807947,277862.15625,245202.140625,283431.5,259834.484375,262456.25,232602.1875,237674.0625,241213.78125,-0.0556640625,0.962890625,-0.194580078125,1.4343260526657104,-5.340575695037842,-1.9836424589157104,80.0,296904.0,1.0
1126029.5808383,277809.21875,245225.46875,283329.03125,259792.109375,262388.125,232623.828125,237623.46875,240988.390625,-0.056396484375,0.964599609375,-0.19482421875,1.4648436307907104,-5.401610851287842,-1.9226073026657104,80.0,296905.0,1.0
1126029.591916,277863.40625,245224.671875,283406.625,259846.90625,262435.25,232632.859375,237638.484375,241037.5625,-0.055908203125,0.963623046875,-0.1962890625,1.4343260526657104,-5.310058116912842,-2.075195074081421,80.0,296906.0,1.0
1126029.5919607,277961.46875,245203.203125,283574.09375,259934.53125,262550.65625,232631.328125,237721.8125,241357.8125,-0.056396484375,0.964111328125,-0.196533203125,1.3122557401657104,-5.340575695037842,-2.014159917831421,80.0,296907.0,1.0
1126029.5987827,277952.375,245173.875,283572.03125,259917.0,262546.65625,232601.109375,237731.46875,241422.71875,-0.05712890625,0.963134765625,-0.194091796875,1.3427733182907104,-5.493163585662842,-2.075195074081421,80.0,296908.0,1.0
1126029.5988252,277865.09375,245193.015625,283432.46875,259838.6875,262458.65625,232610.5,237682.65625,241219.234375,-0.05859375,0.962646484375,-0.1943359375,1.2207030057907104,-5.462646007537842,-1.9531248807907104,80.0,296909.0,1.0
1126029.5988375,277809.84375,245216.265625,283327.6875,259794.0625,262390.28125,232631.0625,237627.578125,240987.40625,-0.0595703125,0.961181640625,-0.196533203125,1.2817381620407104,-5.432128429412842,-2.136230230331421,80.0,296910.0,1.0
1126029.6019416,277861.78125,245213.84375,283403.875,259846.46875,262435.96875,232635.265625,237640.09375,241031.390625,-0.05908203125,0.9619140625,-0.195068359375,1.2512205839157104,-5.462646007537842,-2.288818120956421,80.0,296911.0,1.0
1126029.6019853,277948.34375,245187.65625,283562.1875,259923.0,262541.71875,232623.640625,237714.125,241342.34375,-0.05810546875,0.963134765625,-0.19677734375,1.2207030057907104,-5.462646007537842,-2.288818120956421,80.0,296912.0,1.0
1126029.6102291,277945.65625,245154.21875,283565.0625,259912.796875,262541.0,232600.046875,237728.25,241413.78125,-0.059326171875,0.96240234375,-0.197265625,1.1291502714157104,-5.462646007537842,-2.410888433456421,80.0,296913.0,1.0
1126029.614458,277865.71875,245179.78125,283429.875,259838.5,262455.53125,232607.640625,237679.078125,241214.859375,-0.06005859375,0.96240234375,-0.19873046875,1.1901854276657104,-5.401610851287842,-2.532958745956421,80.0,296914.0,1.0
1126029.6145009,277814.84375,245221.984375,283330.8125,259797.734375,262391.53125,232630.4375,237625.703125,240986.328125,-0.05908203125,0.962890625,-0.20166015625,1.1901854276657104,-5.432128429412842,-2.532958745956421,80.0,296915.0,1.0
1126029.617542,277867.4375,245223.859375,283409.9375,259853.4375,262439.8125,232640.546875,237644.46875,241036.484375,-0.058349609375,0.962158203125,-0.2001953125,1.2207030057907104,-5.371093273162842,-2.471923589706421,80.0,296916.0,1.0
1126029.6313964,277965.40625,245210.546875,283582.3125,259943.203125,262556.9375,232641.703125,237734.421875,241364.25,-0.058349609375,0.961669921875,-0.201171875,1.1291502714157104,-5.279540538787842,-2.532958745956421,80.0,296917.0,1.0
1126029.6388492,277955.65625,245181.921875,283580.53125,259923.703125,262548.15625,232604.6875,237733.34375,241425.046875,-0.05810546875,0.961669921875,-0.19873046875,1.1291502714157104,-5.126952648162842,-2.471923589706421,80.0,296918.0,1.0
1126029.6388918,277868.59375,245200.890625,283437.375,259839.21875,262454.5625,232606.390625,237672.28125,241215.65625,-0.057861328125,0.96435546875,-0.198486328125,1.0681151151657104,-5.218505382537842,-2.227782964706421,80.0,296919.0,1.0
1126029.6389043,277811.09375,245218.234375,283327.875,259791.5625,262382.03125,232622.21875,237613.71875,240981.671875,-0.058349609375,0.96240234375,-0.1982421875,1.0070799589157104,-5.096435070037842,-2.166747808456421,80.0,296920.0,1.0
1126029.6419286,277866.25,245213.046875,283405.1875,259848.78125,262433.71875,232632.59375,237635.625,241032.46875,-0.05712890625,0.962890625,-0.196044921875,0.7934569716453552,-4.821776866912842,-2.075195074081421,80.0,296921.0,1.0
1126029.6419705,277962.90625,245192.21875,283572.65625,259934.625,262552.90625,232631.15625,237722.609375,241358.0,-0.05859375,0.962158203125,-0.196044921875,0.7019042372703552,-4.760741710662842,-1.9836424589157104,80.0,296922.0,1.0
1126029.6501247,277955.03125,245161.28125,283572.03125,259915.3125,262546.09375,232599.953125,237728.609375,241423.53125,-0.058837890625,0.963623046875,-0.198974609375,0.6408690810203552,-4.638671398162842,-1.9226073026657104,80.0,296923.0,1.0
1126029.6568453,277871.90625,245177.015625,283434.625,259837.34375,262459.375,232607.828125,237676.125,241220.21875,-0.05908203125,0.965087890625,-0.19580078125,0.4882812201976776,-4.516601085662842,-1.7395018339157104,80.0,296924.0,1.0
1126029.6568948,277822.1875,245203.921875,283333.6875,259798.546875,262392.875,232632.9375,237623.28125,240992.859375,-0.05859375,0.96630859375,-0.1953125,0.2746581733226776,-4.394530773162842,-1.6174315214157104,80.0,296925.0,1.0
1126029.6731542,277877.4375,245214.296875,283411.46875,259853.890625,262438.0,232642.328125,237639.109375,241036.578125,-0.06005859375,0.965576171875,-0.19580078125,0.0915527269244194,-4.211425304412842,-1.5258787870407104,80.0,296926.0,1.0
1126029.6732078,277972.5625,245205.625,283577.75,259937.203125,262551.5625,232640.1875,237720.734375,241353.796875,-0.058837890625,0.967529296875,-0.1953125,0.03051757626235485,-4.089354991912842,-1.4953612089157104,80.0,296927.0,1.0
1126029.6756985,277968.90625,245186.40625,283583.375,259926.65625,262553.78125,232616.5,237736.5625,241431.75,-0.060791015625,0.968505859375,-0.194580078125,-0.0610351525247097,-3.997802495956421,-1.3732908964157104,80.0,296928.0,1.0
1126029.675743,277869.84375,245200.703125,283434.78125,259838.953125,262455.625,232614.96875,237677.203125,241222.546875,-0.064208984375,0.967529296875,-0.191650390625,-0.1831054538488388,-3.784179449081421,-1.4648436307907104,80.0,296929.0,1.0
1126029.6775361,277813.40625,245230.03125,283329.75,259793.984375,262388.84375,232637.859375,237618.453125,240987.40625,-0.065673828125,0.968017578125,-0.19384765625,-0.3662109076976776,-3.723144292831421,-1.3732908964157104,80.0,296930.0,1.0
1126029.680129,277859.5625,245222.875,283399.9375,259843.15625,262429.96875,232641.171875,237625.609375,241024.0625,-0.06591796875,0.968017578125,-0.19580078125,-0.6103515028953552,-3.692626714706421,-1.2817381620407104,80.0,296931.0,1.0
1126029.6889176,277951.375,245199.984375,283563.90625,259925.59375,262541.375,232635.09375,237710.71875,241342.4375,-0.06640625,0.965576171875,-0.19677734375,-0.8544921278953552,-3.570556402206421,-1.2512205839157104,80.0,296932.0,1.0
1126029.6919664,277952.09375,245168.25,283573.09375,259915.21875,262547.28125,232609.4375,237727.4375,241420.484375,-0.066650390625,0.964599609375,-0.196533203125,-0.9765624403953552,-3.509521245956421,-1.2512205839157104,80.0,296933.0,1.0
1126029.692008,277869.5625,245184.703125,283436.75,259840.03125,262458.3125,232612.46875,237675.3125,241223.796875,-0.06787109375,0.96435546875,-0.197265625,-1.0681151151657104,-3.417968511581421,-1.1901854276657104,80.0,296934.0,1.0
1126029.7001235,277811.90625,245215.375,283326.625,259792.640625,262386.25,232630.4375,237616.3125,240988.46875,-0.068603515625,0.96533203125,-0.193603515625,-1.1901854276657104,-3.417968511581421,-1.1901854276657104,80.0,296935.0,1.0
1126029.7044441,277862.0625,245222.703125,283398.6875,259844.859375,262429.59375,232640.71875,237633.390625,241026.03125,-0.0673828125,0.966552734375,-0.195556640625,-1.2512205839157104,-3.295898199081421,-1.1901854276657104,80.0,296936.0,1.0
1126029.7044861,277954.59375,245196.859375,283566.03125,259929.15625,262541.53125,232635.453125,237715.828125,241342.703125,-0.068359375,0.964599609375,-0.197998046875,-1.3427733182907104,-3.234863042831421,-1.1596678495407104,80.0,296937.0,1.0
1126029.7108431,277955.40625,245176.75,283576.40625,259919.859375,262545.03125,232610.5,237725.75,241417.359375,-0.069580078125,0.964111328125,-0.197509765625,-1.4343260526657104,-3.234863042831421,-1.2207030057907104,80.0,296938.0,1.0
1126029.7108889,277870.03125,245202.765625,283437.46875,259843.59375,262458.3125,232612.46875,237675.3125,241219.40625,-0.068359375,0.96435546875,-0.1943359375,-1.4953612089157104,-3.051757574081421,-1.1291502714157104,80.0,296939.0,1.0
1126029.7126243,277808.78125,245230.296875,283326.53125,259795.046875,262386.96875,232627.578125,237619.53125,240984.359375,-0.06787109375,0.9619140625,-0.193603515625,-1.6479490995407104,-3.021239995956421,-1.1596678495407104,80.0,296940.0,1.0
1126029.7264014,277860.28125,245229.578125,283399.46875,259848.25,262430.875,232638.125,237633.75,241020.484375,-0.06640625,0.961669921875,-0.193115234375,-1.6479490995407104,-2.960204839706421,-1.2512205839157104,80.0,296941.0,1.0
1126029.7292909,277958.625,245215.28125,283570.4375,259935.875,262547.90625,232632.3125,237717.34375,241342.53125,-0.06689453125,0.961669921875,-0.19384765625,-1.6174315214157104,-2.868652105331421,-1.0681151151657104,80.0,296942.0,1.0
1126029.7293337,277963.28125,245189.078125,283586.78125,259931.40625,262556.21875,232608.09375,237735.9375,241433.1875,-0.0673828125,0.96142578125,-0.19287109375,-1.5869139432907104,-2.777099370956421,-1.0986326932907104,80.0,296943.0,1.0
1126029.7312642,277879.65625,245202.765625,283448.375,259852.546875,262468.59375,232613.984375,237682.921875,241233.71875,-0.06591796875,0.959228515625,-0.192626953125,-1.5258787870407104,-2.655029058456421,-1.0986326932907104,80.0,296944.0,1.0
1126029.7350074,277818.78125,245233.421875,283334.125,259800.234375,262390.4375,232629.1875,237623.375,240992.40625,-0.066162109375,0.959228515625,-0.19580078125,-1.4648436307907104,-2.441406011581421,-0.8544921278953552,80.0,296945.0,1.0
1126029.7487501,277874.40625,245240.84375,283408.59375,259852.359375,262432.8125,232638.390625,237635.796875,241021.203125,-0.067138671875,0.95849609375,-0.196533203125,-1.4648436307907104,-2.471923589706421,-0.7934569716453552,80.0,296946.0,1.0
1126029.7518022,277967.8125,245207.234375,283575.78125,259936.9375,262542.53125,232632.59375,237717.078125,241336.625,-0.0693359375,0.959228515625,-0.192626953125,-1.3427733182907104,-2.380370855331421,-0.6713866591453552,80.0,296947.0,1.0
1126029.7518369,277970.25,245176.75,283588.75,259929.25,262548.53125,232609.15625,237734.328125,241423.625,-0.069091796875,0.960693359375,-0.19140625,-1.2512205839157104,-2.258300542831421,-0.5798339247703552,80.0,296948.0,1.0
1126029.7537313,277887.09375,245204.375,283453.03125,259853.609375,262462.5,232615.59375,237684.265625,241231.125,-0.067626953125,0.9599609375,-0.188720703125,-1.1901854276657104,-2.105712652206421,-0.3356933295726776,80.0,296949.0,1.0
1126029.7562314,277822.28125,245238.25,283335.8125,259798.890625,262387.40625,232630.890625,237621.859375,240987.125,-0.066650390625,0.95849609375,-0.189697265625,-1.0070799589157104,-1.8920897245407104,-0.2136230319738388,80.0,296950.0,1.0
1126029.7649897,277870.1875,245246.21875,283404.03125,259847.890625,262427.65625,232638.84375,237630.890625,241010.28125,-0.068603515625,0.959228515625,-0.1923828125,-1.0375975370407104,-1.8920897245407104,-0.0610351525247097,80.0,296951.0,1.0
1126029.7680393,277967.375,245230.296875,283573.28125,259934.171875,262543.59375,232639.734375,237718.328125,241333.3125,-0.069580078125,0.959228515625,-0.191650390625,-0.9155272841453552,-1.9226073026657104,0.0,80.0,296952.0,1.0
1126029.7680818,277972.9375,245195.515625,283589.375,259930.6875,262554.59375,232617.203125,237745.328125,241432.46875,-0.068603515625,0.959228515625,-0.19140625,-0.9460448622703552,-1.7395018339157104,0.0915527269244194,80.0,296953.0,1.0
1126029.7812722,277886.1875,245208.84375,283452.0625,259852.453125,262467.96875,232619.171875,237695.078125,241239.796875,-0.068115234375,0.9599609375,-0.1904296875,-0.8850097060203552,-1.6479490995407104,0.2746581733226776,80.0,296954.0,1.0
1126029.784237,277826.75,245242.375,283341.90625,259804.265625,262397.25,232636.515625,237638.125,241000.359375,-0.067138671875,0.96044921875,-0.193359375,-0.8850097060203552,-1.5563963651657104,0.3967284858226776,80.0,296955.0,1.0
1126029.7842557,277873.0625,245239.859375,283407.0,259851.5625,262432.375,232642.6875,237637.859375,241014.3125,-0.0654296875,0.961669921875,-0.19384765625,-0.7324218153953552,-1.4953612089157104,0.4577636420726776,80.0,296956.0,1.0
1126029.7867559,277963.09375,245213.046875,283572.46875,259932.65625,262541.1875,232635.890625,237714.84375,241325.71875,-0.068115234375,0.961669921875,-0.189697265625,-0.7324218153953552,-1.4953612089157104,0.5493163466453552,80.0,296957.0,1.0
1126029.7867729,277967.65625,245184.25,283588.75,259928.71875,262552.0,232611.21875,237736.203125,241420.40625,-0.069091796875,0.963134765625,-0.187744140625,-0.7324218153953552,-1.4953612089157104,0.6103515028953552,80.0,296958.0,1.0
1126029.7949212,277880.375,245195.875,283451.0625,259851.734375,262467.25,232613.09375,237687.203125,241230.140625,-0.069091796875,0.96240234375,-0.189208984375,-0.7629393935203552,-1.3122557401657104,0.7324218153953552,80.0,296959.0,1.0
1126029.7992335,277820.40625,245218.140625,283338.25,259804.078125,262394.375,232632.859375,237630.609375,240994.203125,-0.069091796875,0.96240234375,-0.188232421875,-0.7934569716453552,-1.2512205839157104,0.7934569716453552,80.0,296960.0,1.0
1126029.7992509,277868.6875,245222.25,283405.1875,259853.171875,262432.28125,232640.984375,237638.21875,241016.546875,-0.0693359375,0.964599609375,-0.1904296875,-0.7629393935203552,-1.2207030057907104,0.7934569716453552,80.0,296961.0,1.0
1126029.8099173,277969.71875,245214.03125,283579.09375,259945.25,262551.125,232638.390625,237722.171875,241334.5625,-0.071533203125,0.96435546875,-0.193603515625,-0.7324218153953552,-1.1291502714157104,0.9155272841453552,80.0,296962.0,1.0
1126029.8129815,277976.40625,245188.015625,283595.90625,259942.84375,262564.25,232611.390625,237738.890625,241426.84375,-0.069580078125,0.963623046875,-0.193115234375,-0.7629393935203552,-1.1291502714157104,1.0070799589157104,80.0,296963.0,1.0
1126029.8129986,277893.34375,245204.28125,283461.34375,259863.890625,262478.6875,232614.53125,237693.46875,241237.296875,-0.068603515625,0.963623046875,-0.192138671875,-0.6713866591453552,-1.1901854276657104,0.9765624403953552,80.0,296964.0,1.0
1126029.8186471,277827.09375,245235.84375,283342.875,259805.328125,262400.0,232627.765625,237629.09375,240990.890625,-0.067138671875,0.96337890625,-0.189697265625,-0.7934569716453552,-1.0070799589157104,1.0070799589157104,80.0,296965.0,1.0
1126029.8230082,277875.1875,245235.9375,283408.34375,259854.421875,262438.46875,232638.484375,237635.4375,241005.90625,-0.068603515625,0.9658203125,-0.192626953125,-0.7324218153953552,-0.9765624403953552,1.0375975370407104,80.0,296966.0,1.0
1126029.8230258,277977.9375,245212.328125,283582.75,259944.0,262553.09375,232638.75,237717.421875,241322.671875,-0.069580078125,0.966064453125,-0.191650390625,-0.7324218153953552,-0.9765624403953552,1.0070799589157104,80.0,296967.0,1.0
1126029.8337096,277983.28125,245184.609375,283599.5625,259938.640625,262560.21875,232611.3125,237733.515625,241413.96875,-0.070068359375,0.96630859375,-0.190185546875,-0.7324218153953552,-0.9155272841453552,1.1901854276657104,80.0,296968.0,1.0
1126029.8367776,277902.28125,245205.265625,283467.15625,259864.078125,262477.1875,232615.421875,237685.78125,241226.203125,-0.0703125,0.9638671875,-0.190185546875,-0.7019042372703552,-0.9155272841453552,1.1596678495407104,80.0,296969.0,1.0
1126029.8367959,277844.625,245238.078125,283354.40625,259813.828125,262406.90625,232640.90625,237625.78125,240985.25,-0.06982421875,0.965576171875,-0.19091796875,-0.7629393935203552,-0.9155272841453552,1.2817381620407104,80.0,296970.0,1.0
1126029.8386285,277886.65625,245236.734375,283415.9375,259860.953125,262442.40625,232646.0,237629.90625,241002.25,-0.066650390625,0.962890625,-0.188720703125,-0.7934569716453552,-0.8850097060203552,1.2207030057907104,80.0,296971.0,1.0
1126029.847464,277981.78125,245226.1875,283586.875,259950.265625,262557.46875,232646.4375,237715.46875,241323.484375,-0.06787109375,0.962646484375,-0.186279296875,-0.7934569716453552,-0.7934569716453552,1.1901854276657104,80.0,296972.0,1.0
1126029.8518019,277989.03125,245203.828125,283607.1875,259944.546875,262568.625,232625.4375,237739.421875,241425.046875,-0.068115234375,0.963134765625,-0.185302734375,-0.7934569716453552,-0.7629393935203552,1.1596678495407104,80.0,296973.0,1.0
1126029.8518199,277902.1875,245214.296875,283468.0625,259863.453125,262479.9375,232621.234375,237687.921875,241237.203125,-0.07080078125,0.96337890625,-0.183837890625,-0.7324218153953552,-0.8850097060203552,1.1291502714157104,80.0,296974.0,1.0
1126029.8549677,277840.15625,245245.140625,283351.75,259812.9375,262405.75,232636.96875,237630.078125,241003.5,-0.0693359375,0.963134765625,-0.185791015625,-0.7629393935203552,-0.9155272841453552,1.0986326932907104,80.0,296975.0,1.0
1126029.8642858,277884.3125,245249.078125,283414.5,259861.9375,262442.40625,232646.09375,237637.328125,241021.828125,-0.070068359375,0.963134765625,-0.188720703125,-0.6713866591453552,-0.8850097060203552,1.0375975370407104,80.0,296976.0,1.0
1126029.8643184,277980.4375,245232.984375,283587.6875,259948.390625,262560.15625,232644.203125,237724.671875,241340.828125,-0.0703125,0.9619140625,-0.1884765625,-0.6103515028953552,-0.8544921278953552,1.0986326932907104,80.0,296977.0,1.0
1126029.8662776,277990.34375,245209.203125,283613.15625,259945.078125,262576.0625,232625.875,237751.140625,241446.328125,-0.069580078125,0.9619140625,-0.18603515625,-0.5493163466453552,-0.8239745497703552,1.0681151151657104,80.0,296978.0,1.0
1126029.8774401,277906.21875,245225.5625,283477.625,259867.03125,262488.71875,232628.109375,237701.96875,241259.828125,-0.071044921875,0.963134765625,-0.1865234375,-0.6103515028953552,-0.8239745497703552,1.1291502714157104,80.0,296979.0,1.0
1126029.8804601,277846.15625,245261.765625,283363.1875,259817.40625,262415.40625,232650.640625,237646.984375,241022.1875,-0.068359375,0.964111328125,-0.185302734375,-0.4272460639476776,-0.7934569716453552,1.0986326932907104,80.0,296980.0,1.0
1126029.8804922,277894.15625,245270.890625,283426.65625,259868.015625,262454.09375,232659.765625,237651.71875,241032.375,-0.0693359375,0.961669921875,-0.18505859375,-0.4272460639476776,-0.8239745497703552,1.0375975370407104,80.0,296981.0,1.0
1126029.8862377,277989.65625,245252.828125,283595.625,259954.46875,262564.4375,232654.40625,237732.890625,241345.921875,-0.068115234375,0.961669921875,-0.186279296875,-0.3356933295726776,-0.9155272841453552,1.0986326932907104,80.0,296982.0,1.0
1126029.8887675,277994.5625,245225.203125,283614.0625,259950.0,262574.8125,232626.0625,237753.28125,241447.484375,-0.068115234375,0.96142578125,-0.1845703125,-0.1831054538488388,-0.9155272841453552,1.0986326932907104,80.0,296983.0,1.0
1126029.8925197,277901.65625,245228.328125,283472.25,259867.203125,262483.96875,232621.40625,237698.75,241256.515625,-0.067138671875,0.96142578125,-0.188232421875,-0.3051757514476776,-0.9460448622703552,1.1596678495407104,80.0,296984.0,1.0
1126029.9018355,277830.3125,245245.3125,283350.40625,259812.578125,262401.625,232634.546875,237636.515625,241014.3125,-0.0673828125,0.96337890625,-0.18505859375,-0.2136230319738388,-0.9155272841453552,1.1901854276657104,80.0,296985.0,1.0
1126029.9018665,277869.9375,245241.390625,283406.375,259856.828125,262434.34375,232636.96875,237638.84375,241023.875,-0.068359375,0.961669921875,-0.185546875,-0.2441406100988388,-0.8544921278953552,1.1596678495407104,80.0,296986.0,1.0
1126029.9043661,277965.78125,245228.59375,283576.15625,259942.671875,262549.0625,232632.046875,237718.234375,241337.875,-0.0673828125,0.9619140625,-0.183837890625,-0.1220703050494194,-0.8239745497703552,1.1901854276657104,80.0,296987.0,1.0
1126029.9043974,277976.0625,245207.5,283600.65625,259941.0625,262565.25,232607.734375,237739.875,241444.8125,-0.06640625,0.96435546875,-0.18798828125,-0.1831054538488388,-0.7934569716453552,1.2207030057907104,80.0,296988.0,1.0
1126029.9125185,277893.09375,245225.296875,283466.71875,259864.796875,262479.3125,232609.609375,237690.15625,241260.71875,-0.066650390625,0.963623046875,-0.190185546875,-0.2136230319738388,-0.8544921278953552,1.2512205839157104,80.0,296989.0,1.0
1126029.9162471,277829.15625,245250.953125,283349.21875,259814.546875,262403.9375,232635.453125,237638.21875,241024.0625,-0.067138671875,0.96435546875,-0.18798828125,-0.1831054538488388,-0.7629393935203552,1.2817381620407104,80.0,296990.0,1.0
1126029.9200254,277872.0625,245257.296875,283408.875,259859.34375,262439.25,232647.421875,237646.265625,241032.1875,-0.066650390625,0.964111328125,-0.190185546875,-0.2136230319738388,-0.7019042372703552,1.2207030057907104,80.0,296991.0,1.0
1126029.9262616,277962.8125,245248.1875,283576.0625,259941.6875,262551.84375,232641.96875,237724.578125,241341.0,-0.064453125,0.964111328125,-0.192138671875,-0.1831054538488388,-0.7629393935203552,1.2512205839157104,80.0,296992.0,1.0
1126029.930611,277973.71875,245236.46875,283603.0625,259940.421875,262568.0,232619.0,237748.28125,241444.1875,-0.064697265625,0.96484375,-0.190185546875,-0.1525878757238388,-0.7324218153953552,1.3732908964157104,80.0,296993.0,1.0
1126029.9306459,277902.03125,245259.984375,283478.59375,259871.671875,262492.09375,232631.0625,237711.078125,241268.859375,-0.065185546875,0.966796875,-0.191650390625,-0.1831054538488388,-0.6408690810203552,1.2817381620407104,80.0,296994.0,1.0
1126029.9462936,277841.9375,245288.328125,283361.84375,259818.5625,262413.875,232651.09375,237651.890625,241028.078125,-0.064453125,0.966796875,-0.1884765625,-0.1831054538488388,-0.7324218153953552,1.4648436307907104,80.0,296995.0,1.0
1126029.9504857,277873.25,245274.28125,283405.46875,259847.625,262431.40625,232642.875,237639.640625,241016.71875,-0.064697265625,0.96826171875,-0.19287109375,-0.2136230319738388,-0.6713866591453552,1.4648436307907104,80.0,296996.0,1.0
1126029.9505166,277969.4375,245243.703125,283573.375,259932.296875,262542.34375,232634.828125,237718.765625,241327.6875,-0.06396484375,0.967041015625,-0.19140625,-0.2746581733226776,-0.5798339247703552,1.4953612089157104,80.0,296997.0,1.0
1126029.9505233,277984.90625,245217.0625,283603.25,259936.40625,262560.0625,232612.65625,237745.0625,241436.21875,-0.066162109375,0.964111328125,-0.18896484375,-0.2746581733226776,-0.5187987685203552,1.4648436307907104,80.0,296998.0,1.0
1126029.9505296,277896.75,245234.953125,283463.5,259853.34375,262470.8125,232609.34375,237687.390625,241248.203125,-0.06640625,0.963623046875,-0.188720703125,-0.3051757514476776,-0.4577636420726776,1.4038084745407104,80.0,296999.0,1.0
1126029.9525586,277831.40625,245276.171875,283344.9375,259799.96875,262394.65625,232626.6875,237624.890625,241006.171875,-0.066162109375,0.96142578125,-0.190673828125,-0.5187987685203552,-0.4882812201976776,1.3122557401657104,80.0,297000.0,1.0
1126029.9836361,277875.8125,245283.40625,283403.6875,259849.40625,262430.78125,232641.53125,237633.390625,241010.109375,-0.06494140625,0.9609375,-0.188232421875,-0.5187987685203552,-0.3662109076976776,1.4038084745407104,80.0,297001.0,1.0
1126029.990156,277967.03125,245261.40625,283570.0625,259931.671875,262545.03125,232635.8125,237714.03125,241320.171875,-0.064208984375,0.96142578125,-0.189208984375,-0.4882812201976776,-0.3356933295726776,1.4648436307907104,80.0,297002.0,1.0
1126029.9926085,277976.0625,245239.234375,283596.625,259931.9375,262561.9375,232610.765625,237742.015625,241433.90625,-0.0634765625,0.96240234375,-0.1904296875,-0.3967284858226776,-0.2441406100988388,1.4038084745407104,80.0,297003.0,1.0
1126029.995123,277892.625,245251.125,283462.25,259855.5,262476.46875,232607.734375,237688.640625,241250.703125,-0.060791015625,0.96240234375,-0.187744140625,-0.3356933295726776,-0.1525878757238388,1.4648436307907104,80.0,297004.0,1.0
1126029.9977388,277828.53125,245283.3125,283344.0625,259804.265625,262400.46875,232629.546875,237635.625,241015.5625,-0.0615234375,0.966064453125,-0.188720703125,-0.3051757514476776,-0.1831054538488388,1.5258787870407104,80.0,297005.0,1.0
1126030.0001146,277868.84375,245289.9375,283398.125,259845.125,262431.03125,232636.875,237631.78125,241008.234375,-0.05908203125,0.9658203125,-0.190185546875,-0.2746581733226776,0.03051757626235485,1.5258787870407104,80.0,297006.0,1.0
1126030.005914,277969.78125,245276.703125,283573.09375,259938.109375,262552.375,232637.59375,237719.390625,241325.984375,-0.05859375,0.96435546875,-0.18701171875,-0.4882812201976776,0.1220703050494194,1.6479490995407104,80.0,297007.0,1.0
1126030.0088336,277976.9375,245242.8125,283597.875,259935.875,262571.3125,232612.65625,237743.71875,241437.296875,-0.059814453125,0.966064453125,-0.188720703125,-0.6103515028953552,0.2441406100988388,1.7395018339157104,80.0,297008.0,1.0
1126030.0114419,277891.5625,245248.09375,283462.59375,259855.5,262485.84375,232614.703125,237695.703125,241256.96875,-0.059814453125,0.965087890625,-0.189697265625,-0.6408690810203552,0.3967284858226776,1.8005369901657104,80.0,297009.0,1.0
1126030.0138684,277826.46875,245277.234375,283342.625,259801.21875,262406.71875,232639.03125,237639.375,241017.796875,-0.060791015625,0.966064453125,-0.19140625,-0.5187987685203552,0.4882812201976776,1.8310545682907104,80.0,297010.0,1.0
1126030.0163882,277875.46875,245290.015625,283402.625,259850.125,262442.03125,232655.921875,237644.46875,241017.0,-0.062255859375,0.963134765625,-0.190185546875,-0.5187987685203552,0.5187987685203552,1.9226073026657104,80.0,297011.0,1.0
1126030.0194675,277975.0625,245273.21875,283576.875,259939.53125,262558.25,232653.6875,237726.109375,241326.703125,-0.063232421875,0.9609375,-0.189697265625,-0.3662109076976776,0.5493163466453552,1.9226073026657104,80.0,297012.0,1.0
1126030.0195106,277982.03125,245248.984375,283601.53125,259939.984375,262570.96875,232621.140625,237748.984375,241439.171875,-0.063232421875,0.961669921875,-0.19091796875,-0.3356933295726776,0.6103515028953552,1.8920897245407104,80.0,297013.0,1.0
1126030.0220123,277898.90625,245265.078125,283468.21875,259861.296875,262483.78125,232619.796875,237697.484375,241258.125,-0.0634765625,0.961669921875,-0.18994140625,-0.4272460639476776,0.6103515028953552,1.8310545682907104,80.0,297014.0,1.0
1126030.0220491,277832.90625,245292.34375,283347.28125,259804.171875,262406.0,232640.1875,237637.234375,241016.28125,-0.0625,0.960205078125,-0.19140625,-0.2441406100988388,0.7324218153953552,1.8005369901657104,80.0,297015.0,1.0
1126030.0238197,277870.8125,245298.421875,283398.9375,259845.390625,262432.5625,232642.953125,237633.390625,241010.203125,-0.06396484375,0.9609375,-0.1943359375,-0.1525878757238388,0.8239745497703552,1.8615721464157104,80.0,297016.0,1.0
1126030.0281308,277969.0,245281.890625,283573.09375,259934.265625,262548.625,232636.875,237712.953125,241318.65625,-0.061279296875,0.959716796875,-0.19189453125,-0.0915527269244194,0.8239745497703552,1.8005369901657104,80.0,297017.0,1.0
1126030.0281709,277985.34375,245261.328125,283608.25,259939.53125,262572.5625,232617.5625,237742.375,241434.96875,-0.06103515625,0.958251953125,-0.190185546875,0.0,0.7934569716453552,1.8005369901657104,80.0,297018.0,1.0
1126030.0419443,277904.875,245276.078125,283477.4375,259864.34375,262488.875,232619.53125,237698.203125,241260.8125,-0.06005859375,0.959716796875,-0.193603515625,0.0915527269244194,0.9155272841453552,1.8310545682907104,80.0,297019.0,1.0
1126030.0419886,277837.125,245304.15625,283354.34375,259809.0,262409.75,232640.984375,237641.515625,241020.21875,-0.05908203125,0.96044921875,-0.1923828125,0.1831054538488388,0.9155272841453552,1.8920897245407104,80.0,297020.0,1.0
1126030.0441115,277877.625,245299.59375,283404.21875,259848.34375,262436.03125,232647.421875,237638.84375,241010.375,-0.0595703125,0.960693359375,-0.19287109375,0.1831054538488388,0.9155272841453552,1.8310545682907104,80.0,297021.0,1.0
1126030.0463891,277974.0,245268.5625,283572.65625,259934.96875,262547.09375,232640.359375,237716.984375,241319.015625,-0.0576171875,0.960205078125,-0.192626953125,0.1525878757238388,0.9765624403953552,1.8615721464157104,80.0,297022.0,1.0
1126030.0488885,277988.21875,245245.765625,283605.375,259939.453125,262566.3125,232616.578125,237743.8125,241440.609375,-0.058349609375,0.96240234375,-0.192626953125,0.3356933295726776,1.0986326932907104,1.8920897245407104,80.0,297023.0,1.0
1126030.0581491,277903.53125,245266.6875,283475.9375,259864.34375,262484.15625,232619.359375,237698.828125,241266.0,-0.060302734375,0.964111328125,-0.189697265625,0.4272460639476776,1.0375975370407104,1.8310545682907104,80.0,297024.0,1.0
1126030.0581947,277833.625,245300.21875,283353.53125,259806.765625,262406.625,232643.578125,237640.984375,241021.46875,-0.062255859375,0.96728515625,-0.18798828125,0.3662109076976776,1.0070799589157104,1.8005369901657104,80.0,297025.0,1.0
1126030.0670901,277868.6875,245295.65625,283398.0625,259843.0625,262427.90625,232651.984375,237634.90625,241005.109375,-0.0634765625,0.9697265625,-0.185302734375,0.3967284858226776,1.0375975370407104,1.8310545682907104,80.0,297026.0,1.0
1126030.0671363,277965.5,245272.953125,283566.65625,259926.84375,262538.25,232648.671875,237714.921875,241310.515625,-0.06689453125,0.971923828125,-0.186279296875,0.3051757514476776,0.9765624403953552,1.6174315214157104,80.0,297027.0,1.0
1126030.0694592,277983.125,245243.890625,283600.90625,259932.828125,262557.46875,232622.84375,237743.890625,241432.46875,-0.065673828125,0.973388671875,-0.185791015625,0.3662109076976776,0.8544921278953552,1.6784666776657104,80.0,297028.0,1.0
1126030.0695025,277901.21875,245250.6875,283473.25,259858.984375,262474.40625,232619.984375,237696.15625,241257.328125,-0.067626953125,0.9716796875,-0.187255859375,0.1831054538488388,0.6408690810203552,1.5563963651657104,80.0,297029.0,1.0
1126030.0725683,277837.21875,245287.609375,283355.3125,259805.421875,262400.46875,232642.0625,237637.671875,241015.203125,-0.068359375,0.97216796875,-0.186767578125,0.03051757626235485,0.5187987685203552,1.4343260526657104,80.0,297030.0,1.0
1126030.0862217,277876.09375,245295.125,283403.3125,259845.84375,262427.71875,232653.15625,237637.328125,240999.109375,-0.067626953125,0.968994140625,-0.18701171875,-0.0610351525247097,0.3967284858226776,1.2512205839157104,80.0,297031.0,1.0
1126030.0945233,277971.03125,245269.375,283570.6875,259930.5,262537.78125,232646.796875,237714.390625,241303.984375,-0.06787109375,0.97119140625,-0.187744140625,-0.0915527269244194,0.2441406100988388,1.1901854276657104,80.0,297032.0,1.0
1126030.0945664,277989.03125,245240.140625,283608.25,259935.953125,262559.78125,232619.265625,237740.40625,241428.359375,-0.06640625,0.9697265625,-0.186767578125,-0.1220703050494194,0.0610351525247097,1.0986326932907104,80.0,297033.0,1.0
1126030.0963985,277910.78125,245251.3125,283481.375,259862.375,262479.125,232617.828125,237694.8125,241260.0,-0.065673828125,0.972412109375,-0.190185546875,-0.0915527269244194,-0.0610351525247097,1.0681151151657104,80.0,297034.0,1.0
1126030.0988508,277844.96875,245284.125,283361.9375,259810.34375,262408.40625,232646.796875,237643.671875,241024.953125,-0.06494140625,0.97021484375,-0.189697265625,-0.1220703050494194,-0.1220703050494194,1.1596678495407104,80.0,297035.0,1.0
1126030.1013449,277885.65625,245300.21875,283414.59375,259856.125,262444.8125,232659.671875,237654.046875,241022.71875,-0.061279296875,0.968994140625,-0.19091796875,-0.2746581733226776,-0.3051757514476776,1.0375975370407104,80.0,297036.0,1.0
1126030.1051915,277980.15625,245284.390625,283586.25,259944.1875,262560.5,232656.453125,237734.6875,241328.84375,-0.058837890625,0.9677734375,-0.1904296875,-0.3967284858226776,-0.4272460639476776,1.0986326932907104,80.0,297037.0,1.0
1126030.1119728,277985.8125,245242.90625,283613.78125,259942.84375,262574.28125,232621.59375,237750.0625,241440.78125,-0.0576171875,0.96484375,-0.18896484375,-0.5493163466453552,-0.4272460639476776,1.2817381620407104,80.0,297038.0,1.0
1126030.112016,277906.6875,245257.03125,283486.375,259868.8125,262493.71875,232619.890625,237705.984375,241271.53125,-0.056640625,0.962890625,-0.191162109375,-0.3967284858226776,-0.4272460639476776,1.3427733182907104,80.0,297039.0,1.0
1126030.1256917,277837.5625,245287.421875,283358.875,259808.375,262412.53125,232636.609375,237647.421875,241031.296875,-0.055419921875,0.96240234375,-0.193603515625,-0.3662109076976776,-0.4272460639476776,1.4953612089157104,80.0,297040.0,1.0
1126030.1257341,277872.875,245297.71875,283400.71875,259844.40625,262437.9375,232640.359375,237646.890625,241014.578125,-0.054931640625,0.96435546875,-0.191650390625,-0.3356933295726776,-0.3967284858226776,1.5563963651657104,80.0,297041.0,1.0
1126030.1276857,277968.8125,245278.671875,283568.46875,259931.9375,262549.5,232633.84375,237724.84375,241316.328125,-0.055419921875,0.96142578125,-0.1904296875,-0.3356933295726776,-0.4882812201976776,1.5563963651657104,80.0,297042.0,1.0
1126030.1301895,277987.75,245244.96875,283609.59375,259940.609375,262572.65625,232608.625,237755.875,241447.046875,-0.0546875,0.959716796875,-0.192626953125,-0.2136230319738388,-0.3967284858226776,1.6479490995407104,80.0,297043.0,1.0
1126030.1325646,277910.59375,245254.4375,283484.78125,259867.734375,262489.875,232606.484375,237710.90625,241276.625,-0.053466796875,0.95947265625,-0.1923828125,-0.1831054538488388,-0.3051757514476776,1.7089842557907104,80.0,297044.0,1.0
1126030.1419693,277845.0625,245291.453125,283362.09375,259811.59375,262412.25,232631.875,237655.5625,241035.5,-0.05419921875,0.9619140625,-0.19189453125,-0.1525878757238388,-0.2746581733226776,1.8310545682907104,80.0,297045.0,1.0
1126030.1420118,277890.3125,245314.703125,283413.4375,259857.640625,262444.90625,232650.828125,237664.59375,241026.109375,-0.053955078125,0.96044921875,-0.19091796875,-0.0610351525247097,-0.3662109076976776,1.8005369901657104,80.0,297046.0,1.0
1126030.1439061,277984.09375,245283.046875,283578.21875,259939.984375,262552.8125,232643.3125,237735.671875,241323.921875,-0.05419921875,0.95849609375,-0.189697265625,0.0,-0.3356933295726776,1.8615721464157104,80.0,297047.0,1.0
1126030.1527269,277999.375,245241.65625,283614.3125,259942.390625,262575.53125,232614.890625,237759.359375,241447.671875,-0.053466796875,0.960693359375,-0.193603515625,0.0610351525247097,-0.3356933295726776,2.014159917831421,80.0,297048.0,1.0
1126030.1569618,277915.4375,245253.546875,283486.5625,259865.6875,262494.96875,232611.578125,237714.03125,241277.265625,-0.0517578125,0.961181640625,-0.18798828125,-0.03051757626235485,-0.2136230319738388,1.9836424589157104,80.0,297049.0,1.0
1126030.1570043,277844.8125,245282.953125,283362.375,259807.390625,262413.4375,232634.546875,237655.5625,241033.890625,-0.0517578125,0.9599609375,-0.1884765625,-0.0610351525247097,-0.0915527269244194,1.8615721464157104,80.0,297050.0,1.0
1126030.1588447,277879.75,245284.390625,283404.5625,259845.65625,262437.75,232647.25,237651.984375,241010.203125,-0.05517578125,0.960205078125,-0.189208984375,-0.03051757626235485,-0.2136230319738388,1.8005369901657104,80.0,297051.0,1.0
1126030.1732198,277968.71875,245259.171875,283568.1875,259928.8125,262547.4375,232646.796875,237724.578125,241307.5625,-0.052978515625,0.96142578125,-0.1884765625,-0.0610351525247097,-0.1525878757238388,1.8310545682907104,80.0,297052.0,1.0
1126030.1732625,277996.15625,245240.765625,283618.09375,259945.4375,262583.3125,232633.21875,237762.046875,241446.234375,-0.05322265625,0.96142578125,-0.18798828125,-0.0915527269244194,-0.0915527269244194,1.8615721464157104,80.0,297053.0,1.0
1126030.175226,277919.90625,245261.765625,283498.0,259875.4375,262509.0,232638.390625,237720.203125,241284.328125,-0.0546875,0.960693359375,-0.19091796875,-0.0915527269244194,0.03051757626235485,1.7089842557907104,80.0,297054.0,1.0
1126030.1776649,277850.15625,245300.84375,283375.59375,259817.765625,262429.34375,232665.84375,237661.734375,241045.0625,-0.05419921875,0.9609375,-0.19091796875,-0.0915527269244194,0.03051757626235485,1.6479490995407104,80.0,297055.0,1.0
1126030.1801006,277879.59375,245300.03125,283413.0625,259851.640625,262447.21875,232670.859375,237652.15625,241016.375,-0.05322265625,0.960693359375,-0.190185546875,-0.03051757626235485,-0.0610351525247097,1.6174315214157104,80.0,297056.0,1.0
1126030.1894693,277972.21875,245274.109375,283578.03125,259937.5625,262558.09375,232664.0625,237727.53125,241315.171875,-0.05419921875,0.961181640625,-0.193603515625,-0.0610351525247097,0.0,1.5258787870407104,80.0,297057.0,1.0
1126030.1895125,277991.875,245249.703125,283616.28125,259944.0,262581.25,232634.109375,237751.84375,241445.96875,-0.051025390625,0.961181640625,-0.19287109375,0.0,0.1220703050494194,1.4648436307907104,80.0,297058.0,1.0
1126030.1915033,277914.09375,245257.296875,283492.03125,259872.296875,262500.0625,232630.4375,237706.703125,241281.90625,-0.052001953125,0.9619140625,-0.191650390625,0.0,0.1525878757238388,1.3732908964157104,80.0,297059.0,1.0
1126030.2001404,277836.5625,245282.15625,283359.875,259811.0625,262416.03125,232645.28125,237645.09375,241038.1875,-0.05322265625,0.961669921875,-0.19482421875,0.03051757626235485,0.1220703050494194,1.3427733182907104,80.0,297060.0,1.0
1126030.2025837,277866.53125,245295.03125,283396.34375,259843.78125,262434.0,232650.28125,237634.640625,241010.015625,-0.054443359375,0.9619140625,-0.19287109375,0.0915527269244194,0.0610351525247097,1.1901854276657104,80.0,297061.0,1.0
1126030.2050691,277964.15625,245274.109375,283568.375,259934.078125,262547.71875,232650.734375,237713.140625,241310.515625,-0.05419921875,0.9609375,-0.190673828125,0.1220703050494194,0.1525878757238388,1.2817381620407104,80.0,297062.0,1.0
1126030.2145777,277989.375,245246.84375,283615.40625,259947.5,262575.96875,232628.828125,237747.828125,241446.328125,-0.0546875,0.9619140625,-0.192626953125,0.1525878757238388,0.2441406100988388,1.2207030057907104,80.0,297063.0,1.0
1126030.2146216,277907.5625,245251.75,283490.21875,259873.109375,262494.25,232624.09375,237704.46875,241284.328125,-0.053466796875,0.962890625,-0.188720703125,0.3051757514476776,0.0915527269244194,1.1596678495407104,80.0,297064.0,1.0
1126030.2163498,277839.625,245283.5,283366.65625,259816.0625,262415.5625,232648.140625,237647.25,241043.1875,-0.05419921875,0.962158203125,-0.190673828125,0.2746581733226776,0.1220703050494194,1.0986326932907104,80.0,297065.0,1.0
1126030.2201321,277878.5,245292.890625,283409.9375,259853.890625,262438.28125,232661.828125,237642.421875,241012.703125,-0.052978515625,0.962890625,-0.19140625,0.1525878757238388,0.0610351525247097,1.1901854276657104,80.0,297066.0,1.0
1126030.2344719,277974.4375,245281.625,283580.0,259942.3125,262552.28125,232661.734375,237719.84375,241311.765625,-0.055419921875,0.965087890625,-0.193115234375,0.2441406100988388,0.2441406100988388,1.1596678495407104,80.0,297067.0,1.0
1126030.2345145,277988.46875,245247.203125,283619.59375,259946.6875,262575.0625,232631.78125,237745.953125,241444.984375,-0.056640625,0.9658203125,-0.193603515625,0.2746581733226776,0.1525878757238388,1.1291502714157104,80.0,297068.0,1.0
1126030.2370821,277912.3125,245247.640625,283497.375,259873.109375,262498.09375,232629.28125,237703.484375,241283.15625,-0.056884765625,0.967529296875,-0.18994140625,0.1220703050494194,0.0,1.1291502714157104,80.0,297069.0,1.0
1126030.2371281,277850.875,245284.296875,283376.59375,259819.546875,262422.1875,232654.046875,237648.859375,241045.15625,-0.057861328125,0.966796875,-0.191162109375,0.0610351525247097,-0.0610351525247097,1.1901854276657104,80.0,297070.0,1.0
1126030.2388895,277881.28125,245293.515625,283411.0,259852.0,262439.1875,232661.640625,237643.671875,241011.1875,-0.056884765625,0.967529296875,-0.194580078125,0.0915527269244194,-0.0610351525247097,1.1901854276657104,80.0,297071.0,1.0
1126030.2475412,277972.03125,245265.34375,283575.6875,259936.9375,262547.53125,232655.109375,237718.328125,241304.796875,-0.05859375,0.967041015625,-0.1923828125,0.0610351525247097,-0.1220703050494194,1.0986326932907104,80.0,297072.0,1.0
1126030.2569242,277995.1875,245231.8125,283623.625,259949.734375,262578.5625,232634.546875,237755.421875,241446.78125,-0.05810546875,0.96630859375,-0.19287109375,0.0,-0.1831054538488388,1.0681151151657104,80.0,297073.0,1.0
1126030.256967,277919.625,245241.46875,283502.46875,259880.171875,262500.25,232630.53125,237710.453125,241286.109375,-0.057373046875,0.966796875,-0.191650390625,-0.0915527269244194,-0.2136230319738388,1.0375975370407104,80.0,297074.0,1.0
1126030.2595757,277851.0625,245268.296875,283375.59375,259820.0,262416.90625,232651.453125,237646.265625,241040.234375,-0.057861328125,0.967529296875,-0.19384765625,-0.2136230319738388,-0.3356933295726776,0.9765624403953552,80.0,297075.0,1.0
1126030.2596205,277887.28125,245274.203125,283416.28125,259857.640625,262439.8125,232667.90625,237646.078125,241009.75,-0.05712890625,0.970458984375,-0.191162109375,-0.3662109076976776,-0.4272460639476776,1.0375975370407104,80.0,297076.0,1.0
1126030.2613428,277985.53125,245255.6875,283585.90625,259944.09375,262551.5625,232665.21875,237716.0,241304.078125,-0.059326171875,0.97119140625,-0.191650390625,-0.3662109076976776,-0.5187987685203552,1.0986326932907104,80.0,297077.0,1.0
1126030.2751222,278007.96875,245222.875,283631.84375,259956.515625,262583.21875,232640.359375,237748.546875,241446.78125,-0.061279296875,0.970947265625,-0.189697265625,-0.4577636420726776,-0.6408690810203552,1.1596678495407104,80.0,297078.0,1.0
1126030.2775803,277930.90625,245223.0625,283509.625,259886.78125,262508.1875,232638.21875,237707.953125,241289.421875,-0.060302734375,0.970458984375,-0.190185546875,-0.6103515028953552,-0.7019042372703552,1.0681151151657104,80.0,297079.0,1.0
1126030.2833336,277856.15625,245251.3125,283379.1875,259820.625,262424.6875,232659.859375,237646.34375,241045.421875,-0.060791015625,0.97119140625,-0.193359375,-0.5798339247703552,-0.8544921278953552,1.0070799589157104,80.0,297080.0,1.0
1126030.2833772,277887.8125,245270.0,283415.3125,259854.0625,262443.65625,232675.953125,237641.609375,241009.578125,-0.06103515625,0.971923828125,-0.19140625,-0.6408690810203552,-0.8850097060203552,1.0681151151657104,80.0,297081.0,1.0
1126030.2850958,277985.625,245256.765625,283586.6875,259949.109375,262560.21875,232678.71875,237726.640625,241309.53125,-0.060546875,0.971435546875,-0.190185546875,-0.7934569716453552,-1.1291502714157104,1.0681151151657104,80.0,297082.0,1.0
1126030.2876011,278007.96875,245229.84375,283634.0,259962.328125,262592.0625,232648.671875,237761.59375,241454.28125,-0.062744140625,0.96923828125,-0.186767578125,-0.9460448622703552,-1.1901854276657104,0.8850097060203552,80.0,297083.0,1.0
1126030.301222,277927.25,245241.5625,283508.75,259885.890625,262511.9375,232642.6875,237716.359375,241295.671875,-0.06103515625,0.96630859375,-0.186279296875,-1.1901854276657104,-1.2512205839157104,0.9155272841453552,80.0,297084.0,1.0
1126030.3101773,277852.40625,245283.3125,283381.59375,259825.265625,262432.125,232671.921875,237659.765625,241054.453125,-0.057373046875,0.961669921875,-0.1875,-1.3427733182907104,-1.4648436307907104,1.0070799589157104,80.0,297085.0,1.0
1126030.3102237,277881.09375,245301.46875,283415.75,259858.796875,262450.625,232683.640625,237653.953125,241016.28125,-0.05419921875,0.9580078125,-0.18896484375,-1.4648436307907104,-1.5258787870407104,1.1596678495407104,80.0,297086.0,1.0
1126030.3102431,277978.65625,245286.71875,283585.1875,259948.828125,262561.5625,232675.6875,237728.421875,241312.21875,-0.052490234375,0.95556640625,-0.1904296875,-1.4343260526657104,-1.4953612089157104,1.2817381620407104,80.0,297087.0,1.0
1126030.3131821,277998.75,245247.375,283629.0,259954.015625,262582.40625,232643.140625,237749.078125,241449.71875,-0.04931640625,0.9521484375,-0.19482421875,-1.1901854276657104,-1.4953612089157104,1.2207030057907104,80.0,297088.0,1.0
1126030.3132183,277922.40625,245252.203125,283508.90625,259882.671875,262506.3125,232640.8125,237708.9375,241296.5625,-0.049560546875,0.956787109375,-0.1982421875,-0.7934569716453552,-1.3732908964157104,1.1901854276657104,80.0,297089.0,1.0
1126030.3151385,277847.5,245275.359375,283380.4375,259822.40625,262422.625,232662.359375,237651.265625,241052.9375,-0.04931640625,0.96044921875,-0.19482421875,-0.5798339247703552,-1.4038084745407104,1.1596678495407104,80.0,297090.0,1.0
1126030.3238892,277884.15625,245292.703125,283420.65625,259864.515625,262445.53125,232678.90625,237648.3125,241015.390625,-0.048828125,0.961181640625,-0.1962890625,-0.6103515028953552,-1.5563963651657104,1.3732908964157104,80.0,297091.0,1.0
1126030.3314604,277982.3125,245281.703125,283590.90625,259953.390625,262558.96875,232675.5,237723.59375,241312.390625,-0.04541015625,0.9580078125,-0.18994140625,-0.7019042372703552,-1.4343260526657104,1.5563963651657104,80.0,297092.0,1.0
1126030.3315037,277998.84375,245240.9375,283630.78125,259954.46875,262581.0625,232644.828125,237749.96875,241453.65625,-0.045166015625,0.957275390625,-0.188720703125,-0.7934569716453552,-1.2817381620407104,1.5258787870407104,80.0,297093.0,1.0
1126030.3315162,277924.09375,245249.4375,283509.375,259882.40625,262505.25,232644.296875,237705.8125,241297.28125,-0.045166015625,0.95458984375,-0.195556640625,-0.6408690810203552,-1.1596678495407104,1.5258787870407104,80.0,297094.0,1.0
1126030.3338616,277854.625,245283.234375,283384.28125,259825.71875,262429.875,232671.65625,237655.46875,241060.359375,-0.04736328125,0.951904296875,-0.1962890625,-0.5187987685203552,-1.0070799589157104,1.5869139432907104,80.0,297095.0,1.0
1126030.3426305,277882.8125,245296.28125,283418.0625,259859.875,262449.625,232684.984375,237652.96875,241020.921875,-0.05322265625,0.955078125,-0.19580078125,-0.2746581733226776,-0.9460448622703552,1.4953612089157104,80.0,297096.0,1.0
1126030.3519692,277980.25,245286.265625,283588.21875,259952.40625,262566.21875,232687.578125,237729.40625,241313.375,-0.056396484375,0.956787109375,-0.195556640625,-0.1220703050494194,-1.0070799589157104,1.2512205839157104,80.0,297097.0,1.0
1126030.352022,278002.78125,245253.28125,283636.5,259961.796875,262594.84375,232657.796875,237758.375,241452.3125,-0.06005859375,0.95947265625,-0.191162109375,-0.1831054538488388,-1.0375975370407104,1.0375975370407104,80.0,297098.0,1.0
1126030.3545377,277930.625,245262.390625,283520.8125,259892.15625,262522.0625,232651.453125,237717.15625,241299.875,-0.06005859375,0.96240234375,-0.189453125,-0.2441406100988388,-1.1596678495407104,0.8544921278953552,80.0,297099.0,1.0
1126030.3545832,277857.3125,245290.375,283391.625,259827.953125,262438.8125,232670.046875,237656.28125,241059.640625,-0.06103515625,0.96533203125,-0.18896484375,-0.4272460639476776,-1.1901854276657104,0.4882812201976776,80.0,297100.0,1.0
1126030.361341,277881.71875,245291.71875,283417.8125,259857.453125,262449.71875,232678.0,237647.953125,241014.140625,-0.064208984375,0.967041015625,-0.1943359375,-0.4577636420726776,-1.3732908964157104,0.1220703050494194,80.0,297101.0,1.0
1126030.3707214,277981.875,245277.953125,283588.5,259949.28125,262562.75,232681.484375,237726.28125,241306.765625,-0.062744140625,0.965576171875,-0.192626953125,-0.3967284858226776,-1.5258787870407104,0.03051757626235485,80.0,297102.0,1.0
1126030.3707637,278003.78125,245249.4375,283635.6875,259958.3125,262590.375,232653.859375,237756.765625,241451.25,-0.061279296875,0.967041015625,-0.19091796875,-0.5493163466453552,-1.5869139432907104,-0.3051757514476776,80.0,297103.0,1.0
1126030.3770365,277926.34375,245254.34375,283514.46875,259886.15625,262509.90625,232650.28125,237714.03125,241297.640625,-0.0625,0.9677734375,-0.190673828125,-0.5493163466453552,-1.7089842557907104,-0.4272460639476776,80.0,297104.0,1.0
1126030.3770825,277856.4375,245289.484375,283387.40625,259829.296875,262429.53125,232675.953125,237656.8125,241059.375,-0.06103515625,0.97119140625,-0.19189453125,-0.6408690810203552,-1.8310545682907104,-0.5187987685203552,80.0,297105.0,1.0
1126030.3858455,277889.0625,245300.484375,283420.03125,259861.9375,262446.0625,232689.359375,237650.28125,241008.953125,-0.060302734375,0.9697265625,-0.191162109375,-0.7324218153953552,-1.8920897245407104,-0.5798339247703552,80.0,297106.0,1.0
1126030.3858939,277986.25,245282.421875,283587.6875,259951.25,262558.96875,232687.65625,237726.375,241299.96875,-0.058837890625,0.9697265625,-0.1923828125,-0.7934569716453552,-1.8005369901657104,-0.7019042372703552,80.0,297107.0,1.0
1126030.3894618,278012.4375,245252.109375,283643.03125,259967.78125,262596.25,232665.046875,237764.375,241457.765625,-0.056884765625,0.96826171875,-0.19482421875,-0.9155272841453552,-1.8005369901657104,-0.6103515028953552,80.0,297108.0,1.0
1126030.3895045,277941.53125,245255.25,283531.0,259901.265625,262526.09375,232662.453125,237730.484375,241313.375,-0.05517578125,0.966796875,-0.191650390625,-0.9460448622703552,-1.8920897245407104,-0.4577636420726776,80.0,297109.0,1.0
1126030.3976247,277863.5,245278.9375,283396.25,259834.75,262441.9375,232682.5625,237665.578125,241068.21875,-0.054443359375,0.966064453125,-0.192626953125,-0.9460448622703552,-1.8005369901657104,-0.2746581733226776,80.0,297110.0,1.0
1126030.4119067,277893.71875,245285.109375,283426.84375,259868.359375,262456.96875,232696.0625,237655.03125,241016.1875,-0.05419921875,0.9658203125,-0.193603515625,-1.0070799589157104,-1.8615721464157104,-0.0915527269244194,80.0,297111.0,1.0
1126030.4119489,277988.46875,245262.390625,283590.8125,259956.25,262565.34375,232688.734375,237731.90625,241304.609375,-0.05419921875,0.965576171875,-0.194091796875,-1.0986326932907104,-1.8920897245407104,0.0610351525247097,80.0,297112.0,1.0
1126030.4151452,278010.65625,245227.53125,283637.46875,259963.859375,262594.65625,232649.75,237759.546875,241453.03125,-0.052001953125,0.967041015625,-0.19384765625,-1.1901854276657104,-1.7395018339157104,0.1831054538488388,80.0,297113.0,1.0
1126030.4151881,277937.25,245240.3125,283519.71875,259890.8125,262513.75,232641.703125,237712.15625,241294.78125,-0.055419921875,0.967041015625,-0.19189453125,-1.1901854276657104,-1.6784666776657104,0.3356933295726776,80.0,297114.0,1.0
1126030.4152002,277861.625,245269.015625,283387.3125,259827.859375,262427.28125,232662.71875,237651.453125,241050.4375,-0.05419921875,0.966064453125,-0.191162109375,-1.1596678495407104,-1.7395018339157104,0.4577636420726776,80.0,297115.0,1.0
1126030.4176397,277886.8125,245279.828125,283412.4375,259856.125,262436.84375,232674.34375,237645.90625,241002.78125,-0.05517578125,0.9658203125,-0.19140625,-1.2512205839157104,-1.6784666776657104,0.5798339247703552,80.0,297116.0,1.0
1126030.4238734,277988.03125,245270.890625,283581.15625,259943.46875,262548.15625,232673.265625,237719.125,241291.828125,-0.05615234375,0.96630859375,-0.19140625,-1.3122557401657104,-1.5869139432907104,0.7629393935203552,80.0,297117.0,1.0
1126030.430686,278018.0,245246.125,283637.5625,259959.65625,262582.3125,232648.046875,237751.84375,241447.484375,-0.05810546875,0.964599609375,-0.191650390625,-1.3122557401657104,-1.6174315214157104,0.7934569716453552,80.0,297118.0,1.0
1126030.4307288,277943.59375,245254.4375,283522.59375,259889.46875,262509.71875,232646.71875,237713.046875,241298.171875,-0.058349609375,0.964111328125,-0.19091796875,-1.2817381620407104,-1.7395018339157104,0.7629393935203552,80.0,297119.0,1.0
1126030.4327122,277862.3125,245279.46875,283386.875,259823.75,262421.75,232667.984375,237650.015625,241050.25,-0.05810546875,0.96240234375,-0.1904296875,-1.2207030057907104,-1.7089842557907104,0.6408690810203552,80.0,297120.0,1.0
1126030.4438607,277884.21875,245293.6875,283407.78125,259849.140625,262428.8125,232678.453125,237635.4375,240989.015625,-0.0576171875,0.96484375,-0.1865234375,-1.1901854276657104,-1.7089842557907104,0.6103515028953552,80.0,297121.0,1.0
1126030.4469734,277980.875,245283.5,283574.28125,259939.984375,262541.09375,232679.53125,237714.03125,241275.828125,-0.0595703125,0.965087890625,-0.1865234375,-1.3427733182907104,-1.8005369901657104,0.5493163466453552,80.0,297122.0,1.0
1126030.4470161,278009.59375,245252.65625,283632.5625,259958.9375,262582.21875,232659.140625,237754.0,241434.875,-0.059326171875,0.963623046875,-0.187255859375,-1.3732908964157104,-1.8615721464157104,0.3662109076976776,80.0,297123.0,1.0
1126030.460076,277938.9375,245264.1875,283522.78125,259893.9375,262512.5,232664.6875,237717.78125,241292.28125,-0.06103515625,0.9638671875,-0.187255859375,-1.4038084745407104,-1.8310545682907104,0.1831054538488388,80.0,297124.0,1.0
1126030.4633253,277868.21875,245312.109375,283399.21875,259837.078125,262435.96875,232699.640625,237667.71875,241060.09375,-0.05810546875,0.963134765625,-0.18505859375,-1.2817381620407104,-1.8310545682907104,0.1220703050494194,80.0,297125.0,1.0
1126030.4633695,277886.8125,245325.515625,283417.8125,259860.40625,262443.65625,232711.078125,237654.578125,241002.25,-0.05859375,0.964111328125,-0.18505859375,-1.3427733182907104,-1.8310545682907104,0.03051757626235485,80.0,297126.0,1.0
1126030.4651396,277985.96875,245319.609375,283585.90625,259949.1875,262560.0625,232715.015625,237731.015625,241288.96875,-0.0595703125,0.964599609375,-0.187744140625,-1.4648436307907104,-1.7700194120407104,-0.0610351525247097,80.0,297127.0,1.0
1126030.4688754,278016.90625,245294.140625,283647.21875,259968.328125,262602.53125,232691.140625,237770.359375,241450.265625,-0.059814453125,0.96142578125,-0.1865234375,-1.3732908964157104,-1.8615721464157104,-0.1525878757238388,80.0,297128.0,1.0
1126030.4776636,277951.65625,245297.078125,283542.09375,259910.203125,262538.0625,232695.265625,237741.21875,241315.078125,-0.058349609375,0.960693359375,-0.18896484375,-1.3122557401657104,-1.9226073026657104,-0.2441406100988388,80.0,297129.0,1.0
1126030.4807454,277874.5,245316.578125,283409.5,259843.328125,262450.34375,232715.109375,237679.15625,241071.53125,-0.05712890625,0.9609375,-0.190185546875,-1.3122557401657104,-1.9836424589157104,-0.3356933295726776,80.0,297130.0,1.0
1126030.480782,277887.28125,245314.25,283419.78125,259858.359375,262447.9375,232712.34375,237647.875,240998.578125,-0.05859375,0.96142578125,-0.18994140625,-1.2817381620407104,-1.8310545682907104,-0.2441406100988388,80.0,297131.0,1.0
1126030.4825452,277985.09375,245298.78125,283587.15625,259948.03125,262562.03125,232710.8125,237727.265625,241288.25,-0.05859375,0.961181640625,-0.189208984375,-1.2207030057907104,-1.8920897245407104,-0.3662109076976776,80.0,297132.0,1.0
1126030.49697,278013.5,245272.953125,283643.375,259962.328125,262598.5,232681.578125,237759.453125,241446.5,-0.058349609375,0.9599609375,-0.187744140625,-1.2207030057907104,-1.8920897245407104,-0.3356933295726776,80.0,297133.0,1.0
1126030.497013,277944.03125,245290.921875,283531.34375,259896.34375,262526.0,232677.015625,237719.21875,241305.515625,-0.058837890625,0.95947265625,-0.189453125,-1.1291502714157104,-1.8615721464157104,-0.3662109076976776,80.0,297134.0,1.0
1126030.4988403,277866.09375,245316.046875,283396.8125,259831.359375,262436.6875,232693.5625,237655.375,241062.140625,-0.059326171875,0.9599609375,-0.18896484375,-1.0986326932907104,-1.8615721464157104,-0.3967284858226776,80.0,297135.0,1.0
1126030.501504,277884.84375,245320.328125,283414.40625,259854.421875,262441.15625,232698.296875,237636.515625,240997.953125,-0.06103515625,0.961669921875,-0.18701171875,-0.9460448622703552,-1.8920897245407104,-0.3662109076976776,80.0,297136.0,1.0
1126030.5064328,277979.1875,245305.578125,283577.3125,259938.8125,262548.96875,232697.40625,237707.78125,241277.796875,-0.0625,0.9599609375,-0.186767578125,-1.0375975370407104,-1.8310545682907104,-0.2746581733226776,80.0,297137.0,1.0
1126030.506476,278010.375,245278.21875,283637.21875,259957.328125,262587.78125,232677.296875,237750.875,241441.234375,-0.06005859375,0.960205078125,-0.18505859375,-0.8239745497703552,-1.8920897245407104,-0.1831054538488388,80.0,297138.0,1.0
1126030.5126399,277933.75,245288.234375,283522.78125,259886.25,262513.28125,232673.53125,237715.1875,241299.4375,-0.0625,0.962646484375,-0.1865234375,-0.7324218153953552,-1.9531248807907104,-0.0915527269244194,80.0,297139.0,1.0
1126030.5151556,277856.4375,245325.0625,283389.75,259821.78125,262430.78125,232701.515625,237656.90625,241058.125,-0.060302734375,0.961669921875,-0.185791015625,-0.7324218153953552,-1.8615721464157104,-0.1831054538488388,80.0,297140.0,1.0
1126030.5245818,277879.3125,245335.53125,283409.6875,259852.1875,262439.8125,232717.34375,237646.265625,240997.765625,-0.058837890625,0.9638671875,-0.182861328125,-0.7019042372703552,-1.9226073026657104,0.0,80.0,297141.0,1.0
1126030.5246254,277974.4375,245318.71875,283574.375,259940.34375,262549.25,232717.796875,237721.359375,241281.109375,-0.058837890625,0.966796875,-0.18212890625,-0.6103515028953552,-2.075195074081421,0.03051757626235485,80.0,297142.0,1.0
1126030.5263753,278002.59375,245289.9375,283630.875,259956.078125,262586.78125,232690.875,237759.0,241445.875,-0.0595703125,0.96435546875,-0.186279296875,-0.6713866591453552,-2.075195074081421,0.1220703050494194,80.0,297143.0,1.0
1126030.5301269,277930.1875,245296.1875,283517.40625,259888.75,262513.75,232687.125,237718.40625,241306.40625,-0.06005859375,0.96484375,-0.185546875,-0.6713866591453552,-2.014159917831421,0.1525878757238388,80.0,297144.0,1.0
1126030.544414,277854.28125,245331.328125,283387.59375,259827.78125,262430.78125,232711.53125,237662.265625,241070.375,-0.062255859375,0.96826171875,-0.185302734375,-0.6713866591453552,-2.044677495956421,0.1831054538488388,80.0,297145.0,1.0
1126030.5444546,277874.75,245339.90625,283404.21875,259852.1875,262433.53125,232717.171875,237642.5,241002.78125,-0.060546875,0.968994140625,-0.1845703125,-0.7934569716453552,-2.044677495956421,0.1831054538488388,80.0,297146.0,1.0
1126030.5465044,277977.5625,245316.75,283573.03125,259944.453125,262546.90625,232716.625,237715.1875,241284.328125,-0.060791015625,0.96875,-0.184814453125,-0.7019042372703552,-2.014159917831421,0.2746581733226776,80.0,297147.0,1.0
1126030.548886,278018.78125,245294.140625,283643.5625,259971.625,262591.0625,232694.90625,237754.71875,241452.046875,-0.06201171875,0.970703125,-0.18408203125,-0.8850097060203552,-1.9836424589157104,0.3356933295726776,80.0,297148.0,1.0
1126030.5513535,277945.9375,245304.78125,283532.34375,259904.390625,262520.28125,232687.75,237714.296875,241311.59375,-0.061767578125,0.969482421875,-0.185791015625,-0.8850097060203552,-2.105712652206421,0.3662109076976776,80.0,297149.0,1.0
1126030.5601187,277866.09375,245335.0,283398.0625,259835.828125,262436.59375,232707.515625,237654.84375,241069.296875,-0.06201171875,0.96728515625,-0.185546875,-1.0681151151657104,-2.075195074081421,0.3356933295726776,80.0,297150.0,1.0
1126030.56459,277886.8125,245343.21875,283417.28125,259857.734375,262444.09375,232722.171875,237640.0,240999.5625,-0.06005859375,0.96728515625,-0.188232421875,-1.1291502714157104,-2.014159917831421,0.3662109076976776,80.0,297151.0,1.0
1126030.5646359,277988.46875,245327.390625,283587.15625,259949.546875,262558.71875,232727.09375,237715.90625,241282.09375,-0.060302734375,0.967529296875,-0.184814453125,-1.2207030057907104,-1.9836424589157104,0.4882812201976776,80.0,297152.0,1.0
1126030.5701257,278024.40625,245289.484375,283652.6875,259973.6875,262602.875,232700.453125,237758.921875,241456.515625,-0.060546875,0.965087890625,-0.183349609375,-1.1291502714157104,-2.014159917831421,0.5187987685203552,80.0,297153.0,1.0
1126030.5794657,277954.9375,245295.921875,283543.25,259908.0625,262534.75,232697.234375,237723.6875,241320.625,-0.062255859375,0.966796875,-0.184814453125,-1.2207030057907104,-1.9226073026657104,0.5493163466453552,80.0,297154.0,1.0
1126030.579515,277872.59375,245327.65625,283406.09375,259838.140625,262446.40625,232722.0,237664.140625,241078.15625,-0.06201171875,0.96826171875,-0.18701171875,-1.2207030057907104,-1.8920897245407104,0.3967284858226776,80.0,297155.0,1.0
1126030.5857139,277886.65625,245341.078125,283416.90625,259855.578125,262446.6875,232729.5,237646.265625,241004.828125,-0.06005859375,0.967041015625,-0.18701171875,-1.1901854276657104,-1.8615721464157104,0.4577636420726776,80.0,297156.0,1.0
1126030.5857636,277983.21875,245333.5625,283583.75,259945.078125,262558.1875,232730.3125,237719.3125,241282.71875,-0.061767578125,0.96435546875,-0.188720703125,-1.1901854276657104,-1.8310545682907104,0.6103515028953552,80.0,297157.0,1.0
1126030.589531,278015.65625,245308.703125,283652.875,259968.0625,262601.625,232710.015625,237760.53125,241454.546875,-0.061279296875,0.96630859375,-0.18701171875,-1.2512205839157104,-1.8310545682907104,0.5493163466453552,80.0,297158.0,1.0
1126030.5895737,277945.28125,245314.515625,283544.0625,259901.71875,262533.21875,232707.0625,237720.015625,241316.78125,-0.059326171875,0.967041015625,-0.18603515625,-1.2512205839157104,-1.8310545682907104,0.6103515028953552,80.0,297159.0,1.0
1126030.6001963,277864.90625,245341.96875,283404.75,259834.84375,262447.125,232728.875,237660.125,241078.6875,-0.05908203125,0.968017578125,-0.18701171875,-1.3427733182907104,-1.8005369901657104,0.6408690810203552,80.0,297160.0,1.0
1126030.6263808,277879.84375,245343.3125,283412.1875,259856.125,262444.625,232735.140625,237642.328125,241008.40625,-0.058837890625,0.966064453125,-0.1865234375,-1.2512205839157104,-1.7089842557907104,0.6713866591453552,80.0,297161.0,1.0
1126030.6264228,277974.96875,245328.203125,283575.6875,259945.96875,262551.75,232732.546875,237714.21875,241284.234375,-0.0576171875,0.965576171875,-0.183837890625,-1.2207030057907104,-1.6479490995407104,0.7019042372703552,80.0,297162.0,1.0
1126030.626435,278010.65625,245299.5,283643.84375,259967.4375,262597.34375,232709.921875,237755.78125,241458.578125,-0.05810546875,0.963623046875,-0.181640625,-1.2817381620407104,-1.6174315214157104,0.6713866591453552,80.0,297163.0,1.0
1126030.629426,277943.15625,245300.84375,283537.96875,259901.453125,262531.34375,232707.515625,237723.15625,241325.8125,-0.05859375,0.964111328125,-0.1826171875,-1.1596678495407104,-1.4648436307907104,0.7324218153953552,80.0,297164.0,1.0
1126030.6294622,277865.53125,245321.5,283402.15625,259836.09375,262447.59375,232726.734375,237665.84375,241088.96875,-0.0576171875,0.96435546875,-0.18408203125,-1.1291502714157104,-1.4038084745407104,0.8239745497703552,80.0,297165.0,1.0
1126030.633247,277881.1875,245321.9375,283410.5625,259855.671875,262446.40625,232729.140625,237642.953125,241010.734375,-0.0576171875,0.966552734375,-0.186767578125,-1.1901854276657104,-1.2207030057907104,0.8239745497703552,80.0,297166.0,1.0
1126030.6332903,277974.875,245298.78125,283574.71875,259941.953125,262553.4375,232726.640625,237713.859375,241283.15625,-0.05419921875,0.965576171875,-0.1875,-1.1596678495407104,-1.1901854276657104,0.8544921278953552,80.0,297167.0,1.0
1126030.6333011,278007.78125,245265.53125,283638.5625,259962.421875,262595.0,232696.328125,237749.53125,241452.9375,-0.05322265625,0.962890625,-0.186279296875,-1.1596678495407104,-1.0375975370407104,0.8850097060203552,80.0,297168.0,1.0
1126030.6333118,277939.75,245278.84375,283531.53125,259898.234375,262527.5,232691.140625,237714.03125,241321.15625,-0.05517578125,0.960205078125,-0.18798828125,-1.1291502714157104,-0.9765624403953552,1.0070799589157104,80.0,297169.0,1.0
1126030.6351397,277860.1875,245313.71875,283393.59375,259830.734375,262440.875,232714.296875,237658.59375,241086.015625,-0.056396484375,0.96240234375,-0.18408203125,-1.1291502714157104,-0.8850097060203552,1.0070799589157104,80.0,297170.0,1.0
1126030.6376422,277873.5,245321.046875,283400.09375,259846.90625,262439.8125,232724.859375,237639.5625,241004.484375,-0.0546875,0.962646484375,-0.181396484375,-1.1291502714157104,-0.8239745497703552,0.9155272841453552,80.0,297171.0,1.0
1126030.6463954,277972.3125,245308.265625,283568.46875,259936.671875,262550.125,232725.21875,237710.1875,241272.25,-0.0556640625,0.96240234375,-0.182861328125,-1.1291502714157104,-0.7324218153953552,0.8850097060203552,80.0,297172.0,1.0
1126030.6614223,278013.96875,245285.1875,283643.21875,259963.765625,262598.0625,232704.5625,237756.765625,241451.609375,-0.054443359375,0.962646484375,-0.1875,-1.1596678495407104,-0.6408690810203552,0.9155272841453552,80.0,297173.0,1.0
1126030.6614626,277947.875,245290.828125,283539.40625,259901.890625,262533.84375,232700.796875,237719.84375,241323.21875,-0.0546875,0.962890625,-0.18505859375,-1.1291502714157104,-0.6103515028953552,0.8544921278953552,80.0,297174.0,1.0
1126030.6614738,277866.09375,245304.6875,283403.9375,259835.109375,262450.875,232726.828125,237660.828125,241087.53125,-0.056640625,0.96337890625,-0.184814453125,-1.0681151151657104,-0.4882812201976776,0.7324218153953552,80.0,297175.0,1.0
1126030.6644888,277881.71875,245304.953125,283412.34375,259853.890625,262452.0625,232735.21875,237642.15625,241007.875,-0.057861328125,0.963134765625,-0.184326171875,-1.0375975370407104,-0.4577636420726776,0.7629393935203552,80.0,297176.0,1.0
1126030.664532,277984.71875,245295.5625,283578.28125,259944.984375,262558.625,232732.0,237710.546875,241272.25,-0.05615234375,0.96337890625,-0.18603515625,-1.0375975370407104,-0.4272460639476776,0.8239745497703552,80.0,297177.0,1.0
1126030.6663445,278026.21875,245274.203125,283651.0625,259973.234375,262606.0,232713.59375,237754.265625,241449.28125,-0.056884765625,0.9638671875,-0.1875,-1.0375975370407104,-0.3356933295726776,0.8544921278953552,80.0,297178.0,1.0
1126030.6688772,277953.15625,245271.609375,283542.0,259905.46875,262533.78125,232705.625,237715.1875,241320.796875,-0.056884765625,0.96435546875,-0.18408203125,-1.0070799589157104,-0.1831054538488388,0.9155272841453552,80.0,297179.0,1.0
1126030.6775156,277869.65625,245295.75,283401.625,259834.921875,262447.59375,232728.078125,237657.171875,241083.15625,-0.0576171875,0.962890625,-0.186279296875,-1.0070799589157104,-0.1220703050494194,0.9460448622703552,80.0,297180.0,1.0
1126030.680574,277887.1875,245307.8125,283411.09375,259856.296875,262450.25,232738.890625,237636.6875,241003.84375,-0.056884765625,0.96484375,-0.18603515625,-0.9155272841453552,-0.1220703050494194,0.7629393935203552,80.0,297181.0,1.0
1126030.6806177,277989.90625,245303.96875,283582.0625,259951.0625,262562.28125,232741.390625,237708.671875,241273.328125,-0.05810546875,0.963134765625,-0.18505859375,-0.8239745497703552,-0.03051757626235485,0.8544921278953552,80.0,297182.0,1.0
1126030.6888992,278023.15625,245271.609375,283647.75,259971.09375,262603.40625,232710.1875,237748.28125,241447.046875,-0.0595703125,0.965576171875,-0.183837890625,-0.8544921278953552,-0.0915527269244194,0.7629393935203552,80.0,297183.0,1.0
1126030.6932136,277947.875,245262.84375,283533.78125,259898.859375,262529.75,232696.609375,237707.953125,241315.609375,-0.058837890625,0.96533203125,-0.1806640625,-0.8850097060203552,-0.1525878757238388,0.8850097060203552,80.0,297184.0,1.0
1126030.6932562,277865.53125,245295.75,283394.75,259831.0,262446.40625,232718.59375,237653.859375,241083.421875,-0.06005859375,0.96728515625,-0.18408203125,-0.8239745497703552,-0.0915527269244194,0.8850097060203552,80.0,297185.0,1.0
