Time,FZ,C3,CZ,C4,PZ,PO7,OZ,PO8,AccX,AccY,AccZ,Gyro1,Gyro2,Gyro3,Battery,Counter,Validation
515597.1793858,287855.0625,311619.375,321862.71875,294289.6875,301168.5,306177.96875,272256.34375,306245.90625,0.02197265625,0.945068359375,-0.326904296875,-0.0915527269244194,2.105712652206421,0.6103515028953552,80.0,982781.0,1.0
515597.1819677,287896.125,313151.4375,323486.875,300167.03125,305998.625,308052.5625,272951.75,308427.8125,0.02294921875,0.9423828125,-0.328125,0.0610351525247097,1.9836424589157104,0.5798339247703552,80.0,982782.0,1.0
515597.1819802,290022.3125,313377.46875,322774.75,299605.84375,303467.25,306732.1875,272443.09375,307731.84375,0.020751953125,0.941650390625,-0.32666015625,0.0915527269244194,1.9836424589157104,0.4882812201976776,80.0,982783.0,1.0
515597.1893769,291179.0625,312005.96875,320790.28125,293659.90625,297339.71875,304147.34375,271469.8125,305238.46875,0.019775390625,0.94189453125,-0.32763671875,0.1831054538488388,1.9226073026657104,0.3662109076976776,80.0,982784.0,1.0
515597.1920754,289789.9375,310902.15625,320207.96875,290370.28125,295911.625,303796.25,271343.3125,304316.96875,0.0205078125,0.94482421875,-0.32763671875,0.0915527269244194,1.7700194120407104,0.3051757514476776,80.0,982785.0,1.0
515597.1946051,287870.09375,311620.71875,321855.84375,294284.78125,301145.0625,306165.28125,272230.3125,306235.625,0.01953125,0.946044921875,-0.32666015625,0.2136230319738388,1.7700194120407104,0.1220703050494194,80.0,982786.0,1.0
515597.1971621,287910.0625,313163.875,323494.21875,300191.8125,306008.4375,308054.09375,272940.84375,308435.65625,0.020751953125,0.946044921875,-0.324462890625,0.3967284858226776,1.7395018339157104,0.2746581733226776,80.0,982787.0,1.0
515597.1971756,290039.75,313411.78125,322801.6875,299687.03125,303518.28125,306750.53125,272457.3125,307771.5625,0.02197265625,0.94580078125,-0.325439453125,0.3662109076976776,1.6479490995407104,0.4272460639476776,80.0,982788.0,1.0
515597.1995621,291181.8125,312023.5625,320801.71875,293739.84375,297370.125,304152.1875,271480.1875,305266.71875,0.02490234375,0.945556640625,-0.327392578125,0.4882812201976776,1.5563963651657104,0.3662109076976776,80.0,982789.0,1.0
515597.2020707,289784.65625,310892.40625,320192.78125,290407.8125,295894.90625,303782.21875,271336.6875,304311.5,0.023681640625,0.9453125,-0.3291015625,0.3967284858226776,1.4953612089157104,0.4272460639476776,80.0,982790.0,1.0
515597.2170719,287873.6875,311608.90625,321843.5,294300.15625,301121.5625,306158.03125,272225.75,306226.15625,0.02294921875,0.946533203125,-0.3310546875,0.4272460639476776,1.4648436307907104,0.4882812201976776,80.0,982791.0,1.0
515597.2257749,287906.84375,313155.03125,323490.8125,300221.125,306012.65625,308058.28125,272928.75,308436.5625,0.022216796875,0.947265625,-0.333251953125,0.4882812201976776,1.5563963651657104,0.5493163466453552,80.0,982792.0,1.0
515597.2257913,290018.09375,313398.75,322797.03125,299728.25,303538.75,306757.5,272421.65625,307773.96875,0.0234375,0.94970703125,-0.333984375,0.3967284858226776,1.5258787870407104,0.7019042372703552,80.0,982793.0,1.0
515597.2257948,291157.78125,312007.375,320794.40625,293766.40625,297375.75,304148.59375,271427.0,305261.53125,0.0224609375,0.946044921875,-0.333984375,0.3967284858226776,1.5258787870407104,0.7629393935203552,80.0,982794.0,1.0
515597.2281802,289783.0625,310884.53125,320190.1875,290415.59375,295878.375,303768.34375,271280.71875,304305.34375,0.0224609375,0.9453125,-0.33251953125,0.4272460639476776,1.4648436307907104,0.7934569716453552,80.0,982795.0,1.0
515597.2333286,287884.3125,311606.40625,321843.5,294289.25,301095.625,306142.125,272173.90625,306211.59375,0.0234375,0.943603515625,-0.330322265625,0.5493163466453552,1.4648436307907104,0.8544921278953552,80.0,982796.0,1.0
515597.2333492,287909.53125,313153.21875,323500.21875,300215.25,306008.625,308053.8125,272888.25,308420.375,0.024169921875,0.941650390625,-0.332275390625,0.5187987685203552,1.4038084745407104,0.8544921278953552,80.0,982797.0,1.0
515597.2357482,290002.09375,313389.09375,322807.84375,299733.40625,303553.5,306758.5625,272400.375,307766.90625,0.02490234375,0.943359375,-0.33154296875,0.5187987685203552,1.3427733182907104,0.9460448622703552,80.0,982798.0,1.0
515597.2420871,291146.78125,311996.3125,320800.03125,293763.4375,297382.46875,304150.125,271424.21875,305260.125,0.025634765625,0.94287109375,-0.33349609375,0.5493163466453552,1.3122557401657104,1.0070799589157104,80.0,982799.0,1.0
515597.2721177,289787.78125,310873.875,320191.78125,290381.71875,295865.84375,303767.28125,271274.90625,304300.78125,0.024169921875,0.947265625,-0.33154296875,0.6713866591453552,1.3732908964157104,0.9765624403953552,80.0,982800.0,1.0
515597.2758838,287896.375,311594.96875,321846.09375,294238.75,301080.59375,306138.53125,272159.0625,306207.75,0.025146484375,0.94384765625,-0.329833984375,0.6408690810203552,1.4038084745407104,0.8850097060203552,80.0,982801.0,1.0
515597.2759238,287913.71875,313145.1875,323500.46875,300170.09375,306006.40625,308051.5625,272876.625,308421.53125,0.0263671875,0.94189453125,-0.329345703125,0.6408690810203552,1.4648436307907104,0.7934569716453552,80.0,982802.0,1.0
515597.2759337,290005.03125,313397.84375,322818.46875,299724.21875,303584.8125,306772.875,272395.625,307781.375,0.030029296875,0.944091796875,-0.334716796875,0.5798339247703552,1.5258787870407104,1.0070799589157104,80.0,982803.0,1.0
515597.2799166,291148.125,312002.28125,320807.28125,293752.375,297405.25,304157.0,271409.125,305267.0,0.02978515625,0.943359375,-0.3369140625,0.6408690810203552,1.5869139432907104,0.9765624403953552,80.0,982804.0,1.0
515597.2799541,289776.625,310853.40625,320176.78125,290325.65625,295843.15625,303746.8125,271251.9375,304279.40625,0.031494140625,0.94384765625,-0.337158203125,0.6408690810203552,1.6784666776657104,1.0375975370407104,80.0,982805.0,1.0
515597.2799628,287881.28125,311568.21875,321821.25,294157.90625,301032.0625,306112.78125,272146.625,306175.625,0.02880859375,0.944091796875,-0.337890625,0.6713866591453552,1.8005369901657104,1.0375975370407104,80.0,982806.0,1.0
515597.2799718,287886.0,313121.5,323486.09375,300117.15625,305984.65625,308043.53125,272867.6875,308397.125,0.02880859375,0.9453125,-0.335693359375,0.6713866591453552,1.9531248807907104,1.1596678495407104,80.0,982807.0,1.0
515597.2822016,289979.65625,313387.5625,322819.90625,299716.625,303601.0625,306781.8125,272388.21875,307776.375,0.029541015625,0.944091796875,-0.3349609375,0.4272460639476776,2.044677495956421,1.1596678495407104,80.0,982808.0,1.0
515597.2870506,291148.84375,312009.96875,320814.25,293768.625,297427.0,304171.84375,271413.40625,305276.21875,0.02978515625,0.941162109375,-0.33447265625,0.3356933295726776,2.044677495956421,1.1596678495407104,80.0,982809.0,1.0
515597.2895089,289790.1875,310862.90625,320175.96875,290329.5,295836.0,303752.96875,271256.59375,304286.90625,0.030029296875,0.939697265625,-0.333740234375,0.2746581733226776,2.014159917831421,1.1596678495407104,80.0,982810.0,1.0
515597.2921341,287889.6875,311569.46875,321812.65625,294139.6875,301002.03125,306108.59375,272145.375,306174.125,0.029296875,0.9384765625,-0.334228515625,0.3356933295726776,2.197265386581421,1.0681151151657104,80.0,982811.0,1.0
515597.2945915,287890.84375,313128.5625,323489.9375,300118.9375,305982.78125,308052.75,272885.21875,308409.03125,0.028564453125,0.93994140625,-0.333251953125,0.3356933295726776,2.410888433456421,1.0375975370407104,80.0,982812.0,1.0
515597.2946327,289982.4375,313405.8125,322838.40625,299762.3125,303643.1875,306810.15625,272423.4375,307805.71875,0.026611328125,0.940673828125,-0.332275390625,0.3356933295726776,2.258300542831421,0.9460448622703552,80.0,982813.0,1.0
515597.2984134,291150.34375,312019.0,320823.8125,293805.75,297454.25,304184.1875,271441.28125,305294.90625,0.026611328125,0.94287109375,-0.331298828125,0.3051757514476776,2.288818120956421,0.7934569716453552,80.0,982814.0,1.0
515597.317255,289804.78125,310862.625,320174.71875,290333.875,295827.125,303746.90625,271276.25,304290.9375,0.02490234375,0.942138671875,-0.33154296875,0.2136230319738388,2.349853277206421,0.7324218153953552,80.0,982815.0,1.0
515597.3172906,287910.40625,311569.21875,321807.90625,294123.75,300980.90625,306100.4375,272153.96875,306172.0625,0.024658203125,0.94384765625,-0.333251953125,0.03051757626235485,2.258300542831421,0.7324218153953552,80.0,982816.0,1.0
515597.3197017,287903.28125,313139.1875,323490.46875,300125.1875,305984.5,308054.34375,272883.875,308418.9375,0.0234375,0.944091796875,-0.334228515625,-0.03051757626235485,2.319335699081421,0.7019042372703552,80.0,982817.0,1.0
515597.3197381,289983.0625,313422.34375,322843.78125,299799.59375,303669.21875,306816.5,272414.9375,307822.96875,0.025146484375,0.94091796875,-0.336181640625,-0.0915527269244194,2.380370855331421,0.5798339247703552,80.0,982818.0,1.0
515597.3220493,291142.3125,312020.96875,320823.1875,293837.21875,297469.625,304183.125,271422.6875,305296.9375,0.025146484375,0.9423828125,-0.33837890625,-0.1220703050494194,2.288818120956421,0.4272460639476776,80.0,982819.0,1.0
515597.3245016,289798.875,310848.5,320162.90625,290328.96875,295808.0,303730.09375,271248.0,304271.0,0.024658203125,0.94140625,-0.33984375,-0.03051757626235485,2.258300542831421,0.4272460639476776,80.0,982820.0,1.0
515597.3269757,287904.4375,311543.71875,321789.40625,294086.9375,300942.03125,306076.125,272134.03125,306138.96875,0.024169921875,0.939208984375,-0.33740234375,-0.03051757626235485,2.258300542831421,0.4882812201976776,80.0,982821.0,1.0
515597.3421384,287884.3125,313102.0,323476.59375,300096.875,305969.375,308043.09375,272871.8125,308387.65625,0.02392578125,0.940185546875,-0.339111328125,-0.03051757626235485,2.288818120956421,0.3967284858226776,80.0,982822.0,1.0
515597.3446,289950.25,313380.0625,322832.53125,299799.75,303676.53125,306816.5,272406.1875,307806.4375,0.025390625,0.941162109375,-0.3369140625,-0.03051757626235485,2.349853277206421,0.3051757514476776,80.0,982823.0,1.0
515597.3446391,291129.875,312001.3125,320815.6875,293864.125,297479.28125,304186.59375,271432.8125,305303.21875,0.02587890625,0.943603515625,-0.3359375,-0.0610351525247097,2.349853277206421,0.3967284858226776,80.0,982824.0,1.0
515597.3470222,289801.75,310838.03125,320149.78125,290341.03125,295790.40625,303728.40625,271273.3125,304277.8125,0.025146484375,0.945068359375,-0.336669921875,-0.2136230319738388,2.319335699081421,0.3662109076976776,80.0,982825.0,1.0
515597.3520923,287921.96875,311545.15625,321779.65625,294086.46875,300915.125,306075.25,272148.5,306140.78125,0.025146484375,0.945068359375,-0.335693359375,-0.2746581733226776,2.349853277206421,0.4577636420726776,80.0,982826.0,1.0
515597.3546342,287914.8125,313137.84375,323490.46875,300126.90625,305982.0625,308063.28125,272886.75,308411.8125,0.025146484375,0.945556640625,-0.337646484375,-0.3051757514476776,2.319335699081421,0.4882812201976776,80.0,982827.0,1.0
515597.3571851,289971.25,313427.875,322861.03125,299862.625,303725.25,306850.5625,272432.8125,307847.625,0.02734375,0.94482421875,-0.337158203125,-0.2746581733226776,2.380370855331421,0.4882812201976776,80.0,982828.0,1.0
515597.3572269,291143.8125,312031.71875,320840.875,293922.0625,297512.8125,304212.4375,271449.625,305335.65625,0.02685546875,0.943359375,-0.337890625,-0.3051757514476776,2.349853277206421,0.5493163466453552,80.0,982829.0,1.0
515597.3609305,289819.875,310850.5625,320160.875,290361.875,295785.9375,303732.15625,271265.78125,304285.3125,0.027099609375,0.943359375,-0.334716796875,-0.3967284858226776,2.441406011581421,0.5798339247703552,80.0,982830.0,1.0
515597.3920795,287921.25,311530.40625,321772.5,294059.375,300885.0625,306060.75,272127.84375,306126.375,0.02685546875,0.9453125,-0.3369140625,-0.4577636420726776,2.410888433456421,0.6103515028953552,80.0,982831.0,1.0
515597.3920932,287882.78125,313094.59375,323477.3125,300084.625,305958.65625,308047.46875,272862.78125,308386.75,0.02685546875,0.94677734375,-0.33642578125,-0.5493163466453552,2.471923589706421,0.7019042372703552,80.0,982832.0,1.0
515597.3938845,289940.5,313392.3125,322856.9375,299849.28125,303729.28125,306844.84375,272408.3125,307832.0,0.02587890625,0.94970703125,-0.336669921875,-0.5187987685203552,2.410888433456421,0.7629393935203552,80.0,982833.0,1.0
515597.4449982,291139.0,312018.125,320837.9375,293922.59375,297517.75,304204.5625,271431.375,305325.8125,0.027099609375,0.951171875,-0.33837890625,-0.5493163466453552,2.532958745956421,0.8239745497703552,80.0,982834.0,1.0
515597.460873,289832.65625,310844.21875,320155.5,290346.125,295769.125,303719.90625,271262.65625,304276.5625,0.02685546875,0.950439453125,-0.33447265625,-0.7019042372703552,2.532958745956421,0.9155272841453552,80.0,982835.0,1.0
515597.4623529,287945.5625,311535.78125,321769.75,294027.1875,300857.4375,306055.5625,272144.46875,306121.71875,0.027587890625,0.94970703125,-0.334228515625,-0.8850097060203552,2.441406011581421,0.9460448622703552,80.0,982836.0,1.0
515597.4695145,287892.09375,313106.75,323475.28125,300059.9375,305947.21875,308047.8125,272888.96875,308383.8125,0.0283203125,0.949462890625,-0.335693359375,-0.9460448622703552,2.532958745956421,1.0070799589157104,80.0,982837.0,1.0
515597.4721249,289919.9375,313389.09375,322851.75,299834.625,303733.84375,306840.84375,272432.28125,307820.1875,0.027099609375,0.948486328125,-0.334228515625,-1.0681151151657104,2.502441167831421,1.0375975370407104,80.0,982838.0,1.0
515597.4745274,291126.21875,312009.09375,320837.03125,293911.0625,297522.5625,304197.6875,271456.0625,305316.09375,0.02734375,0.94775390625,-0.3349609375,-1.1901854276657104,2.502441167831421,1.0681151151657104,80.0,982839.0,1.0
515597.477013,289838.125,310840.71875,320149.15625,290316.71875,295750.78125,303705.5,271281.09375,304263.03125,0.027587890625,0.9462890625,-0.33349609375,-1.2207030057907104,2.502441167831421,1.0986326932907104,80.0,982840.0,1.0
515597.4796315,287945.65625,311523.25,321757.03125,293980.71875,300823.90625,306037.3125,272153.34375,306102.15625,0.026611328125,0.943115234375,-0.330810546875,-1.1901854276657104,2.502441167831421,1.0070799589157104,80.0,982841.0,1.0
515597.4821561,287895.75,313115.0625,323479.28125,300047.96875,305951.59375,308053.8125,272910.78125,308391.25,0.027099609375,0.943359375,-0.33203125,-1.0986326932907104,2.563476324081421,0.9460448622703552,80.0,982842.0,1.0
515597.4845009,289938.34375,313432.96875,322878.28125,299883.28125,303788.21875,306875.59375,272466.78125,307865.0,0.027587890625,0.942626953125,-0.334228515625,-1.0986326932907104,2.502441167831421,0.9155272841453552,80.0,982843.0,1.0
515597.4871334,291149.90625,312053.0,320856.0,293967.375,297564.125,304220.9375,271473.40625,305355.78125,0.02783203125,0.94384765625,-0.3310546875,-1.1596678495407104,2.502441167831421,0.9765624403953552,80.0,982844.0,1.0
515597.4896371,289854.65625,310854.65625,320147.4375,290327.34375,295739.15625,303699.25,271285.46875,304272.15625,0.028564453125,0.940673828125,-0.332275390625,-1.1596678495407104,2.532958745956421,0.9460448622703552,80.0,982845.0,1.0
515597.4920322,287934.28125,311501.625,321733.625,293929.21875,300768.125,306005.6875,272144.3125,306073.28125,0.029541015625,0.94189453125,-0.332763671875,-1.0986326932907104,2.471923589706421,0.8239745497703552,80.0,982846.0,1.0
515597.4946074,287853.8125,313072.0625,323454.6875,299991.0,305905.4375,308021.8125,272887.28125,308348.9375,0.02978515625,0.9404296875,-0.331298828125,-1.0681151151657104,2.441406011581421,0.8544921278953552,80.0,982847.0,1.0
515597.4970874,289907.875,313404.1875,322881.15625,299880.3125,303791.15625,306868.71875,272460.0,307850.6875,0.028564453125,0.9384765625,-0.331787109375,-1.0070799589157104,2.593993902206421,0.7934569716453552,80.0,982848.0,1.0
515597.4971282,291127.28125,312021.25,320856.4375,293968.625,297564.84375,304212.0,271462.65625,305338.96875,0.029296875,0.939697265625,-0.33056640625,-1.0070799589157104,2.410888433456421,0.7019042372703552,80.0,982849.0,1.0
515597.4998008,289831.5,310811.125,320127.78125,290288.1875,295705.8125,303673.125,271248.90625,304234.875,0.02783203125,0.9384765625,-0.330078125,-0.9765624403953552,2.471923589706421,0.6713866591453552,80.0,982850.0,1.0
515597.4998388,287942.59375,311491.875,321731.90625,293900.40625,300749.25,306004.59375,272114.96875,306064.25,0.02685546875,0.9384765625,-0.331298828125,-0.9765624403953552,2.532958745956421,0.6713866591453552,80.0,982851.0,1.0
515597.5034903,287879.21875,313095.125,323481.0625,300003.59375,305932.375,308057.21875,272884.6875,308382.5625,0.02490234375,0.94140625,-0.330078125,-0.8544921278953552,2.349853277206421,0.5187987685203552,80.0,982852.0,1.0
515597.5035311,289915.625,313422.15625,322900.75,299911.25,303833.8125,306903.3125,272443.90625,307883.03125,0.025146484375,0.9443359375,-0.32958984375,-0.9460448622703552,2.349853277206421,0.4577636420726776,80.0,982853.0,1.0
515597.5035419,291159.5625,312059.4375,320886.65625,294026.9375,297619.46875,304254.71875,271459.1875,305382.96875,0.0234375,0.945556640625,-0.329345703125,-0.9460448622703552,2.288818120956421,0.4577636420726776,80.0,982854.0,1.0
515597.5062903,289883.46875,310855.46875,320155.40625,290333.15625,295735.3125,303701.9375,271250.78125,304275.125,0.02197265625,0.94677734375,-0.328369140625,-0.9460448622703552,2.166747808456421,0.3967284858226776,80.0,982855.0,1.0
515597.5063286,287970.59375,311508.78125,321735.84375,293891.65625,300736.75,306003.96875,272110.0625,306074.0,0.02099609375,0.9462890625,-0.32958984375,-0.9765624403953552,2.044677495956421,0.3662109076976776,80.0,982856.0,1.0
515597.5109141,287866.25,313089.03125,323471.25,299980.375,305919.75,308046.46875,272880.125,308370.75,0.02099609375,0.9443359375,-0.327880859375,-0.9460448622703552,1.9531248807907104,0.3662109076976776,80.0,982857.0,1.0
515597.5135374,289895.6875,313422.875,322901.1875,299924.40625,303859.90625,306907.875,272456.0625,307883.59375,0.0205078125,0.943359375,-0.32763671875,-1.0070799589157104,1.8310545682907104,0.2441406100988388,80.0,982858.0,1.0
515597.515895,291149.53125,312056.03125,320882.03125,294039.8125,297632.90625,304246.78125,271461.3125,305374.09375,0.02099609375,0.9453125,-0.326904296875,-1.0070799589157104,1.7089842557907104,0.2136230319738388,80.0,982859.0,1.0
515597.5159333,289874.96875,310831.0625,320132.78125,290309.125,295702.59375,303671.53125,271240.03125,304240.96875,0.02001953125,0.94482421875,-0.32666015625,-1.0986326932907104,1.6174315214157104,0.2441406100988388,80.0,982860.0,1.0
515597.5348587,287932.78125,311447.625,321690.15625,293822.625,300667.90625,305951.59375,272083.25,306015.25,0.01806640625,0.944580078125,-0.324462890625,-1.1596678495407104,1.4648436307907104,0.2441406100988388,80.0,982861.0,1.0
515597.5348945,287816.09375,313027.34375,323434.84375,299919.375,305871.21875,308006.78125,272855.90625,308322.21875,0.017822265625,0.943603515625,-0.328369140625,-1.1291502714157104,1.2207030057907104,0.2136230319738388,80.0,982862.0,1.0
515597.5349039,289884.09375,313410.28125,322918.0,299938.15625,303879.40625,306920.65625,272477.0,307888.6875,0.017578125,0.94287109375,-0.330810546875,-1.0375975370407104,1.0986326932907104,0.2136230319738388,80.0,982863.0,1.0
515597.5349128,291188.09375,312090.1875,320931.625,294109.71875,297687.15625,304291.46875,271513.0,305418.4375,0.018798828125,0.94384765625,-0.32763671875,-1.0375975370407104,0.8239745497703552,0.1220703050494194,80.0,982864.0,1.0
515597.537034,289923.0625,310872.46875,320170.25,290362.75,295731.84375,303702.65625,271282.0625,304279.59375,0.018310546875,0.946044921875,-0.32861328125,-1.0375975370407104,0.6713866591453552,0.2746581733226776,80.0,982865.0,1.0
515597.5397295,287975.5,311482.65625,321714.9375,293843.03125,300671.46875,305970.625,272120.78125,306041.34375,0.015625,0.945068359375,-0.326904296875,-0.9765624403953552,0.5187987685203552,0.3051757514476776,80.0,982866.0,1.0
515597.539772,287824.59375,313040.40625,323447.90625,299931.625,305879.71875,308018.125,272872.6875,308339.46875,0.0146484375,0.94580078125,-0.326171875,-1.0681151151657104,0.3356933295726776,0.3662109076976776,80.0,982867.0,1.0
515597.5420674,289838.3125,313382.5625,322893.40625,299941.5625,303877.15625,306897.4375,272445.34375,307874.09375,0.011474609375,0.9462890625,-0.32763671875,-1.0375975370407104,0.0915527269244194,0.4577636420726776,80.0,982868.0,1.0
515597.5446706,291128.96875,312039.84375,320877.53125,294099.25,297660.0625,304238.375,271449.34375,305376.15625,0.01025390625,0.944091796875,-0.325439453125,-1.0070799589157104,-0.2136230319738388,0.6103515028953552,80.0,982869.0,1.0
515597.544712,289882.8125,310820.15625,320111.3125,290332.71875,295675.3125,303643.1875,271225.28125,304230.5,0.005615234375,0.94384765625,-0.32470703125,-1.0681151151657104,-0.5798339247703552,0.7324218153953552,80.0,982870.0,1.0
515597.5521613,287930.96875,311429.1875,321658.25,293783.28125,300593.4375,305909.46875,272078.21875,305989.40625,0.00341796875,0.94482421875,-0.327880859375,-0.9460448622703552,-1.0375975370407104,1.0375975370407104,80.0,982871.0,1.0
515597.5571277,287749.21875,312969.5,323386.9375,299864.84375,305805.3125,307952.4375,272825.125,308281.0,-0.002197265625,0.942138671875,-0.323974609375,-0.8544921278953552,-1.4038084745407104,1.2207030057907104,80.0,982872.0,1.0
515597.559655,289847.25,313405.71875,322928.71875,299996.1875,303924.5625,306933.53125,272483.875,307912.8125,-0.01123046875,0.94287109375,-0.32421875,-0.7934569716453552,-2.014159917831421,1.3427733182907104,80.0,982873.0,1.0
515597.5646542,291233.6875,312150.96875,320996.625,294241.40625,297787.9375,304358.4375,271567.4375,305493.03125,-0.019775390625,0.94140625,-0.322265625,-0.6103515028953552,-2.655029058456421,1.4343260526657104,80.0,982874.0,1.0
515597.5661177,289981.25,310912.59375,320209.40625,290433.9375,295762.21875,303737.59375,271326.40625,304324.5625,-0.029052734375,0.939208984375,-0.318603515625,-0.5493163466453552,-3.326415777206421,1.5869139432907104,80.0,982875.0,1.0
515597.5732782,288001.625,311490.71875,321724.21875,293839.4375,300639.375,305975.8125,272154.125,306061.28125,-0.035400390625,0.93701171875,-0.3193359375,-0.3662109076976776,-4.425048351287842,1.8005369901657104,80.0,982876.0,1.0
515597.5759516,287891.03125,313107.8125,323532.125,300009.96875,305939.0625,308103.53125,272984.0,308442.8125,-0.038818359375,0.93701171875,-0.31591796875,0.03051757626235485,-5.706786632537842,2.044677495956421,80.0,982877.0,1.0
515597.575993,289905.28125,313467.75,322997.28125,300090.59375,304007.78125,307012.3125,272554.15625,307996.3125,-0.0419921875,0.942138671875,-0.31396484375,0.2136230319738388,-6.896972179412842,2.380370855331421,80.0,982878.0,1.0
515597.5809235,291233.0625,312150.875,320987.25,294271.8125,297803.40625,304360.21875,271555.46875,305499.09375,-0.04736328125,0.94384765625,-0.3134765625,0.2136230319738388,-8.331297874450684,2.868652105331421,80.0,982879.0,1.0
515597.5833807,290029.1875,310948.625,320224.6875,290475.3125,295782.0,303760.75,271345.8125,304356.46875,-0.053466796875,0.943603515625,-0.3134765625,0.4272460639476776,-9.796141624450684,3.265380620956421,80.0,982880.0,1.0
515597.5857704,288006.8125,311471.75,321706.78125,293825.21875,300598.0,305952.40625,272140.375,306056.71875,-0.053955078125,0.946533203125,-0.31298828125,0.5798339247703552,-11.322020530700684,3.784179449081421,80.0,982881.0,1.0
515597.5884047,287806.34375,313009.03125,323462.46875,299958.28125,305860.40625,308026.375,272906.84375,308389.96875,-0.056884765625,0.94580078125,-0.313232421875,0.7019042372703552,-12.847899436950684,4.455565929412842,80.0,982882.0,1.0
515597.5934502,289825.59375,313389.875,322951.15625,300089.4375,303979.1875,306963.6875,272486.03125,307967.34375,-0.054443359375,0.945556640625,-0.31640625,0.7629393935203552,-14.556883811950684,4.943847179412842,80.0,982883.0,1.0
515597.5934899,291203.46875,312127.8125,320972.6875,294310.4375,297811.625,304347.4375,271511.65625,305494.53125,-0.0546875,0.943115234375,-0.314697265625,0.7324218153953552,-16.174314498901367,5.706786632537842,80.0,982884.0,1.0
515597.5957768,290043.65625,310966.25,320235.96875,290539.4375,295803.34375,303771.5,271333.375,304378.28125,-0.055419921875,0.94189453125,-0.315673828125,0.9460448622703552,-17.791746139526367,6.408690929412842,80.0,982885.0,1.0
515597.598405,288012.875,311472.28125,321713.0625,293898.90625,300601.84375,305953.03125,272139.125,306084.96875,-0.053955078125,0.944091796875,-0.31494140625,1.0986326932907104,-19.592283248901367,7.141112804412842,80.0,982886.0,1.0
515597.6007967,287761.1875,312960.90625,323449.96875,300043.21875,305853.59375,307999.71875,272899.0625,308404.125,-0.050048828125,0.950439453125,-0.314208984375,1.4038084745407104,-21.270750045776367,7.812499523162842,80.0,982887.0,1.0
515597.6033187,289808.0,313382.125,322976.46875,300233.03125,304034.34375,306978.875,272516.9375,308013.9375,-0.04296875,0.9560546875,-0.31787109375,1.4648436307907104,-22.918699264526367,8.575438499450684,80.0,982888.0,1.0
515597.6033569,291216.5,312156.6875,321001.5625,294450.8125,297877.59375,304372.125,271537.78125,305532.71875,-0.031982421875,0.959716796875,-0.31982421875,1.4648436307907104,-24.261472702026367,9.185790061950684,80.0,982889.0,1.0
515597.6170365,290006.125,310937.375,320193.3125,290598.4375,295781.8125,303720.0625,271287.0625,304338.40625,-0.024658203125,0.9599609375,-0.322021484375,1.3732908964157104,-25.634763717651367,9.979247093200684,80.0,982890.0,1.0
515597.6246328,287964.34375,311423.125,321672.375,293967.84375,300565.4375,305888.71875,272108.53125,306053.59375,-0.017578125,0.9599609375,-0.321533203125,1.0986326932907104,-26.641843795776367,10.742186546325684,80.0,982891.0,1.0
515597.6246725,287695.40625,312886.8125,323410.625,300137.09375,305815.34375,307926.0625,272877.8125,308380.6875,-0.0146484375,0.959716796875,-0.323974609375,0.9460448622703552,-27.618406295776367,11.474608421325684,80.0,982892.0,1.0
515597.6246829,289749.53125,313334.1875,322954.65625,300352.46875,304037.90625,306936.21875,272508.8125,308003.84375,-0.011962890625,0.960693359375,-0.328125,0.7324218153953552,-28.778074264526367,12.115477561950684,80.0,982893.0,1.0
515597.6295594,291202.65625,312173.78125,321000.5625,294566.6875,297913.375,304370.34375,271535.53125,305532.90625,-0.0078125,0.9599609375,-0.331787109375,0.4577636420726776,-29.632566452026367,12.756346702575684,80.0,982894.0,1.0
515597.6344944,289997.28125,310953.5625,320169.53125,290666.46875,295780.5625,303693.875,271268.46875,304316.78125,-0.005859375,0.95703125,-0.329833984375,0.2136230319738388,-30.395505905151367,13.488768577575684,80.0,982895.0,1.0
515597.6370903,287951.8125,311401.84375,321646.1875,294037.75,300532.28125,305833.46875,272102.90625,306042.78125,-0.00634765625,0.954345703125,-0.330810546875,-0.1220703050494194,-31.280515670776367,14.160155296325684,80.0,982896.0,1.0
515597.6397076,287669.28125,312841.8125,323408.9375,300258.0625,305805.0625,307876.875,272904.8125,308406.15625,-0.005615234375,0.953857421875,-0.331787109375,-0.2441406100988388,-32.104488372802734,14.556883811950684,80.0,982897.0,1.0
515597.6421543,289733.0625,313320.25,322975.5625,300482.84375,304071.0,306924.6875,272541.4375,308048.28125,-0.003662109375,0.952880859375,-0.33154296875,-0.3967284858226776,-32.928462982177734,14.862059593200684,80.0,982898.0,1.0
515597.6446385,291215.71875,312213.75,321025.25,294640.96875,297968.78125,304389.1875,271570.65625,305568.75,-0.00146484375,0.951904296875,-0.33349609375,-0.6713866591453552,-33.599849700927734,15.319823265075684,80.0,982899.0,1.0
515597.6470165,290040.1875,311023.5625,320206.28125,290708.40625,295837.5,303724.625,271316.5625,304360.40625,-0.0009765625,0.954833984375,-0.334228515625,-0.7934569716453552,-34.301753997802734,15.624999046325684,80.0,982900.0,1.0
515597.650914,287937.34375,311392.8125,321640.0,294050.4375,300521.1875,305792.1875,272101.9375,306054.5,0.001953125,0.954345703125,-0.333251953125,-1.1291502714157104,-34.729000091552734,15.899657249450684,80.0,982901.0,1.0
515597.6596993,287608.65625,312771.46875,323386.40625,300296.25,305769.28125,307800.34375,272869.46875,308414.65625,0.002685546875,0.95166015625,-0.333740234375,-1.2207030057907104,-35.461421966552734,16.113279342651367,80.0,982902.0,1.0
515597.6597387,289706.15625,313304.25,322996.21875,300553.5625,304099.34375,306915.21875,272536.625,308092.09375,0.001953125,0.94970703125,-0.331298828125,-1.4343260526657104,-36.163326263427734,16.448972702026367,80.0,982903.0,1.0
515597.6621081,291243.875,312282.40625,321080.0625,294674.875,298041.125,304446.5,271601.6875,305629.09375,0.004638671875,0.9482421875,-0.335693359375,-1.5869139432907104,-36.804195404052734,16.571043014526367,80.0,982904.0,1.0
515597.6621435,290072.5625,311101.15625,320245.34375,290691.5,295881.3125,303769.59375,271345.625,304408.5,0.009521484375,0.94775390625,-0.34033203125,-1.6174315214157104,-37.414546966552734,16.632078170776367,80.0,982905.0,1.0
515597.6684003,287948.96875,311423.90625,321663.34375,294063.0625,300525.75,305801.03125,272128.125,306105.90625,0.015380859375,0.94482421875,-0.343994140625,-1.7089842557907104,-37.750240325927734,16.693113327026367,80.0,982906.0,1.0
515597.6721746,287576.125,312738.03125,323398.28125,300362.5625,305758.375,307785.6875,272891.84375,308460.96875,0.022216796875,0.946533203125,-0.341552734375,-1.8005369901657104,-38.085933685302734,16.601560592651367,80.0,982907.0,1.0
515597.6722173,289655.03125,313267.125,322995.78125,300614.34375,304099.96875,306910.65625,272542.6875,308114.96875,0.03125,0.947021484375,-0.339599609375,-1.9226073026657104,-38.299556732177734,16.815183639526367,80.0,982908.0,1.0
515597.680925,291225.1875,312300.65625,321073.09375,294677.8125,298050.59375,304463.21875,271593.375,305629.8125,0.041748046875,0.94384765625,-0.3408203125,-2.044677495956421,-38.482662200927734,16.784666061401367,80.0,982909.0,1.0
515597.6834446,290077.46875,311138.0,320234.4375,290668.625,295871.5625,303779.25,271333.03125,304399.3125,0.050537109375,0.943603515625,-0.343017578125,-2.227782964706421,-38.330074310302734,16.815183639526367,80.0,982910.0,1.0
515597.7171925,287916.21875,311391.65625,321631.59375,294067.53125,300469.6875,305757.46875,272109.625,306084.90625,0.057373046875,0.941162109375,-0.3427734375,-2.349853277206421,-38.085933685302734,16.723630905151367,80.0,982911.0,1.0
515597.7172387,287529.46875,312666.3125,323374.6875,300442.875,305706.96875,307733.8125,272890.59375,308463.84375,0.063232421875,0.9384765625,-0.343017578125,-2.410888433456421,-37.719722747802734,16.601560592651367,80.0,982912.0,1.0
515597.7197571,289622.90625,313222.4375,322988.71875,300707.875,304087.375,306896.8125,272551.65625,308125.96875,0.0703125,0.93798828125,-0.340087890625,-2.441406011581421,-37.231441497802734,16.326902389526367,80.0,982913.0,1.0
515597.7220321,291227.25,312313.15625,321072.375,294727.0625,298063.03125,304482.375,271598.375,305623.71875,0.075439453125,0.936767578125,-0.3408203125,-2.471923589706421,-36.773677825927734,16.021726608276367,80.0,982914.0,1.0
515597.7246524,290094.09375,311170.8125,320228.8125,290696.53125,295876.9375,303791.875,271341.59375,304389.8125,0.07275390625,0.937255859375,-0.343017578125,-2.532958745956421,-36.102291107177734,15.930174827575684,80.0,982915.0,1.0
515597.7246929,287895.03125,311366.625,321599.96875,294104.1875,300420.5,305716.0,272096.1875,306070.78125,0.069091796875,0.938720703125,-0.3408203125,-2.593993902206421,-35.430904388427734,15.777586936950684,80.0,982916.0,1.0
515597.7295604,287463.75,312579.78125,323332.46875,300507.40625,305637.0625,307659.96875,272848.90625,308449.15625,0.06591796875,0.937255859375,-0.34033203125,-2.716064214706421,-34.942623138427734,15.533446311950684,80.0,982917.0,1.0
515597.7320215,289595.46875,313193.65625,322990.84375,300801.125,304083.875,306882.84375,272531.53125,308141.625,0.065673828125,0.933349609375,-0.33984375,-2.807616949081421,-34.515377044677734,15.167235374450684,80.0,982918.0,1.0
515597.7371432,291252.0,312374.0625,321104.1875,294785.71875,298114.71875,304530.5625,271603.84375,305650.8125,0.063232421875,0.9345703125,-0.337646484375,-2.899169683456421,-33.935543060302734,14.709471702575684,80.0,982919.0,1.0
515597.7395113,290126.46875,311247.4375,320250.8125,290705.625,295917.8125,303829.34375,271339.71875,304402.875,0.0625,0.933349609375,-0.339599609375,-2.899169683456421,-33.416744232177734,14.251708030700684,80.0,982920.0,1.0
515597.7421339,287903.28125,311395.21875,321608.34375,294112.65625,300424.53125,305710.46875,272096.28125,306086.21875,0.0634765625,0.93359375,-0.343017578125,-2.838134527206421,-32.958980560302734,13.549803733825684,80.0,982921.0,1.0
515597.7446669,287439.15625,312561.4375,323334.8125,300547.1875,305626.25,307631.0,272850.96875,308474.75,0.0625,0.932861328125,-0.34326171875,-2.716064214706421,-32.440181732177734,13.092040061950684,80.0,982922.0,1.0
515597.7496594,289555.5,313178.875,322989.25,300824.46875,304091.75,306864.34375,272523.84375,308155.03125,0.06298828125,0.933349609375,-0.3408203125,-2.716064214706421,-31.829832077026367,12.481688499450684,80.0,982923.0,1.0
515597.7497004,291211.25,312385.03125,321075.3125,294724.75,298110.9375,304511.5,271560.375,305618.09375,0.064453125,0.934814453125,-0.341064453125,-2.532958745956421,-31.188962936401367,11.779784202575684,80.0,982924.0,1.0
515597.7521783,290093.5625,311265.59375,320210.03125,290597.8125,295889.09375,303803.9375,271286.09375,304353.09375,0.059326171875,0.9365234375,-0.34033203125,-2.532958745956421,-30.609128952026367,11.230467796325684,80.0,982925.0,1.0
515597.7545049,287866.875,311381.4375,321572.6875,294036.5,300373.21875,305667.90625,272048.71875,306048.9375,0.056884765625,0.9365234375,-0.339111328125,-2.441406011581421,-30.120847702026367,10.742186546325684,80.0,982926.0,1.0
515597.7618192,287416.90625,312534.8125,323333.90625,300556.40625,305599.15625,307603.46875,272845.96875,308481.71875,0.052001953125,0.93603515625,-0.33984375,-2.258300542831421,-29.632566452026367,10.131834983825684,80.0,982927.0,1.0
515597.7618607,289587.6875,313219.84375,323046.28125,300901.53125,304144.3125,306919.40625,272578.09375,308218.0625,0.04833984375,0.933837890625,-0.338134765625,-2.258300542831421,-29.235837936401367,9.582518577575684,80.0,982928.0,1.0
515597.8070689,291327.5625,312531.40625,321191.53125,294832.3125,298235.21875,304660.46875,271675.0,305731.90625,0.046142578125,0.93359375,-0.340576171875,-2.288818120956421,-28.991697311401367,9.033202171325684,80.0,982929.0,1.0
515597.8096464,290211.3125,311409.53125,320303.8125,290673.625,295976.71875,303934.46875,271388.71875,304446.34375,0.044921875,0.937744140625,-0.33984375,-2.136230230331421,-28.686521530151367,8.514403343200684,80.0,982930.0,1.0
515597.8120058,287925.1875,311434.75,321605.6875,294073.0625,300376.4375,305714.5625,272108.0,306094.46875,0.045654296875,0.941162109375,-0.33984375,-2.105712652206421,-28.472898483276367,8.087157249450684,80.0,982931.0,1.0
515597.8146529,287402.84375,312505.5625,323315.9375,300586.90625,305561.15625,307591.40625,272852.21875,308487.25,0.0478515625,0.94384765625,-0.338134765625,-2.014159917831421,-28.289793014526367,7.720946788787842,80.0,982932.0,1.0
515597.8196234,289534.0625,313169.15625,323000.25,300920.46875,304099.6875,306895.375,272544.40625,308189.96875,0.0498046875,0.946533203125,-0.3388671875,-1.9836424589157104,-27.923582077026367,7.263183116912842,80.0,982933.0,1.0
515597.8221275,291282.03125,312513.25,321137.0,294813.53125,298179.625,304639.625,271616.96875,305676.125,0.051025390625,0.948486328125,-0.3369140625,-2.197265386581421,-27.557371139526367,7.019042491912842,80.0,982934.0,1.0
515597.8246266,290180.03125,311413.0,320245.15625,290626.34375,295904.125,303899.96875,271318.53125,304375.625,0.05419921875,0.947509765625,-0.336181640625,-2.441406011581421,-27.252195358276367,6.835937023162842,80.0,982935.0,1.0
515597.8269965,287896.21875,311427.125,321555.59375,294039.0,300303.9375,305668.0,272046.84375,306040.46875,0.0546875,0.946533203125,-0.333251953125,-2.563476324081421,-26.824949264526367,6.591796398162842,80.0,982936.0,1.0
515597.8296709,287371.65625,312482.59375,323291.96875,300589.5,305512.25,307553.84375,272811.09375,308467.40625,0.053466796875,0.94482421875,-0.33740234375,-2.624511480331421,-26.367185592651367,6.561278820037842,80.0,982937.0,1.0
515597.832137,289543.625,313206.59375,323029.125,300974.75,304126.4375,306917.4375,272539.84375,308215.625,0.05224609375,0.9404296875,-0.336181640625,-2.716064214706421,-26.000974655151367,6.561278820037842,80.0,982938.0,1.0
515597.8420103,291341.875,312617.9375,321199.3125,294870.5625,298259.46875,304717.40625,271647.8125,305727.09375,0.052490234375,0.938720703125,-0.340576171875,-2.593993902206421,-25.482175827026367,6.500243663787842,80.0,982939.0,1.0
515597.8471169,290227.5,311485.78125,320276.65625,290621.0625,295945.4375,303962.0,271344.75,304400.90625,0.046630859375,0.939697265625,-0.338623046875,-2.532958745956421,-25.238035202026367,6.378173351287842,80.0,982940.0,1.0
515597.8545916,287904.15625,311415.59375,321547.03125,294000.8125,300289.1875,305684.0,272054.625,306034.8125,0.047119140625,0.938720703125,-0.33935546875,-2.532958745956421,-24.810789108276367,6.378173351287842,80.0,982941.0,1.0
515597.8620769,287344.03125,312419.5625,323271.875,300568.65625,305485.5,307544.46875,272805.28125,308450.15625,0.04248046875,0.942138671875,-0.33740234375,-2.502441167831421,-24.383543014526367,6.347655773162842,80.0,982942.0,1.0
515597.8646746,289490.6875,313128.375,322997.5625,300946.40625,304111.15625,306904.5625,272516.3125,308183.28125,0.038818359375,0.943603515625,-0.3359375,-2.471923589706421,-24.017332077026367,6.256103038787842,80.0,982943.0,1.0
515597.8647161,291327.09375,312599.09375,321188.25,294836.59375,298282.4375,304738.4375,271642.28125,305707.40625,0.0361328125,0.9443359375,-0.333740234375,-2.441406011581421,-23.864744186401367,6.164550304412842,80.0,982944.0,1.0
515597.8695929,290296.0625,311557.9375,320328.3125,290626.4375,296007.84375,304028.8125,271403.9375,304437.5625,0.0341796875,0.945068359375,-0.33544921875,-2.441406011581421,-23.742673873901367,6.134032726287842,80.0,982945.0,1.0
515597.8696366,287948.5,311458.34375,321581.53125,293986.15625,300299.375,305694.53125,272109.96875,306056.09375,0.03076171875,0.941162109375,-0.334716796875,-2.655029058456421,-23.620603561401367,6.072997570037842,80.0,982946.0,1.0
515597.8722441,287354.40625,312416.0625,323291.625,300570.8125,305483.90625,307523.09375,272856.96875,308467.84375,0.02880859375,0.93994140625,-0.3369140625,-2.441406011581421,-23.468015670776367,6.134032726287842,80.0,982947.0,1.0
515597.8722874,289529.03125,313171.28125,323054.59375,300998.4375,304171.40625,306938.28125,272607.6875,308238.53125,0.027587890625,0.94189453125,-0.336181640625,-2.532958745956421,-23.529050827026367,6.011962413787842,80.0,982948.0,1.0
515597.8744555,291375.21875,312669.4375,321236.6875,294854.46875,298344.9375,304791.34375,271730.53125,305745.59375,0.026123046875,0.944091796875,-0.33544921875,-2.441406011581421,-23.406980514526367,6.103515148162842,80.0,982949.0,1.0
515597.8771233,290312.875,311595.5,320323.40625,290572.59375,296010.78125,304036.59375,271438.53125,304422.375,0.023681640625,0.944580078125,-0.335693359375,-2.319335699081421,-23.345945358276367,5.981444835662842,80.0,982950.0,1.0
515597.882154,287975.96875,311482.03125,321580.8125,293954.59375,300287.28125,305697.03125,272138.59375,306060.5625,0.02392578125,0.947998046875,-0.334228515625,-2.319335699081421,-23.345945358276367,5.828856945037842,80.0,982951.0,1.0
515597.890693,287370.84375,312408.75,323297.96875,300582.15625,305478.28125,307524.6875,272882.09375,308491.5625,0.0244140625,0.949462890625,-0.335205078125,-2.349853277206421,-23.345945358276367,5.706786632537842,80.0,982952.0,1.0
515597.8933406,289518.0625,313146.96875,323052.0,301017.125,304177.40625,306939.90625,272608.78125,308248.28125,0.023681640625,0.949951171875,-0.335205078125,-2.410888433456421,-23.437498092651367,5.706786632537842,80.0,982953.0,1.0
515597.8958112,291381.03125,312679.28125,321236.875,294857.4375,298361.03125,304810.65625,271719.8125,305743.8125,0.02294921875,0.951171875,-0.33447265625,-2.563476324081421,-23.468015670776367,5.523681163787842,80.0,982954.0,1.0
515597.8958462,290328.96875,311614.0,320311.96875,290541.65625,295997.5625,304040.25,271420.375,304404.9375,0.025634765625,0.951171875,-0.33349609375,-2.593993902206421,-23.498533248901367,5.432128429412842,80.0,982955.0,1.0
515597.9007694,287980.25,311471.3125,321559.09375,293916.0625,300238.125,305663.875,272120.0625,306033.9375,0.02783203125,0.950927734375,-0.331298828125,-2.746581792831421,-23.437498092651367,5.401610851287842,80.0,982956.0,1.0
515597.9033898,287361.28125,312375.65625,323289.3125,300584.40625,305442.3125,307487.0625,272876.28125,308480.90625,0.030517578125,0.94970703125,-0.329833984375,-2.777099370956421,-23.376462936401367,5.218505382537842,80.0,982957.0,1.0
515597.9058716,289511.6875,313134.46875,323062.84375,301061.65625,304192.59375,306936.9375,272608.875,308258.375,0.031982421875,0.9462890625,-0.33203125,-2.899169683456421,-23.315427780151367,5.218505382537842,80.0,982958.0,1.0
515597.9084331,291403.625,312709.5,321259.9375,294900.875,298404.65625,304838.125,271728.75,305760.625,0.0341796875,0.947265625,-0.3330078125,-2.807616949081421,-23.193357467651367,5.157470226287842,80.0,982959.0,1.0
515597.9084736,290357.3125,311638.0625,320317.6875,290545.0625,296008.46875,304049.8125,271419.3125,304402.0625,0.036865234375,0.94775390625,-0.3349609375,-2.868652105331421,-23.040769577026367,5.065917491912842,80.0,982960.0,1.0
515597.9108467,287971.03125,311441.09375,321528.875,293880.84375,300192.34375,305624.90625,272098.4375,306006.65625,0.038330078125,0.947021484375,-0.332275390625,-2.838134527206421,-22.827146530151367,5.035399913787842,80.0,982961.0,1.0
515597.9158912,287316.3125,312305.65625,323243.25,300556.0625,305383.6875,307423.3125,272843.8125,308449.0,0.036865234375,0.9482421875,-0.333251953125,-2.746581792831421,-22.644041061401367,5.035399913787842,80.0,982962.0,1.0
515597.9183425,289465.46875,313079.8125,323024.5625,301052.34375,304163.8125,306891.15625,272577.5625,308233.4375,0.03759765625,0.948974609375,-0.328369140625,-2.960204839706421,-22.338865280151367,4.943847179412842,80.0,982963.0,1.0
515597.918382,291376.0,312695.1875,321219.0,294871.75,298383.65625,304808.34375,271673.03125,305721.625,0.0380859375,0.947509765625,-0.32666015625,-3.082275152206421,-21.942136764526367,4.913329601287842,80.0,982964.0,1.0
515597.9232884,290345.96875,311649.75,320273.6875,290489.8125,295972.53125,304018.0625,271359.9375,304353.875,0.03759765625,0.9443359375,-0.329345703125,-3.234863042831421,-21.514890670776367,4.821776866912842,80.0,982965.0,1.0
515597.9283955,287929.03125,311407.1875,321459.21875,293798.3125,300112.96875,305554.09375,272021.46875,305942.03125,0.034423828125,0.943359375,-0.329833984375,-3.295898199081421,-21.270750045776367,4.852294445037842,80.0,982966.0,1.0
515597.9308367,287275.09375,312263.71875,323199.34375,300521.71875,305334.59375,307371.90625,272799.5625,308422.78125,0.030517578125,0.942138671875,-0.32763671875,-3.265380620956421,-20.996091842651367,4.791259288787842,80.0,982967.0,1.0
515597.930877,289531.0,313166.1875,323102.625,301153.90625,304261.4375,306974.59375,272646.9375,308328.28125,0.02734375,0.9404296875,-0.328857421875,-2.990722417831421,-20.843503952026367,4.730224132537842,80.0,982968.0,1.0
515597.9332506,291524.6875,312890.8125,321367.6875,295023.8125,298568.90625,304981.4375,271805.53125,305877.8125,0.02392578125,0.93896484375,-0.331298828125,-2.899169683456421,-20.629880905151367,4.638671398162842,80.0,982969.0,1.0
515597.9359454,290503.9375,311854.59375,320412.53125,290607.03125,296139.96875,304186.96875,271488.59375,304503.09375,0.024658203125,0.9375,-0.32763671875,-2.777099370956421,-20.599363327026367,4.516601085662842,80.0,982970.0,1.0
515597.9384808,288047.9375,311551.40625,321557.5625,293870.5625,300212.03125,305664.0625,272121.15625,306052.25,0.025146484375,0.939453125,-0.324462890625,-2.716064214706421,-20.446775436401367,4.486083507537842,80.0,982971.0,1.0
515597.9385182,287328.1875,312325.3125,323254.34375,300573.40625,305377.9375,307421.34375,272847.59375,308488.96875,0.023681640625,0.94140625,-0.32275390625,-2.593993902206421,-20.446775436401367,4.455565929412842,80.0,982972.0,1.0
515597.9408135,289478.8125,313128.1875,323072.75,301134.34375,304241.78125,306948.90625,272589.1875,308302.375,0.025390625,0.9423828125,-0.324462890625,-2.502441167831421,-20.294187545776367,4.394530773162842,80.0,982973.0,1.0
515597.9509349,291456.375,312841.28125,321305.71875,294947.71875,298529.28125,304938.875,271719.25,305808.34375,0.026123046875,0.944580078125,-0.322509765625,-2.471923589706421,-20.263669967651367,4.425048351287842,80.0,982974.0,1.0
515597.9509763,290450.65625,311808.0,320343.53125,290492.3125,296073.09375,304131.15625,271405.0,304420.03125,0.027587890625,0.94677734375,-0.322265625,-2.593993902206421,-20.080564498901367,4.302978038787842,80.0,982975.0,1.0
515597.9533769,288013.96875,311505.1875,321507.34375,293774.28125,300136.1875,305610.9375,272059.53125,305996.03125,0.030029296875,0.94580078125,-0.3232421875,-2.624511480331421,-19.866941452026367,4.333495616912842,80.0,982976.0,1.0
515597.9583866,287286.4375,312265.0625,323219.75,300518.25,305313.75,307372.625,272804.03125,308455.875,0.0322265625,0.9423828125,-0.326171875,-2.746581792831421,-19.744871139526367,4.455565929412842,80.0,982977.0,1.0
515597.9608895,289440.71875,313084.375,323062.21875,301122.96875,304226.3125,306929.53125,272567.75,308291.1875,0.033203125,0.94189453125,-0.324951171875,-2.746581792831421,-19.531248092651367,4.394530773162842,80.0,982978.0,1.0
515597.9658449,291448.34375,312842.09375,321309.375,294944.5,298544.75,304951.9375,271704.5,305806.65625,0.033203125,0.940673828125,-0.32177734375,-2.777099370956421,-19.226072311401367,4.272460460662842,80.0,982979.0,1.0
515597.9683036,290466.5625,311832.0625,320344.21875,290473.90625,296074.875,304146.09375,271382.65625,304412.53125,0.03466796875,0.9423828125,-0.32421875,-2.746581792831421,-18.920896530151367,4.272460460662842,80.0,982980.0,1.0
515597.9683383,288022.8125,311499.46875,321495.625,293743.15625,300103.3125,305596.8125,272037.8125,305976.71875,0.034423828125,0.94189453125,-0.3232421875,-2.807616949081421,-18.707273483276367,4.302978038787842,80.0,982981.0,1.0
515597.9707844,287265.4375,312214.09375,323195.78125,300505.90625,305272.625,307333.1875,272774.1875,308429.40625,0.03369140625,0.943359375,-0.322509765625,-2.929687261581421,-18.402097702026367,4.180907726287842,80.0,982982.0,1.0
515597.9771406,289419.6875,313046.375,323047.1875,301143.375,304214.0625,306909.03125,272546.1875,308273.75,0.03271484375,0.944580078125,-0.32275390625,-2.899169683456421,-18.096921920776367,4.028319835662842,80.0,982983.0,1.0
515597.9830754,291463.46875,312861.6875,321322.875,294979.5625,298563.1875,304972.5,271708.625,305809.0625,0.03369140625,0.94482421875,-0.322265625,-2.929687261581421,-17.883298873901367,3.906249761581421,80.0,982984.0,1.0
515597.9831157,290482.46875,311856.28125,320347.8125,290472.90625,296063.875,304153.0,271381.5625,304399.75,0.034912109375,0.94482421875,-0.31982421875,-2.960204839706421,-17.578123092651367,3.845214605331421,80.0,982985.0,1.0
515598.0197027,288009.3125,311489.09375,321474.25,293708.71875,300048.59375,305561.25,272010.375,305942.90625,0.03076171875,0.9482421875,-0.320556640625,-3.021239995956421,-17.211912155151367,3.723144292831421,80.0,982986.0,1.0
515598.0197412,287241.125,312190.9375,323184.15625,300498.9375,305234.71875,307295.46875,272743.25,308410.8125,0.02880859375,0.947509765625,-0.321044921875,-3.204345464706421,-16.998289108276367,3.570556402206421,80.0,982987.0,1.0
515598.0271366,289396.8125,313035.65625,323055.15625,301168.84375,304222.375,306897.875,272518.65625,308272.21875,0.028076171875,0.94775390625,-0.322509765625,-3.295898199081421,-16.662595748901367,3.479003667831421,80.0,982988.0,1.0
515598.0310599,291446.65625,312863.5625,321326.1875,294982.15625,298579.53125,304968.28125,271679.21875,305795.21875,0.027587890625,0.94873046875,-0.321044921875,-3.234863042831421,-16.387937545776367,3.356933355331421,80.0,982989.0,1.0
515598.0311061,290532.71875,311923.96875,320393.125,290486.0625,296113.0625,304192.59375,271428.6875,304426.125,0.028564453125,0.94921875,-0.321533203125,-3.265380620956421,-15.991209983825684,3.234863042831421,80.0,982990.0,1.0
515598.0311155,288071.71875,311554.09375,321521.0,293720.71875,300088.625,305598.6875,272104.53125,305980.65625,0.025390625,0.948974609375,-0.320068359375,-3.295898199081421,-15.808104515075684,2.838134527206421,80.0,982991.0,1.0
515598.0311245,287258.8125,312200.78125,323196.3125,300498.125,305242.5,307296.53125,272839.4375,308424.6875,0.025390625,0.94970703125,-0.3173828125,-3.387450933456421,-15.411375999450684,2.746581792831421,80.0,982992.0,1.0
515598.0340501,289396.71875,313045.5,323067.46875,301186.28125,304254.09375,306908.96875,272634.4375,308290.75,0.02294921875,0.953369140625,-0.3173828125,-3.387450933456421,-15.045165061950684,2.441406011581421,80.0,982993.0,1.0
515598.0340931,291451.125,312887.59375,321327.875,294976.96875,298612.78125,304981.0625,271791.875,305802.28125,0.02197265625,0.9560546875,-0.315185546875,-3.479003667831421,-14.831542015075684,2.197265386581421,80.0,982994.0,1.0
515598.0341031,290518.0625,311912.09375,320349.0625,290419.4375,296087.125,304161.125,271492.875,304388.65625,0.020263671875,0.955322265625,-0.314697265625,-3.509521245956421,-14.801024436950684,2.044677495956421,80.0,982995.0,1.0
515598.0621384,288082.09375,311545.34375,321496.59375,293671.28125,300051.25,305574.90625,272175.3125,305961.78125,0.018310546875,0.955078125,-0.314208984375,-3.753661870956421,-14.648436546325684,1.9531248807907104,80.0,982996.0,1.0
515598.0647696,287315.0625,312234.40625,323244.0625,300551.59375,305280.3125,307342.75,272967.75,308480.65625,0.015380859375,0.956787109375,-0.316162109375,-3.753661870956421,-14.526366233825684,1.7700194120407104,80.0,982997.0,1.0
515598.0695132,289437.03125,313075.4375,323118.0,301272.46875,304317.84375,306971.625,272752.4375,308351.625,0.01318359375,0.955078125,-0.316650390625,-3.753661870956421,-14.495848655700684,1.5258787870407104,80.0,982998.0,1.0
515598.0721926,291500.375,312944.65625,321379.9375,295055.8125,298682.96875,305058.84375,271899.875,305857.34375,0.013427734375,0.954833984375,-0.318115234375,-3.753661870956421,-14.404295921325684,1.3427733182907104,80.0,982999.0,1.0
515598.072234,290555.4375,311958.46875,320379.0,290451.09375,296121.75,304215.40625,271564.59375,304416.125,0.01416015625,0.954345703125,-0.31787109375,-3.723144292831421,-14.343260765075684,1.1901854276657104,80.0,983000.0,1.0
515598.0745559,288072.0625,311528.71875,321478.90625,293644.96875,300025.78125,305575.09375,272190.09375,305946.03125,0.0146484375,0.954833984375,-0.318359375,-3.784179449081421,-14.251708030700684,0.9765624403953552,80.0,983001.0,1.0
515598.0769976,287257.21875,312164.75,323192.90625,300504.375,305220.40625,307296.28125,272928.125,308437.0,0.01806640625,0.95654296875,-0.3154296875,-3.845214605331421,-14.099120140075684,0.9460448622703552,80.0,983002.0,1.0
515598.0796698,289400.65625,313040.3125,323095.8125,301276.21875,304308.375,306946.0625,272689.59375,308338.5625,0.0185546875,0.9560546875,-0.313720703125,-3.845214605331421,-14.007567405700684,0.8544921278953552,80.0,983003.0,1.0
515598.082139,291491.34375,312947.0625,321373.21875,295071.65625,298691.90625,305051.71875,271805.4375,305855.90625,0.016357421875,0.95458984375,-0.3115234375,-3.875732183456421,-13.916014671325684,0.6713866591453552,80.0,983004.0,1.0
515598.0835786,290566.15625,311978.96875,320371.9375,290436.71875,296102.25,304207.15625,271473.5625,304407.34375,0.021240234375,0.95361328125,-0.310791015625,-3.906249761581421,-13.763426780700684,0.5493163466453552,80.0,983005.0,1.0
515598.0907698,288072.96875,311537.09375,321457.53125,293603.40625,299972.75,305542.375,272108.0,305920.84375,0.02001953125,0.951171875,-0.31103515625,-3.936767339706421,-13.549803733825684,0.3051757514476776,80.0,983006.0,1.0
515598.0932166,287227.4375,312146.40625,323159.9375,300466.90625,305163.8125,307242.4375,272853.03125,308400.0,0.02197265625,0.947998046875,-0.3134765625,-3.997802495956421,-13.305663108825684,0.3662109076976776,80.0,983007.0,1.0
515598.0957102,289361.125,313030.03125,323080.09375,301272.125,304294.875,306923.8125,272659.28125,308320.15625,0.021728515625,0.9443359375,-0.31396484375,-3.845214605331421,-13.061522483825684,0.2746581733226776,80.0,983008.0,1.0
515598.0957408,291465.78125,312963.34375,321370.625,295066.09375,298695.75,305058.9375,271820.90625,305847.96875,0.020751953125,0.9404296875,-0.316162109375,-3.662109136581421,-12.725829124450684,0.3051757514476776,80.0,983009.0,1.0
515598.09835,290572.59375,312020.8125,320380.34375,290416.78125,296100.625,304228.53125,271506.90625,304407.875,0.021240234375,0.939697265625,-0.31640625,-3.448486089706421,-12.420653343200684,0.1831054538488388,80.0,983010.0,1.0
515598.1008459,288086.09375,311569.375,321459.75,293565.21875,299952.125,305549.875,272116.6875,305916.4375,0.018798828125,0.943359375,-0.316650390625,-3.204345464706421,-12.237547874450684,0.1525878757238388,80.0,983011.0,1.0
515598.103415,287243.53125,312178.59375,323178.0,300468.15625,305178.9375,307262.84375,272872.25,308419.40625,0.016357421875,0.94189453125,-0.31591796875,-2.899169683456421,-11.901854515075684,0.03051757626235485,80.0,983012.0,1.0
515598.1034289,289382.59375,313076.96875,323120.0625,301319.84375,304357.1875,306968.15625,272710.4375,308363.25,0.017578125,0.943603515625,-0.316650390625,-2.624511480331421,-11.688231468200684,0.0610351525247097,80.0,983013.0,1.0
515598.1057872,291481.6875,313009.09375,321401.1875,295087.125,298756.75,305098.90625,271859.625,305874.25,0.019775390625,0.9443359375,-0.315673828125,-2.593993902206421,-11.383055686950684,0.03051757626235485,80.0,983014.0,1.0
515598.1083676,290570.53125,312038.78125,320369.0,290361.0625,296109.5625,304225.21875,271486.1875,304388.125,0.020751953125,0.942138671875,-0.31396484375,-2.471923589706421,-11.108397483825684,0.0,80.0,983015.0,1.0
515598.1083808,288091.65625,311572.5,321443.65625,293488.53125,299937.28125,305527.15625,272072.6875,305886.6875,0.02294921875,0.941162109375,-0.31494140625,-2.349853277206421,-10.650633811950684,-0.1220703050494194,80.0,983016.0,1.0
515598.1108626,287244.4375,312168.15625,323171.375,300423.90625,305171.78125,307239.59375,272808.0625,308396.25,0.025146484375,0.939208984375,-0.316162109375,-2.105712652206421,-10.253905296325684,-0.0915527269244194,80.0,983017.0,1.0
515598.1783267,289361.75,313059.09375,323113.15625,301298.03125,304368.28125,306951.25,272618.4375,308341.78125,0.026611328125,0.93896484375,-0.3173828125,-1.8920897245407104,-9.918211936950684,0.0,80.0,983018.0,1.0
515598.1783657,291460.3125,312998.1875,321392.0,295055.1875,298774.09375,305090.15625,271789.71875,305854.84375,0.02587890625,0.93994140625,-0.315185546875,-1.6479490995407104,-9.460448265075684,0.0,80.0,983019.0,1.0
515598.1808958,290560.53125,312024.03125,320353.8125,290300.71875,296101.875,304211.5625,271465.625,304360.15625,0.0263671875,0.943115234375,-0.31396484375,-1.3732908964157104,-8.880614280700684,0.0,80.0,983020.0,1.0
515598.1809376,288092.8125,311549.625,321421.125,293419.59375,299901.6875,305504.0,272099.25,305853.40625,0.02685546875,0.943603515625,-0.31787109375,-1.2817381620407104,-8.605956077575684,-0.1220703050494194,80.0,983021.0,1.0
515598.1857162,287238.4375,312134.15625,323145.34375,300380.71875,305137.09375,307214.28125,272858.75,308367.0,0.025634765625,0.9443359375,-0.31591796875,-1.0986326932907104,-8.026122093200684,-0.1831054538488388,80.0,983022.0,1.0
515598.18831,289346.84375,313033.34375,323100.5625,301305.1875,304373.5625,306950.1875,272701.40625,308332.5,0.023681640625,0.94189453125,-0.315185546875,-1.0070799589157104,-7.537841320037842,-0.1831054538488388,80.0,983023.0,1.0
515598.1898161,291479.28125,313017.96875,321408.625,295098.65625,298812.34375,305128.0625,271898.53125,305879.0625,0.022216796875,0.94482421875,-0.31591796875,-0.8544921278953552,-7.049560070037842,-0.2136230319738388,80.0,983024.0,1.0
515598.1970031,290615.15625,312069.78125,320384.03125,290339.6875,296127.375,304261.78125,271575.75,304396.875,0.022705078125,0.94580078125,-0.316162109375,-0.7324218153953552,-6.683349132537842,-0.1831054538488388,80.0,983025.0,1.0
515598.1996397,288143.0625,311580.90625,321441.53125,293434.25,299898.65625,305533.53125,272185.96875,305874.4375,0.02001953125,0.9443359375,-0.315673828125,-0.6713866591453552,-6.195067882537842,-0.2136230319738388,80.0,983026.0,1.0
515598.2046498,287282.59375,312159.84375,323176.03125,300415.3125,305152.75,307245.40625,272939.9375,308396.5,0.02099609375,0.9443359375,-0.315673828125,-0.6713866591453552,-5.737304210662842,-0.2136230319738388,80.0,983027.0,1.0
515598.2071759,289375.0,313050.9375,323135.96875,301365.0,304411.1875,306984.9375,272775.78125,308367.90625,0.019775390625,0.9453125,-0.312255859375,-0.4882812201976776,-5.371093273162842,-0.3662109076976776,80.0,983028.0,1.0
515598.2094909,291481.6875,313016.15625,321420.875,295136.375,298829.53125,305142.53125,271944.65625,305885.59375,0.01953125,0.946533203125,-0.319091796875,-0.3051757514476776,-4.974364757537842,-0.4577636420726776,80.0,983029.0,1.0
515598.2121197,290609.625,312056.65625,320375.34375,290335.40625,296113.0625,304257.40625,271599.09375,304379.625,0.01806640625,0.94775390625,-0.318115234375,-0.3967284858226776,-4.486083507537842,-0.5187987685203552,80.0,983030.0,1.0
515598.2146216,288147.25,311562.84375,321432.21875,293399.65625,299866.8125,305523.0625,272210.46875,305853.875,0.01904296875,0.947509765625,-0.31884765625,-0.3662109076976776,-4.119872570037842,-0.6103515028953552,80.0,983031.0,1.0
515598.2194542,287277.0625,312132.125,323165.125,300383.40625,305133.96875,307232.0625,272965.875,308380.15625,0.019287109375,0.94921875,-0.315673828125,-0.2441406100988388,-3.753661870956421,-0.6103515028953552,80.0,983032.0,1.0
515598.2221242,289357.125,313026.09375,323131.0625,301373.21875,304431.21875,306985.5,272803.21875,308370.59375,0.01904296875,0.950439453125,-0.3173828125,-0.2136230319738388,-3.356933355331421,-0.7934569716453552,80.0,983033.0,1.0
515598.2245214,291468.0,312994.625,321414.875,295153.90625,298852.5,305149.0625,271968.8125,305892.125,0.02294921875,0.95068359375,-0.31689453125,-0.2746581733226776,-2.807616949081421,-0.8850097060203552,80.0,983034.0,1.0
515598.2270998,290602.375,312031.8125,320354.59375,290317.34375,296100.0,304247.65625,271613.84375,304365.96875,0.023681640625,0.949951171875,-0.319580078125,-0.1220703050494194,-2.441406011581421,-0.8544921278953552,80.0,983035.0,1.0
515598.2320811,288147.78125,311538.4375,321406.84375,293353.78125,299833.09375,305505.90625,272219.125,305829.1875,0.023193359375,0.94775390625,-0.320556640625,-0.1831054538488388,-1.9226073026657104,-0.8850097060203552,80.0,983036.0,1.0
515598.2321263,287280.625,312108.25,323159.21875,300363.03125,305124.03125,307229.03125,272982.40625,308370.65625,0.02197265625,0.947998046875,-0.3203125,-0.0915527269244194,-1.4343260526657104,-0.8239745497703552,80.0,983037.0,1.0
515598.2345035,289353.1875,313006.5,323139.1875,301395.59375,304455.28125,306993.71875,272829.25,308376.84375,0.0224609375,0.945068359375,-0.321044921875,-0.03051757626235485,-0.8850097060203552,-0.7324218153953552,80.0,983038.0,1.0
515598.2445069,291474.0,312992.84375,321429.53125,295191.90625,298882.53125,305160.25,271996.6875,305903.65625,0.0205078125,0.947265625,-0.319580078125,-0.03051757626235485,-0.4577636420726776,-0.6408690810203552,80.0,983039.0,1.0
515598.2469057,290609.25,312025.0,320351.03125,290318.96875,296088.125,304232.375,271610.90625,304350.21875,0.019775390625,0.948974609375,-0.32080078125,0.0610351525247097,-0.0610351525247097,-0.6103515028953552,80.0,983040.0,1.0
515598.2496596,288152.34375,311528.25,321391.46875,293323.65625,299797.25,305480.3125,272200.09375,305796.71875,0.0185546875,0.949462890625,-0.319580078125,-0.03051757626235485,0.3051757514476776,-0.6713866591453552,80.0,983041.0,1.0
515598.2496727,287285.90625,312107.625,323153.40625,300339.25,305105.15625,307215.96875,272972.84375,308349.21875,0.015869140625,0.948486328125,-0.318115234375,0.0,0.6408690810203552,-0.5798339247703552,80.0,983042.0,1.0
515598.2545895,289362.3125,313018.21875,323158.21875,301416.5,304477.71875,307003.625,272832.125,308381.5,0.015869140625,0.94921875,-0.31884765625,0.0610351525247097,1.0986326932907104,-0.5493163466453552,80.0,983043.0,1.0
515598.2546036,291476.59375,312993.625,321440.53125,295211.75,298901.21875,305166.25,271996.4375,305905.0,0.01318359375,0.94921875,-0.31689453125,-0.03051757626235485,1.4648436307907104,-0.5187987685203552,80.0,983044.0,1.0
515598.2569433,290623.75,312024.1875,320354.875,290301.15625,296087.3125,304241.3125,271622.78125,304349.15625,0.012451171875,0.949951171875,-0.3193359375,-0.03051757626235485,1.7089842557907104,-0.3967284858226776,80.0,983045.0,1.0
515598.2569556,288173.28125,311521.90625,321386.90625,293260.96875,299775.25,305485.34375,272215.03125,305782.25,0.01123046875,0.948486328125,-0.31884765625,0.0,1.9836424589157104,-0.3967284858226776,80.0,983046.0,1.0
515598.2594076,287299.6875,312106.53125,323153.40625,300291.59375,305104.8125,307227.78125,272988.46875,308338.5625,0.0107421875,0.94873046875,-0.319580078125,0.0610351525247097,2.258300542831421,-0.3051757514476776,80.0,983047.0,1.0
515598.2619554,289353.09375,313012.25,323155.1875,301398.0,304501.59375,307017.3125,272841.78125,308379.0625,0.009765625,0.95166015625,-0.31787109375,0.03051757626235485,2.532958745956421,-0.2441406100988388,80.0,983048.0,1.0
515598.2671051,291468.0,312987.75,321437.3125,295196.65625,298926.875,305179.375,272001.78125,305905.53125,0.0068359375,0.94970703125,-0.31884765625,0.1525878757238388,2.716064214706421,-0.1831054538488388,80.0,983049.0,1.0
515598.2671198,290647.09375,312039.125,320367.125,290279.53125,296108.875,304263.59375,271647.65625,304360.6875,0.0048828125,0.950439453125,-0.316162109375,-0.0610351525247097,2.868652105331421,-0.0915527269244194,80.0,983050.0,1.0
515598.2695709,288201.53125,311535.59375,321395.65625,293214.9375,299774.46875,305500.09375,272238.625,305789.40625,0.0048828125,0.9482421875,-0.31787109375,-0.1525878757238388,3.021239995956421,-0.0915527269244194,80.0,983051.0,1.0
515598.2720405,287301.90625,312100.90625,323148.21875,300240.8125,305096.5,307230.8125,272982.84375,308331.78125,0.0029296875,0.9482421875,-0.318359375,-0.1831054538488388,3.143310308456421,-0.1220703050494194,80.0,983052.0,1.0
515598.2744299,289332.96875,312997.125,323148.40625,301378.0625,304514.0,307016.34375,272795.1875,308376.3125,0.00048828125,0.94970703125,-0.316650390625,-0.03051757626235485,3.326415777206421,0.0,80.0,983053.0,1.0
515598.2770734,291452.375,312977.09375,321433.125,295197.34375,298940.90625,305176.6875,271934.8125,305909.03125,-0.001220703125,0.94873046875,-0.31982421875,-0.03051757626235485,3.326415777206421,0.0610351525247097,80.0,983054.0,1.0
515598.2770894,290624.0,312007.84375,320334.21875,290238.3125,296070.40625,304229.6875,271537.6875,304329.5625,-0.001953125,0.94580078125,-0.3193359375,-0.1220703050494194,3.356933355331421,0.1525878757238388,80.0,983055.0,1.0
515598.2795862,288188.5625,311506.875,321360.6875,293152.09375,299721.96875,305467.53125,272119.625,305749.71875,-0.00146484375,0.947021484375,-0.31884765625,-0.0610351525247097,3.417968511581421,0.1220703050494194,80.0,983056.0,1.0
515598.2819721,287282.5,312070.34375,323119.875,300186.625,305058.5,307206.5,272877.8125,308297.96875,-0.00244140625,0.94677734375,-0.31787109375,-0.1525878757238388,3.417968511581421,0.1831054538488388,80.0,983057.0,1.0
515598.2819896,289330.125,312994.53125,323156.53125,301397.46875,304531.0,307031.71875,272748.78125,308383.8125,-0.001708984375,0.944580078125,-0.319580078125,-0.0610351525247097,3.356933355331421,0.2441406100988388,80.0,983058.0,1.0
515598.2845697,291470.6875,312991.75,321459.59375,295254.65625,298970.875,305204.9375,271915.78125,305937.1875,-0.00146484375,0.9462890625,-0.319091796875,-0.0915527269244194,3.387450933456421,0.3051757514476776,80.0,983059.0,1.0
515598.2870082,290654.21875,312023.9375,320357.65625,290279.15625,296076.59375,304252.6875,271524.1875,304355.59375,-0.000732421875,0.945556640625,-0.31982421875,-0.03051757626235485,3.356933355331421,0.3356933295726776,80.0,983060.0,1.0
515598.2904788,288225.59375,311530.40625,321378.125,293159.25,299707.3125,305482.375,272107.65625,305765.96875,-0.001220703125,0.94482421875,-0.317138671875,0.0,3.387450933456421,0.3967284858226776,80.0,983061.0,1.0
515598.2904991,287309.875,312099.5625,323139.28125,300203.25,305069.3125,307227.6875,272866.96875,308319.0,-0.00146484375,0.946044921875,-0.317138671875,0.03051757626235485,3.356933355331421,0.3662109076976776,80.0,983062.0,1.0
515598.2982268,289314.125,312994.4375,323155.625,301425.34375,304547.90625,307029.9375,272707.375,308389.96875,-0.000732421875,0.947509765625,-0.315185546875,0.0,3.173827886581421,0.4272460639476776,80.0,983063.0,1.0
515598.298248,291436.53125,312972.0,321440.09375,295276.46875,298970.96875,305175.4375,271855.15625,305926.71875,-0.001708984375,0.947509765625,-0.316650390625,-0.0610351525247097,3.295898199081421,0.4577636420726776,80.0,983064.0,1.0
515598.3434383,290636.34375,312008.5625,320331.53125,290272.5625,296055.21875,304212.53125,271467.84375,304330.46875,-0.001953125,0.945556640625,-0.319091796875,-0.0610351525247097,3.082275152206421,0.4577636420726776,80.0,983065.0,1.0
515598.3434499,288214.6875,311516.375,321352.03125,293118.375,299675.5,305448.03125,272066.25,305732.53125,0.000244140625,0.946044921875,-0.32275390625,-0.1220703050494194,3.112792730331421,0.5798339247703552,80.0,983066.0,1.0
515598.3434517,287295.84375,312094.28125,323129.25,300172.78125,305058.5,307208.90625,272841.0625,308300.5625,0.00048828125,0.9443359375,-0.318359375,-0.1220703050494194,3.082275152206421,0.5187987685203552,80.0,983067.0,1.0
515598.3472737,289289.4375,312990.6875,323160.90625,301436.625,304573.03125,307021.625,272701.5,308393.5625,0.001220703125,0.945556640625,-0.318359375,-0.0610351525247097,3.143310308456421,0.5493163466453552,80.0,983068.0,1.0
515598.3472848,291426.0,312973.96875,321452.0,295310.53125,299006.8125,305175.96875,271857.40625,305938.09375,0.001708984375,0.946044921875,-0.317626953125,-0.0610351525247097,3.173827886581421,0.6103515028953552,80.0,983069.0,1.0
515598.3472864,290648.40625,312015.78125,320338.875,290281.59375,296061.375,304210.28125,271466.5,304335.46875,0.00439453125,0.9482421875,-0.317138671875,-0.0610351525247097,3.051757574081421,0.6408690810203552,80.0,983070.0,1.0
515598.3472883,288225.65625,311517.71875,321346.84375,293084.5,299647.6875,305432.03125,272048.375,305720.65625,0.00537109375,0.9501953125,-0.317626953125,-0.1831054538488388,3.082275152206421,0.6103515028953552,80.0,983071.0,1.0
515598.354742,287307.1875,312102.875,323136.15625,300157.46875,305051.78125,307206.9375,272839.8125,308305.40625,0.004638671875,0.948486328125,-0.31787109375,-0.2136230319738388,3.021239995956421,0.6408690810203552,80.0,983072.0,1.0
515598.3547552,289293.1875,313002.75,323174.9375,301466.5625,304596.1875,307033.5,272702.5625,308413.9375,0.0078125,0.948486328125,-0.31787109375,-0.2136230319738388,3.051757574081421,0.5798339247703552,80.0,983073.0,1.0
515598.3547568,291432.875,312986.84375,321462.34375,295353.1875,299029.78125,305187.5,271850.5,305958.375,0.007568359375,0.9482421875,-0.321044921875,-0.2136230319738388,3.021239995956421,0.5798339247703552,80.0,983074.0,1.0
515598.3547598,290652.25,312017.3125,320331.90625,290284.4375,296050.65625,304207.0625,271448.0,304333.5,0.00634765625,0.94873046875,-0.31982421875,-0.2136230319738388,3.173827886581421,0.6103515028953552,80.0,983075.0,1.0
515598.357071,288231.40625,311512.0,321331.03125,293045.78125,299609.78125,305424.8125,272025.5625,305702.40625,0.0029296875,0.94873046875,-0.31982421875,-0.2746581733226776,3.234863042831421,0.5187987685203552,80.0,983076.0,1.0
515598.3620818,287303.875,312094.03125,323125.15625,300119.65625,305031.0625,307211.25,272818.625,308287.0,0.00390625,0.948486328125,-0.3173828125,-0.3356933295726776,3.356933355331421,0.5798339247703552,80.0,983077.0,1.0
515598.3645912,289287.5625,313002.125,323183.0,301468.90625,304616.65625,307053.96875,272698.09375,308417.53125,0.00439453125,0.948974609375,-0.31689453125,-0.3356933295726776,3.356933355331421,0.4577636420726776,80.0,983078.0,1.0
515598.3670534,291412.5,312964.40625,321463.59375,295357.65625,299043.03125,305196.625,271845.875,305957.3125,0.005859375,0.94970703125,-0.316162109375,-0.3356933295726776,3.387450933456421,0.4272460639476776,80.0,983079.0,1.0
515598.3693933,290646.8125,311994.875,320331.0,290273.90625,296045.375,304208.6875,271441.21875,304327.78125,0.007568359375,0.948974609375,-0.3203125,-0.3356933295726776,3.509521245956421,0.4577636420726776,80.0,983080.0,1.0
515598.3720797,288247.46875,311509.3125,321339.5,293023.25,299605.5625,305436.78125,272036.75,305705.1875,0.005615234375,0.94677734375,-0.3193359375,-0.4577636420726776,3.601073980331421,0.4577636420726776,80.0,983081.0,1.0
515598.3770461,287302.53125,312090.1875,323134.28125,300101.875,305038.125,307222.59375,272823.71875,308292.8125,0.006591796875,0.94677734375,-0.321533203125,-0.3356933295726776,3.540038824081421,0.4882812201976776,80.0,983082.0,1.0
515598.3795924,289268.4375,312995.78125,323195.15625,301486.25,304649.8125,307069.25,272699.875,308433.875,0.005615234375,0.948974609375,-0.318115234375,-0.2136230319738388,3.570556402206421,0.4272460639476776,80.0,983083.0,1.0
515598.3796074,291420.71875,312983.4375,321488.65625,295406.5625,299091.9375,305224.53125,271863.3125,305992.53125,0.005615234375,0.9521484375,-0.3203125,-0.2746581733226776,3.723144292831421,0.3662109076976776,80.0,983084.0,1.0
515598.3870814,290669.0625,312014.8125,320343.6875,290291.15625,296060.3125,304224.15625,271458.1875,304351.375,0.004150390625,0.9501953125,-0.32177734375,-0.2746581733226776,3.662109136581421,0.4272460639476776,80.0,983085.0,1.0
515598.3896292,288246.78125,311499.125,321316.71875,292977.84375,299566.21875,305419.4375,272008.5,305689.34375,0.005126953125,0.947265625,-0.31982421875,-0.2746581733226776,3.692626714706421,0.4272460639476776,80.0,983086.0,1.0
515598.3912605,287273.40625,312058.8125,323094.3125,300041.78125,304991.625,307190.6875,272774.90625,308258.375,0.00439453125,0.94921875,-0.319091796875,-0.3051757514476776,3.814697027206421,0.3967284858226776,80.0,983087.0,1.0
515598.3983304,289242.125,312974.40625,323180.40625,301482.84375,304652.875,307061.125,272668.75,308423.96875,0.004150390625,0.9482421875,-0.316650390625,-0.3051757514476776,3.814697027206421,0.4272460639476776,80.0,983088.0,1.0
515598.4033615,291412.21875,312974.0625,321490.78125,295431.34375,299106.84375,305224.34375,271837.375,305994.5,0.00439453125,0.948486328125,-0.316650390625,-0.2746581733226776,3.845214605331421,0.3356933295726776,80.0,983089.0,1.0
515598.4033857,290684.53125,312019.28125,320350.40625,290300.96875,296057.09375,304227.0,271441.03125,304351.90625,0.004638671875,0.947265625,-0.31689453125,-0.2746581733226776,3.814697027206421,0.2746581733226776,80.0,983090.0,1.0
515598.4057009,288272.25,311510.09375,321323.25,292962.09375,299551.375,305420.5,272017.25,305685.4375,0.00390625,0.947021484375,-0.316162109375,-0.1525878757238388,3.875732183456421,0.3356933295726776,80.0,983091.0,1.0
515598.4121105,287297.8125,312077.65625,323106.46875,300036.6875,304996.09375,307200.25,272801.34375,308263.28125,0.003173828125,0.948486328125,-0.31640625,-0.1220703050494194,3.875732183456421,0.3051757514476776,80.0,983092.0,1.0
515598.4146509,289241.34375,312979.4375,323189.25,301507.0625,304675.21875,307071.21875,272689.40625,308437.375,-0.00048828125,0.949951171875,-0.316650390625,-0.1525878757238388,3.845214605331421,0.3662109076976776,80.0,983093.0,1.0
515598.4182625,291407.84375,312969.6875,321494.71875,295469.34375,299130.46875,305231.59375,271858.28125,306009.96875,0.00048828125,0.948974609375,-0.316650390625,-0.1831054538488388,3.784179449081421,0.2746581733226776,80.0,983094.0,1.0
515598.4420742,290695.53125,312015.15625,320351.75,290317.6875,296056.28125,304228.625,271464.53125,304359.34375,-0.00048828125,0.949951171875,-0.315185546875,-0.1831054538488388,3.784179449081421,0.2441406100988388,80.0,983095.0,1.0
515598.4421137,288290.5,311509.75,321320.75,292945.8125,299529.65625,305420.40625,272020.5625,305684.15625,-0.000732421875,0.947265625,-0.314697265625,0.0,3.784179449081421,0.2441406100988388,80.0,983096.0,1.0
515598.4445772,287311.84375,312084.28125,323117.46875,300032.21875,304997.71875,307217.15625,272799.5625,308274.75,0.001953125,0.94677734375,-0.315185546875,-0.0610351525247097,3.692626714706421,0.2746581733226776,80.0,983097.0,1.0
515598.4446186,289245.53125,312990.25,323211.6875,301541.9375,304709.1875,307094.3125,272697.46875,308461.5,0.002197265625,0.946044921875,-0.31689453125,0.0610351525247097,3.601073980331421,0.2441406100988388,80.0,983098.0,1.0
515598.4471497,291404.0,312972.09375,321503.75,295503.125,299153.25,305237.03125,271852.75,306019.8125,0.00146484375,0.94677734375,-0.316650390625,0.1220703050494194,3.570556402206421,0.3356933295726776,80.0,983099.0,1.0
515598.449515,290690.625,312003.71875,320336.46875,290305.625,296038.78125,304209.3125,271433.6875,304341.0,0.0009765625,0.946044921875,-0.315185546875,0.2441406100988388,3.479003667831421,0.3662109076976776,80.0,983100.0,1.0
515598.4521656,288295.9375,311500.53125,321310.0,292900.9375,299498.90625,305406.84375,272022.4375,305662.4375,0.000244140625,0.94580078125,-0.318359375,0.1831054538488388,3.356933355331421,0.3356933295726776,80.0,983101.0,1.0
515598.454484,287315.40625,312081.5,323115.59375,299994.65625,304983.75,307215.8125,272825.0625,308263.03125,0.0009765625,0.947265625,-0.318603515625,0.1831054538488388,3.387450933456421,0.3662109076976776,80.0,983102.0,1.0
515598.4570681,289232.75,312984.4375,323213.9375,301539.4375,304720.375,307095.71875,272716.25,308462.9375,0.001220703125,0.946533203125,-0.319091796875,0.2441406100988388,3.356933355331421,0.4272460639476776,80.0,983103.0,1.0
515598.4608707,291392.65625,312961.53125,321511.53125,295522.34375,299167.75,305239.375,271869.375,306031.15625,0.002197265625,0.946533203125,-0.320068359375,0.2441406100988388,3.234863042831421,0.4882812201976776,80.0,983104.0,1.0
515598.5410618,290693.9375,311991.21875,320338.875,290308.3125,296027.9375,304205.28125,271446.40625,304345.46875,0.002685546875,0.94775390625,-0.32275390625,0.2441406100988388,3.204345464706421,0.3967284858226776,80.0,983105.0,1.0
515598.5410998,288299.59375,311483.5625,321295.0625,292867.3125,299458.9375,305388.40625,272006.625,305646.1875,0.003173828125,0.94873046875,-0.319580078125,0.2441406100988388,3.234863042831421,0.4577636420726776,80.0,983106.0,1.0
515598.5411099,287301.8125,312057.46875,323099.5,299956.65625,304951.9375,307195.0625,272792.15625,308240.21875,0.00341796875,0.94775390625,-0.317626953125,0.3356933295726776,3.204345464706421,0.5493163466453552,80.0,983107.0,1.0
515598.5459159,289214.0625,312965.84375,323213.03125,301539.875,304726.8125,307092.0625,272694.96875,308456.15625,0.00244140625,0.9482421875,-0.314208984375,0.2746581733226776,3.234863042831421,0.6713866591453552,80.0,983108.0,1.0
515598.5482944,291392.28125,312962.875,321521.625,295550.34375,299189.1875,305246.53125,271860.96875,306035.53125,0.002197265625,0.947998046875,-0.31689453125,0.3051757514476776,3.265380620956421,0.7019042372703552,80.0,983109.0,1.0
515598.5483358,290694.71875,311986.1875,320332.0625,290305.625,296016.15625,304192.6875,271436.125,304329.84375,0.001708984375,0.9482421875,-0.318603515625,0.1831054538488388,3.173827886581421,0.7019042372703552,80.0,983110.0,1.0
515598.5509308,288301.125,311477.46875,321279.4375,292831.125,299426.5,305369.5625,272009.5625,305618.625,0.002197265625,0.946533203125,-0.320556640625,0.3662109076976776,3.143310308456421,0.6713866591453552,80.0,983111.0,1.0
515598.5534401,287306.5625,312065.0625,323098.875,299938.15625,304946.03125,307197.5625,272822.8125,308231.03125,0.001220703125,0.946533203125,-0.319091796875,0.3051757514476776,3.143310308456421,0.6713866591453552,80.0,983112.0,1.0
515598.5558794,289211.375,312978.34375,323227.875,301569.5625,304756.125,307110.84375,272740.46875,308469.46875,0.000732421875,0.947509765625,-0.31689453125,0.3662109076976776,3.234863042831421,0.7324218153953552,80.0,983113.0,1.0
515598.5584876,291390.6875,312971.1875,321531.28125,295594.9375,299218.4375,305258.78125,271911.21875,306052.4375,0.000244140625,0.947998046875,-0.318115234375,0.3051757514476776,3.173827886581421,0.6713866591453552,80.0,983114.0,1.0
515598.5607387,290716.5625,312004.15625,320342.4375,290332.53125,296029.125,304209.3125,271496.09375,304350.125,0.00390625,0.94873046875,-0.317626953125,0.3051757514476776,3.051757574081421,0.7934569716453552,80.0,983115.0,1.0
515598.5633976,288326.15625,311491.15625,321288.8125,292823.4375,299418.34375,305388.59375,272070.53125,305633.03125,0.002685546875,0.94873046875,-0.31787109375,0.3356933295726776,2.990722417831421,0.7629393935203552,80.0,983116.0,1.0
515598.5658662,287307.375,312059.34375,323100.65625,299921.875,304936.1875,307209.625,272875.28125,308240.9375,0.002197265625,0.9482421875,-0.318603515625,0.2746581733226776,3.021239995956421,0.8544921278953552,80.0,983117.0,1.0
515598.5733513,289191.34375,312963.875,323222.4375,301579.125,304766.5,307114.15625,272769.34375,308478.75,0.00244140625,0.9501953125,-0.31689453125,0.2746581733226776,3.021239995956421,0.9765624403953552,80.0,983118.0,1.0
515598.5733903,291374.59375,312959.65625,321530.84375,295623.1875,299237.21875,305261.46875,271925.875,306066.03125,0.003662109375,0.9521484375,-0.319091796875,0.2441406100988388,2.990722417831421,1.0681151151657104,80.0,983119.0,1.0
515598.5734004,290708.84375,311985.5625,320335.90625,290331.90625,296016.59375,304197.875,271491.53125,304344.84375,0.003662109375,0.95068359375,-0.320068359375,0.2136230319738388,2.899169683456421,1.1291502714157104,80.0,983120.0,1.0
515598.5759133,288328.03125,311474.0,321274.96875,292787.65625,299380.875,305367.84375,272051.59375,305614.0,0.004150390625,0.9482421875,-0.318603515625,0.1220703050494194,2.929687261581421,1.1291502714157104,80.0,983121.0,1.0
515598.5759502,287313.90625,312054.40625,323100.21875,299898.8125,304919.65625,307201.75,272865.28125,308232.71875,0.00537109375,0.949951171875,-0.3193359375,0.1220703050494194,2.838134527206421,1.1291502714157104,80.0,983122.0,1.0
515598.5784715,289189.84375,312964.3125,323240.84375,301603.46875,304788.9375,307123.90625,272785.09375,308496.03125,0.003662109375,0.949951171875,-0.3203125,0.1220703050494194,2.929687261581421,1.2207030057907104,80.0,983123.0,1.0
515598.5785075,291377.96875,312967.1875,321550.15625,295669.4375,299263.59375,305271.125,271948.6875,306091.40625,0.0048828125,0.95068359375,-0.319580078125,0.1220703050494194,2.960204839706421,1.2512205839157104,80.0,983124.0,1.0
515598.5807694,290726.375,312002.65625,320343.6875,290363.75,296019.1875,304198.75,271518.46875,304362.8125,0.005126953125,0.95166015625,-0.3193359375,0.1525878757238388,2.899169683456421,1.2512205839157104,80.0,983125.0,1.0
515598.5858478,288342.34375,311485.78125,321267.375,292779.53125,299354.15625,305358.90625,272075.375,305613.625,0.00390625,0.95068359375,-0.32080078125,0.2441406100988388,2.960204839706421,1.3122557401657104,80.0,983126.0,1.0
515598.5883925,287316.9375,312065.0625,323094.75,299891.59375,304908.28125,307200.15625,272887.46875,308234.6875,0.00537109375,0.94970703125,-0.321044921875,0.1831054538488388,2.868652105331421,1.3122557401657104,80.0,983127.0,1.0
515598.5908567,289173.5625,312968.0625,323239.9375,301630.46875,304810.3125,307128.90625,272794.1875,308508.96875,0.0048828125,0.949462890625,-0.320556640625,0.1525878757238388,2.838134527206421,1.2512205839157104,80.0,983128.0,1.0
515598.5933727,291343.1875,312944.5625,321533.25,295690.625,299273.5,305261.46875,271935.34375,306086.59375,0.0068359375,0.9482421875,-0.32177734375,0.1525878757238388,2.838134527206421,1.2817381620407104,80.0,983129.0,1.0
515598.5934131,290696.625,311962.6875,320317.59375,290340.21875,295993.78125,304176.6875,271491.375,304338.15625,0.008056640625,0.9482421875,-0.320068359375,0.1831054538488388,2.838134527206421,1.3427733182907104,80.0,983130.0,1.0
515598.5971231,288325.96875,311448.96875,321249.21875,292728.21875,299318.5625,305340.75,272051.0625,305587.34375,0.008056640625,0.948486328125,-0.319580078125,0.03051757626235485,2.868652105331421,1.3122557401657104,80.0,983131.0,1.0
515598.5971582,287299.3125,312032.0625,323083.5,299843.84375,304885.40625,307187.375,272871.71875,308213.6875,0.009033203125,0.950439453125,-0.3212890625,0.0610351525247097,2.899169683456421,1.2512205839157104,80.0,983132.0,1.0
515598.5971679,289147.8125,312934.4375,323237.1875,301617.03125,304814.875,307122.5625,272794.03125,308499.0625,0.0087890625,0.948486328125,-0.319091796875,0.03051757626235485,2.899169683456421,1.3427733182907104,80.0,983133.0,1.0
515598.5996084,291332.03125,312920.9375,321538.71875,295696.6875,299284.78125,305255.03125,271948.21875,306086.21875,0.00927734375,0.947021484375,-0.31787109375,-0.0915527269244194,2.990722417831421,1.3122557401657104,80.0,983134.0,1.0
515598.6021736,290705.71875,311951.0625,320320.28125,290335.75,295989.5,304168.8125,271510.5,304334.46875,0.008544921875,0.947998046875,-0.320556640625,-0.1220703050494194,3.021239995956421,1.2512205839157104,80.0,983135.0,1.0
515598.6044754,288344.84375,311441.625,321244.21875,292694.125,299293.53125,305329.9375,272070.90625,305573.75,0.010009765625,0.947509765625,-0.32275390625,-0.0610351525247097,3.051757574081421,1.2207030057907104,80.0,983136.0,1.0
515598.6092638,287300.5625,312016.6875,323072.21875,299809.59375,304867.34375,307170.5625,272873.5,308195.34375,0.010009765625,0.947021484375,-0.325927734375,-0.0915527269244194,3.112792730331421,1.1596678495407104,80.0,983137.0,1.0
515598.6093029,289139.59375,312926.125,323237.1875,301626.625,304833.8125,307120.5,272805.28125,308499.0625,0.00927734375,0.947998046875,-0.32275390625,-0.2136230319738388,3.204345464706421,1.1901854276657104,80.0,983138.0,1.0
515598.6171195,291332.84375,312924.96875,321545.0625,295727.1875,299313.03125,305262.78125,271969.875,306097.59375,0.010498046875,0.947998046875,-0.3193359375,-0.2136230319738388,3.265380620956421,1.0681151151657104,80.0,983139.0,1.0
515598.6196637,290718.5,311955.96875,320318.03125,290336.46875,295987.0,304164.25,271529.28125,304337.0625,0.008056640625,0.9482421875,-0.31884765625,-0.1525878757238388,3.234863042831421,0.9155272841453552,80.0,983140.0,1.0
515598.6219876,288355.21875,311441.96875,321230.71875,292659.8125,299268.6875,305316.53125,272086.1875,305564.90625,0.009033203125,0.946533203125,-0.31982421875,-0.1831054538488388,3.356933355331421,1.0070799589157104,80.0,983141.0,1.0
515598.6296468,287307.5625,312021.875,323068.90625,299787.6875,304857.15625,307172.09375,272904.53125,308197.3125,0.00732421875,0.945068359375,-0.321533203125,-0.1220703050494194,3.356933355331421,0.9460448622703552,80.0,983142.0,1.0
515598.629687,289141.8125,312935.875,323245.5,301643.34375,304854.5625,307135.6875,272842.84375,308520.34375,0.007568359375,0.942626953125,-0.32080078125,-0.1220703050494194,3.326415777206421,0.7629393935203552,80.0,983143.0,1.0
515598.6322409,291346.40625,312940.875,321566.96875,295771.625,299350.3125,305287.65625,272014.3125,306135.21875,0.007568359375,0.94482421875,-0.319580078125,-0.1831054538488388,3.295898199081421,0.7324218153953552,80.0,983144.0,1.0
515598.6346844,290740.59375,311967.875,320329.40625,290355.625,295996.125,304174.1875,271553.875,304360.9375,0.0078125,0.945068359375,-0.32080078125,-0.1525878757238388,3.295898199081421,0.7629393935203552,80.0,983145.0,1.0
515598.6396157,288381.25,311450.90625,321226.9375,292635.40625,299242.03125,305308.75,272091.46875,305565.0,0.005859375,0.9482421875,-0.32080078125,-0.1525878757238388,3.295898199081421,0.7019042372703552,80.0,983146.0,1.0
515598.6421051,287328.90625,312036.625,323069.53125,299768.5625,304848.21875,307171.90625,272906.6875,308196.59375,0.005859375,0.947021484375,-0.322998046875,-0.1220703050494194,3.204345464706421,0.6103515028953552,80.0,983147.0,1.0
515598.6421463,289131.53125,312934.0,323249.4375,301660.3125,304876.1875,307137.46875,272843.09375,308526.0625,0.00390625,0.946044921875,-0.317626953125,-0.0915527269244194,3.143310308456421,0.5187987685203552,80.0,983148.0,1.0
515598.6447613,291325.40625,312928.28125,321562.84375,295798.0,299364.34375,305279.0625,272006.625,306136.3125,0.004638671875,0.946533203125,-0.31982421875,-0.1220703050494194,3.112792730331421,0.3662109076976776,80.0,983149.0,1.0
515598.6471517,290738.375,311959.28125,320324.46875,290364.46875,295988.4375,304168.28125,271554.5625,304356.9375,0.0068359375,0.94677734375,-0.317626953125,-0.1220703050494194,3.082275152206421,0.4272460639476776,80.0,983150.0,1.0
515598.6494817,288390.625,311445.28125,321218.53125,292609.75,299211.90625,305307.21875,272097.53125,305553.625,0.009521484375,0.94482421875,-0.3212890625,-0.1525878757238388,2.990722417831421,0.4272460639476776,80.0,983151.0,1.0
515598.6520081,287325.4375,312027.5,323056.65625,299740.40625,304823.28125,307170.5625,272907.9375,308182.5625,0.009765625,0.94482421875,-0.322998046875,-0.0610351525247097,3.051757574081421,0.5493163466453552,80.0,983152.0,1.0
515598.6520483,289116.0625,312931.21875,323246.75,301680.4375,304889.78125,307145.15625,272842.75,308528.75,0.01123046875,0.945556640625,-0.3203125,0.0915527269244194,3.021239995956421,0.6713866591453552,80.0,983153.0,1.0
515598.6671032,291318.4375,312932.03125,321566.4375,295843.5,299392.5,305292.125,272011.0,306149.1875,0.009033203125,0.9443359375,-0.3203125,0.03051757626235485,3.082275152206421,0.8239745497703552,80.0,983154.0,1.0
515598.6721689,290739.53125,311955.8125,320312.9375,290372.78125,295976.90625,304160.84375,271549.65625,304350.5625,0.004638671875,0.945068359375,-0.320068359375,0.0915527269244194,3.021239995956421,0.8239745497703552,80.0,983155.0,1.0
515598.6722115,288385.71875,311431.6875,321200.75,292580.875,299177.03125,305288.09375,272088.78125,305533.4375,0.000244140625,0.9443359375,-0.318603515625,0.2136230319738388,2.899169683456421,0.8239745497703552,80.0,983156.0,1.0
515598.6995147,287312.28125,312016.15625,323051.75,299720.71875,304808.875,307162.0625,272912.3125,308177.375,-0.0009765625,0.9443359375,-0.317626953125,0.3051757514476776,2.868652105331421,0.7019042372703552,80.0,983157.0,1.0
515598.7019959,289107.84375,312932.9375,323259.53125,301706.46875,304908.28125,307151.34375,272855.90625,308545.71875,0.0009765625,0.947265625,-0.317626953125,0.2136230319738388,2.746581792831421,0.7019042372703552,80.0,983158.0,1.0
515598.7046197,291316.1875,312937.3125,321575.8125,295889.1875,299409.59375,305292.3125,272012.78125,306165.4375,0.001220703125,0.947021484375,-0.318359375,0.1220703050494194,2.655029058456421,0.7629393935203552,80.0,983159.0,1.0
515598.7071935,290740.59375,311958.03125,320311.34375,290398.96875,295973.6875,304149.59375,271544.125,304357.90625,0.0029296875,0.9462890625,-0.32080078125,0.03051757626235485,2.532958745956421,0.6713866591453552,80.0,983160.0,1.0
515598.7072339,288393.5,311430.71875,321192.53125,292570.125,299152.0,305269.78125,272074.65625,305531.03125,0.004638671875,0.9453125,-0.3212890625,0.1831054538488388,2.288818120956421,0.6408690810203552,80.0,983161.0,1.0
515598.7095035,287309.4375,312009.34375,323041.5625,299699.0,304787.875,307142.65625,272885.40625,308166.90625,0.0068359375,0.947998046875,-0.321533203125,0.3356933295726776,2.258300542831421,0.7324218153953552,80.0,983162.0,1.0
515598.7119948,289087.8125,312923.28125,323256.21875,301719.40625,304924.75,307145.34375,272834.625,308549.9375,0.009521484375,0.947265625,-0.323486328125,0.2746581733226776,2.136230230331421,0.7324218153953552,80.0,983163.0,1.0
515598.714484,291306.625,312933.65625,321581.34375,295924.5,299442.21875,305297.84375,272005.09375,306184.21875,0.005615234375,0.948974609375,-0.324462890625,0.3356933295726776,2.105712652206421,0.7629393935203552,80.0,983164.0,1.0
515598.7171566,290760.625,311970.5625,320322.40625,290417.46875,295989.15625,304158.71875,271543.5625,304373.65625,0.00634765625,0.951904296875,-0.322021484375,0.2746581733226776,2.014159917831421,0.6713866591453552,80.0,983165.0,1.0
515598.718739,288417.4375,311440.5625,321191.28125,292545.1875,299135.03125,305271.90625,272073.40625,305528.34375,0.007568359375,0.9541015625,-0.3232421875,0.2441406100988388,1.9226073026657104,0.6408690810203552,80.0,983166.0,1.0
515598.7257345,287319.96875,312008.09375,323040.75,299675.5625,304778.65625,307150.0,272892.625,308168.25,0.00537109375,0.9560546875,-0.3212890625,0.1831054538488388,1.9531248807907104,0.5493163466453552,80.0,983167.0,1.0
515598.7283254,289081.03125,312909.0625,323264.8125,301734.34375,304945.84375,307160.28125,272846.3125,308562.8125,0.00439453125,0.95654296875,-0.321044921875,0.1220703050494194,1.8005369901657104,0.4272460639476776,80.0,983168.0,1.0
515598.7308376,291290.90625,312905.65625,321582.875,295951.6875,299461.90625,305299.4375,272004.75,306188.96875,0.007080078125,0.956787109375,-0.320068359375,0.0,1.8310545682907104,0.3967284858226776,80.0,983169.0,1.0
515598.7308753,290754.53125,311930.40625,320307.84375,290414.71875,295970.90625,304140.28125,271532.84375,304359.875,0.007080078125,0.9560546875,-0.322021484375,-0.1220703050494194,1.8920897245407104,0.2746581733226776,80.0,983170.0,1.0
515598.7333108,288412.0,311389.78125,321161.21875,292501.03125,299081.90625,305235.09375,272044.25,305492.5625,0.00732421875,0.954833984375,-0.322021484375,-0.2136230319738388,1.7700194120407104,0.2746581733226776,80.0,983171.0,1.0
515598.7357279,287305.3125,311956.4375,323009.1875,299627.84375,304733.0625,307114.59375,272833.09375,308129.0,0.010009765625,0.9541015625,-0.31884765625,-0.3662109076976776,1.8310545682907104,0.2136230319738388,80.0,983172.0,1.0
515598.738368,289053.9375,312863.1875,323242.09375,301726.75,304937.96875,307136.0625,272766.5625,308539.84375,0.01025390625,0.953369140625,-0.3212890625,-0.5798339247703552,1.8310545682907104,0.2441406100988388,80.0,983173.0,1.0
515598.7409481,291279.28125,312878.65625,321573.9375,295972.0625,299469.9375,305289.875,271922.9375,306182.34375,0.01123046875,0.953125,-0.3212890625,-0.5493163466453552,1.9226073026657104,0.1831054538488388,80.0,983174.0,1.0
515598.7409892,290757.84375,311911.625,320301.5,290420.34375,295966.25,304135.65625,271448.625,304351.125,0.011962890625,0.953857421875,-0.321533203125,-0.5493163466453552,2.014159917831421,0.2136230319738388,80.0,983175.0,1.0
515598.7695515,288426.84375,311377.0625,321160.25,292481.0,299069.03125,305236.25,271966.90625,305485.59375,0.011474609375,0.952880859375,-0.317626953125,-0.5493163466453552,2.075195074081421,0.1831054538488388,80.0,983176.0,1.0
515598.7720482,287335.09375,311970.09375,323032.6875,299631.125,304752.90625,307142.84375,272797.15625,308150.90625,0.01123046875,0.953125,-0.317626953125,-0.5187987685203552,2.105712652206421,0.1831054538488388,80.0,983177.0,1.0
515598.7720835,289077.0,312886.15625,323274.46875,301765.8125,304984.46875,307176.09375,272756.21875,308575.5,0.011474609375,0.94921875,-0.3203125,-0.5798339247703552,2.227782964706421,0.3051757514476776,80.0,983178.0,1.0
515598.7747587,291289.46875,312888.59375,321597.1875,296017.84375,299510.53125,305316.96875,271920.875,306209.0,0.011474609375,0.94873046875,-0.317626953125,-0.6408690810203552,2.319335699081421,0.2441406100988388,80.0,983179.0,1.0
515598.7795966,290771.25,311917.96875,320307.40625,290428.5625,295970.71875,304143.15625,271447.09375,304358.90625,0.01171875,0.947021484375,-0.31689453125,-0.5798339247703552,2.380370855331421,0.3051757514476776,80.0,983180.0,1.0
515598.7821169,288431.84375,311374.75,321141.375,292432.0,299027.375,305222.5625,271952.4375,305466.90625,0.010986328125,0.9453125,-0.320068359375,-0.6103515028953552,2.502441167831421,0.3967284858226776,80.0,983181.0,1.0
515598.7869936,287312.5625,311950.96875,323001.59375,299567.75,304703.375,307120.9375,272772.65625,308121.125,0.012451171875,0.943603515625,-0.31884765625,-0.5798339247703552,2.716064214706421,0.4272460639476776,80.0,983182.0,1.0
515598.7894852,289050.1875,312880.28125,323265.78125,301760.0,304986.15625,307176.65625,272745.03125,308574.34375,0.010498046875,0.942626953125,-0.318359375,-0.5798339247703552,2.746581792831421,0.4882812201976776,80.0,983183.0,1.0
515598.7922058,291283.375,312906.46875,321603.0,296048.6875,299538.78125,305332.09375,271910.6875,306224.625,0.009765625,0.939697265625,-0.31884765625,-0.5493163466453552,2.777099370956421,0.5798339247703552,80.0,983184.0,1.0
515598.794604,290780.21875,311932.5625,320301.5,290435.09375,295969.3125,304147.25,271425.1875,304361.84375,0.0078125,0.940185546875,-0.316162109375,-0.3967284858226776,2.807616949081421,0.5493163466453552,80.0,983185.0,1.0
515598.7969644,288449.375,311389.125,321134.84375,292415.0,299010.5625,305228.5625,271940.09375,305466.65625,0.008056640625,0.941162109375,-0.316162109375,-0.3967284858226776,2.807616949081421,0.4882812201976776,80.0,983186.0,1.0
515598.7996419,287314.6875,311956.96875,322995.6875,299542.96875,304693.625,307127.1875,272764.96875,308115.40625,0.005615234375,0.940673828125,-0.316162109375,-0.2746581733226776,2.777099370956421,0.5493163466453552,80.0,983187.0,1.0
515598.7996838,289038.03125,312879.375,323265.78125,301758.21875,304999.21875,307184.25,272734.65625,308573.34375,0.00390625,0.94091796875,-0.3154296875,-0.1831054538488388,2.777099370956421,0.6408690810203552,80.0,983188.0,1.0
515598.8021683,291285.625,312914.4375,321614.4375,296067.8125,299566.125,305346.75,271906.65625,306239.3125,0.003173828125,0.943603515625,-0.31884765625,0.03051757626235485,2.777099370956421,0.4882812201976776,80.0,983189.0,1.0
515598.8046284,290793.34375,311949.09375,320312.59375,290437.6875,295982.15625,304155.125,271416.71875,304372.46875,0.004150390625,0.942626953125,-0.318359375,0.1831054538488388,2.624511480331421,0.5798339247703552,80.0,983190.0,1.0
515598.8171597,288459.125,311402.09375,321135.9375,292374.96875,298994.46875,305225.96875,271923.90625,305462.25,0.005615234375,0.943115234375,-0.317626953125,0.0610351525247097,2.532958745956421,0.4882812201976776,80.0,983191.0,1.0
515598.8172007,287310.78125,311963.40625,322994.15625,299500.6875,304682.71875,307125.9375,272749.59375,308112.8125,0.003662109375,0.94482421875,-0.31787109375,0.2136230319738388,2.471923589706421,0.4577636420726776,80.0,983192.0,1.0
515598.8197884,289008.59375,312870.15625,323262.46875,301749.375,305015.0625,307182.1875,272722.6875,308578.375,0.005126953125,0.944091796875,-0.316650390625,0.1831054538488388,2.349853277206421,0.4272460639476776,80.0,983193.0,1.0
515598.8198246,291249.0625,312895.46875,321605.5,296072.84375,299581.96875,305335.03125,271890.84375,306236.34375,0.003662109375,0.9443359375,-0.315673828125,0.2441406100988388,2.319335699081421,0.3356933295726776,80.0,983194.0,1.0
515598.8220939,290775.46875,311933.90625,320296.84375,290421.40625,295971.875,304135.65625,271396.59375,304357.90625,0.003173828125,0.94677734375,-0.31689453125,0.1525878757238388,2.227782964706421,0.3356933295726776,80.0,983195.0,1.0
515598.8249744,288448.65625,311387.1875,321108.9375,292326.21875,298955.59375,305196.1875,271892.71875,305432.03125,0.004638671875,0.945556640625,-0.31787109375,0.3356933295726776,2.197265386581421,0.3662109076976776,80.0,983196.0,1.0
515598.8321337,287305.65625,311960.53125,322984.5,299474.3125,304667.34375,307112.28125,272733.6875,308097.90625,0.00390625,0.9462890625,-0.31884765625,0.3051757514476776,2.136230230331421,0.4882812201976776,80.0,983197.0,1.0
515598.8321742,288997.34375,312872.03125,323272.21875,301777.4375,305041.6875,307189.6875,272718.46875,308585.78125,0.003173828125,0.9501953125,-0.31787109375,0.3662109076976776,2.014159917831421,0.4272460639476776,80.0,983198.0,1.0
515598.834727,291234.03125,312899.5,321612.90625,296121.65625,299612.4375,305343.71875,271880.28125,306249.9375,0.004150390625,0.94970703125,-0.318603515625,0.3051757514476776,1.9226073026657104,0.3662109076976776,80.0,983199.0,1.0
515598.9046025,290768.40625,311934.625,320292.09375,290440.90625,295965.625,304131.53125,271384.0,304358.8125,0.005859375,0.948974609375,-0.3193359375,0.1831054538488388,1.9226073026657104,0.4272460639476776,80.0,983200.0,1.0
515598.9070383,288452.5,311387.875,321103.65625,292313.71875,298930.71875,305191.53125,271889.59375,305423.71875,0.00390625,0.950439453125,-0.317138671875,0.0610351525247097,1.8310545682907104,0.4272460639476776,80.0,983201.0,1.0
515598.9070735,287302.0,311957.15625,322979.59375,299457.6875,304652.3125,307108.875,272731.96875,308089.3125,0.003662109375,0.949951171875,-0.316162109375,0.1831054538488388,1.7395018339157104,0.3967284858226776,80.0,983202.0,1.0
515598.9094392,288991.53125,312883.84375,323280.71875,301804.71875,305063.15625,307199.09375,272724.65625,308597.21875,0.00341796875,0.94873046875,-0.31689453125,0.0,1.8005369901657104,0.4577636420726776,80.0,983203.0,1.0
515598.9120742,291232.59375,312913.1875,321624.71875,296171.53125,299637.5625,305351.65625,271885.28125,306266.125,0.00390625,0.948486328125,-0.318359375,0.03051757626235485,1.7089842557907104,0.5187987685203552,80.0,983204.0,1.0
515598.9146577,290778.15625,311948.90625,320301.5,290475.5,295974.125,304134.9375,271388.53125,304366.03125,0.005126953125,0.9482421875,-0.3193359375,-0.0610351525247097,1.6479490995407104,0.5187987685203552,80.0,983205.0,1.0
515598.9169872,288466.875,311398.4375,321104.8125,292308.09375,298914.0,305183.9375,271887.4375,305416.21875,0.001220703125,0.9482421875,-0.322509765625,-0.1220703050494194,1.4953612089157104,0.4882812201976776,80.0,983206.0,1.0
515598.9195567,287312.5625,311968.59375,322983.09375,299448.65625,304643.84375,307102.15625,272726.0,308081.4375,0.00244140625,0.94873046875,-0.3203125,-0.1220703050494194,1.4648436307907104,0.3662109076976776,80.0,983207.0,1.0
515598.9220925,288985.09375,312889.46875,323283.125,301822.40625,305076.5625,307190.84375,272715.0625,308595.4375,0.00341796875,0.94873046875,-0.319091796875,-0.1525878757238388,1.4648436307907104,0.3051757514476776,80.0,983208.0,1.0
515598.9246932,291216.4375,312913.625,321620.53125,296196.03125,299649.65625,305341.46875,271876.0,306261.03125,0.003662109375,0.950439453125,-0.31787109375,-0.3356933295726776,1.3427733182907104,0.2441406100988388,80.0,983209.0,1.0
515598.9247344,290763.84375,311942.46875,320284.96875,290467.09375,295954.375,304114.8125,271376.375,304348.15625,0.00390625,0.950927734375,-0.31982421875,-0.3662109076976776,1.3122557401657104,0.2441406100988388,80.0,983210.0,1.0
515598.9260834,288460.28125,311391.375,321083.53125,292264.71875,298871.09375,305161.59375,271882.6875,305389.9375,0.006103515625,0.9501953125,-0.323486328125,-0.3662109076976776,1.2512205839157104,0.2746581733226776,80.0,983211.0,1.0
515598.9334137,287302.4375,311961.875,322968.0625,299405.9375,304611.1875,307090.4375,272731.71875,308057.75,0.004150390625,0.951416015625,-0.323974609375,-0.5187987685203552,1.3122557401657104,0.3051757514476776,80.0,983212.0,1.0
515598.9383871,288965.78125,312886.34375,323289.65625,301823.84375,305088.28125,307201.9375,272734.5625,308595.96875,0.00537109375,0.9501953125,-0.3232421875,-0.5798339247703552,1.3427733182907104,0.2746581733226776,80.0,983213.0,1.0
515598.9384298,291214.09375,312923.625,321643.84375,296227.59375,299689.0,305368.75,271913.53125,306282.5625,0.006103515625,0.948486328125,-0.322021484375,-0.5798339247703552,1.2817381620407104,0.3662109076976776,80.0,983214.0,1.0
515598.9409274,290778.15625,311952.5,320298.0,290472.1875,295967.59375,304130.8125,271403.9375,304356.46875,0.0068359375,0.949462890625,-0.318603515625,-0.4882812201976776,1.2817381620407104,0.4272460639476776,80.0,983215.0,1.0
515598.943179,288469.84375,311391.09375,321078.25,292230.5625,298851.6875,305158.09375,271886.8125,305377.5,0.0048828125,0.94970703125,-0.3212890625,-0.6103515028953552,1.2817381620407104,0.4577636420726776,80.0,983216.0,1.0
515598.9458639,287298.34375,311956.34375,322959.75,299369.71875,304596.71875,307081.15625,272732.6875,308046.9375,0.005126953125,0.950439453125,-0.31982421875,-0.5493163466453552,1.4343260526657104,0.3662109076976776,80.0,983217.0,1.0
515598.9482251,288955.6875,312884.90625,323291.90625,301827.875,305105.0,307202.65625,272740.46875,308600.34375,0.00634765625,0.950439453125,-0.31884765625,-0.6713866591453552,1.4648436307907104,0.1831054538488388,80.0,983218.0,1.0
515598.9508694,291204.8125,312920.6875,321647.34375,296249.5,299708.21875,305367.65625,271914.625,306290.34375,0.005859375,0.948486328125,-0.322509765625,-0.7629393935203552,1.4953612089157104,0.3356933295726776,80.0,983219.0,1.0
515598.950911,290770.71875,311936.125,320287.28125,290461.90625,295951.9375,304113.65625,271398.75,304345.3125,0.005126953125,0.94775390625,-0.32080078125,-0.7934569716453552,1.5869139432907104,0.4577636420726776,80.0,983220.0,1.0
515598.9533416,288471.0,311376.1875,321065.46875,292182.8125,298813.96875,305139.78125,271891.1875,305356.84375,0.005126953125,0.946044921875,-0.322998046875,-0.6713866591453552,1.5563963651657104,0.3662109076976776,80.0,983221.0,1.0
515598.9533781,287288.5,311937.75,322948.65625,299321.875,304569.53125,307070.4375,272734.03125,308027.15625,0.00634765625,0.946044921875,-0.3212890625,-0.6408690810203552,1.6174315214157104,0.4577636420726776,80.0,983222.0,1.0
515598.955927,288927.96875,312861.21875,323287.40625,301818.84375,305109.46875,307203.1875,272738.5,308592.5,0.007080078125,0.946533203125,-0.322998046875,-0.5493163466453552,1.5869139432907104,0.4882812201976776,80.0,983223.0,1.0
515598.9559658,291188.0,312908.4375,321651.53125,296266.75,299729.65625,305376.15625,271918.46875,306295.71875,0.005126953125,0.94873046875,-0.3212890625,-0.4882812201976776,1.6479490995407104,0.4272460639476776,80.0,983224.0,1.0
515598.9583265,290788.96875,311953.125,320302.75,290473.1875,295970.1875,304131.09375,271413.59375,304361.40625,0.002685546875,0.94775390625,-0.3232421875,-0.3967284858226776,1.5869139432907104,0.5187987685203552,80.0,983225.0,1.0
515598.9623495,288497.65625,311396.375,321070.125,292156.8125,298802.96875,305147.1875,271900.40625,305358.1875,0.00439453125,0.947509765625,-0.32275390625,-0.3662109076976776,1.6174315214157104,0.5187987685203552,80.0,983226.0,1.0
515598.9623907,287294.9375,311945.34375,322944.625,299294.625,304560.3125,307076.25,272739.21875,308023.0625,0.0048828125,0.94775390625,-0.322509765625,-0.4272460639476776,1.5258787870407104,0.4882812201976776,80.0,983227.0,1.0
515598.9624014,288920.8125,312871.0625,323287.34375,301830.46875,305132.09375,307216.96875,272751.65625,308600.96875,0.00390625,0.94384765625,-0.322021484375,-0.4272460639476776,1.6784666776657104,0.5493163466453552,80.0,983228.0,1.0
515598.9645043,291196.125,312935.0625,321665.125,296308.875,299771.25,305402.28125,271945.71875,306317.71875,0.0029296875,0.941162109375,-0.3203125,-0.3051757514476776,1.8005369901657104,0.7324218153953552,80.0,983229.0,1.0
515598.9671244,290794.5,311966.34375,320297.65625,290481.5,295970.90625,304133.9375,271423.9375,304359.15625,0.003662109375,0.94140625,-0.321044921875,-0.2441406100988388,1.6479490995407104,0.7934569716453552,80.0,983230.0,1.0
515598.9696413,288502.125,311400.59375,321060.65625,292132.65625,298781.78125,305143.34375,271910.15625,305347.90625,0.00341796875,0.943115234375,-0.320068359375,-0.1525878757238388,1.6174315214157104,0.8239745497703552,80.0,983231.0,1.0
515598.9696848,287306.21875,311957.21875,322951.15625,299279.6875,304551.375,307081.875,272762.90625,308024.5625,-0.00048828125,0.947265625,-0.3193359375,-0.1220703050494194,1.6174315214157104,0.7629393935203552,80.0,983232.0,1.0
515598.9921813,288922.96875,312879.90625,323309.40625,301858.09375,305159.71875,307234.03125,272780.0625,308618.25,-0.0009765625,0.9482421875,-0.3212890625,-0.0915527269244194,1.6174315214157104,0.7629393935203552,80.0,983233.0,1.0
515598.9945359,291182.34375,312923.09375,321670.75,296345.15625,299791.625,305401.65625,271955.03125,306324.59375,-0.00048828125,0.94921875,-0.32080078125,-0.0610351525247097,1.5258787870407104,0.8239745497703552,80.0,983234.0,1.0
515598.9945722,290803.375,311959.8125,320296.40625,290505.0,295969.9375,304129.125,271432.90625,304362.5625,-0.003173828125,0.949951171875,-0.322265625,-0.3356933295726776,1.6174315214157104,0.8544921278953552,80.0,983235.0,1.0
515598.9971491,288509.71875,311382.0,321037.0625,292108.0625,298737.875,305124.40625,271907.1875,305327.0,0.00146484375,0.948486328125,-0.320556640625,-0.3051757514476776,1.5563963651657104,0.9155272841453552,80.0,983236.0,1.0
515598.9996707,287292.71875,311931.84375,322921.84375,299242.75,304509.28125,307061.125,272759.0625,307996.78125,0.0029296875,0.94970703125,-0.320068359375,-0.3051757514476776,1.4648436307907104,0.8544921278953552,80.0,983237.0,1.0
515598.9997118,288905.34375,312870.0625,323299.03125,301875.96875,305163.65625,307233.59375,272796.0,308616.90625,0.005615234375,0.948974609375,-0.3232421875,-0.2746581733226776,1.4953612089157104,0.9460448622703552,80.0,983238.0,1.0
515599.0020358,291178.25,312924.53125,321669.25,296396.03125,299811.21875,305410.125,271977.28125,306332.71875,0.00439453125,0.94775390625,-0.3203125,-0.3662109076976776,1.4648436307907104,0.9765624403953552,80.0,983239.0,1.0
515599.0045964,290809.25,311957.78125,320287.375,290532.71875,295961.25,304125.09375,271446.5625,304353.25,0.007080078125,0.947509765625,-0.3193359375,-0.3662109076976776,1.5563963651657104,0.8850097060203552,80.0,983240.0,1.0
515599.0071011,288518.125,311371.34375,321027.21875,292098.96875,298704.4375,305108.21875,271924.90625,305306.4375,0.0078125,0.9482421875,-0.318603515625,-0.2746581733226776,1.6174315214157104,0.8850097060203552,80.0,983241.0,1.0
515599.0171748,287294.0625,311914.9375,322923.8125,299233.375,304492.1875,307056.21875,272787.125,307983.1875,0.007568359375,0.947021484375,-0.319580078125,-0.2746581733226776,1.7700194120407104,0.8239745497703552,80.0,983242.0,1.0
515599.0172158,288888.625,312846.375,323307.0,301893.21875,305177.40625,307236.8125,272820.40625,308612.15625,0.009521484375,0.947265625,-0.32470703125,-0.3662109076976776,1.8310545682907104,0.8239745497703552,80.0,983243.0,1.0
515599.0197051,291161.625,312902.1875,321678.53125,296429.84375,299834.0,305410.5,271996.96875,306334.875,0.010986328125,0.947021484375,-0.323974609375,-0.2746581733226776,1.8005369901657104,0.8239745497703552,80.0,983244.0,1.0
515599.0197421,290810.4375,311941.125,320295.59375,290547.3125,295966.0,304122.21875,271464.90625,304353.4375,0.0107421875,0.947021484375,-0.3232421875,-0.2136230319738388,2.105712652206421,0.8239745497703552,80.0,983245.0,1.0
515599.0421559,288526.0625,311361.875,321026.78125,292079.65625,298689.59375,305101.59375,271929.8125,305298.46875,0.01171875,0.9482421875,-0.32177734375,-0.1525878757238388,2.105712652206421,0.7324218153953552,80.0,983246.0,1.0
515599.0446753,287299.3125,311911.375,322923.53125,299210.3125,304482.4375,307050.65625,272787.5,307980.40625,0.01123046875,0.951171875,-0.32373046875,-0.1831054538488388,2.166747808456421,0.7019042372703552,80.0,983247.0,1.0
515599.0447166,288875.21875,312833.0625,323311.375,301901.90625,305191.90625,307234.9375,272819.40625,308617.625,0.010498046875,0.950927734375,-0.322021484375,-0.1831054538488388,2.319335699081421,0.7629393935203552,80.0,983248.0,1.0
515599.0472266,291153.21875,312895.65625,321686.6875,296460.9375,299858.84375,305412.28125,272000.90625,306339.875,0.010009765625,0.95068359375,-0.322998046875,-0.2746581733226776,2.502441167831421,0.6713866591453552,80.0,983249.0,1.0
515599.0545335,290816.15625,311940.15625,320296.125,290547.5625,295963.03125,304115.71875,271471.96875,304347.28125,0.009521484375,0.948974609375,-0.325439453125,-0.2136230319738388,2.716064214706421,0.7934569716453552,80.0,983250.0,1.0
515599.0570605,288530.1875,311349.8125,321014.34375,292026.375,298649.53125,305082.0,271930.09375,305274.6875,0.008544921875,0.948974609375,-0.32275390625,-0.2746581733226776,2.746581792831421,0.7324218153953552,80.0,983251.0,1.0
515599.0595443,287291.0,311893.03125,322912.4375,299151.65625,304451.6875,307035.8125,272777.46875,307959.21875,0.008544921875,0.9501953125,-0.32373046875,-0.2441406100988388,2.746581792831421,0.7934569716453552,80.0,983252.0,1.0
515599.0621069,288869.5625,312831.375,323325.0625,301894.375,305211.46875,307247.1875,272815.46875,308628.34375,0.0107421875,0.94873046875,-0.322265625,-0.2746581733226776,2.777099370956421,0.6713866591453552,80.0,983253.0,1.0
515599.0646439,291160.53125,312904.6875,321720.65625,296485.53125,299909.65625,305447.6875,271998.3125,306376.625,0.007568359375,0.947509765625,-0.322265625,-0.2746581733226776,2.929687261581421,0.6103515028953552,80.0,983254.0,1.0
515599.0671424,290842.96875,311954.625,320326.53125,290563.40625,296000.6875,304150.46875,271460.4375,304384.375,0.00537109375,0.948974609375,-0.32275390625,-0.3662109076976776,2.838134527206421,0.6408690810203552,80.0,983255.0,1.0
515599.069544,288558.0,311359.28125,321028.375,292004.1875,298648.65625,305102.40625,271908.96875,305296.0625,0.004638671875,0.95068359375,-0.32373046875,-0.4882812201976776,2.807616949081421,0.5187987685203552,80.0,983256.0,1.0
515599.0695839,287313.0,311908.875,322931.03125,299134.5625,304457.5,307063.4375,272765.5,307987.125,0.005859375,0.948486328125,-0.322021484375,-0.3967284858226776,2.868652105331421,0.5187987685203552,80.0,983257.0,1.0
515599.0922984,288869.125,312842.90625,323341.96875,301912.71875,305242.40625,307273.28125,272799.3125,308660.15625,0.004150390625,0.948486328125,-0.32275390625,-0.3967284858226776,2.746581792831421,0.3967284858226776,80.0,983258.0,1.0
515599.0923354,291155.28125,312916.65625,321722.96875,296527.71875,299938.4375,305459.40625,271977.125,306402.46875,0.004150390625,0.948486328125,-0.32177734375,-0.5187987685203552,2.807616949081421,0.4577636420726776,80.0,983259.0,1.0
515599.0945903,290839.46875,311954.09375,320306.5,290566.96875,295983.0625,304136.71875,271444.34375,304384.8125,0.00341796875,0.947509765625,-0.3203125,-0.5493163466453552,2.838134527206421,0.3051757514476776,80.0,983260.0,1.0
515599.094623,288559.59375,311356.0625,321001.5625,291967.625,298606.71875,305082.8125,271909.53125,305282.5625,0.00390625,0.947265625,-0.322509765625,-0.5493163466453552,2.716064214706421,0.3356933295726776,80.0,983261.0,1.0
515599.097199,287293.0625,311893.3125,322893.3125,299082.1875,304410.5625,307032.4375,272760.9375,307960.90625,0.00537109375,0.9443359375,-0.32177734375,-0.5493163466453552,2.593993902206421,0.2746581733226776,80.0,983262.0,1.0
515599.0996095,288842.125,312831.09375,323317.1875,301905.375,305234.46875,307257.65625,272810.84375,308650.15625,0.004150390625,0.94482421875,-0.321044921875,-0.5187987685203552,2.532958745956421,0.2441406100988388,80.0,983263.0,1.0
515599.1019242,291139.625,312910.03125,321712.59375,296545.34375,299942.375,305451.1875,271994.71875,306397.09375,0.005615234375,0.943115234375,-0.322998046875,-0.4882812201976776,2.593993902206421,0.3967284858226776,80.0,983264.0,1.0
515599.1046447,290853.0625,311966.53125,320308.65625,290588.25,295982.53125,304134.46875,271447.1875,304382.75,0.00634765625,0.944091796875,-0.32177734375,-0.5187987685203552,2.502441167831421,0.2441406100988388,80.0,983265.0,1.0
515599.1083679,288578.65625,311366.78125,320999.5,291959.21875,298585.875,305076.1875,271889.125,305270.125,0.00537109375,0.945068359375,-0.321044921875,-0.3662109076976776,2.563476324081421,0.3356933295726776,80.0,983266.0,1.0
515599.1084099,287287.53125,311884.53125,322889.84375,299059.90625,304393.75,307026.78125,272729.28125,307940.53125,0.00439453125,0.946044921875,-0.31982421875,-0.3967284858226776,2.441406011581421,0.3356933295726776,80.0,983267.0,1.0
515599.1482703,288826.65625,312825.46875,323328.90625,301918.53125,305253.6875,307262.65625,272786.96875,308646.9375,0.00244140625,0.946044921875,-0.31884765625,-0.3967284858226776,2.319335699081421,0.3967284858226776,80.0,983268.0,1.0
515599.1508692,291127.09375,312905.84375,321723.0625,296585.84375,299973.9375,305449.46875,271971.9375,306400.0625,0.00244140625,0.946044921875,-0.320556640625,-0.4272460639476776,2.288818120956421,0.3356933295726776,80.0,983269.0,1.0
515599.1509132,290844.84375,311956.34375,320304.8125,290602.65625,295984.125,304117.125,271420.46875,304371.59375,0.0009765625,0.944091796875,-0.32275390625,-0.3356933295726776,2.136230230331421,0.4272460639476776,80.0,983270.0,1.0
515599.1534063,288568.8125,311353.65625,320985.0,291930.0625,298559.5,305049.65625,271864.5625,305243.84375,0.001953125,0.9443359375,-0.318115234375,-0.3051757514476776,2.075195074081421,0.4577636420726776,80.0,983271.0,1.0
515599.1559026,287276.875,311877.125,322875.78125,299021.125,304372.75,307005.0625,272713.125,307918.71875,0.0029296875,0.9453125,-0.32275390625,-0.3356933295726776,2.105712652206421,0.3967284858226776,80.0,983272.0,1.0
515599.1582293,288797.59375,312810.1875,323317.0,301906.90625,305256.09375,307247.625,272765.78125,308634.96875,0.0009765625,0.94873046875,-0.322265625,-0.3051757514476776,2.014159917831421,0.4577636420726776,80.0,983273.0,1.0
515599.1607297,291123.71875,312916.3125,321734.6875,296616.4375,300007.53125,305462.875,271968.4375,306417.5,0.003173828125,0.949462890625,-0.322021484375,-0.3356933295726776,1.9226073026657104,0.4272460639476776,80.0,983274.0,1.0
515599.1632555,290865.40625,311976.1875,320315.0,290620.0,296000.59375,304132.96875,271420.5625,304386.15625,0.00341796875,0.9482421875,-0.320556640625,-0.3662109076976776,1.8920897245407104,0.4577636420726776,80.0,983275.0,1.0
515599.1657091,288596.34375,311366.78125,320983.125,291906.90625,298539.65625,305055.5625,271863.375,305246.0,0.00244140625,0.947265625,-0.320556640625,-0.2746581733226776,1.8615721464157104,0.4882812201976776,80.0,983276.0,1.0
515599.1682003,287288.5,311880.875,322873.8125,298992.6875,304355.5,307013.125,272728.40625,307922.21875,0.0029296875,0.947509765625,-0.320556640625,-0.3967284858226776,1.7700194120407104,0.5187987685203552,80.0,983277.0,1.0
515599.173202,288804.9375,312824.9375,323337.84375,301930.40625,305284.0625,307277.03125,272798.21875,308661.34375,0.003173828125,0.94775390625,-0.32177734375,-0.4577636420726776,1.6784666776657104,0.4882812201976776,80.0,983278.0,1.0
515599.1757238,291123.15625,312919.875,321751.15625,296655.21875,300034.8125,305483.0,271984.34375,306436.09375,0.00390625,0.948974609375,-0.319091796875,-0.4882812201976776,1.6784666776657104,0.5493163466453552,80.0,983279.0,1.0
515599.1783227,290861.75,311962.15625,320313.03125,290619.71875,295988.59375,304125.90625,271428.875,304379.09375,0.005126953125,0.948486328125,-0.321533203125,-0.4882812201976776,1.6174315214157104,0.6408690810203552,80.0,983280.0,1.0
515599.1808033,288596.34375,311349.09375,320978.9375,291870.34375,298503.0,305041.875,271883.25,305229.0,0.004638671875,0.946533203125,-0.31884765625,-0.5187987685203552,1.6784666776657104,0.6408690810203552,80.0,983281.0,1.0
515599.1808431,287291.71875,311876.0625,322884.28125,298969.78125,304336.53125,307010.0,272753.0625,307915.84375,0.003662109375,0.94580078125,-0.321533203125,-0.6713866591453552,1.5258787870407104,0.6713866591453552,80.0,983282.0,1.0
515599.1832336,288786.0625,312814.09375,323348.40625,301943.5625,305295.6875,307275.53125,272822.1875,308664.03125,0.0048828125,0.945068359375,-0.32080078125,-0.6713866591453552,1.6479490995407104,0.5798339247703552,80.0,983283.0,1.0
515599.1908559,291105.1875,312917.90625,321761.25,296695.09375,300063.34375,305482.90625,272003.40625,306445.1875,0.005126953125,0.9443359375,-0.3232421875,-0.7324218153953552,1.5258787870407104,0.7019042372703552,80.0,983284.0,1.0
515599.1932384,290857.71875,311963.125,320308.28125,290636.4375,295985.46875,304114.53125,271431.8125,304374.71875,0.004150390625,0.94482421875,-0.322265625,-0.6713866591453552,1.4648436307907104,0.6103515028953552,80.0,983285.0,1.0
515599.1957081,288596.4375,311348.09375,320958.46875,291843.96875,298468.84375,305020.0625,271883.25,305208.53125,0.005126953125,0.942138671875,-0.3212890625,-0.6408690810203552,1.5869139432907104,0.6713866591453552,80.0,983286.0,1.0
515599.198266,287280.5625,311868.4375,322866.40625,298935.28125,304308.09375,306995.40625,272764.15625,307900.75,0.005126953125,0.9423828125,-0.320556640625,-0.6408690810203552,1.6479490995407104,0.6103515028953552,80.0,983287.0,1.0
515599.1982992,288776.78125,312819.75,323358.9375,301960.1875,305314.46875,307288.5,272853.9375,308680.09375,0.005126953125,0.943603515625,-0.318359375,-0.6713866591453552,1.6174315214157104,0.5798339247703552,80.0,983288.0,1.0
515599.2008895,291104.40625,312929.09375,321782.96875,296733.625,300097.5,305503.9375,272046.5,306472.03125,0.003173828125,0.9462890625,-0.319091796875,-0.7019042372703552,1.5258787870407104,0.5187987685203552,80.0,983289.0,1.0
515599.2033163,290885.09375,311992.375,320337.53125,290670.9375,296017.03125,304142.875,271485.90625,304406.90625,0.004638671875,0.946533203125,-0.317138671875,-0.5798339247703552,1.4648436307907104,0.5187987685203552,80.0,983290.0,1.0
515599.2171504,288615.3125,311361.4375,320965.625,291823.84375,298457.84375,305026.59375,271915.0625,305214.78125,0.002685546875,0.94775390625,-0.31982421875,-0.7019042372703552,1.5869139432907104,0.3662109076976776,80.0,983291.0,1.0
515599.2171922,287272.3125,311864.78125,322859.875,298891.21875,304285.3125,306990.6875,272779.28125,307891.53125,0.003173828125,0.947265625,-0.317626953125,-0.6408690810203552,1.6174315214157104,0.3356933295726776,80.0,983292.0,1.0
515599.2247561,288750.9375,312809.28125,323351.625,301946.6875,305319.125,307287.25,272870.03125,308676.71875,0.00439453125,0.94873046875,-0.31884765625,-0.7324218153953552,1.6174315214157104,0.3356933295726776,80.0,983293.0,1.0
515599.2247943,291088.65625,312923.625,321774.46875,296747.40625,300114.03125,305504.1875,272063.125,306473.8125,0.004150390625,0.947509765625,-0.31787109375,-0.7324218153953552,1.4953612089157104,0.3967284858226776,80.0,983294.0,1.0
515599.2270349,290878.46875,311985.75,320316.4375,290658.25,296002.1875,304130.1875,271492.4375,304394.84375,0.0048828125,0.9462890625,-0.319091796875,-0.8239745497703552,1.5258787870407104,0.3662109076976776,80.0,983295.0,1.0
515599.2294911,288615.84375,311356.59375,320939.875,291778.15625,298414.03125,305007.71875,271913.09375,305189.46875,0.003662109375,0.946044921875,-0.3203125,-0.6408690810203552,1.5869139432907104,0.3967284858226776,80.0,983296.0,1.0
515599.2311728,287269.5625,311862.28125,322840.3125,298855.34375,304255.96875,306981.46875,272774.25,307875.0,0.003662109375,0.950927734375,-0.3193359375,-0.7019042372703552,1.6174315214157104,0.3967284858226776,80.0,983297.0,1.0
515599.2748437,288735.90625,312809.46875,323348.03125,301958.40625,305330.75,307297.0625,272869.9375,308685.125,0.004638671875,0.948974609375,-0.320556640625,-0.7629393935203552,1.6174315214157104,0.4272460639476776,80.0,983298.0,1.0
515599.2796513,291075.59375,312927.9375,321783.15625,296791.84375,300146.21875,305524.5,272069.28125,306496.625,0.00634765625,0.948486328125,-0.31591796875,-0.8239745497703552,1.6784666776657104,0.5798339247703552,80.0,983299.0,1.0
515599.279692,290875.6875,311984.21875,320317.59375,290678.5625,296002.375,304132.875,271487.96875,304404.03125,0.006103515625,0.94873046875,-0.3193359375,-0.8850097060203552,1.6784666776657104,0.6713866591453552,80.0,983300.0,1.0
515599.2821683,288617.28125,311352.46875,320930.84375,291759.375,298383.46875,304996.1875,271897.4375,305185.71875,0.004638671875,0.948486328125,-0.319091796875,-0.8239745497703552,1.6174315214157104,0.7324218153953552,80.0,983301.0,1.0
