Time,FZ,C3,CZ,C4,PZ,PO7,OZ,PO8,AccX,AccY,AccZ,Gyro1,Gyro2,Gyro3,Battery,Counter,Validation
560083.0127836,306464.4375,298219.5,550499.6875,594771.375,342686.3125,300153.71875,293411.1875,295209.25,-0.12841796875,0.88623046875,-0.509765625,1.3122557401657104,4.699706554412842,1.1291502714157104,100.0,3627.0,1.0
560083.0152694,306456.46875,298030.21875,550542.375,594556.9375,345772.84375,300098.375,293981.4375,295121.375,-0.121337890625,0.886474609375,-0.512939453125,1.6174315214157104,4.791259288787842,1.6784666776657104,100.0,3628.0,1.0
560083.0178298,305921.53125,294415.21875,547810.8125,593222.9375,337441.09375,296840.125,291191.9375,293889.875,-0.113525390625,0.886474609375,-0.5126953125,1.9531248807907104,4.943847179412842,2.075195074081421,100.0,3629.0,1.0
560083.020139,305610.84375,292456.3125,546114.8125,592619.625,329505.15625,294959.71875,288971.6875,293255.625,-0.10888671875,0.885498046875,-0.513671875,2.014159917831421,5.096435070037842,2.502441167831421,100.0,3630.0,1.0
560083.0226842,305996.8125,294764.4375,547729.25,593566.6875,332625.90625,296957.6875,290311.34375,294099.4375,-0.107421875,0.88427734375,-0.514892578125,2.227782964706421,5.493163585662842,3.112792730331421,100.0,3631.0,1.0
560083.0252786,306566.09375,298270.09375,550502.0625,594804.8125,342827.75,300192.875,293467.5,295326.71875,-0.10400390625,0.884765625,-0.517333984375,2.502441167831421,5.828856945037842,3.540038824081421,100.0,3632.0,1.0
560083.0278559,306548.75,298046.9375,550524.8125,594580.375,345855.1875,300116.25,294018.96875,295238.125,-0.10498046875,0.887939453125,-0.519287109375,2.655029058456421,6.072997570037842,3.967284917831421,100.0,3633.0,1.0
560083.0303045,306017.84375,294430.15625,547791.5,593253.3125,337497.59375,296858.375,291233.6875,294014.78125,-0.102294921875,0.8837890625,-0.520263671875,2.777099370956421,6.378173351287842,4.425048351287842,100.0,3634.0,1.0
560083.097648,305727.71875,292478.84375,546106.3125,592677.0,329551.1875,294987.25,289031.59375,293401.15625,-0.100341796875,0.8798828125,-0.522216796875,3.143310308456421,6.835937023162842,4.760741710662842,100.0,3635.0,1.0
560083.1001603,306125.5625,294771.4375,547719.9375,593642.9375,332628.9375,296975.21875,290374.46875,294249.8125,-0.1005859375,0.876953125,-0.52197265625,3.509521245956421,7.354735851287842,5.004882335662842,100.0,3636.0,1.0
560083.1025958,306712.53125,298275.375,550505.8125,594896.5625,342792.09375,300211.3125,293542.0,295484.625,-0.102294921875,0.873779296875,-0.521484375,3.936767339706421,7.812499523162842,5.401610851287842,100.0,3637.0,1.0
560083.1163772,306698.84375,298063.9375,550535.1875,594673.0,345783.65625,300133.6875,294081.75,295390.46875,-0.10400390625,0.87109375,-0.5205078125,4.486083507537842,8.300780296325684,5.523681163787842,100.0,3638.0,1.0
560083.116386,306167.3125,294462.15625,547809.375,593350.25,337408.53125,296877.6875,291284.0,294165.15625,-0.103759765625,0.86865234375,-0.519775390625,5.126952648162842,8.666991233825684,5.737304210662842,100.0,3639.0,1.0
560083.1188414,305876.65625,292503.71875,546126.625,592774.125,329437.5625,295003.96875,289077.625,293551.375,-0.106201171875,0.864501953125,-0.5205078125,5.767821788787842,9.124754905700684,5.889892101287842,100.0,3640.0,1.0
560083.1188476,306271.3125,294776.78125,547736.5,593743.8125,332497.9375,296987.65625,290436.15625,294406.71875,-0.107421875,0.863525390625,-0.5166015625,6.347655773162842,9.399413108825684,5.767821788787842,100.0,3641.0,1.0
560083.1852788,306846.625,298251.5,550504.1875,595000.6875,342630.71875,300211.125,293623.25,295638.59375,-0.107421875,0.859619140625,-0.513671875,6.683349132537842,9.521483421325684,5.798339366912842,100.0,3642.0,1.0
560083.1878628,306837.15625,298042.8125,550534.75,594787.1875,345622.625,300141.28125,294207.34375,295551.84375,-0.107666015625,0.85595703125,-0.51025390625,7.049560070037842,9.582518577575684,5.798339366912842,100.0,3643.0,1.0
560083.1901854,306294.28125,294446.96875,547800.3125,593453.9375,337260.03125,296887.15625,291440.03125,294318.40625,-0.108154296875,0.854248046875,-0.504150390625,7.324218273162842,9.552000999450684,5.737304210662842,100.0,3644.0,1.0
560083.1928454,306017.21875,292533.9375,546144.625,592893.125,329371.75,295050.625,289297.65625,293719.71875,-0.10693359375,0.84912109375,-0.499267578125,7.690429210662842,9.521483421325684,5.676269054412842,100.0,3645.0,1.0
560083.2003358,306416.59375,294831.78125,547771.375,593860.9375,332487.03125,297051.03125,290683.90625,294569.90625,-0.10546875,0.84521484375,-0.5029296875,7.995604991912842,9.185790061950684,5.523681163787842,100.0,3646.0,1.0
560083.2029281,306998.0,298332.15625,550551.125,595107.0625,342646.53125,300286.125,293863.75,295795.21875,-0.1015625,0.841552734375,-0.50390625,8.148192405700684,8.819579124450684,5.371093273162842,100.0,3647.0,1.0
560083.2052267,307006.5,298187.125,550618.375,594898.6875,345694.875,300259.59375,294445.1875,295723.53125,-0.09765625,0.83740234375,-0.50390625,8.331297874450684,8.453368186950684,5.401610851287842,100.0,3648.0,1.0
560083.2902187,306492.78125,294671.46875,547936.5,593581.8125,337411.5,297061.75,291679.09375,294516.15625,-0.092529296875,0.836181640625,-0.50634765625,8.483885765075684,7.965087413787842,5.218505382537842,100.0,3649.0,1.0
560083.2927764,306232.59375,292800.1875,546312.9375,593027.5,329569.4375,295256.0,289511.0625,293929.125,-0.08740234375,0.8330078125,-0.509033203125,8.697508811950684,7.476806163787842,5.279540538787842,100.0,3650.0,1.0
560083.350705,306670.0625,295124.65625,547969.875,594021.6875,332703.0625,297285.71875,290876.75,294804.875,-0.084716796875,0.8271484375,-0.50634765625,9.094237327575684,7.080077648162842,5.462646007537842,100.0,3651.0,1.0
560083.3575937,307305.84375,298666.15625,550797.625,595320.0625,342874.4375,300565.25,294081.75,296082.40625,-0.07861328125,0.8232421875,-0.508544921875,9.399413108825684,6.561278820037842,5.371093273162842,100.0,3652.0,1.0
560083.3602147,307338.65625,298536.34375,550883.1875,595138.625,345891.90625,300553.0,294669.59375,296033.65625,-0.072998046875,0.819091796875,-0.515869140625,10.070799827575684,6.195067882537842,5.554198741912842,100.0,3653.0,1.0
560083.3627789,306797.8125,294993.0625,548168.6875,593796.5,337547.21875,297330.25,291861.9375,294802.8125,-0.06640625,0.81884765625,-0.513916015625,10.772704124450684,5.798339366912842,5.554198741912842,100.0,3654.0,1.0
560083.3653495,306492.59375,293065.96875,546494.1875,593206.3125,329633.09375,295477.375,289662.15625,294178.03125,-0.06005859375,0.81787109375,-0.521484375,11.413573265075684,5.676269054412842,5.676269054412842,100.0,3655.0,1.0
560083.3703064,306860.5,295291.40625,548076.0625,594137.625,332650.84375,297419.65625,290978.875,294983.40625,-0.058349609375,0.81689453125,-0.526611328125,12.115477561950684,5.615233898162842,6.072997570037842,100.0,3656.0,1.0
560083.4391868,307398.375,298684.125,550786.1875,595340.625,342634.09375,300567.40625,294072.96875,296155.1875,-0.053466796875,0.821044921875,-0.529541015625,12.603758811950684,5.554198741912842,6.347655773162842,100.0,3657.0,1.0
560083.4392278,307337.40625,298411.90625,550757.125,595071.75,345444.53125,300433.75,294560.4375,296014.625,-0.052734375,0.82275390625,-0.532958984375,13.305663108825684,5.798339366912842,6.683349132537842,100.0,3658.0,1.0
560083.4392383,306746.5,294785.46875,547975.75,593692.5625,336946.46875,297145.34375,291718.71875,294738.0625,-0.05224609375,0.8232421875,-0.53173828125,14.007567405700684,6.011962413787842,6.927489757537842,100.0,3659.0,1.0
560083.4441309,306414.625,292801.0625,546254.0625,593077.4375,328904.59375,295243.21875,289478.0,294084.5,-0.05224609375,0.825439453125,-0.536376953125,14.739989280700684,6.256103038787842,7.019042491912842,100.0,3660.0,1.0
560083.4441716,306764.375,294987.15625,547807.875,593990.3125,331822.40625,297150.71875,290771.34375,294877.46875,-0.0498046875,0.827392578125,-0.536376953125,15.441893577575684,6.652831554412842,7.232665538787842,100.0,3661.0,1.0
560083.4465873,307290.09375,298361.28125,550509.8125,595180.125,341741.75,300281.40625,293868.40625,296045.21875,-0.048095703125,0.830810546875,-0.538818359375,16.113279342651367,7.171630382537842,7.141112804412842,100.0,3662.0,1.0
560083.4466212,307220.53125,298091.0,550477.875,594899.5625,344523.28125,300147.8125,294349.34375,295904.84375,-0.048828125,0.834716796875,-0.53759765625,16.967771530151367,7.690429210662842,7.019042491912842,100.0,3663.0,1.0
560083.4491921,306617.5,294465.84375,547688.3125,593509.3125,336011.03125,296857.8125,291487.9375,294631.3125,-0.048095703125,0.83544921875,-0.539794921875,17.486570358276367,8.239745140075684,7.141112804412842,100.0,3664.0,1.0
560083.4516005,306259.5,292443.25,545938.8125,592877.0,327934.4375,294935.03125,289225.6875,293969.4375,-0.049072265625,0.83642578125,-0.541259765625,17.822263717651367,8.575438499450684,7.110595226287842,100.0,3665.0,1.0
560083.4539662,306587.4375,294555.6875,547450.9375,593776.625,330761.65625,296796.84375,290499.28125,294749.25,-0.053466796875,0.839111328125,-0.537841796875,17.883298873901367,9.033202171325684,7.080077648162842,100.0,3666.0,1.0
560083.4565546,307102.78125,297889.21875,550132.25,594954.375,340583.03125,299896.3125,293595.90625,295903.6875,-0.057861328125,0.837890625,-0.536376953125,17.913816452026367,9.277342796325684,6.958007335662842,100.0,3667.0,1.0
560083.4591279,307022.0625,297640.84375,550101.875,594664.25,343324.40625,299765.15625,294093.09375,295749.34375,-0.0615234375,0.83984375,-0.53564453125,17.883298873901367,9.399413108825684,6.744384288787842,100.0,3668.0,1.0
560083.4614064,306415.96875,294085.75,547335.0625,593267.8125,334857.59375,296507.4375,291260.15625,294461.1875,-0.06591796875,0.84375,-0.537353515625,17.547605514526367,9.552000999450684,6.408690929412842,100.0,3669.0,1.0
560083.5227193,306079.625,292177.46875,545645.375,592643.9375,326918.34375,294649.46875,289046.5,293803.78125,-0.070068359375,0.845947265625,-0.533447265625,17.181394577026367,9.552000999450684,6.011962413787842,100.0,3670.0,1.0
560083.5352734,306435.625,294420.40625,547234.9375,593560.0,329946.375,296593.4375,290370.4375,294599.75,-0.072021484375,0.8466796875,-0.5361328125,16.632078170776367,9.429930686950684,5.615233898162842,100.0,3671.0,1.0
560083.5353151,306950.4375,297812.5,549944.0625,594734.6875,339908.625,299727.96875,293474.21875,295744.53125,-0.072998046875,0.844482421875,-0.531982421875,16.204832077026367,9.307860374450684,5.157470226287842,100.0,3672.0,1.0
560083.5353244,306866.21875,297577.0,549911.6875,594435.8125,342720.84375,299607.1875,293968.0,295586.28125,-0.080078125,0.842041015625,-0.53466796875,15.747069358825684,9.185790061950684,4.486083507537842,100.0,3673.0,1.0
560083.5353324,306282.75,294079.5,547176.4375,593054.6875,334354.3125,296394.34375,291164.03125,294329.21875,-0.078369140625,0.84619140625,-0.536865234375,15.197752952575684,9.094237327575684,3.967284917831421,100.0,3674.0,1.0
560083.5353402,305990.375,292312.8125,545581.8125,592464.1875,326631.5,294627.5625,289008.0625,293703.8125,-0.078369140625,0.84521484375,-0.5380859375,14.801024436950684,9.002684593200684,3.356933355331421,100.0,3675.0,1.0
560083.5353481,306445.65625,294919.46875,547417.6875,593439.3125,330190.0,296784.78125,290450.28125,294549.78125,-0.0751953125,0.848876953125,-0.537353515625,14.160155296325684,8.911131858825684,2.807616949081421,100.0,3676.0,1.0
560083.5353559,307018.75,298611.0,550319.5625,594644.3125,340732.59375,300099.09375,293666.8125,295732.71875,-0.076904296875,0.84912109375,-0.536865234375,13.397215843200684,8.605956077575684,2.441406011581421,100.0,3677.0,1.0
560083.5353637,306895.28125,298262.0625,550219.4375,594331.375,343625.71875,299928.3125,294140.84375,295558.84375,-0.0791015625,0.848388671875,-0.53564453125,12.939452171325684,8.605956077575684,1.7089842557907104,100.0,3678.0,1.0
560083.5353716,306291.25,294670.5625,547432.6875,592951.375,335295.3125,296686.875,291319.5,294303.375,-0.079345703125,0.85107421875,-0.5400390625,12.298583030700684,8.544920921325684,1.1596678495407104,100.0,3679.0,1.0
560083.5353806,305976.0,292768.875,545756.875,592353.5625,327517.09375,294864.84375,289129.46875,293669.5625,-0.08056640625,0.85302734375,-0.54052734375,11.840819358825684,8.300780296325684,0.6103515028953552,100.0,3680.0,1.0
560083.5377283,306383.6875,295109.8125,547430.625,593304.4375,330820.6875,296889.5625,290515.125,294494.625,-0.083251953125,0.85546875,-0.54443359375,11.291502952575684,8.300780296325684,0.0610351525247097,100.0,3681.0,1.0
560083.5406115,306978.4375,298681.71875,550282.625,594538.9375,341181.6875,300156.84375,293709.625,295702.5,-0.084228515625,0.85546875,-0.544189453125,10.559081077575684,8.239745140075684,-0.3356933295726776,100.0,3682.0,1.0
560083.5429609,306941.59375,298584.71875,550339.6875,594279.25,344354.5625,300140.40625,294260.625,295589.6875,-0.08349609375,0.8544921875,-0.546875,10.040282249450684,8.026122093200684,-0.8850097060203552,100.0,3683.0,1.0
560083.7890563,306370.8125,295135.3125,547621.625,592912.9375,336243.03125,296980.03125,291484.46875,294355.84375,-0.080078125,0.853515625,-0.548095703125,9.490965843200684,8.026122093200684,-1.1901854276657104,100.0,3684.0,1.0
560083.7890973,306092.21875,293353.59375,546023.75,592341.1875,328707.28125,295240.0,289355.78125,293760.6875,-0.077880859375,0.849853515625,-0.54931640625,9.002684593200684,7.965087413787842,-1.3732908964157104,100.0,3685.0,1.0
560083.7891062,306514.03125,295705.1875,547726.0625,593319.5625,332150.34375,297288.84375,290747.75,294602.1875,-0.07763671875,0.85107421875,-0.549560546875,8.605956077575684,7.995604991912842,-1.6784666776657104,100.0,3686.0,1.0
560083.7891141,307079.28125,299136.4375,550505.25,594551.25,342440.90625,300490.0625,293881.71875,295793.78125,-0.0751953125,0.852294921875,-0.548583984375,8.117674827575684,8.026122093200684,-1.8005369901657104,100.0,3687.0,1.0
560083.7891225,306987.0,298758.09375,550402.875,594267.125,345286.375,300323.40625,294342.8125,295646.71875,-0.071044921875,0.85009765625,-0.551513671875,7.659911632537842,8.178709983825684,-1.7395018339157104,100.0,3688.0,1.0
560083.7891304,306354.28125,294945.40625,547472.9375,592873.0,336627.46875,296956.96875,291455.0625,294370.34375,-0.068603515625,0.848388671875,-0.55322265625,7.354735851287842,8.361815452575684,-1.8005369901657104,100.0,3689.0,1.0
560083.7891385,306022.40625,292829.40625,545674.6875,592280.9375,328480.28125,295017.8125,289207.53125,293737.96875,-0.066650390625,0.849609375,-0.552978515625,7.080077648162842,8.636473655700684,-1.8310545682907104,100.0,3690.0,1.0
560083.7891462,306423.75,294977.875,547263.875,593253.5,331431.5,296940.875,290526.1875,294568.8125,-0.066650390625,0.854736328125,-0.553466796875,6.713866710662842,8.911131858825684,-1.7395018339157104,100.0,3691.0,1.0
560083.789154,306995.6875,298316.0625,550004.0625,594493.25,341359.96875,300078.53125,293635.78125,295765.28125,-0.065185546875,0.857666015625,-0.552978515625,6.317138195037842,9.307860374450684,-1.5258787870407104,100.0,3692.0,1.0
560083.7891618,306942.84375,297999.8125,549949.9375,594230.625,344042.71875,299931.625,294114.0,295640.8125,-0.062744140625,0.86083984375,-0.551025390625,5.920409679412842,9.643553733825684,-1.0986326932907104,100.0,3693.0,1.0
560083.7891695,306370.28125,294393.0625,547147.8125,592862.25,335448.125,296665.6875,291294.375,294404.3125,-0.063720703125,0.862548828125,-0.552978515625,5.310058116912842,10.101317405700684,-0.8850097060203552,100.0,3694.0,1.0
560083.7891772,306093.5625,292503.53125,545485.3125,592293.1875,327468.71875,294838.375,289126.96875,293802.96875,-0.069091796875,0.863037109375,-0.552001953125,4.760741710662842,10.467528343200684,-0.6103515028953552,100.0,3695.0,1.0
560083.7891855,306534.25,294796.375,547162.5,593301.875,330559.6875,296841.1875,290512.34375,294661.53125,-0.069091796875,0.86279296875,-0.54931640625,4.180907726287842,10.925292015075684,-0.2746581733226776,100.0,3696.0,1.0
560083.7891935,307134.09375,298187.75,549937.9375,594580.75,340533.84375,300016.125,293657.3125,295879.8125,-0.071533203125,0.8603515625,-0.548095703125,3.540038824081421,11.383055686950684,0.0610351525247097,100.0,3697.0,1.0
560083.7892015,307112.34375,297916.40625,549913.8125,594356.0625,343227.5,299907.9375,294173.75,295794.40625,-0.073974609375,0.85888671875,-0.545654296875,2.929687261581421,11.779784202575684,0.2136230319738388,100.0,3698.0,1.0
560083.7892096,306582.96875,294432.03125,547181.75,593023.0,334720.4375,296712.34375,291381.03125,294590.90625,-0.07421875,0.855224609375,-0.54638671875,2.319335699081421,12.176512718200684,0.3356933295726776,100.0,3699.0,1.0
560083.7929163,306334.78125,292672.5,545589.1875,592477.25,326869.96875,294947.90625,289210.40625,293996.625,-0.0771484375,0.85302734375,-0.5458984375,1.6174315214157104,12.573241233825684,0.5493163466453552,100.0,3700.0,1.0
560083.792948,306794.34375,295099.71875,547347.125,593496.875,330166.5625,297027.25,290617.3125,294870.5625,-0.0771484375,0.851806640625,-0.54638671875,1.0070799589157104,12.969969749450684,0.9155272841453552,100.0,3701.0,1.0
560083.7929569,307413.9375,298648.65625,550223.4375,594779.25,340428.875,300296.6875,293806.90625,296113.34375,-0.07275390625,0.84716796875,-0.547607421875,0.3051757514476776,13.397215843200684,0.9460448622703552,100.0,3702.0,1.0
560083.7929647,307391.5,298487.71875,550263.4375,594553.6875,343377.625,300248.6875,294354.34375,296025.28125,-0.06396484375,0.84716796875,-0.5517578125,-0.0610351525247097,13.732909202575684,0.8850097060203552,100.0,3703.0,1.0
560083.795303,306843.25,295014.53125,547530.5,593196.9375,335010.71875,297062.5625,291616.53125,294791.53125,-0.060546875,0.841552734375,-0.55078125,-0.4882812201976776,14.343260765075684,1.0375975370407104,100.0,3704.0,1.0
560083.7953306,306579.5,293233.625,545925.8125,592629.8125,327263.4375,295299.5625,289501.25,294175.96875,-0.05517578125,0.836669921875,-0.548583984375,-0.8544921278953552,14.923094749450684,1.1596678495407104,100.0,3705.0,1.0
560083.797851,306990.3125,295532.1875,547604.1875,593605.4375,330511.3125,297308.78125,290866.65625,295019.875,-0.056884765625,0.83251953125,-0.549560546875,-0.7324218153953552,15.594481468200684,1.1596678495407104,100.0,3706.0,1.0
560083.7978788,307533.46875,298863.9375,550333.125,594822.5,340568.53125,300450.5625,293980.53125,296204.53125,-0.06005859375,0.8330078125,-0.54931640625,-0.7324218153953552,16.326902389526367,1.2512205839157104,100.0,3707.0,1.0
560083.8003124,307460.25,298522.84375,550251.9375,594546.9375,343302.875,300298.46875,294468.96875,296076.40625,-0.06103515625,0.834228515625,-0.54736328125,-0.7324218153953552,17.272947311401367,1.2817381620407104,100.0,3708.0,1.0
560083.8627129,306875.53125,294930.03125,547445.8125,593168.625,334752.15625,297033.25,291632.875,294825.34375,-0.061279296875,0.837158203125,-0.548095703125,-0.3051757514476776,18.188474655151367,1.1291502714157104,100.0,3709.0,1.0
560083.8678782,306578.78125,293040.6875,545778.6875,592586.875,326812.84375,295201.5625,289436.25,294203.59375,-0.064453125,0.84130859375,-0.54443359375,-0.3051757514476776,19.287107467651367,1.0681151151657104,100.0,3710.0,1.0
560083.8679184,306986.375,295257.09375,547413.1875,593571.0625,329875.8125,297171.03125,290781.8125,295048.21875,-0.069091796875,0.840087890625,-0.54345703125,-0.4577636420726776,20.263669967651367,1.0681151151657104,100.0,3711.0,1.0
560083.876641,307554.28125,298562.1875,550134.5625,594821.625,339789.09375,300311.25,293899.0,296266.21875,-0.076904296875,0.84130859375,-0.5400390625,-0.4882812201976776,21.148679733276367,0.9155272841453552,100.0,3712.0,1.0
560083.8766775,307591.3125,298318.71875,550148.5,594657.625,342504.375,300247.78125,294467.34375,296242.34375,-0.084228515625,0.841064453125,-0.53662109375,-0.7324218153953552,22.155759811401367,0.6713866591453552,100.0,3713.0,1.0
560083.8791407,307109.9375,294832.3125,547441.875,593380.375,333974.15625,297075.53125,291722.65625,295091.5,-0.09326171875,0.842529296875,-0.533447265625,-0.9155272841453552,22.918699264526367,0.1831054538488388,100.0,3714.0,1.0
560083.9516198,306818.21875,292906.40625,545757.9375,592801.1875,325914.46875,295225.0625,289517.78125,294485.6875,-0.103759765625,0.847412109375,-0.53369140625,-1.2207030057907104,23.468015670776367,-0.4272460639476776,100.0,3715.0,1.0
560083.9516685,306818.21875,292906.40625,545757.9375,592801.1875,325914.46875,295225.0625,289517.78125,294485.6875,-0.103759765625,0.847412109375,-0.53369140625,-1.2207030057907104,23.468015670776367,-0.4272460639476776,100.0,3716.0,0.0
560083.9516703,306818.21875,292906.40625,545757.9375,592801.1875,325914.46875,295225.0625,289517.78125,294485.6875,-0.103759765625,0.847412109375,-0.53369140625,-1.2207030057907104,23.468015670776367,-0.4272460639476776,100.0,3717.0,0.0
560083.9516718,306818.21875,292906.40625,545757.9375,592801.1875,325914.46875,295225.0625,289517.78125,294485.6875,-0.103759765625,0.847412109375,-0.53369140625,-1.2207030057907104,23.468015670776367,-0.4272460639476776,100.0,3718.0,0.0
560083.9516731,306818.21875,292906.40625,545757.9375,592801.1875,325914.46875,295225.0625,289517.78125,294485.6875,-0.103759765625,0.847412109375,-0.53369140625,-1.2207030057907104,23.468015670776367,-0.4272460639476776,100.0,3719.0,0.0
560083.9516745,306818.21875,292906.40625,545757.9375,592801.1875,325914.46875,295225.0625,289517.78125,294485.6875,-0.103759765625,0.847412109375,-0.53369140625,-1.2207030057907104,23.468015670776367,-0.4272460639476776,100.0,3720.0,0.0
560083.9516758,306818.21875,292906.40625,545757.9375,592801.1875,325914.46875,295225.0625,289517.78125,294485.6875,-0.103759765625,0.847412109375,-0.53369140625,-1.2207030057907104,23.468015670776367,-0.4272460639476776,100.0,3721.0,0.0
560083.9516771,306818.21875,292906.40625,545757.9375,592801.1875,325914.46875,295225.0625,289517.78125,294485.6875,-0.103759765625,0.847412109375,-0.53369140625,-1.2207030057907104,23.468015670776367,-0.4272460639476776,100.0,3722.0,0.0
560083.9516784,306818.21875,292906.40625,545757.9375,592801.1875,325914.46875,295225.0625,289517.78125,294485.6875,-0.103759765625,0.847412109375,-0.53369140625,-1.2207030057907104,23.468015670776367,-0.4272460639476776,100.0,3723.0,0.0
560083.9516798,306818.21875,292906.40625,545757.9375,592801.1875,325914.46875,295225.0625,289517.78125,294485.6875,-0.103759765625,0.847412109375,-0.53369140625,-1.2207030057907104,23.468015670776367,-0.4272460639476776,100.0,3724.0,0.0
560083.9516812,306818.21875,292906.40625,545757.9375,592801.1875,325914.46875,295225.0625,289517.78125,294485.6875,-0.103759765625,0.847412109375,-0.53369140625,-1.2207030057907104,23.468015670776367,-0.4272460639476776,100.0,3725.0,0.0
560083.9516825,306818.21875,292906.40625,545757.9375,592801.1875,325914.46875,295225.0625,289517.78125,294485.6875,-0.103759765625,0.847412109375,-0.53369140625,-1.2207030057907104,23.468015670776367,-0.4272460639476776,100.0,3726.0,0.0
560083.9516838,306818.21875,292906.40625,545757.9375,592801.1875,325914.46875,295225.0625,289517.78125,294485.6875,-0.103759765625,0.847412109375,-0.53369140625,-1.2207030057907104,23.468015670776367,-0.4272460639476776,100.0,3727.0,0.0
560083.9516851,306818.21875,292906.40625,545757.9375,592801.1875,325914.46875,295225.0625,289517.78125,294485.6875,-0.103759765625,0.847412109375,-0.53369140625,-1.2207030057907104,23.468015670776367,-0.4272460639476776,100.0,3728.0,0.0
560083.9516864,306818.21875,292906.40625,545757.9375,592801.1875,325914.46875,295225.0625,289517.78125,294485.6875,-0.103759765625,0.847412109375,-0.53369140625,-1.2207030057907104,23.468015670776367,-0.4272460639476776,100.0,3729.0,0.0
560083.9516877,306818.21875,292906.40625,545757.9375,592801.1875,325914.46875,295225.0625,289517.78125,294485.6875,-0.103759765625,0.847412109375,-0.53369140625,-1.2207030057907104,23.468015670776367,-0.4272460639476776,100.0,3730.0,0.0
560083.9516891,306818.21875,292906.40625,545757.9375,592801.1875,325914.46875,295225.0625,289517.78125,294485.6875,-0.103759765625,0.847412109375,-0.53369140625,-1.2207030057907104,23.468015670776367,-0.4272460639476776,100.0,3731.0,0.0
560083.9516904,306818.21875,292906.40625,545757.9375,592801.1875,325914.46875,295225.0625,289517.78125,294485.6875,-0.103759765625,0.847412109375,-0.53369140625,-1.2207030057907104,23.468015670776367,-0.4272460639476776,100.0,3732.0,0.0
560083.9516917,306818.21875,292906.40625,545757.9375,592801.1875,325914.46875,295225.0625,289517.78125,294485.6875,-0.103759765625,0.847412109375,-0.53369140625,-1.2207030057907104,23.468015670776367,-0.4272460639476776,100.0,3733.0,0.0
560083.951693,306818.21875,292906.40625,545757.9375,592801.1875,325914.46875,295225.0625,289517.78125,294485.6875,-0.103759765625,0.847412109375,-0.53369140625,-1.2207030057907104,23.468015670776367,-0.4272460639476776,100.0,3734.0,0.0
560083.9516943,306818.21875,292906.40625,545757.9375,592801.1875,325914.46875,295225.0625,289517.78125,294485.6875,-0.103759765625,0.847412109375,-0.53369140625,-1.2207030057907104,23.468015670776367,-0.4272460639476776,100.0,3735.0,0.0
560083.9516956,306818.21875,292906.40625,545757.9375,592801.1875,325914.46875,295225.0625,289517.78125,294485.6875,-0.103759765625,0.847412109375,-0.53369140625,-1.2207030057907104,23.468015670776367,-0.4272460639476776,100.0,3736.0,0.0
560083.9516969,306818.21875,292906.40625,545757.9375,592801.1875,325914.46875,295225.0625,289517.78125,294485.6875,-0.103759765625,0.847412109375,-0.53369140625,-1.2207030057907104,23.468015670776367,-0.4272460639476776,100.0,3737.0,0.0
560083.9516982,306818.21875,292906.40625,545757.9375,592801.1875,325914.46875,295225.0625,289517.78125,294485.6875,-0.103759765625,0.847412109375,-0.53369140625,-1.2207030057907104,23.468015670776367,-0.4272460639476776,100.0,3738.0,0.0
560083.9516995,306818.21875,292906.40625,545757.9375,592801.1875,325914.46875,295225.0625,289517.78125,294485.6875,-0.103759765625,0.847412109375,-0.53369140625,-1.2207030057907104,23.468015670776367,-0.4272460639476776,100.0,3739.0,0.0
560083.9517008,306818.21875,292906.40625,545757.9375,592801.1875,325914.46875,295225.0625,289517.78125,294485.6875,-0.103759765625,0.847412109375,-0.53369140625,-1.2207030057907104,23.468015670776367,-0.4272460639476776,100.0,3740.0,0.0
560083.9517022,306818.21875,292906.40625,545757.9375,592801.1875,325914.46875,295225.0625,289517.78125,294485.6875,-0.103759765625,0.847412109375,-0.53369140625,-1.2207030057907104,23.468015670776367,-0.4272460639476776,100.0,3741.0,0.0
560083.9517035,306818.21875,292906.40625,545757.9375,592801.1875,325914.46875,295225.0625,289517.78125,294485.6875,-0.103759765625,0.847412109375,-0.53369140625,-1.2207030057907104,23.468015670776367,-0.4272460639476776,100.0,3742.0,0.0
560083.9517048,306818.21875,292906.40625,545757.9375,592801.1875,325914.46875,295225.0625,289517.78125,294485.6875,-0.103759765625,0.847412109375,-0.53369140625,-1.2207030057907104,23.468015670776367,-0.4272460639476776,100.0,3743.0,0.0
560083.9517061,306818.21875,292906.40625,545757.9375,592801.1875,325914.46875,295225.0625,289517.78125,294485.6875,-0.103759765625,0.847412109375,-0.53369140625,-1.2207030057907104,23.468015670776367,-0.4272460639476776,100.0,3744.0,0.0
560083.9517074,306818.21875,292906.40625,545757.9375,592801.1875,325914.46875,295225.0625,289517.78125,294485.6875,-0.103759765625,0.847412109375,-0.53369140625,-1.2207030057907104,23.468015670776367,-0.4272460639476776,100.0,3745.0,0.0
560083.9517088,306818.21875,292906.40625,545757.9375,592801.1875,325914.46875,295225.0625,289517.78125,294485.6875,-0.103759765625,0.847412109375,-0.53369140625,-1.2207030057907104,23.468015670776367,-0.4272460639476776,100.0,3746.0,0.0
560083.9517101,309855.46875,301097.0625,552100.875,596653.125,338561.96875,302505.84375,295398.53125,298477.875,-0.104736328125,0.8251953125,-0.50048828125,-4.638671398162842,29.998777389526367,-8.941649436950684,100.0,3747.0,1.0
560083.9517195,309768.8125,300840.09375,552060.9375,596368.8125,341462.6875,302388.28125,295871.5625,298323.375,-0.106201171875,0.830322265625,-0.500244140625,-4.272460460662842,29.724119186401367,-8.728026390075684,100.0,3748.0,1.0
560083.9517274,309196.15625,297393.625,549380.0625,595012.75,333281.875,299195.90625,293076.53125,297060.6875,-0.109375,0.833984375,-0.49609375,-3.906249761581421,29.174802780151367,-8.209227561950684,100.0,3749.0,1.0
560083.9517353,308861.0625,295499.5625,547715.0625,594382.625,325479.78125,297334.90625,290852.625,296382.625,-0.11328125,0.83349609375,-0.494140625,-3.448486089706421,28.747556686401367,-7.873534679412842,100.0,3750.0,1.0
560083.9517431,309155.75,297578.90625,549197.9375,595232.625,328401.84375,299187.5,292080.8125,297120.3125,-0.115478515625,0.833984375,-0.4921875,-3.112792730331421,28.228757858276367,-7.354735851287842,100.0,3751.0,1.0
560083.9517512,309614.6875,300795.5625,551777.6875,596361.375,338216.59375,302248.71875,295102.5,298246.125,-0.116943359375,0.83251953125,-0.48681640625,-2.532958745956421,27.679441452026367,-7.171630382537842,100.0,3752.0,1.0
560083.9517589,309523.5,300534.96875,551722.8125,596071.9375,341070.375,302127.375,295597.1875,298084.03125,-0.12060546875,0.83837890625,-0.483154296875,-1.9226073026657104,27.038572311401367,-6.866454601287842,100.0,3753.0,1.0
560083.9517667,308954.6875,297095.03125,549046.6875,594722.75,332871.3125,298935.90625,292844.625,296809.53125,-0.12109375,0.841552734375,-0.481689453125,-1.7700194120407104,26.336668014526367,-6.530761241912842,100.0,3754.0,1.0
560083.951775,308606.34375,295194.59375,547374.375,594088.9375,325039.34375,297065.53125,290626.4375,296128.0,-0.121826171875,0.841796875,-0.48046875,-1.5563963651657104,25.848386764526367,-5.950927257537842,100.0,3755.0,1.0
560083.9700275,308889.9375,297268.28125,548843.0625,594920.125,327914.6875,298902.5625,291822.25,296859.53125,-0.12451171875,0.84228515625,-0.478759765625,-1.4343260526657104,25.482175827026367,-5.706786632537842,100.0,3756.0,1.0
560083.97004,309336.90625,300480.875,551410.9375,596030.0625,337706.0,301950.28125,294797.71875,297975.5,-0.133056640625,0.8427734375,-0.47998046875,-1.3122557401657104,24.841306686401367,-5.493163585662842,100.0,3757.0,1.0
560083.9700418,309250.53125,300242.0625,551371.875,595751.6875,340594.75,301840.21875,295279.4375,297825.65625,-0.138671875,0.84423828125,-0.4814453125,-0.9765624403953552,24.139402389526367,-5.340575695037842,100.0,3758.0,1.0
560083.9700444,309250.53125,300242.0625,551371.875,595751.6875,340594.75,301840.21875,295279.4375,297825.65625,-0.138671875,0.84423828125,-0.4814453125,-0.9765624403953552,24.139402389526367,-5.340575695037842,100.0,3759.0,0.0
560083.9700447,309250.53125,300242.0625,551371.875,595751.6875,340594.75,301840.21875,295279.4375,297825.65625,-0.138671875,0.84423828125,-0.4814453125,-0.9765624403953552,24.139402389526367,-5.340575695037842,100.0,3760.0,0.0
560083.9700449,309250.53125,300242.0625,551371.875,595751.6875,340594.75,301840.21875,295279.4375,297825.65625,-0.138671875,0.84423828125,-0.4814453125,-0.9765624403953552,24.139402389526367,-5.340575695037842,100.0,3761.0,0.0
560083.9700452,309250.53125,300242.0625,551371.875,595751.6875,340594.75,301840.21875,295279.4375,297825.65625,-0.138671875,0.84423828125,-0.4814453125,-0.9765624403953552,24.139402389526367,-5.340575695037842,100.0,3762.0,0.0
560083.9700455,309250.53125,300242.0625,551371.875,595751.6875,340594.75,301840.21875,295279.4375,297825.65625,-0.138671875,0.84423828125,-0.4814453125,-0.9765624403953552,24.139402389526367,-5.340575695037842,100.0,3763.0,0.0
560083.9700458,309250.53125,300242.0625,551371.875,595751.6875,340594.75,301840.21875,295279.4375,297825.65625,-0.138671875,0.84423828125,-0.4814453125,-0.9765624403953552,24.139402389526367,-5.340575695037842,100.0,3764.0,0.0
560083.9700461,309250.53125,300242.0625,551371.875,595751.6875,340594.75,301840.21875,295279.4375,297825.65625,-0.138671875,0.84423828125,-0.4814453125,-0.9765624403953552,24.139402389526367,-5.340575695037842,100.0,3765.0,0.0
560083.9700463,309250.53125,300242.0625,551371.875,595751.6875,340594.75,301840.21875,295279.4375,297825.65625,-0.138671875,0.84423828125,-0.4814453125,-0.9765624403953552,24.139402389526367,-5.340575695037842,100.0,3766.0,0.0
560083.9700466,308718.65625,299870.3125,550677.8125,595293.4375,336914.375,301346.6875,294260.8125,297380.5,-0.1318359375,0.88232421875,-0.468505859375,-2.502441167831421,17.028806686401367,-2.502441167831421,100.0,3767.0,1.0
560083.9700485,308635.5,299635.0625,550638.3125,595015.8125,339811.625,301244.03125,294776.875,297225.71875,-0.133056640625,0.89013671875,-0.4736328125,-3.173827886581421,16.235349655151367,-2.319335699081421,100.0,3768.0,1.0
560083.9955052,308088.3125,296247.71875,548013.5,593689.875,331741.84375,298088.34375,292078.84375,295983.4375,-0.129150390625,0.89453125,-0.47607421875,-3.906249761581421,15.319823265075684,-2.136230230331421,100.0,3769.0,1.0
560084.0018758,307739.5625,294354.0625,546356.6875,593050.4375,323967.71875,296219.5625,289886.5,295300.8125,-0.129150390625,0.89599609375,-0.4794921875,-4.577636241912842,14.404295921325684,-1.8310545682907104,100.0,3770.0,1.0
560084.008927,307986.3125,296378.15625,547777.625,593842.1875,326792.96875,298019.9375,291070.875,296000.6875,-0.128173828125,0.8896484375,-0.482177734375,-5.157470226287842,13.549803733825684,-1.6174315214157104,100.0,3771.0,1.0
560084.0140618,308392.5625,299520.625,550276.3125,594905.1875,336470.9375,301018.03125,294025.59375,297071.3125,-0.130615234375,0.886474609375,-0.479736328125,-5.493163585662842,12.664793968200684,-1.5869139432907104,100.0,3772.0,1.0
560084.0191004,308265.4375,299239.8125,550194.1875,594585.5,339312.09375,300868.875,294505.4375,296865.34375,-0.12939453125,0.884033203125,-0.483642578125,-5.523681163787842,12.023924827575684,-1.5563963651657104,100.0,3773.0,1.0
560084.033953,307639.84375,295798.625,547506.1875,593181.25,331199.5,297647.28125,291746.875,295535.125,-0.12841796875,0.88037109375,-0.490966796875,-5.187987804412842,11.199950218200684,-1.4953612089157104,100.0,3774.0,1.0
560084.0364658,307136.3125,293776.40625,545705.875,592385.0625,323318.28125,295634.8125,289426.5,294700.25,-0.124267578125,0.87744140625,-0.497314453125,-4.852294445037842,10.467528343200684,-1.5258787870407104,100.0,3775.0,1.0
560084.039079,307202.21875,295610.6875,546936.8125,592998.5,325961.3125,297255.6875,290453.4375,295231.5,-0.119384765625,0.870361328125,-0.504638671875,-4.364013195037842,9.643553733825684,-1.5563963651657104,100.0,3776.0,1.0
560084.0416939,307427.34375,298553.15625,549238.1875,593888.5,335427.5625,300067.8125,293241.9375,296130.125,-0.114990234375,0.865966796875,-0.5107421875,-3.906249761581421,8.819579124450684,-1.7089842557907104,100.0,3777.0,1.0
560084.0439724,307091.875,298068.40625,548951.0625,593360.25,338070.5,299709.625,293519.28125,295718.875,-0.10986328125,0.861328125,-0.51025390625,-3.204345464706421,7.904052257537842,-1.8005369901657104,100.0,3778.0,1.0
560084.0514723,306324.15625,294507.84375,546139.75,591813.6875,329896.9375,296350.15625,290627.21875,294237.3125,-0.107421875,0.858154296875,-0.511962890625,-2.471923589706421,7.049560070037842,-2.075195074081421,100.0,3779.0,1.0
560084.0565885,305837.6875,292511.75,544366.0625,591035.0625,322110.03125,294359.78125,288333.59375,293408.0625,-0.103515625,0.8583984375,-0.511962890625,-1.7395018339157104,6.225585460662842,-2.471923589706421,100.0,3780.0,1.0
560084.0616109,305937.0,294357.5625,545613.0625,591677.875,324778.90625,296001.125,289382.0625,293957.5625,-0.09814453125,0.857177734375,-0.51708984375,-0.9765624403953552,5.462646007537842,-2.868652105331421,100.0,3781.0,1.0
560084.0644355,306199.78125,297309.78125,547928.375,592602.0625,334224.5625,298837.75,292190.78125,294877.71875,-0.091552734375,0.8623046875,-0.519775390625,-0.3662109076976776,4.760741710662842,-3.387450933456421,100.0,3782.0,1.0
560084.0644756,306043.84375,297002.5625,547815.25,592249.625,337025.6875,298657.9375,292645.6875,294632.125,-0.08740234375,0.862548828125,-0.521728515625,0.2441406100988388,4.150390148162842,-3.784179449081421,100.0,3783.0,1.0
560084.0644856,305452.4375,293649.53125,545203.6875,590880.4375,329096.0,295495.53125,289952.84375,293326.25,-0.081298828125,0.861572265625,-0.5205078125,0.8544921278953552,3.723144292831421,-4.333495616912842,100.0,3784.0,1.0
560084.0714553,305018.625,291730.78125,543503.4375,590155.4375,321437.6875,293580.25,287740.53125,292568.0,-0.077880859375,0.860107421875,-0.525146484375,1.3122557401657104,3.356933355331421,-4.913329601287842,100.0,3785.0,1.0
560084.0739888,305166.78125,293611.625,544791.625,590848.5625,324135.71875,295263.875,288832.21875,293181.21875,-0.076171875,0.85595703125,-0.526123046875,1.8615721464157104,2.960204839706421,-5.493163585662842,100.0,3786.0,1.0
560084.0790208,305513.40625,296617.84375,547165.25,591852.875,333573.53125,298159.0625,291687.6875,294197.15625,-0.072998046875,0.854248046875,-0.5244140625,2.502441167831421,2.685546636581421,-6.256103038787842,100.0,3787.0,1.0
560084.0790633,305438.3125,296394.34375,547128.6875,591575.25,336413.96875,298049.625,292192.84375,294031.84375,-0.069580078125,0.848876953125,-0.529052734375,3.173827886581421,2.532958745956421,-6.896972179412842,100.0,3788.0,1.0
560084.0841825,304900.96875,293118.8125,544590.875,590257.375,328583.1875,294953.46875,289547.5625,292777.8125,-0.0654296875,0.8447265625,-0.5283203125,3.692626714706421,2.441406011581421,-7.690429210662842,100.0,3789.0,1.0
560084.0866438,304550.9375,291281.875,542975.3125,589613.9375,321044.65625,293117.5625,287399.5625,292086.71875,-0.060546875,0.839599609375,-0.53271484375,4.211425304412842,2.227782964706421,-8.453368186950684,100.0,3790.0,1.0
560084.0889859,304801.90625,293254.1875,544356.125,590409.375,323841.125,294894.4375,288577.65625,292795.625,-0.05712890625,0.836669921875,-0.5361328125,4.669188976287842,2.227782964706421,-9.155272483825684,100.0,3791.0,1.0
560084.0917201,305251.96875,296336.9375,546818.4375,591507.125,333329.15625,297866.4375,291496.4375,293897.5625,-0.053955078125,0.8359375,-0.539306640625,5.065917491912842,2.471923589706421,-9.887694358825684,100.0,3792.0,1.0
560084.1076939,305269.15625,296199.15625,546872.375,591306.75,336230.6875,297830.40625,292039.6875,293808.78125,-0.051025390625,0.83544921875,-0.5400390625,5.493163585662842,2.624511480331421,-10.467528343200684,100.0,3793.0,1.0
560084.1077322,304849.03125,293065.71875,544463.9375,590094.1875,328548.125,294850.625,289468.34375,292664.625,-0.052978515625,0.835205078125,-0.54345703125,5.889892101287842,2.807616949081421,-11.047362327575684,100.0,3794.0,1.0
560084.1077411,304584.28125,291331.03125,542944.3125,589535.4375,321120.03125,293102.65625,287370.65625,292063.90625,-0.053955078125,0.8359375,-0.54638671875,6.286620616912842,3.143310308456421,-11.718749046325684,100.0,3795.0,1.0
560084.1077489,304870.375,293306.59375,544342.625,590368.0625,323878.21875,294895.53125,288530.09375,292814.46875,-0.053955078125,0.8369140625,-0.546875,6.652831554412842,3.509521245956421,-12.329100608825684,100.0,3796.0,1.0
560084.1077567,305338.78125,296376.625,546799.625,591486.625,333275.25,297871.34375,291420.09375,293935.125,-0.056640625,0.83447265625,-0.547607421875,7.080077648162842,3.875732183456421,-12.939452171325684,100.0,3797.0,1.0
560084.1077644,305370.71875,296236.0,546859.0625,591324.125,336123.59375,297845.3125,291945.625,293858.65625,-0.0556640625,0.834716796875,-0.54931640625,7.904052257537842,4.577636241912842,-13.763426780700684,100.0,3798.0,1.0
560084.1077727,304971.96875,293113.375,544475.1875,590165.5625,328444.0625,294896.0625,289364.4375,292729.53125,-0.05810546875,0.84033203125,-0.54736328125,8.392333030700684,5.035399913787842,-14.373778343200684,100.0,3799.0,1.0
560084.1077805,304721.0,291370.28125,542960.9375,589638.9375,320999.59375,293159.3125,287243.96875,292145.28125,-0.05712890625,0.841552734375,-0.549072265625,8.758543968200684,5.279540538787842,-14.770506858825684,100.0,3800.0,1.0
560084.1077883,305018.71875,293329.90625,544352.875,590479.3125,323690.65625,294945.5,288389.71875,292906.3125,-0.05322265625,0.839599609375,-0.544189453125,8.850096702575684,5.767821788787842,-15.319823265075684,100.0,3801.0,1.0
560084.1077961,305497.75,296384.25,546803.0625,591605.625,332980.75,297903.15625,291256.65625,294048.9375,-0.05078125,0.833251953125,-0.544677734375,9.155272483825684,6.134032726287842,-15.747069358825684,100.0,3802.0,1.0
560084.1078039,305523.3125,296223.75,546852.5,591444.0,335751.65625,297859.71875,291748.03125,293968.1875,-0.052734375,0.83251953125,-0.53857421875,9.552000999450684,6.591796398162842,-16.021726608276367,100.0,3803.0,1.0
560084.1078118,305117.34375,293095.125,544465.5625,590291.4375,328064.71875,294912.3125,289148.53125,292855.15625,-0.054443359375,0.830810546875,-0.531982421875,9.826659202575684,6.927489757537842,-16.540525436401367,100.0,3804.0,1.0
560084.1078197,304879.5,291382.4375,542981.5,589776.375,320642.9375,293204.46875,287045.75,292305.5625,-0.05224609375,0.82421875,-0.525146484375,10.070799827575684,7.232665538787842,-16.906736373901367,100.0,3805.0,1.0
560084.1078274,305191.0,293369.0,544397.4375,590611.375,323311.5625,294999.5,288164.25,293079.9375,-0.0498046875,0.826171875,-0.527099609375,10.162352561950684,7.720946788787842,-17.211912155151367,100.0,3806.0,1.0
560084.1078356,305686.3125,296456.65625,546879.625,591720.875,332595.125,297963.15625,290956.96875,294248.125,-0.049072265625,0.830078125,-0.525634765625,10.314940452575684,8.331297874450684,-17.517087936401367,100.0,3807.0,1.0
560084.1078436,305752.75,296364.3125,546999.3125,591579.375,335432.8125,297971.375,291424.21875,294233.46875,-0.0546875,0.83642578125,-0.522216796875,10.162352561950684,8.575438499450684,-17.700193405151367,100.0,3808.0,1.0
560084.1078516,305366.5,293289.78125,544666.5,590439.125,327851.65625,295077.65625,288931.71875,293141.625,-0.05908203125,0.84033203125,-0.523681640625,10.009764671325684,8.880614280700684,-17.730710983276367,100.0,3809.0,1.0
560084.1078783,305366.5,293289.78125,544666.5,590439.125,327851.65625,295077.65625,288931.71875,293141.625,-0.05908203125,0.84033203125,-0.523681640625,10.009764671325684,8.880614280700684,-17.730710983276367,100.0,3810.0,0.0
560084.1078799,305366.5,293289.78125,544666.5,590439.125,327851.65625,295077.65625,288931.71875,293141.625,-0.05908203125,0.84033203125,-0.523681640625,10.009764671325684,8.880614280700684,-17.730710983276367,100.0,3811.0,0.0
560084.1078814,305366.5,293289.78125,544666.5,590439.125,327851.65625,295077.65625,288931.71875,293141.625,-0.05908203125,0.84033203125,-0.523681640625,10.009764671325684,8.880614280700684,-17.730710983276367,100.0,3812.0,0.0
560084.1078827,305366.5,293289.78125,544666.5,590439.125,327851.65625,295077.65625,288931.71875,293141.625,-0.05908203125,0.84033203125,-0.523681640625,10.009764671325684,8.880614280700684,-17.730710983276367,100.0,3813.0,0.0
560084.1078842,305366.5,293289.78125,544666.5,590439.125,327851.65625,295077.65625,288931.71875,293141.625,-0.05908203125,0.84033203125,-0.523681640625,10.009764671325684,8.880614280700684,-17.730710983276367,100.0,3814.0,0.0
560084.1078856,305366.5,293289.78125,544666.5,590439.125,327851.65625,295077.65625,288931.71875,293141.625,-0.05908203125,0.84033203125,-0.523681640625,10.009764671325684,8.880614280700684,-17.730710983276367,100.0,3815.0,0.0
560084.1078869,305366.5,293289.78125,544666.5,590439.125,327851.65625,295077.65625,288931.71875,293141.625,-0.05908203125,0.84033203125,-0.523681640625,10.009764671325684,8.880614280700684,-17.730710983276367,100.0,3816.0,0.0
560084.1078882,305366.5,293289.78125,544666.5,590439.125,327851.65625,295077.65625,288931.71875,293141.625,-0.05908203125,0.84033203125,-0.523681640625,10.009764671325684,8.880614280700684,-17.730710983276367,100.0,3817.0,0.0
560084.1078896,305366.5,293289.78125,544666.5,590439.125,327851.65625,295077.65625,288931.71875,293141.625,-0.05908203125,0.84033203125,-0.523681640625,10.009764671325684,8.880614280700684,-17.730710983276367,100.0,3818.0,0.0
560084.1078909,305366.5,293289.78125,544666.5,590439.125,327851.65625,295077.65625,288931.71875,293141.625,-0.05908203125,0.84033203125,-0.523681640625,10.009764671325684,8.880614280700684,-17.730710983276367,100.0,3819.0,0.0
560084.1078922,305366.5,293289.78125,544666.5,590439.125,327851.65625,295077.65625,288931.71875,293141.625,-0.05908203125,0.84033203125,-0.523681640625,10.009764671325684,8.880614280700684,-17.730710983276367,100.0,3820.0,0.0
560084.1078935,305366.5,293289.78125,544666.5,590439.125,327851.65625,295077.65625,288931.71875,293141.625,-0.05908203125,0.84033203125,-0.523681640625,10.009764671325684,8.880614280700684,-17.730710983276367,100.0,3821.0,0.0
560084.1078948,305366.5,293289.78125,544666.5,590439.125,327851.65625,295077.65625,288931.71875,293141.625,-0.05908203125,0.84033203125,-0.523681640625,10.009764671325684,8.880614280700684,-17.730710983276367,100.0,3822.0,0.0
560084.1078961,305366.5,293289.78125,544666.5,590439.125,327851.65625,295077.65625,288931.71875,293141.625,-0.05908203125,0.84033203125,-0.523681640625,10.009764671325684,8.880614280700684,-17.730710983276367,100.0,3823.0,0.0
560084.1078975,305366.5,293289.78125,544666.5,590439.125,327851.65625,295077.65625,288931.71875,293141.625,-0.05908203125,0.84033203125,-0.523681640625,10.009764671325684,8.880614280700684,-17.730710983276367,100.0,3824.0,0.0
560084.1078988,305366.5,293289.78125,544666.5,590439.125,327851.65625,295077.65625,288931.71875,293141.625,-0.05908203125,0.84033203125,-0.523681640625,10.009764671325684,8.880614280700684,-17.730710983276367,100.0,3825.0,0.0
560084.1079001,305366.5,293289.78125,544666.5,590439.125,327851.65625,295077.65625,288931.71875,293141.625,-0.05908203125,0.84033203125,-0.523681640625,10.009764671325684,8.880614280700684,-17.730710983276367,100.0,3826.0,0.0
560084.1079014,305366.5,293289.78125,544666.5,590439.125,327851.65625,295077.65625,288931.71875,293141.625,-0.05908203125,0.84033203125,-0.523681640625,10.009764671325684,8.880614280700684,-17.730710983276367,100.0,3827.0,0.0
560084.1079027,305366.5,293289.78125,544666.5,590439.125,327851.65625,295077.65625,288931.71875,293141.625,-0.05908203125,0.84033203125,-0.523681640625,10.009764671325684,8.880614280700684,-17.730710983276367,100.0,3828.0,0.0
560084.107904,305366.5,293289.78125,544666.5,590439.125,327851.65625,295077.65625,288931.71875,293141.625,-0.05908203125,0.84033203125,-0.523681640625,10.009764671325684,8.880614280700684,-17.730710983276367,100.0,3829.0,0.0
560084.1079053,305366.5,293289.78125,544666.5,590439.125,327851.65625,295077.65625,288931.71875,293141.625,-0.05908203125,0.84033203125,-0.523681640625,10.009764671325684,8.880614280700684,-17.730710983276367,100.0,3830.0,0.0
560084.1079066,305366.5,293289.78125,544666.5,590439.125,327851.65625,295077.65625,288931.71875,293141.625,-0.05908203125,0.84033203125,-0.523681640625,10.009764671325684,8.880614280700684,-17.730710983276367,100.0,3831.0,0.0
560084.1079079,305366.5,293289.78125,544666.5,590439.125,327851.65625,295077.65625,288931.71875,293141.625,-0.05908203125,0.84033203125,-0.523681640625,10.009764671325684,8.880614280700684,-17.730710983276367,100.0,3832.0,0.0
560084.1079093,305366.5,293289.78125,544666.5,590439.125,327851.65625,295077.65625,288931.71875,293141.625,-0.05908203125,0.84033203125,-0.523681640625,10.009764671325684,8.880614280700684,-17.730710983276367,100.0,3833.0,0.0
560084.1079106,305366.5,293289.78125,544666.5,590439.125,327851.65625,295077.65625,288931.71875,293141.625,-0.05908203125,0.84033203125,-0.523681640625,10.009764671325684,8.880614280700684,-17.730710983276367,100.0,3834.0,0.0
560084.107912,305366.5,293289.78125,544666.5,590439.125,327851.65625,295077.65625,288931.71875,293141.625,-0.05908203125,0.84033203125,-0.523681640625,10.009764671325684,8.880614280700684,-17.730710983276367,100.0,3835.0,0.0
560084.1079133,305366.5,293289.78125,544666.5,590439.125,327851.65625,295077.65625,288931.71875,293141.625,-0.05908203125,0.84033203125,-0.523681640625,10.009764671325684,8.880614280700684,-17.730710983276367,100.0,3836.0,0.0
560084.1079146,305366.5,293289.78125,544666.5,590439.125,327851.65625,295077.65625,288931.71875,293141.625,-0.05908203125,0.84033203125,-0.523681640625,10.009764671325684,8.880614280700684,-17.730710983276367,100.0,3837.0,0.0
560084.107916,305366.5,293289.78125,544666.5,590439.125,327851.65625,295077.65625,288931.71875,293141.625,-0.05908203125,0.84033203125,-0.523681640625,10.009764671325684,8.880614280700684,-17.730710983276367,100.0,3838.0,0.0
560084.1079173,305366.5,293289.78125,544666.5,590439.125,327851.65625,295077.65625,288931.71875,293141.625,-0.05908203125,0.84033203125,-0.523681640625,10.009764671325684,8.880614280700684,-17.730710983276367,100.0,3839.0,0.0
560084.1079187,305366.5,293289.78125,544666.5,590439.125,327851.65625,295077.65625,288931.71875,293141.625,-0.05908203125,0.84033203125,-0.523681640625,10.009764671325684,8.880614280700684,-17.730710983276367,100.0,3840.0,0.0
560084.10792,305366.5,293289.78125,544666.5,590439.125,327851.65625,295077.65625,288931.71875,293141.625,-0.05908203125,0.84033203125,-0.523681640625,10.009764671325684,8.880614280700684,-17.730710983276367,100.0,3841.0,0.0
560084.1079213,305366.5,293289.78125,544666.5,590439.125,327851.65625,295077.65625,288931.71875,293141.625,-0.05908203125,0.84033203125,-0.523681640625,10.009764671325684,8.880614280700684,-17.730710983276367,100.0,3842.0,0.0
560084.1079227,305366.5,293289.78125,544666.5,590439.125,327851.65625,295077.65625,288931.71875,293141.625,-0.05908203125,0.84033203125,-0.523681640625,10.009764671325684,8.880614280700684,-17.730710983276367,100.0,3843.0,0.0
560084.107924,305366.5,293289.78125,544666.5,590439.125,327851.65625,295077.65625,288931.71875,293141.625,-0.05908203125,0.84033203125,-0.523681640625,10.009764671325684,8.880614280700684,-17.730710983276367,100.0,3844.0,0.0
560084.1079253,305366.5,293289.78125,544666.5,590439.125,327851.65625,295077.65625,288931.71875,293141.625,-0.05908203125,0.84033203125,-0.523681640625,10.009764671325684,8.880614280700684,-17.730710983276367,100.0,3845.0,0.0
560084.1079267,305366.5,293289.78125,544666.5,590439.125,327851.65625,295077.65625,288931.71875,293141.625,-0.05908203125,0.84033203125,-0.523681640625,10.009764671325684,8.880614280700684,-17.730710983276367,100.0,3846.0,0.0
560084.107928,305366.5,293289.78125,544666.5,590439.125,327851.65625,295077.65625,288931.71875,293141.625,-0.05908203125,0.84033203125,-0.523681640625,10.009764671325684,8.880614280700684,-17.730710983276367,100.0,3847.0,0.0
560084.1079293,305366.5,293289.78125,544666.5,590439.125,327851.65625,295077.65625,288931.71875,293141.625,-0.05908203125,0.84033203125,-0.523681640625,10.009764671325684,8.880614280700684,-17.730710983276367,100.0,3848.0,0.0
560084.1079307,305366.5,293289.78125,544666.5,590439.125,327851.65625,295077.65625,288931.71875,293141.625,-0.05908203125,0.84033203125,-0.523681640625,10.009764671325684,8.880614280700684,-17.730710983276367,100.0,3849.0,0.0
560084.107932,305366.5,293289.78125,544666.5,590439.125,327851.65625,295077.65625,288931.71875,293141.625,-0.05908203125,0.84033203125,-0.523681640625,10.009764671325684,8.880614280700684,-17.730710983276367,100.0,3850.0,0.0
560084.1079333,305366.5,293289.78125,544666.5,590439.125,327851.65625,295077.65625,288931.71875,293141.625,-0.05908203125,0.84033203125,-0.523681640625,10.009764671325684,8.880614280700684,-17.730710983276367,100.0,3851.0,0.0
560084.1079347,307405.34375,298021.0,548097.25,592956.9375,331023.4375,299561.65625,292644.53125,296122.71875,-0.044921875,0.846435546875,-0.534423828125,-0.1220703050494194,8.453368186950684,9.155272483825684,100.0,3852.0,1.0
560084.1079432,307464.625,297970.59375,548230.0,592827.5625,333891.34375,299597.78125,293261.53125,296086.0625,-0.04345703125,0.841552734375,-0.537841796875,0.6103515028953552,8.514403343200684,9.521483421325684,100.0,3853.0,1.0
560084.1079522,307112.4375,295060.03125,546033.75,591766.125,326776.8125,296843.25,290955.4375,295078.0,-0.044189453125,0.837158203125,-0.53955078125,1.2207030057907104,8.789061546325684,9.765624046325684,100.0,3854.0,1.0
560084.110317,306867.75,293422.71875,544614.0625,591267.875,319797.96875,295224.0,289060.8125,294550.59375,-0.045166015625,0.83642578125,-0.539794921875,1.8005369901657104,8.941649436950684,10.101317405700684,100.0,3855.0,1.0
560084.1103483,307107.875,295280.15625,545910.625,592012.6875,322407.03125,296928.53125,290197.09375,295229.8125,-0.045654296875,0.833984375,-0.537841796875,2.258300542831421,9.124754905700684,10.131834983825684,100.0,3856.0,1.0
560084.1126895,307554.03125,298246.3125,548263.375,593055.125,331414.96875,299785.09375,292989.0,296276.0625,-0.044921875,0.8271484375,-0.532470703125,2.899169683456421,9.338377952575684,10.223387718200684,100.0,3857.0,1.0
560084.1417139,307630.03125,298204.21875,548402.125,592947.0,334319.625,299831.3125,293597.6875,296256.5625,-0.042724609375,0.81884765625,-0.53369140625,3.509521245956421,9.552000999450684,10.040282249450684,100.0,3858.0,1.0
560084.1417276,307290.625,295278.28125,546196.1875,591900.25,327173.0625,297070.6875,291265.3125,295262.1875,-0.037353515625,0.814697265625,-0.53125,3.875732183456421,9.765624046325684,9.948729515075684,100.0,3859.0,1.0
560084.1417296,307128.4375,293694.875,544840.4375,591481.125,320230.40625,295508.59375,289410.5,294809.15625,-0.0341796875,0.8115234375,-0.527099609375,4.455565929412842,9.918211936950684,9.857176780700684,100.0,3860.0,1.0
560084.1417315,307456.125,295634.8125,546222.5625,592311.6875,322909.84375,297286.1875,290605.59375,295566.4375,-0.029052734375,0.80615234375,-0.524169921875,4.791259288787842,10.162352561950684,9.735106468200684,100.0,3861.0,1.0
560084.1465382,307918.375,298598.21875,548582.125,593372.875,331898.9375,300142.46875,293397.15625,296616.59375,-0.026611328125,0.804443359375,-0.529296875,5.096435070037842,10.406493186950684,9.521483421325684,100.0,3862.0,1.0
560084.1490411,307987.46875,298523.46875,548693.25,593253.0625,334730.4375,300158.71875,293971.84375,296579.0625,-0.0302734375,0.805419921875,-0.53271484375,5.371093273162842,10.498045921325684,9.399413108825684,100.0,3863.0,1.0
560084.1515454,307604.8125,295547.9375,546431.4375,592158.4375,327476.5,297345.71875,291583.25,295551.9375,-0.032470703125,0.810791015625,-0.53759765625,5.584716320037842,10.528563499450684,9.155272483825684,100.0,3864.0,1.0
560084.1540805,307315.125,293822.8125,544934.375,591608.9375,320313.75,295645.46875,289581.53125,294982.96875,-0.03662109375,0.817138671875,-0.54248046875,5.859374523162842,10.742186546325684,8.941649436950684,100.0,3865.0,1.0
560084.1563364,307535.25,295639.03125,546193.875,592330.1875,322781.375,297303.34375,290644.03125,295638.3125,-0.042236328125,0.82568359375,-0.544189453125,6.011962413787842,10.772704124450684,8.636473655700684,100.0,3866.0,1.0
560084.1589171,307936.5,298518.1875,548470.0625,593326.625,331590.65625,300086.125,293349.75,296634.5,-0.048583984375,0.8310546875,-0.546630859375,6.164550304412842,10.528563499450684,8.117674827575684,100.0,3867.0,1.0
560084.1628775,307940.09375,298347.34375,548492.0625,593146.1875,334212.40625,300023.28125,293843.90625,296543.8125,-0.052490234375,0.838623046875,-0.54833984375,6.530761241912842,10.345458030700684,7.629394054412842,100.0,3868.0,1.0
560084.1628999,307529.53125,295310.8125,546183.25,592036.125,326783.6875,297165.65625,291410.25,295490.6875,-0.059326171875,0.84619140625,-0.550537109375,6.866454601287842,10.223387718200684,7.141112804412842,100.0,3869.0,1.0
560084.1629109,307529.53125,295310.8125,546183.25,592036.125,326783.6875,297165.65625,291410.25,295490.6875,-0.059326171875,0.84619140625,-0.550537109375,6.866454601287842,10.223387718200684,7.141112804412842,100.0,3870.0,0.0
560084.1629116,307529.53125,295310.8125,546183.25,592036.125,326783.6875,297165.65625,291410.25,295490.6875,-0.059326171875,0.84619140625,-0.550537109375,6.866454601287842,10.223387718200684,7.141112804412842,100.0,3871.0,0.0
560084.1629122,307529.53125,295310.8125,546183.25,592036.125,326783.6875,297165.65625,291410.25,295490.6875,-0.059326171875,0.84619140625,-0.550537109375,6.866454601287842,10.223387718200684,7.141112804412842,100.0,3872.0,0.0
560084.1629128,307529.53125,295310.8125,546183.25,592036.125,326783.6875,297165.65625,291410.25,295490.6875,-0.059326171875,0.84619140625,-0.550537109375,6.866454601287842,10.223387718200684,7.141112804412842,100.0,3873.0,0.0
560084.1629133,307529.53125,295310.8125,546183.25,592036.125,326783.6875,297165.65625,291410.25,295490.6875,-0.059326171875,0.84619140625,-0.550537109375,6.866454601287842,10.223387718200684,7.141112804412842,100.0,3874.0,0.0
560084.1629139,307529.53125,295310.8125,546183.25,592036.125,326783.6875,297165.65625,291410.25,295490.6875,-0.059326171875,0.84619140625,-0.550537109375,6.866454601287842,10.223387718200684,7.141112804412842,100.0,3875.0,0.0
560084.1629146,307529.53125,295310.8125,546183.25,592036.125,326783.6875,297165.65625,291410.25,295490.6875,-0.059326171875,0.84619140625,-0.550537109375,6.866454601287842,10.223387718200684,7.141112804412842,100.0,3876.0,0.0
560084.1629152,307529.53125,295310.8125,546183.25,592036.125,326783.6875,297165.65625,291410.25,295490.6875,-0.059326171875,0.84619140625,-0.550537109375,6.866454601287842,10.223387718200684,7.141112804412842,100.0,3877.0,0.0
560084.1629158,307529.53125,295310.8125,546183.25,592036.125,326783.6875,297165.65625,291410.25,295490.6875,-0.059326171875,0.84619140625,-0.550537109375,6.866454601287842,10.223387718200684,7.141112804412842,100.0,3878.0,0.0
560084.1629164,307529.53125,295310.8125,546183.25,592036.125,326783.6875,297165.65625,291410.25,295490.6875,-0.059326171875,0.84619140625,-0.550537109375,6.866454601287842,10.223387718200684,7.141112804412842,100.0,3879.0,0.0
560084.162917,307529.53125,295310.8125,546183.25,592036.125,326783.6875,297165.65625,291410.25,295490.6875,-0.059326171875,0.84619140625,-0.550537109375,6.866454601287842,10.223387718200684,7.141112804412842,100.0,3880.0,0.0
560084.1629176,307529.53125,295310.8125,546183.25,592036.125,326783.6875,297165.65625,291410.25,295490.6875,-0.059326171875,0.84619140625,-0.550537109375,6.866454601287842,10.223387718200684,7.141112804412842,100.0,3881.0,0.0
560084.1629182,307529.53125,295310.8125,546183.25,592036.125,326783.6875,297165.65625,291410.25,295490.6875,-0.059326171875,0.84619140625,-0.550537109375,6.866454601287842,10.223387718200684,7.141112804412842,100.0,3882.0,0.0
560084.1629187,307529.53125,295310.8125,546183.25,592036.125,326783.6875,297165.65625,291410.25,295490.6875,-0.059326171875,0.84619140625,-0.550537109375,6.866454601287842,10.223387718200684,7.141112804412842,100.0,3883.0,0.0
560084.1629194,307529.53125,295310.8125,546183.25,592036.125,326783.6875,297165.65625,291410.25,295490.6875,-0.059326171875,0.84619140625,-0.550537109375,6.866454601287842,10.223387718200684,7.141112804412842,100.0,3884.0,0.0
560084.1629199,307529.53125,295310.8125,546183.25,592036.125,326783.6875,297165.65625,291410.25,295490.6875,-0.059326171875,0.84619140625,-0.550537109375,6.866454601287842,10.223387718200684,7.141112804412842,100.0,3885.0,0.0
560084.1629205,307529.53125,295310.8125,546183.25,592036.125,326783.6875,297165.65625,291410.25,295490.6875,-0.059326171875,0.84619140625,-0.550537109375,6.866454601287842,10.223387718200684,7.141112804412842,100.0,3886.0,0.0
560084.1629211,307529.53125,295310.8125,546183.25,592036.125,326783.6875,297165.65625,291410.25,295490.6875,-0.059326171875,0.84619140625,-0.550537109375,6.866454601287842,10.223387718200684,7.141112804412842,100.0,3887.0,0.0
560084.1629217,307529.53125,295310.8125,546183.25,592036.125,326783.6875,297165.65625,291410.25,295490.6875,-0.059326171875,0.84619140625,-0.550537109375,6.866454601287842,10.223387718200684,7.141112804412842,100.0,3888.0,0.0
560084.1629223,307529.53125,295310.8125,546183.25,592036.125,326783.6875,297165.65625,291410.25,295490.6875,-0.059326171875,0.84619140625,-0.550537109375,6.866454601287842,10.223387718200684,7.141112804412842,100.0,3889.0,0.0
560084.1629229,307529.53125,295310.8125,546183.25,592036.125,326783.6875,297165.65625,291410.25,295490.6875,-0.059326171875,0.84619140625,-0.550537109375,6.866454601287842,10.223387718200684,7.141112804412842,100.0,3890.0,0.0
560084.1629235,307529.53125,295310.8125,546183.25,592036.125,326783.6875,297165.65625,291410.25,295490.6875,-0.059326171875,0.84619140625,-0.550537109375,6.866454601287842,10.223387718200684,7.141112804412842,100.0,3891.0,0.0
560084.1629241,307529.53125,295310.8125,546183.25,592036.125,326783.6875,297165.65625,291410.25,295490.6875,-0.059326171875,0.84619140625,-0.550537109375,6.866454601287842,10.223387718200684,7.141112804412842,100.0,3892.0,0.0
560084.1629247,307529.53125,295310.8125,546183.25,592036.125,326783.6875,297165.65625,291410.25,295490.6875,-0.059326171875,0.84619140625,-0.550537109375,6.866454601287842,10.223387718200684,7.141112804412842,100.0,3893.0,0.0
560084.1629252,307529.53125,295310.8125,546183.25,592036.125,326783.6875,297165.65625,291410.25,295490.6875,-0.059326171875,0.84619140625,-0.550537109375,6.866454601287842,10.223387718200684,7.141112804412842,100.0,3894.0,0.0
560084.1629258,307529.53125,295310.8125,546183.25,592036.125,326783.6875,297165.65625,291410.25,295490.6875,-0.059326171875,0.84619140625,-0.550537109375,6.866454601287842,10.223387718200684,7.141112804412842,100.0,3895.0,0.0
560084.1629264,307529.53125,295310.8125,546183.25,592036.125,326783.6875,297165.65625,291410.25,295490.6875,-0.059326171875,0.84619140625,-0.550537109375,6.866454601287842,10.223387718200684,7.141112804412842,100.0,3896.0,0.0
560084.162927,307529.53125,295310.8125,546183.25,592036.125,326783.6875,297165.65625,291410.25,295490.6875,-0.059326171875,0.84619140625,-0.550537109375,6.866454601287842,10.223387718200684,7.141112804412842,100.0,3897.0,0.0
560084.1629276,307529.53125,295310.8125,546183.25,592036.125,326783.6875,297165.65625,291410.25,295490.6875,-0.059326171875,0.84619140625,-0.550537109375,6.866454601287842,10.223387718200684,7.141112804412842,100.0,3898.0,0.0
560084.1629282,307529.53125,295310.8125,546183.25,592036.125,326783.6875,297165.65625,291410.25,295490.6875,-0.059326171875,0.84619140625,-0.550537109375,6.866454601287842,10.223387718200684,7.141112804412842,100.0,3899.0,0.0
560084.1629288,307529.53125,295310.8125,546183.25,592036.125,326783.6875,297165.65625,291410.25,295490.6875,-0.059326171875,0.84619140625,-0.550537109375,6.866454601287842,10.223387718200684,7.141112804412842,100.0,3900.0,0.0
560084.1629294,307529.53125,295310.8125,546183.25,592036.125,326783.6875,297165.65625,291410.25,295490.6875,-0.059326171875,0.84619140625,-0.550537109375,6.866454601287842,10.223387718200684,7.141112804412842,100.0,3901.0,0.0
560084.1629299,307529.53125,295310.8125,546183.25,592036.125,326783.6875,297165.65625,291410.25,295490.6875,-0.059326171875,0.84619140625,-0.550537109375,6.866454601287842,10.223387718200684,7.141112804412842,100.0,3902.0,0.0
560084.1629305,307529.53125,295310.8125,546183.25,592036.125,326783.6875,297165.65625,291410.25,295490.6875,-0.059326171875,0.84619140625,-0.550537109375,6.866454601287842,10.223387718200684,7.141112804412842,100.0,3903.0,0.0
560084.1629311,307529.53125,295310.8125,546183.25,592036.125,326783.6875,297165.65625,291410.25,295490.6875,-0.059326171875,0.84619140625,-0.550537109375,6.866454601287842,10.223387718200684,7.141112804412842,100.0,3904.0,0.0
560084.1629317,307529.53125,295310.8125,546183.25,592036.125,326783.6875,297165.65625,291410.25,295490.6875,-0.059326171875,0.84619140625,-0.550537109375,6.866454601287842,10.223387718200684,7.141112804412842,100.0,3905.0,0.0
560084.1629323,307529.53125,295310.8125,546183.25,592036.125,326783.6875,297165.65625,291410.25,295490.6875,-0.059326171875,0.84619140625,-0.550537109375,6.866454601287842,10.223387718200684,7.141112804412842,100.0,3906.0,0.0
560084.1629329,307793.375,298116.6875,547730.3125,592733.0625,327258.4375,299621.5625,292765.40625,296422.84375,-0.10498046875,0.80224609375,-0.547119140625,1.5258787870407104,0.7324218153953552,-4.730224132537842,100.0,3907.0,1.0
560084.1652054,307875.8125,298054.96875,547849.9375,592629.0625,329938.9375,299646.53125,293328.125,296396.9375,-0.107421875,0.800537109375,-0.55029296875,1.8615721464157104,0.5187987685203552,-4.791259288787842,100.0,3908.0,1.0
560084.176365,307611.15625,295255.46875,545741.75,591657.9375,322788.96875,296989.4375,291079.71875,295486.6875,-0.109619140625,0.799072265625,-0.552001953125,2.319335699081421,0.4882812201976776,-4.730224132537842,100.0,3909.0,1.0
560084.1804598,307539.90625,293781.34375,544495.25,591332.3125,315873.875,295536.125,289332.96875,295137.625,-0.110107421875,0.796630859375,-0.55078125,2.777099370956421,0.5493163466453552,-4.699706554412842,100.0,3910.0,1.0
560084.1804729,307760.8125,295536.46875,545734.75,592062.25,318220.8125,297167.4375,290401.125,295814.09375,-0.11083984375,0.7978515625,-0.548828125,3.234863042831421,0.6103515028953552,-4.760741710662842,100.0,3911.0,1.0
560084.1804748,308108.1875,298267.0625,547908.25,593000.125,326696.34375,299836.25,293002.875,296773.5,-0.111328125,0.796630859375,-0.549072265625,3.509521245956421,0.4272460639476776,-4.547118663787842,100.0,3912.0,1.0
560084.1804763,308111.75,298087.15625,547920.0625,592813.8125,329125.0625,299759.25,293468.125,296672.40625,-0.10888671875,0.798828125,-0.550048828125,3.875732183456421,0.4882812201976776,-4.608153820037842,100.0,3913.0,1.0
560084.1826281,307721.5,295144.875,545676.125,591722.9375,321741.65625,296964.3125,291076.84375,295637.6875,-0.101806640625,0.804931640625,-0.54638671875,4.028319835662842,0.5798339247703552,-4.364013195037842,100.0,3914.0,1.0
560084.1877896,307420.71875,293432.46875,544197.875,591176.3125,314514.90625,295273.1875,289070.9375,295067.28125,-0.0927734375,0.813232421875,-0.54052734375,3.936767339706421,0.7019042372703552,-4.089354991912842,100.0,3915.0,1.0
560084.1965341,307611.6875,295164.0,545410.6875,591867.875,316770.28125,296862.21875,290051.375,295683.5625,-0.080078125,0.818603515625,-0.5361328125,3.570556402206421,0.8239745497703552,-3.692626714706421,100.0,3916.0,1.0
560084.1965485,307977.8125,297926.6875,547610.375,592833.75,325222.28125,299541.65625,292631.65625,296625.46875,-0.06787109375,0.821533203125,-0.530029296875,3.143310308456421,1.1596678495407104,-3.021239995956421,100.0,3917.0,1.0
560084.1965507,307961.46875,297730.0,547606.5,592628.1875,327569.75,299434.96875,293052.03125,296500.46875,-0.0615234375,0.822998046875,-0.525146484375,2.624511480331421,1.5563963651657104,-2.380370855331421,100.0,3918.0,1.0
560084.1965527,307561.09375,294763.71875,545348.625,591525.8125,320105.0625,296616.96875,290656.375,295461.71875,-0.0546875,0.825927734375,-0.521484375,2.105712652206421,2.014159917831421,-1.6784666776657104,100.0,3919.0,1.0
560084.1965547,307260.78125,293041.9375,543866.5,590976.1875,312820.625,294913.65625,288669.03125,294877.0,-0.04833984375,0.828369140625,-0.520751953125,1.4343260526657104,2.838134527206421,-0.7934569716453552,100.0,3920.0,1.0
560084.1965567,307447.53125,294744.40625,545062.25,591676.4375,314967.9375,296483.9375,289656.28125,295496.875,-0.0439453125,0.82958984375,-0.5224609375,0.7324218153953552,3.692626714706421,0.0610351525247097,100.0,3921.0,1.0
560084.196559,307784.78125,297397.9375,547191.5625,592628.5625,323215.09375,299103.71875,292216.78125,296444.84375,-0.044189453125,0.832763671875,-0.525146484375,-0.03051757626235485,4.516601085662842,0.9155272841453552,100.0,3922.0,1.0
560084.1990591,307768.4375,297120.84375,547147.5,592443.1875,325403.78125,298970.15625,292656.6875,296346.0625,-0.046875,0.83203125,-0.527099609375,-0.9155272841453552,5.432128429412842,1.6784666776657104,100.0,3923.0,1.0
560084.199074,307377.90625,294150.84375,544891.1875,591361.75,317887.6875,296169.03125,290302.15625,295331.8125,-0.05078125,0.834228515625,-0.5302734375,-1.6479490995407104,6.378173351287842,2.655029058456421,100.0,3924.0,1.0
560084.2014567,307085.1875,292436.46875,543412.875,590820.5625,310559.53125,294485.21875,288346.5625,294763.5625,-0.056396484375,0.835693359375,-0.53466796875,-2.166747808456421,7.446288585662842,3.265380620956421,100.0,3925.0,1.0
560084.2014732,307270.6875,294136.71875,544599.5,591511.3125,312638.25,296049.40625,289341.65625,295379.125,-0.067138671875,0.837158203125,-0.539306640625,-2.746581792831421,8.117674827575684,3.784179449081421,100.0,3926.0,1.0
560084.2040518,307614.125,296827.34375,546744.25,592467.0625,320852.6875,298687.09375,291918.625,296320.5625,-0.0771484375,0.83642578125,-0.54150390625,-3.021239995956421,8.941649436950684,4.150390148162842,100.0,3927.0,1.0
560084.2063358,307627.53125,296665.15625,546767.75,592293.625,323111.1875,298609.65625,292388.1875,296227.59375,-0.086181640625,0.836181640625,-0.541259765625,-3.112792730331421,9.613036155700684,4.364013195037842,100.0,3928.0,1.0
560084.2088597,307302.4375,293917.84375,544660.25,591237.9375,315842.40625,295922.8125,290093.375,295237.78125,-0.095947265625,0.8369140625,-0.540283203125,-3.143310308456421,10.131834983825684,4.455565929412842,100.0,3929.0,1.0
560084.2113933,307062.375,292419.03125,543322.8125,590720.0,308814.5625,294348.71875,288199.03125,294698.90625,-0.101318359375,0.83544921875,-0.53515625,-3.112792730331421,10.620116233825684,4.455565929412842,100.0,3930.0,1.0
560084.214055,307284.5625,294287.0,544621.1875,591436.6875,311181.8125,296008.28125,289251.0,295340.125,-0.104248046875,0.833984375,-0.532958984375,-3.265380620956421,10.925292015075684,4.547118663787842,100.0,3931.0,1.0
560084.2140732,307689.84375,297206.96875,546921.5625,592427.625,319785.71875,298776.9375,291903.4375,296323.15625,-0.10595703125,0.83203125,-0.529052734375,-3.234863042831421,11.108397483825684,4.333495616912842,100.0,3932.0,1.0
560084.2163486,307763.6875,297288.40625,547110.1875,592295.4375,322522.8125,298834.25,292457.03125,296269.4375,-0.1142578125,0.832763671875,-0.5224609375,-3.417968511581421,11.108397483825684,3.997802495956421,100.0,3933.0,1.0
560084.2188645,307463.375,294658.5,545090.125,591261.1875,315627.375,296235.8125,290227.59375,295294.71875,-0.119384765625,0.83837890625,-0.5166015625,-3.875732183456421,10.986327171325684,3.662109136581421,100.0,3934.0,1.0
560084.2215528,307228.0625,293166.46875,543774.6875,590760.3125,308856.0625,294700.625,288378.09375,294768.90625,-0.127685546875,0.8427734375,-0.517578125,-4.486083507537842,10.650633811950684,3.326415777206421,100.0,3935.0,1.0
560084.2239442,307417.6875,294958.0,545021.5,591457.5,311353.125,296340.34375,289414.78125,295388.0625,-0.1376953125,0.848876953125,-0.51611328125,-5.432128429412842,10.131834983825684,2.929687261581421,100.0,3936.0,1.0
560084.2263725,307784.53125,297764.84375,547240.4375,592423.5625,319985.25,299056.53125,292028.15625,296344.1875,-0.144287109375,0.8564453125,-0.513427734375,-6.561278820037842,9.338377952575684,2.441406011581421,100.0,3937.0,1.0
560084.2290709,307842.90625,297750.09375,547366.4375,592276.9375,322700.28125,299072.96875,292549.40625,296279.28125,-0.149658203125,0.8671875,-0.50927734375,-7.598876476287842,8.453368186950684,1.8615721464157104,100.0,3938.0,1.0
560084.2340767,307515.3125,295050.1875,545292.1875,591224.5625,315808.78125,296433.3125,290290.875,295294.90625,-0.15380859375,0.878662109375,-0.5029296875,-8.636473655700684,7.507323741912842,1.1901854276657104,100.0,3939.0,1.0
560084.2391234,307258.8125,293513.28125,543938.3125,590705.5625,309066.71875,294874.5,288421.46875,294768.375,-0.15673828125,0.894775390625,-0.495361328125,-9.826659202575684,6.530761241912842,0.3662109076976776,100.0,3940.0,1.0
560084.2415195,307434.75,295255.28125,545149.125,591396.6875,311569.03125,296494.84375,289440.09375,295389.125,-0.158203125,0.912353515625,-0.492431640625,-10.864256858825684,5.371093273162842,-0.3967284858226776,100.0,3941.0,1.0
560084.2415594,307786.40625,298002.9375,547323.0,592346.8125,320160.40625,299186.15625,292021.1875,296332.8125,-0.158935546875,0.92724609375,-0.488037109375,-11.871336936950684,4.394530773162842,-1.0070799589157104,100.0,3942.0,1.0
560084.2441246,307838.34375,297972.375,547438.4375,592187.0625,322895.90625,299201.71875,292533.75,296249.0625,-0.159423828125,0.94091796875,-0.48486328125,-13.092040061950684,3.295898199081421,-1.5258787870407104,100.0,3943.0,1.0
560084.2441654,307543.375,295323.15625,545415.5625,591170.0625,316140.5,296610.875,290326.375,295294.46875,-0.161865234375,0.950439453125,-0.4833984375,-14.343260765075684,2.197265386581421,-1.9226073026657104,100.0,3944.0,1.0
560084.249249,307288.65625,293787.6875,544065.875,590665.25,309475.28125,295071.46875,288490.40625,294782.34375,-0.1650390625,0.962646484375,-0.483642578125,-15.747069358825684,0.9460448622703552,-2.319335699081421,100.0,3945.0,1.0
560084.2492957,307433.78125,295465.21875,545219.25,591329.375,311926.21875,296664.15625,289492.125,295386.71875,-0.1650390625,0.9716796875,-0.48291015625,-17.181394577026367,-0.2441406100988388,-2.685546636581421,100.0,3946.0,1.0
560084.2541931,307747.15625,298135.28125,547320.375,592246.0,320408.96875,299305.96875,292038.875,296305.28125,-0.163330078125,0.975830078125,-0.483154296875,-18.676755905151367,-1.3732908964157104,-2.990722417831421,100.0,3947.0,1.0
560084.256487,307797.9375,298071.15625,547410.8125,592094.875,323077.21875,299304.53125,292550.90625,296239.40625,-0.158935546875,0.974365234375,-0.481689453125,-20.355222702026367,-2.777099370956421,-3.326415777206421,100.0,3948.0,1.0
560084.2589498,307489.75,295418.625,545386.0,591062.6875,316343.8125,296707.875,290345.78125,295261.65625,-0.155517578125,0.96728515625,-0.4814453125,-22.033689498901367,-3.967284917831421,-3.662109136581421,100.0,3949.0,1.0
560084.2616056,307181.1875,293839.4375,543993.5625,590507.1875,309678.0625,295118.78125,288470.28125,294686.65625,-0.150146484375,0.956298828125,-0.4765625,-23.345945358276367,-5.126952648162842,-4.028319835662842,100.0,3950.0,1.0
560084.2639978,307252.8125,295423.90625,545062.8125,591103.1875,312070.0625,296631.0,289408.0625,295233.3125,-0.145263671875,0.946533203125,-0.4814453125,-24.353025436401367,-6.072997570037842,-4.425048351287842,100.0,3951.0,1.0
560084.2664074,307525.25,298029.5,547117.875,591976.0625,320555.6875,299234.53125,291923.1875,296106.90625,-0.135986328125,0.943115234375,-0.481689453125,-25.421140670776367,-6.958007335662842,-5.004882335662842,100.0,3952.0,1.0
560084.269023,307547.9375,297955.03125,547210.4375,591781.625,323346.875,299217.4375,292409.65625,295990.65625,-0.1279296875,0.943115234375,-0.47998046875,-26.031492233276367,-7.751464366912842,-5.371093273162842,100.0,3953.0,1.0
560084.2690625,307214.71875,295300.34375,545194.8125,590710.6875,316790.5625,296606.5,290179.21875,294977.15625,-0.115234375,0.9375,-0.478515625,-26.763914108276367,-8.300780296325684,-5.554198741912842,100.0,3954.0,1.0
560084.280551,306890.28125,293706.125,543801.8125,590135.375,310291.03125,295013.625,288296.75,294386.53125,-0.1025390625,0.93017578125,-0.472412109375,-27.008054733276367,-8.605956077575684,-5.584716320037842,100.0,3955.0,1.0
560084.2805871,306967.25,295268.25,544864.375,590747.0625,312770.125,296537.5625,289247.3125,294947.71875,-0.09423828125,0.9208984375,-0.468505859375,-27.130125045776367,-8.697508811950684,-5.523681163787842,100.0,3956.0,1.0
560084.2805958,307238.25,297855.875,546905.5625,591628.25,321287.84375,299131.09375,291747.0625,295823.21875,-0.08642578125,0.912353515625,-0.46728515625,-27.038572311401367,-8.544920921325684,-5.340575695037842,100.0,3957.0,1.0
560084.280605,307298.78125,297831.1875,547037.3125,591475.1875,324144.65625,299151.1875,292270.625,295747.75,-0.08056640625,0.90869140625,-0.46728515625,-26.824949264526367,-8.270262718200684,-4.974364757537842,100.0,3958.0,1.0
560084.284231,307000.25,295198.0625,545037.5625,590438.6875,317539.53125,296545.34375,290048.21875,294760.4375,-0.074951171875,0.90673828125,-0.465576171875,-26.458738327026367,-7.873534679412842,-4.455565929412842,100.0,3959.0,1.0
560084.2842683,306693.03125,293598.5,543636.5625,589886.25,310937.90625,294938.0625,288155.9375,294185.53125,-0.070068359375,0.90380859375,-0.468017578125,-26.062009811401367,-7.324218273162842,-3.936767339706421,100.0,3960.0,1.0
560084.2842777,306768.78125,295113.75,544661.875,590505.125,313271.875,296430.0,289092.90625,294753.625,-0.070556640625,0.89892578125,-0.468505859375,-25.634763717651367,-6.683349132537842,-3.479003667831421,100.0,3961.0,1.0
560084.2864424,307044.5,297649.625,546663.25,591398.875,321600.03125,299001.8125,291586.5625,295658.34375,-0.0703125,0.892822265625,-0.466064453125,-24.963376998901367,-6.134032726287842,-3.051757574081421,100.0,3962.0,1.0
560084.2891716,307138.1875,297628.78125,546806.75,591273.6875,324352.71875,299024.15625,292114.0625,295601.9375,-0.06982421875,0.891845703125,-0.4609375,-24.169919967651367,-5.462646007537842,-2.685546636581421,100.0,3963.0,1.0
560084.2892074,306877.65625,295050.28125,544866.0625,590269.5625,317778.6875,296449.40625,289922.53125,294640.8125,-0.069091796875,0.889404296875,-0.455810546875,-23.284910202026367,-4.760741710662842,-2.349853277206421,100.0,3964.0,1.0
560084.2915747,306593.0,293494.25,543511.8125,589740.4375,311243.21875,294881.65625,288076.09375,294090.78125,-0.06689453125,0.886962890625,-0.45556640625,-22.338865280151367,-4.119872570037842,-2.197265386581421,100.0,3965.0,1.0
560084.2991257,306682.3125,295056.4375,544571.5,590380.3125,313682.59375,296416.34375,289067.34375,294680.40625,-0.068359375,0.885986328125,-0.45068359375,-21.362302780151367,-3.601073980331421,-2.136230230331421,100.0,3966.0,1.0
560084.2991663,306970.75,297613.84375,546586.5625,591285.375,322084.1875,299008.0625,291595.78125,295596.03125,-0.06494140625,0.886962890625,-0.451416015625,-20.446775436401367,-2.899169683456421,-2.014159917831421,100.0,3967.0,1.0
560084.301673,307060.3125,297578.4375,546722.8125,591152.0625,324844.1875,299019.0625,292120.25,295539.34375,-0.065185546875,0.88720703125,-0.447509765625,-19.775388717651367,-2.136230230331421,-1.8920897245407104,100.0,3968.0,1.0
560084.3017103,306820.25,295008.8125,544797.75,590156.6875,318287.875,296448.15625,289931.46875,294584.21875,-0.06591796875,0.888671875,-0.44677734375,-19.042966842651367,-1.4648436307907104,-1.8005369901657104,100.0,3969.0,1.0
560084.3039886,306544.1875,293434.25,543431.625,589636.1875,311695.375,294861.1875,288071.625,294044.0,-0.06298828125,0.888427734375,-0.447265625,-18.310544967651367,-0.8544921278953552,-1.7089842557907104,100.0,3970.0,1.0
560084.3064534,306619.71875,294946.5625,544447.6875,590264.4375,314002.875,296363.75,289037.21875,294629.34375,-0.060791015625,0.88427734375,-0.444580078125,-17.822263717651367,-0.2746581733226776,-1.6784666776657104,100.0,3971.0,1.0
560084.3090454,306900.65625,297503.0625,546455.8125,591169.8125,322361.625,298958.875,291574.3125,295551.59375,-0.057861328125,0.87890625,-0.445068359375,-17.425535202026367,0.3662109076976776,-1.3732908964157104,100.0,3972.0,1.0
560084.3090847,307024.90625,297551.8125,546658.4375,591075.0,325254.90625,299036.59375,292165.5625,295527.0,-0.05615234375,0.87548828125,-0.44482421875,-16.815183639526367,0.9460448622703552,-1.0375975370407104,100.0,3973.0,1.0
560084.3190114,306826.53125,295114.75,544837.3125,590124.4375,318977.65625,296564.21875,290084.625,294616.9375,-0.053955078125,0.875732421875,-0.44384765625,-16.296384811401367,1.6174315214157104,-0.6103515028953552,100.0,3974.0,1.0
560084.3207133,306554.46875,293616.5625,543527.6875,589610.8125,312659.0625,295036.25,288300.59375,294086.375,-0.053955078125,0.871826171875,-0.44580078125,-15.686034202575684,2.166747808456421,-0.1220703050494194,100.0,3975.0,1.0
560084.3286392,306607.75,295125.21875,544533.9375,590220.375,315121.71875,296547.125,289291.5,294654.9375,-0.05615234375,0.864013671875,-0.44970703125,-14.923094749450684,2.777099370956421,0.2136230319738388,100.0,3976.0,1.0
560084.3286796,306887.5,297672.84375,546531.375,591128.6875,323564.84375,299152.28125,291853.625,295578.78125,-0.059326171875,0.85595703125,-0.451904296875,-13.885497093200684,3.387450933456421,0.5798339247703552,100.0,3977.0,1.0
560084.3941925,307017.84375,297754.5625,546757.3125,591037.5625,326604.40625,299249.90625,292476.6875,295555.25,-0.06103515625,0.847412109375,-0.450439453125,-12.603758811950684,3.936767339706421,0.7629393935203552,100.0,3978.0,1.0
560084.4015412,306833.6875,295382.34375,544994.9375,590101.125,320592.6875,296827.96875,290448.15625,294653.0625,-0.061279296875,0.83642578125,-0.452392578125,-11.199950218200684,4.608153820037842,0.8544921278953552,100.0,3979.0,1.0
560084.4015829,306542.03125,293877.0,543679.5,589571.375,314443.28125,295303.125,288677.09375,294111.875,-0.06298828125,0.826416015625,-0.452880859375,-9.674071311950684,5.187987804412842,0.8850097060203552,100.0,3980.0,1.0
560084.4041283,306588.15625,295311.625,544629.1875,590174.5,316856.75,296771.09375,289650.0,294680.59375,-0.064697265625,0.815673828125,-0.45263671875,-8.056639671325684,5.706786632537842,1.0375975370407104,100.0,3981.0,1.0
560084.4067168,306851.28125,297743.03125,546541.1875,591059.1875,325094.875,299290.59375,292152.78125,295580.375,-0.067138671875,0.809326171875,-0.452880859375,-6.439208507537842,6.225585460662842,1.1291502714157104,100.0,3982.0,1.0
560084.4089871,306975.03125,297770.3125,546736.375,590955.5625,328019.65625,299344.5,292737.59375,295532.625,-0.069091796875,0.8056640625,-0.454345703125,-4.882812023162842,6.744384288787842,1.1901854276657104,100.0,3983.0,1.0
560084.4191199,306810.59375,295424.90625,545004.375,590032.5,322044.5625,296934.96875,290721.375,294640.09375,-0.07080078125,0.802001953125,-0.455810546875,-3.326415777206421,7.202147960662842,1.2207030057907104,100.0,3984.0,1.0
560084.4191604,306534.34375,293925.1875,543694.9375,589515.875,315885.5,295416.84375,288961.65625,294116.25,-0.074462890625,0.7958984375,-0.45751953125,-1.6784666776657104,7.415771007537842,1.2512205839157104,100.0,3985.0,1.0
560084.4304944,306543.0,295251.90625,544548.9375,590085.75,318044.59375,296800.25,289853.9375,294658.59375,-0.078369140625,0.791748046875,-0.46142578125,-0.0915527269244194,7.720946788787842,1.3427733182907104,100.0,3986.0,1.0
560084.4305311,306770.65625,297551.25,546352.5625,590935.25,325912.40625,299215.3125,292245.40625,295522.34375,-0.077880859375,0.786865234375,-0.46044921875,1.6174315214157104,7.904052257537842,1.4038084745407104,100.0,3987.0,1.0
560084.4305411,306930.40625,297580.5,546558.3125,590863.8125,328661.84375,299266.4375,292809.46875,295504.75,-0.078369140625,0.7822265625,-0.4619140625,3.356933355331421,8.056639671325684,1.5258787870407104,100.0,3988.0,1.0
560084.4329951,306779.5,295293.90625,544870.1875,589954.5625,322703.40625,296887.875,290800.9375,294627.375,-0.079833984375,0.78076171875,-0.466064453125,4.913329601287842,8.148192405700684,1.5563963651657104,100.0,3989.0,1.0
560084.4330663,306506.09375,293813.59375,543569.5,589436.25,316516.09375,295377.25,289024.96875,294110.625,-0.080078125,0.778564453125,-0.4697265625,6.713866710662842,8.026122093200684,1.6174315214157104,100.0,3990.0,1.0
560084.4453596,306480.53125,295037.40625,544334.9375,589966.75,318382.375,296671.6875,289818.375,294621.03125,-0.080322265625,0.77734375,-0.4716796875,8.331297874450684,7.995604991912842,1.7089842557907104,100.0,3991.0,1.0
560084.4477829,306695.375,297237.0,546059.3125,590797.6875,325860.1875,299000.90625,292108.15625,295473.4375,-0.07763671875,0.778076171875,-0.4736328125,10.040282249450684,7.781981945037842,1.7089842557907104,100.0,3992.0,1.0
560084.4528468,306859.6875,297264.0,546258.125,590725.0,328396.9375,299036.03125,292640.125,295448.9375,-0.07470703125,0.77783203125,-0.477294921875,11.840819358825684,7.568358898162842,1.8310545682907104,100.0,3993.0,1.0
560084.4553195,306725.5,295050.375,544622.375,589833.75,322449.78125,296696.71875,290657.71875,294575.625,-0.072509765625,0.77685546875,-0.48095703125,13.702391624450684,7.293700695037842,1.9836424589157104,100.0,3994.0,1.0
560084.4577317,306440.90625,293600.71875,543334.1875,589304.8125,316259.9375,295184.3125,288879.875,294032.375,-0.067626953125,0.777099609375,-0.485107421875,15.167235374450684,6.988524913787842,2.197265386581421,100.0,3995.0,1.0
560084.4602962,306402.71875,294806.03125,544076.1875,589812.6875,318010.25,296451.75,289648.5,294515.0,-0.06640625,0.779541015625,-0.482177734375,16.693113327026367,6.835937023162842,2.380370855331421,100.0,3996.0,1.0
560084.4628374,306590.3125,296936.78125,545743.4375,590615.4375,325271.4375,298723.375,291887.6875,295330.5625,-0.06494140625,0.77978515625,-0.485595703125,18.035886764526367,6.561278820037842,2.624511480331421,100.0,3997.0,1.0
560084.4652093,306749.1875,296963.40625,545941.125,590545.0,327724.78125,298751.71875,292408.5,295300.0,-0.060791015625,0.780517578125,-0.490478515625,19.317625045776367,6.378173351287842,2.899169683456421,100.0,3998.0,1.0
560084.4678583,306642.0625,294829.8125,544372.1875,589685.5625,321895.34375,296476.3125,290479.625,294452.59375,-0.05712890625,0.782958984375,-0.49072265625,20.355222702026367,6.225585460662842,3.143310308456421,100.0,3999.0,1.0
560084.4727802,306369.65625,293440.6875,543135.6875,589170.375,315849.5625,295017.375,288748.0,293929.75,-0.052978515625,0.7880859375,-0.494140625,21.392820358276367,6.164550304412842,3.479003667831421,100.0,4000.0,1.0
560084.4752023,306331.9375,294667.1875,543900.3125,589676.3125,317680.625,296298.84375,289528.5,294417.625,-0.048095703125,0.791748046875,-0.500244140625,22.094724655151367,6.195067882537842,3.875732183456421,100.0,4001.0,1.0
560084.4778672,306540.78125,296846.375,545609.875,590490.5625,325036.9375,298593.9375,291784.5,295242.6875,-0.044921875,0.79541015625,-0.498779296875,22.674558639526367,6.256103038787842,4.150390148162842,100.0,4002.0,1.0
560084.4802822,306704.65625,296907.4375,545833.0,590425.1875,327591.90625,298649.4375,292328.65625,295220.875,-0.0419921875,0.798583984375,-0.50390625,23.193357467651367,6.530761241912842,4.486083507537842,100.0,4003.0,1.0
560084.4828749,306588.875,294781.53125,544261.4375,589570.375,321829.0,296393.90625,290420.15625,294386.09375,-0.039306640625,0.80322265625,-0.507080078125,23.742673873901367,6.896972179412842,4.791259288787842,100.0,4004.0,1.0
560084.4829226,306314.59375,293396.25,543022.625,589057.4375,315825.78125,294944.34375,288696.125,293864.9375,-0.03662109375,0.806396484375,-0.510009765625,24.230955123901367,7.171630382537842,5.126952648162842,100.0,4005.0,1.0
560084.4850473,306279.96875,294616.40625,543785.125,589558.9375,317656.46875,296216.34375,289462.625,294345.9375,-0.034912109375,0.81103515625,-0.5146484375,24.688718795776367,7.659911632537842,5.554198741912842,100.0,4006.0,1.0
560084.4850846,306492.3125,296776.90625,545483.25,590369.3125,324952.28125,298491.65625,291692.59375,295169.375,-0.0341796875,0.818115234375,-0.520263671875,25.207517623901367,8.148192405700684,5.950927257537842,100.0,4007.0,1.0
560084.4915722,306652.4375,296810.71875,545683.0,590304.25,327409.09375,298527.15625,292208.3125,295149.625,-0.035888671875,0.82470703125,-0.52587890625,25.665281295776367,8.758543968200684,6.225585460662842,100.0,4008.0,1.0
560084.4941209,306511.28125,294633.8125,544063.8125,589430.8125,321517.34375,296237.4375,290266.03125,294299.8125,-0.03564453125,0.833740234375,-0.529052734375,26.153562545776367,9.277342796325684,6.439208507537842,100.0,4009.0,1.0
560084.4989883,306229.1875,293205.71875,542790.9375,588911.375,315382.875,294758.625,288519.28125,293776.6875,-0.037353515625,0.84228515625,-0.53173828125,26.458738327026367,9.765624046325684,6.622313976287842,100.0,4010.0,1.0
560084.5014399,306202.46875,294394.40625,543535.1875,589414.8125,317071.3125,296004.875,289261.90625,294258.6875,-0.0380859375,0.849609375,-0.536865234375,26.733396530151367,10.253905296325684,6.866454601287842,100.0,4011.0,1.0
560084.5041007,306404.0625,296502.96875,545197.8125,590214.3125,324175.21875,298235.84375,291452.0,295072.375,-0.0380859375,0.8564453125,-0.5380859375,26.794431686401367,10.711668968200684,7.049560070037842,100.0,4012.0,1.0
560084.5065122,306553.03125,296491.0625,545362.375,590152.5,326445.375,298238.71875,291946.0625,295051.1875,-0.03857421875,0.864990234375,-0.54150390625,26.794431686401367,11.138915061950684,7.263183116912842,100.0,4013.0,1.0
560084.509138,306426.0625,294344.5,543762.4375,589304.8125,320526.34375,295976.625,290037.59375,294221.21875,-0.03857421875,0.873291015625,-0.53955078125,26.397703170776367,11.535643577575684,7.385253429412842,100.0,4014.0,1.0
560084.5115829,306163.125,292976.65625,542534.375,588803.625,314463.9375,294539.59375,288332.59375,293713.375,-0.04052734375,0.880615234375,-0.5400390625,26.000974655151367,11.840819358825684,7.507323741912842,100.0,4015.0,1.0
560084.5139473,306158.375,294224.78125,543329.6875,589325.5625,316242.25,295824.8125,289109.71875,294218.875,-0.0419921875,0.886474609375,-0.54248046875,25.421140670776367,12.023924827575684,7.598876476287842,100.0,4016.0,1.0
560084.5166323,306387.4375,296393.34375,545045.375,590149.125,323447.5625,298098.4375,291330.3125,295057.96875,-0.043212890625,0.8896484375,-0.544189453125,24.566648483276367,12.145995140075684,7.751464366912842,100.0,4017.0,1.0
560084.5166797,306552.125,296433.125,545246.25,590100.5,325836.78125,298147.78125,291866.21875,295052.96875,-0.04345703125,0.892822265625,-0.548095703125,23.620603561401367,12.115477561950684,7.781981945037842,100.0,4018.0,1.0
560084.5191829,306438.5,294339.5,543679.9375,589269.0,320047.9375,295934.6875,290012.65625,294244.5625,-0.04248046875,0.896240234375,-0.553466796875,22.521970748901367,12.084959983825684,7.690429210662842,100.0,4019.0,1.0
560084.5192185,306192.8125,293027.28125,542495.0,588786.125,314124.0,294548.0,288364.25,293758.25,-0.041015625,0.900634765625,-0.55517578125,21.514890670776367,11.993407249450684,7.446288585662842,100.0,4020.0,1.0
560084.5215528,306189.21875,294289.59375,543302.375,589296.8125,315969.375,295837.15625,289163.09375,294238.03125,-0.041015625,0.907470703125,-0.556396484375,20.416257858276367,11.871336936950684,7.232665538787842,100.0,4021.0,1.0
560084.5215897,306430.71875,296477.03125,545034.625,590121.5625,323216.78125,298118.8125,291405.96875,295068.0,-0.03955078125,0.9111328125,-0.556640625,19.104001998901367,11.718749046325684,7.110595226287842,100.0,4022.0,1.0
560084.5242103,306578.59375,296498.6875,545217.1875,590061.125,325607.8125,298155.84375,291937.125,295050.1875,-0.03759765625,0.911865234375,-0.5576171875,17.974851608276367,11.566161155700684,6.988524913787842,100.0,4023.0,1.0
560084.5280374,306426.875,294343.0625,543596.0625,589203.8125,319773.71875,295906.625,290057.09375,294207.625,-0.034912109375,0.91455078125,-0.561279296875,16.723630905151367,11.596678733825684,6.866454601287842,100.0,4024.0,1.0
560084.5280746,306166.96875,293001.15625,542383.8125,588710.5625,313831.28125,294505.15625,288396.78125,293714.53125,-0.03369140625,0.9150390625,-0.5654296875,15.563963890075684,11.535643577575684,6.744384288787842,100.0,4025.0,1.0
560084.5280831,306173.40625,294256.53125,543193.8125,589232.0,315666.46875,295798.25,289180.0,294215.84375,-0.03466796875,0.916015625,-0.563232421875,14.556883811950684,11.596678733825684,6.469726085662842,100.0,4026.0,1.0
560084.5280924,306402.375,296407.3125,544899.875,590047.875,322846.46875,298054.34375,291383.875,295044.28125,-0.034912109375,0.915283203125,-0.567138671875,13.366698265075684,11.688231468200684,6.195067882537842,100.0,4027.0,1.0
560084.5303864,306553.125,296428.03125,545079.0625,589986.9375,325199.5625,298089.9375,291907.4375,295031.96875,-0.038330078125,0.913818359375,-0.5712890625,12.237547874450684,11.810301780700684,5.828856945037842,100.0,4028.0,1.0
560084.5329239,306423.75,294328.59375,543498.6875,589146.6875,319425.9375,295880.15625,290054.21875,294218.8125,-0.038330078125,0.9111328125,-0.569580078125,11.260985374450684,11.993407249450684,5.340575695037842,100.0,4029.0,1.0
560084.5329607,306193.96875,293038.0,542333.0,588678.875,313567.625,294522.78125,288427.28125,293751.375,-0.0390625,0.90673828125,-0.569091796875,10.223387718200684,12.115477561950684,4.821776866912842,100.0,4030.0,1.0
560084.5354396,306224.71875,294325.8125,543175.0625,589221.4375,315466.09375,295844.5,289236.9375,294278.78125,-0.041259765625,0.90380859375,-0.567626953125,9.368895530700684,12.237547874450684,4.302978038787842,100.0,4031.0,1.0
560084.5354767,306441.4375,296451.90625,544865.9375,590024.3125,322642.0,298085.1875,291426.78125,295098.28125,-0.040771484375,0.90380859375,-0.56689453125,8.392333030700684,12.390135765075684,3.723144292831421,100.0,4032.0,1.0
560084.5452405,306584.21875,296457.09375,545038.0,589966.8125,325004.75,298114.96875,291945.4375,295081.84375,-0.042724609375,0.906982421875,-0.56591796875,7.354735851287842,12.573241233825684,3.112792730331421,100.0,4033.0,1.0
560084.5478693,306465.9375,294372.9375,543478.5625,589149.4375,319297.375,295930.9375,290121.0,294285.84375,-0.04150390625,0.906494140625,-0.56103515625,6.195067882537842,12.664793968200684,2.563476324081421,100.0,4034.0,1.0
560084.5479105,306237.59375,293091.03125,542322.4375,588686.25,313506.5625,294586.09375,288509.4375,293825.0625,-0.037841796875,0.905517578125,-0.562255859375,4.943847179412842,12.817381858825684,2.075195074081421,100.0,4035.0,1.0
560084.5503839,306232.25,294345.75,543132.5625,589190.75,315404.5,295875.96875,289284.4375,294314.46875,-0.0380859375,0.903076171875,-0.561279296875,3.723144292831421,12.725829124450684,1.5869139432907104,100.0,4036.0,1.0
560084.552696,306439.40625,296466.40625,544816.125,589981.8125,322591.9375,298110.78125,291467.03125,295117.34375,-0.0361328125,0.9033203125,-0.560302734375,2.349853277206421,12.939452171325684,1.0681151151657104,100.0,4037.0,1.0
560084.555398,306589.59375,296484.8125,544995.75,589928.5625,324993.5625,298150.8125,292001.40625,295109.5625,-0.036865234375,0.90283203125,-0.55908203125,1.0070799589157104,12.969969749450684,0.6103515028953552,100.0,4038.0,1.0
560084.5576923,306462.46875,294392.0625,543426.0,589100.875,319298.875,295959.28125,290173.84375,294305.0,-0.037109375,0.9013671875,-0.555419921875,-0.3662109076976776,12.908934593200684,0.3356933295726776,100.0,4039.0,1.0
560084.560306,306220.4375,293099.4375,542258.8125,588624.8125,313503.15625,294603.4375,288553.78125,293830.9375,-0.0341796875,0.8974609375,-0.55712890625,-1.7395018339157104,12.878417015075684,-0.0610351525247097,100.0,4040.0,1.0
560084.5628643,306212.75,294353.53125,543063.9375,589127.9375,315394.3125,295889.53125,289325.03125,294319.46875,-0.033447265625,0.892333984375,-0.55615234375,-3.173827886581421,12.878417015075684,-0.3967284858226776,100.0,4041.0,1.0
560084.5629052,306419.71875,296470.4375,544743.0,589918.6875,322573.5,298122.5,291502.625,295122.0,-0.031005859375,0.8837890625,-0.552001953125,-4.333495616912842,12.786864280700684,-0.7019042372703552,100.0,4042.0,1.0
560084.5678677,306561.78125,296465.59375,544907.9375,589857.9375,324947.4375,298150.03125,292025.90625,295100.8125,-0.029052734375,0.87548828125,-0.55419921875,-5.432128429412842,12.573241233825684,-0.8850097060203552,100.0,4043.0,1.0
560084.5716226,306443.5,294366.78125,543340.375,589037.6875,319248.1875,295963.3125,290211.5,294305.25,-0.025146484375,0.8681640625,-0.557373046875,-6.408690929412842,12.390135765075684,-1.0375975370407104,100.0,4044.0,1.0
560084.6004396,306209.0,293066.53125,542174.9375,588564.8125,313448.09375,294602.875,288593.21875,293831.3125,-0.021728515625,0.861328125,-0.5595703125,-7.141112804412842,12.298583030700684,-1.0986326932907104,100.0,4045.0,1.0
560084.6004801,306217.40625,294324.9375,542992.0,589076.6875,315338.34375,295896.25,289372.65625,294324.5625,-0.020263671875,0.859130859375,-0.559326171875,-7.720946788787842,12.329100608825684,-1.1596678495407104,100.0,4046.0,1.0
560084.6028919,306439.65625,296459.96875,544686.375,589875.4375,322530.40625,298143.40625,291561.34375,295140.3125,-0.017822265625,0.8642578125,-0.5595703125,-8.148192405700684,12.298583030700684,-1.1596678495407104,100.0,4047.0,1.0
560084.6029233,306592.46875,296486.59375,544878.1875,589823.5,324956.65625,298196.25,292104.9375,295134.59375,-0.015625,0.868408203125,-0.556396484375,-8.514403343200684,12.359618186950684,-1.0375975370407104,100.0,4048.0,1.0
560084.6105473,306481.5,294420.9375,543339.1875,589012.5625,319328.75,296031.25,290310.0,294347.1875,-0.01708984375,0.86669921875,-0.549072265625,-8.880614280700684,12.451170921325684,-0.8544921278953552,100.0,4049.0,1.0
560084.6105838,306251.8125,293144.65625,542189.6875,588540.9375,313568.4375,294684.4375,288701.65625,293872.15625,-0.0185546875,0.865234375,-0.54833984375,-9.002684593200684,12.847899436950684,-0.5493163466453552,100.0,4050.0,1.0
560084.6105932,306268.09375,294418.34375,543013.8125,589057.8125,315484.59375,295991.28125,289491.84375,294371.0625,-0.023193359375,0.86083984375,-0.547607421875,-9.155272483825684,13.275145530700684,-0.3967284858226776,100.0,4051.0,1.0
560084.6106022,306487.9375,296551.875,544702.125,589853.875,322680.625,298238.96875,291680.53125,295177.96875,-0.027099609375,0.8515625,-0.55078125,-9.155272483825684,13.488768577575684,-0.2441406100988388,100.0,4052.0,1.0
560084.6128056,306645.21875,296585.21875,544901.6875,589812.3125,325124.09375,298294.40625,292237.8125,295172.15625,-0.030517578125,0.84521484375,-0.54833984375,-9.124754905700684,13.641356468200684,-0.0610351525247097,100.0,4053.0,1.0
560084.6128366,306551.875,294535.03125,543384.625,589022.0625,319530.375,296141.125,290470.40625,294400.5625,-0.034912109375,0.837646484375,-0.548095703125,-9.277342796325684,13.671874046325684,0.0,100.0,4054.0,1.0
560084.6178527,306337.46875,293263.75,542251.375,588570.5625,313789.1875,294804.25,288885.21875,293941.1875,-0.039306640625,0.83154296875,-0.548583984375,-9.429930686950684,13.580321311950684,0.0915527269244194,100.0,4055.0,1.0
560084.6204476,306354.46875,294534.6875,543076.0,589094.8125,315691.5,296107.0625,289679.6875,294449.03125,-0.047119140625,0.828369140625,-0.548583984375,-9.674071311950684,13.153075218200684,0.03051757626235485,100.0,4056.0,1.0
560084.6278826,306581.5625,296673.28125,544769.875,589906.625,322881.78125,298357.0,291875.25,295274.4375,-0.051513671875,0.829345703125,-0.549560546875,-9.918211936950684,12.786864280700684,0.03051757626235485,100.0,4057.0,1.0
560084.6279293,306756.78125,296729.0625,544990.375,589881.4375,325353.625,298432.09375,292447.90625,295296.34375,-0.05810546875,0.8330078125,-0.548095703125,-9.948729515075684,12.420653343200684,-0.1525878757238388,100.0,4058.0,1.0
560084.6353837,306685.53125,294704.53125,543501.8125,589110.5625,319809.03125,296301.4375,290694.5625,294547.09375,-0.0634765625,0.8369140625,-0.546875,-9.979247093200684,11.840819358825684,-0.3967284858226776,100.0,4059.0,1.0
560084.6378346,306479.4375,293449.90625,542380.6875,588669.8125,314108.53125,294983.0625,289116.4375,294107.75,-0.070556640625,0.84326171875,-0.5380859375,-9.826659202575684,11.322020530700684,-0.5798339247703552,100.0,4060.0,1.0
560084.650328,306466.84375,294684.15625,543166.4375,589169.1875,315985.65625,296257.71875,289876.21875,294592.78125,-0.07666015625,0.85107421875,-0.536376953125,-9.552000999450684,10.894774436950684,-0.8239745497703552,100.0,4061.0,1.0
560084.6528369,306680.0625,296793.0,544829.25,589965.8125,323139.53125,298489.0625,292052.03125,295414.4375,-0.080810546875,0.856201171875,-0.531982421875,-9.307860374450684,10.437010765075684,-1.1291502714157104,100.0,4062.0,1.0
560084.6601972,306849.9375,296831.09375,545032.9375,589932.75,325592.96875,298551.0,292605.53125,295421.3125,-0.08544921875,0.86083984375,-0.52978515625,-8.972167015075684,9.887694358825684,-1.2512205839157104,100.0,4063.0,1.0
560084.662738,306752.125,294789.40625,543523.5625,589139.8125,320044.1875,296396.40625,290823.3125,294643.21875,-0.0869140625,0.864013671875,-0.52880859375,-8.850096702575684,9.216307640075684,-1.5258787870407104,100.0,4064.0,1.0
560084.6651917,306519.21875,293517.75,542381.125,588670.875,314323.03125,295055.5625,289225.40625,294172.03125,-0.088134765625,0.861572265625,-0.5283203125,-8.636473655700684,8.544920921325684,-1.8615721464157104,100.0,4065.0,1.0
560084.6678828,306483.03125,294730.21875,543139.1875,589146.25,316155.0625,296307.34375,289960.96875,294632.75,-0.08837890625,0.857177734375,-0.529052734375,-8.422850608825684,7.781981945037842,-2.105712652206421,100.0,4066.0,1.0
560084.6702018,306673.375,296823.125,544779.75,589920.3125,323277.9375,298517.21875,292106.28125,295416.5,-0.088134765625,0.855224609375,-0.5302734375,-8.605956077575684,6.896972179412842,-2.532958745956421,100.0,4067.0,1.0
560084.6778517,306846.375,296874.09375,544997.5,589883.5625,325758.4375,298586.78125,292673.75,295419.1875,-0.085693359375,0.850341796875,-0.527587890625,-8.911131858825684,5.798339366912842,-2.746581792831421,100.0,4068.0,1.0
560084.6878696,306744.71875,294821.65625,543490.75,589078.5625,320212.71875,296423.40625,290898.03125,294618.0,-0.0830078125,0.844482421875,-0.523681640625,-9.368895530700684,4.821776866912842,-2.929687261581421,100.0,4069.0,1.0
560084.6879119,306489.46875,293510.59375,542324.0,588584.5,314463.3125,295049.21875,289271.8125,294115.71875,-0.081787109375,0.836181640625,-0.519287109375,-9.704588890075684,3.814697027206421,-3.173827886581421,100.0,4070.0,1.0
560084.6899589,306445.375,294702.21875,543071.125,589047.875,316286.0625,296290.28125,289989.21875,294574.46875,-0.078857421875,0.828857421875,-0.523681640625,-9.857176780700684,2.960204839706421,-3.509521245956421,100.0,4071.0,1.0
560084.6899947,306634.03125,296784.875,544707.1875,589817.9375,323414.03125,298500.5,292123.53125,295364.8125,-0.076416015625,0.825927734375,-0.52734375,-9.948729515075684,2.105712652206421,-3.662109136581421,100.0,4072.0,1.0
560084.7326951,306782.4375,296810.71875,544902.0,589761.5625,325879.5,298549.03125,292650.5,295348.625,-0.07421875,0.826171875,-0.531982421875,-9.674071311950684,1.4038084745407104,-3.723144292831421,100.0,4073.0,1.0
560084.7351795,306676.9375,294759.875,543394.1875,588946.6875,320335.5625,296379.59375,290848.78125,294541.125,-0.07373046875,0.822998046875,-0.537841796875,-9.399413108825684,0.8544921278953552,-3.875732183456421,100.0,4074.0,1.0
560084.7377996,306423.75,293448.75,542226.0625,588449.125,314565.15625,294995.75,289193.3125,294036.84375,-0.0732421875,0.82275390625,-0.541259765625,-8.880614280700684,0.4577636420726776,-3.814697027206421,100.0,4075.0,1.0
560084.7393926,306361.96875,294624.71875,542946.1875,588897.125,316326.28125,296217.5,289877.28125,294473.53125,-0.072265625,0.82275390625,-0.54150390625,-8.178709983825684,0.2746581733226776,-3.692626714706421,100.0,4076.0,1.0
560084.7490395,306541.40625,296701.0,544564.3125,589659.0625,323399.0,298414.5,291996.40625,295251.4375,-0.0732421875,0.821044921875,-0.54345703125,-7.354735851287842,0.2136230319738388,-3.692626714706421,100.0,4077.0,1.0
560084.7490528,306694.46875,296738.28125,544764.6875,589604.6875,325841.59375,298457.6875,292523.1875,295233.75,-0.07373046875,0.82177734375,-0.54248046875,-6.347655773162842,0.2136230319738388,-3.417968511581421,100.0,4078.0,1.0
560084.7513502,306591.375,294700.0,543266.125,588796.1875,320288.09375,296290.09375,290717.8125,294433.28125,-0.074462890625,0.8212890625,-0.546875,-5.218505382537842,0.4272460639476776,-3.295898199081421,100.0,4079.0,1.0
560084.7540157,306348.1875,293417.1875,542119.5,588317.25,314536.71875,294922.25,289071.375,293946.71875,-0.075439453125,0.82421875,-0.546630859375,-4.058837413787842,0.6713866591453552,-3.234863042831421,100.0,4080.0,1.0
560084.7565097,306307.6875,294641.0625,542877.875,588788.3125,316354.34375,296173.15625,289772.6875,294405.9375,-0.076904296875,0.828125,-0.54296875,-2.899169683456421,0.9155272841453552,-3.143310308456421,100.0,4081.0,1.0
560084.7590123,306499.28125,296734.53125,544514.875,589567.875,323468.84375,298387.3125,291897.625,295197.34375,-0.078369140625,0.833984375,-0.542724609375,-1.9531248807907104,1.1291502714157104,-3.051757574081421,100.0,4082.0,1.0
560084.7615532,306660.75,296748.03125,544710.25,589530.625,325911.59375,298437.75,292432.0,295188.15625,-0.081298828125,0.84326171875,-0.54150390625,-1.0375975370407104,1.3122557401657104,-3.082275152206421,100.0,4083.0,1.0
560084.7638551,306576.4375,294696.3125,543219.5,588744.4375,320370.15625,296284.28125,290648.40625,294404.21875,-0.084228515625,0.8505859375,-0.538818359375,-0.3356933295726776,1.3427733182907104,-2.899169683456421,100.0,4084.0,1.0
560084.7665244,306349.0,293402.0625,542074.25,588283.75,314620.9375,294926.625,289028.46875,293941.46875,-0.089599609375,0.857666015625,-0.535888671875,0.03051757626235485,1.3122557401657104,-2.960204839706421,100.0,4085.0,1.0
560084.7715232,306326.125,294605.21875,542831.875,588775.3125,316415.15625,296178.34375,289770.09375,294430.4375,-0.091552734375,0.86669921875,-0.529541015625,0.0915527269244194,1.1291502714157104,-3.082275152206421,100.0,4086.0,1.0
560084.7740772,306532.1875,296693.59375,544477.4375,589568.6875,323509.40625,298393.21875,291930.4375,295236.34375,-0.094970703125,0.87158203125,-0.526123046875,0.0,0.9460448622703552,-3.021239995956421,100.0,4087.0,1.0
560084.7740999,306720.65625,296752.78125,544712.75,589557.6875,325995.03125,298466.53125,292497.0,295254.125,-0.0947265625,0.877197265625,-0.525390625,-0.2136230319738388,0.6713866591453552,-3.173827886581421,100.0,4088.0,1.0
560084.7814523,306644.125,294741.1875,543246.125,588777.9375,320506.40625,296332.1875,290732.375,294484.59375,-0.09814453125,0.881591796875,-0.518310546875,-0.7629393935203552,0.2136230319738388,-3.082275152206421,100.0,4089.0,1.0
560084.7814777,306412.5625,293467.59375,542109.6875,588307.25,314780.09375,294981.25,289121.09375,294017.0,-0.099853515625,0.8857421875,-0.51611328125,-1.3427733182907104,-0.2136230319738388,-3.204345464706421,100.0,4090.0,1.0
560084.7839612,306388.59375,294683.71875,542870.0,588796.75,316587.09375,296242.0625,289857.53125,294495.875,-0.0986328125,0.88671875,-0.515869140625,-1.8310545682907104,-0.6408690810203552,-3.143310308456421,100.0,4091.0,1.0
560084.7891112,306597.46875,296789.4375,544521.125,589588.6875,323704.0625,298466.6875,292009.8125,295300.25,-0.099853515625,0.887451171875,-0.515625,-2.288818120956421,-1.1901854276657104,-3.143310308456421,100.0,4092.0,1.0
560084.7891492,306782.53125,296868.375,544763.875,589565.8125,326221.75,298545.375,292573.8125,295311.875,-0.097412109375,0.890625,-0.51220703125,-2.777099370956421,-1.5869139432907104,-3.051757574081421,100.0,4093.0,1.0
560084.793112,306701.8125,294875.03125,543305.125,588778.625,320764.71875,296416.5,290811.78125,294533.5,-0.09765625,0.893310546875,-0.51220703125,-3.143310308456421,-1.9531248807907104,-2.960204839706421,100.0,4094.0,1.0
560084.793152,306473.625,293618.0625,542176.8125,588312.1875,315077.625,295077.375,289204.75,294061.34375,-0.09765625,0.893310546875,-0.50634765625,-3.570556402206421,-2.380370855331421,-2.899169683456421,100.0,4095.0,1.0
560084.7931623,306444.9375,294837.0625,542935.8125,588795.75,316916.71875,296335.78125,289936.46875,294532.625,-0.099365234375,0.890625,-0.504150390625,-3.906249761581421,-2.624511480331421,-2.746581792831421,100.0,4096.0,1.0
560084.7953268,306633.75,296930.78125,544575.625,589580.125,324066.34375,298557.90625,292094.03125,295329.6875,-0.097900390625,0.887451171875,-0.503662109375,-4.150390148162842,-2.929687261581421,-2.593993902206421,100.0,4097.0,1.0
560084.8003176,306811.59375,296983.875,544802.0625,589563.3125,326585.8125,298631.21875,292662.21875,295337.71875,-0.098876953125,0.882568359375,-0.50439453125,-4.394530773162842,-3.295898199081421,-2.563476324081421,100.0,4098.0,1.0
560084.8090762,306733.625,294960.15625,543327.5,588780.1875,321112.5,296491.96875,290900.375,294559.34375,-0.099609375,0.877197265625,-0.50634765625,-4.669188976287842,-3.570556402206421,-2.502441167831421,100.0,4099.0,1.0
560084.8116585,306490.71875,293653.9375,542164.375,588295.375,315375.53125,295123.15625,289282.0,294068.875,-0.100830078125,0.8701171875,-0.507080078125,-5.065917491912842,-3.875732183456421,-2.441406011581421,100.0,4100.0,1.0
560084.8116971,306434.125,294808.71875,542878.375,588766.1875,317143.90625,296351.59375,290007.8125,294528.15625,-0.095947265625,0.8515625,-0.50830078125,-5.584716320037842,-4.394530773162842,-2.288818120956421,100.0,4101.0,1.0
560084.8141316,306614.375,296846.125,544484.4375,589552.5625,324208.65625,298547.53125,292162.34375,295323.6875,-0.096435546875,0.8232421875,-0.510986328125,-6.378173351287842,-4.913329601287842,-1.6784666776657104,100.0,4102.0,1.0
560084.8190124,306778.5,296845.5625,544678.0,589522.625,326629.90625,298584.375,292701.375,295310.46875,-0.110595703125,0.79248046875,-0.515869140625,-6.835937023162842,-5.157470226287842,-0.8239745497703552,100.0,4103.0,1.0
560084.8214403,306647.25,294767.40625,543155.75,588694.3125,321051.4375,296401.5,290890.53125,294508.46875,-0.124267578125,0.776611328125,-0.524169921875,-6.256103038787842,-5.554198741912842,-1.1291502714157104,100.0,4104.0,1.0
560084.8241062,306368.3125,293395.8125,541938.0,588172.9375,315186.34375,294982.78125,289210.40625,294017.09375,-0.130615234375,0.78662109375,-0.5341796875,-4.913329601287842,-6.103515148162842,-1.9836424589157104,100.0,4105.0,1.0
560084.8267432,306313.78125,294510.1875,542624.5,588637.75,316848.15625,296180.5625,289895.78125,294473.34375,-0.1240234375,0.807373046875,-0.539794921875,-3.143310308456421,-6.591796398162842,-3.295898199081421,100.0,4106.0,1.0
560084.8290291,306497.25,296524.34375,544209.9375,589416.0625,323818.9375,298355.21875,292021.96875,295259.84375,-0.114990234375,0.823486328125,-0.535400390625,-1.4343260526657104,-6.805419445037842,-4.547118663787842,100.0,4107.0,1.0
560084.8290636,306668.71875,296519.6875,544395.375,589380.125,326158.625,298387.84375,292548.125,295256.1875,-0.105224609375,0.8349609375,-0.528076171875,0.2746581733226776,-6.958007335662842,-5.096435070037842,100.0,4108.0,1.0
560084.8314203,306608.71875,294496.75,542919.3125,588596.625,320550.0625,296233.125,290749.375,294477.0,-0.095947265625,0.841064453125,-0.5185546875,1.8005369901657104,-6.927489757537842,-5.218505382537842,100.0,4109.0,1.0
560084.8528795,306383.5,293205.625,541766.375,588134.3125,314716.78125,294863.5,289112.0625,293992.25,-0.09033203125,0.84130859375,-0.511474609375,2.899169683456421,-6.622313976287842,-5.157470226287842,100.0,4110.0,1.0
560084.8529215,306319.0625,294356.40625,542469.625,588619.8125,316363.03125,296075.25,289813.28125,294441.875,-0.091064453125,0.83740234375,-0.506103515625,3.753661870956421,-6.195067882537842,-4.760741710662842,100.0,4111.0,1.0
560084.8555668,306462.625,296396.46875,544054.1875,589347.3125,323306.03125,298247.21875,291926.125,295207.46875,-0.092529296875,0.83544921875,-0.5048828125,4.241942882537842,-5.859374523162842,-4.455565929412842,100.0,4112.0,1.0
560084.8556033,306711.46875,296511.09375,544328.1875,589348.3125,325712.84375,298337.59375,292487.625,295234.71875,-0.094482421875,0.835693359375,-0.508056640625,4.547118663787842,-5.706786632537842,-4.241942882537842,100.0,4113.0,1.0
560084.8602336,306669.0625,294581.15625,542915.125,588607.8125,320195.8125,296232.875,290733.8125,294482.71875,-0.098876953125,0.83984375,-0.512451171875,4.547118663787842,-5.706786632537842,-3.997802495956421,100.0,4114.0,1.0
560084.862808,306361.34375,293285.65625,541741.9375,588081.75,314420.21875,294865.65625,289096.65625,293991.15625,-0.1015625,0.842529296875,-0.51806640625,4.150390148162842,-5.767821788787842,-3.997802495956421,100.0,4115.0,1.0
560084.8703432,306298.84375,294451.6875,542460.875,588538.8125,316142.28125,296097.59375,289809.0625,294456.1875,-0.102294921875,0.847900390625,-0.520751953125,3.692626714706421,-5.981444835662842,-4.028319835662842,100.0,4116.0,1.0
560084.8728602,306484.625,296490.1875,544068.125,589303.5,323137.21875,298280.375,291927.84375,295242.78125,-0.099609375,0.849853515625,-0.515625,3.295898199081421,-6.317138195037842,-4.058837413787842,100.0,4117.0,1.0
560084.8753828,306682.03125,296535.6875,544299.875,589290.375,325551.90625,298338.40625,292457.65625,295244.90625,-0.10107421875,0.853759765625,-0.511474609375,2.899169683456421,-6.469726085662842,-4.058837413787842,100.0,4118.0,1.0
560084.8754238,306656.46875,294571.15625,542876.75,588540.875,320056.6875,296221.15625,290684.09375,294473.96875,-0.0986328125,0.858154296875,-0.50341796875,2.624511480331421,-6.622313976287842,-3.875732183456421,100.0,4119.0,1.0
560084.8778764,306478.65625,293315.96875,541763.8125,588115.1875,314322.21875,294880.78125,289072.0,294012.4375,-0.095458984375,0.856689453125,-0.5029296875,2.685546636581421,-6.591796398162842,-3.784179449081421,100.0,4120.0,1.0
560084.8779147,306337.8125,294419.34375,542426.375,588545.9375,316006.75,296063.625,289747.71875,294435.53125,-0.09521484375,0.856689453125,-0.503173828125,2.838134527206421,-6.408690929412842,-3.540038824081421,100.0,4121.0,1.0
560084.8977381,306468.09375,296415.625,543986.5625,589239.125,322963.15625,298216.1875,291840.9375,295195.5625,-0.096435546875,0.856201171875,-0.507568359375,3.143310308456421,-6.195067882537842,-3.204345464706421,100.0,4122.0,1.0
560084.9018267,306668.4375,296481.96875,544225.9375,589226.25,325361.3125,298282.625,292381.03125,295201.125,-0.0986328125,0.85546875,-0.51318359375,3.387450933456421,-6.103515148162842,-2.990722417831421,100.0,4123.0,1.0
560084.9018744,306635.5625,294517.96875,542800.1875,588494.25,319850.15625,296169.375,290619.28125,294439.46875,-0.099365234375,0.855712890625,-0.517822265625,3.692626714706421,-5.889892101287842,-2.807616949081421,100.0,4124.0,1.0
560084.9018843,306358.03125,293219.6875,541629.8125,588018.375,314056.25,294793.78125,288975.34375,293953.53125,-0.09716796875,0.858154296875,-0.520263671875,3.906249761581421,-5.828856945037842,-2.532958745956421,100.0,4125.0,1.0
560084.905452,306296.53125,294377.59375,542328.375,588439.5625,315732.0,296002.90625,289674.875,294397.25,-0.095947265625,0.85986328125,-0.52001953125,4.058837413787842,-5.798339366912842,-2.288818120956421,100.0,4126.0,1.0
560084.9054878,306487.84375,296415.875,543940.375,589238.3125,322694.5625,298187.84375,291802.84375,295194.3125,-0.0947265625,0.862548828125,-0.51513671875,4.180907726287842,-5.798339366912842,-2.075195074081421,100.0,4127.0,1.0
560084.9054973,306648.25,296439.5625,544148.3125,589194.9375,325053.3125,298231.65625,292322.375,295181.96875,-0.092041015625,0.868896484375,-0.511474609375,4.180907726287842,-5.645751476287842,-1.8310545682907104,100.0,4128.0,1.0
560084.9068236,306582.8125,294492.21875,542700.125,588408.8125,319503.28125,296111.71875,290542.03125,294411.46875,-0.09130859375,0.8720703125,-0.509033203125,4.058837413787842,-5.523681163787842,-1.4343260526657104,100.0,4129.0,1.0
560084.917885,306332.1875,293180.34375,541529.0625,587936.625,313688.40625,294744.5,288908.5625,293927.59375,-0.088623046875,0.8759765625,-0.509765625,3.845214605331421,-5.371093273162842,-1.0986326932907104,100.0,4130.0,1.0
560084.9216483,306222.65625,294253.03125,542191.125,588367.9375,315327.4375,295932.28125,289602.09375,294367.65625,-0.085693359375,0.876708984375,-0.5078125,3.601073980331421,-5.187987804412842,-0.7324218153953552,100.0,4131.0,1.0
560084.9216888,306455.75,296275.59375,543806.875,589220.375,322224.46875,298098.0,291714.34375,295168.46875,-0.0888671875,0.87744140625,-0.50927734375,3.326415777206421,-4.913329601287842,-0.3356933295726776,100.0,4132.0,1.0
560084.9304708,306646.8125,296334.0625,544031.3125,589204.0,324546.8125,298144.03125,292238.0,295161.40625,-0.08984375,0.876953125,-0.5126953125,2.716064214706421,-4.852294445037842,0.0915527269244194,100.0,4133.0,1.0
560084.9305062,306530.59375,294326.8125,542545.375,588335.875,318961.28125,295996.03125,290445.09375,294367.84375,-0.092529296875,0.876220703125,-0.5146484375,2.197265386581421,-4.730224132537842,0.4882812201976776,100.0,4134.0,1.0
560084.932855,306266.375,293024.59375,541374.0,587845.625,313161.1875,294626.84375,288821.46875,293883.4375,-0.09326171875,0.875244140625,-0.513427734375,1.6479490995407104,-4.638671398162842,0.8239745497703552,100.0,4135.0,1.0
560084.952857,306199.59375,294103.09375,542049.0625,588347.3125,314790.625,295830.34375,289537.28125,294350.5,-0.091552734375,0.87158203125,-0.51416015625,1.2207030057907104,-4.608153820037842,1.0681151151657104,100.0,4136.0,1.0
560084.956704,306379.03125,296038.6875,543600.8125,589170.4375,321600.59375,297970.125,291646.75,295151.9375,-0.0908203125,0.870361328125,-0.512939453125,0.7324218153953552,-4.455565929412842,1.1596678495407104,100.0,4137.0,1.0
560084.9567433,306526.84375,296016.59375,543769.3125,589096.625,323808.5,297973.90625,292139.46875,295123.96875,-0.08984375,0.86865234375,-0.515625,0.3356933295726776,-4.486083507537842,1.4648436307907104,100.0,4138.0,1.0
560084.9567541,306433.59375,294079.875,542308.875,588250.625,318196.59375,295844.03125,290348.1875,294330.75,-0.0888671875,0.869384765625,-0.515380859375,0.1525878757238388,-4.455565929412842,1.7700194120407104,100.0,4139.0,1.0
560084.9590628,306284.0,292881.625,541242.875,587874.0,312465.34375,294558.09375,288782.59375,293908.09375,-0.087890625,0.864990234375,-0.515625,0.03051757626235485,-4.364013195037842,1.9226073026657104,100.0,4140.0,1.0
560084.9590952,306246.4375,294058.59375,541991.75,588351.9375,314191.875,295801.46875,289520.28125,294380.4375,-0.08935546875,0.865478515625,-0.518798828125,0.0,-4.302978038787842,2.166747808456421,100.0,4141.0,1.0
560084.9614406,306429.28125,296100.1875,543614.9375,589099.375,321162.21875,297975.6875,291642.1875,295158.375,-0.09033203125,0.86376953125,-0.52294921875,0.0610351525247097,-4.241942882537842,2.319335699081421,100.0,4142.0,1.0
560084.963971,306641.4375,296254.5,543910.25,589100.375,323592.84375,298073.9375,292191.3125,295171.34375,-0.08984375,0.86328125,-0.52197265625,0.1525878757238388,-4.119872570037842,2.441406011581421,100.0,4143.0,1.0
560084.9678395,306502.78125,294377.5,542482.0625,588226.5,318151.96875,295980.46875,290410.6875,294366.0625,-0.087646484375,0.860107421875,-0.518310546875,0.1831054538488388,-4.058837413787842,2.685546636581421,100.0,4144.0,1.0
560085.0214662,306221.0625,293146.625,541360.25,587728.25,312538.28125,294665.84375,288819.0625,293883.625,-0.08740234375,0.853515625,-0.5166015625,0.1525878757238388,-4.028319835662842,2.899169683456421,100.0,4145.0,1.0
560085.0291369,306217.9375,294342.28125,542122.75,588247.3125,314359.25,295915.90625,289563.8125,294365.59375,-0.08740234375,0.84814453125,-0.51513671875,0.2136230319738388,-3.936767339706421,3.143310308456421,100.0,4146.0,1.0
560085.0291536,306440.03125,296392.625,543762.8125,589061.375,321390.125,298100.125,291696.53125,295160.53125,-0.087646484375,0.84814453125,-0.51806640625,0.3051757514476776,-3.814697027206421,3.204345464706421,100.0,4147.0,1.0
560085.0291562,306669.4375,296515.40625,544048.375,589069.4375,323875.375,298193.65625,292247.8125,295169.46875,-0.0888671875,0.846923828125,-0.519775390625,0.4882812201976776,-3.753661870956421,3.173827886581421,100.0,4148.0,1.0
560085.0291589,306608.625,294641.25,542668.375,588341.6875,318532.40625,296135.5,290514.125,294413.0,-0.087646484375,0.848876953125,-0.520751953125,0.5187987685203552,-3.753661870956421,3.051757574081421,100.0,4149.0,1.0
560085.0315139,306312.6875,293361.75,541507.8125,587797.8125,312917.09375,294781.875,288894.4375,293899.34375,-0.08447265625,0.8505859375,-0.522216796875,0.4272460639476776,-3.814697027206421,2.960204839706421,100.0,4150.0,1.0
560085.0389184,306232.15625,294497.46875,542193.0625,588181.5625,314709.53125,295989.3125,289597.8125,294330.5625,-0.079833984375,0.848388671875,-0.51806640625,0.2746581733226776,-3.723144292831421,3.021239995956421,100.0,4151.0,1.0
560085.0415073,306440.03125,296537.75,543807.0625,588985.0625,321736.375,298168.09375,291729.96875,295122.6875,-0.077392578125,0.852294921875,-0.52001953125,0.1220703050494194,-3.784179449081421,2.960204839706421,100.0,4152.0,1.0
560085.043867,306584.0625,296616.6875,544040.875,588956.6875,324199.90625,298223.59375,292260.0625,295112.59375,-0.0751953125,0.854736328125,-0.51416015625,-0.2136230319738388,-3.601073980331421,2.899169683456421,100.0,4153.0,1.0
