Time,FZ,C3,CZ,C4,PZ,PO7,OZ,PO8,AccX,AccY,AccZ,Gyro1,Gyro2,Gyro3,Battery,Counter,Validation
989598.7388988,312441.0,298185.59375,332622.59375,329964.25,302418.65625,300131.5625,302124.875,288683.0,0.021484375,0.8603515625,-0.464111328125,4.760741710662842,-3.479003667831421,0.1220703050494194,100.0,29929.0,1.0
989598.7412981,312099.03125,297934.65625,328543.65625,326358.1875,296151.34375,297759.40625,299791.8125,288465.625,0.018798828125,0.86376953125,-0.462646484375,5.187987804412842,-3.723144292831421,0.1220703050494194,100.0,29930.0,1.0
989598.7438342,316245.28125,308628.875,339832.53125,332489.90625,306842.96875,307246.75,305444.90625,291617.6875,0.01904296875,0.867431640625,-0.465087890625,5.584716320037842,-3.814697027206421,0.2136230319738388,100.0,29931.0,1.0
989598.7464105,319176.5625,315723.15625,351096.03125,339970.40625,319994.03125,315726.90625,311379.5,293818.15625,0.01806640625,0.87158203125,-0.467529296875,5.859374523162842,-4.119872570037842,0.2441406100988388,100.0,29932.0,1.0
989598.748726,316805.25,309121.40625,346517.3125,338347.59375,317061.125,311176.1875,309238.1875,291955.90625,0.015625,0.87548828125,-0.466552734375,6.042479991912842,-4.241942882537842,0.3662109076976776,100.0,29933.0,1.0
989598.7487385,312472.40625,298313.1875,332758.03125,330042.125,302490.03125,300249.9375,302185.5,288706.15625,0.01513671875,0.8798828125,-0.46728515625,6.225585460662842,-4.486083507537842,0.4577636420726776,100.0,29934.0,1.0
989598.7876075,312054.25,297868.21875,328482.25,326331.09375,296040.71875,297727.21875,299765.0625,288440.59375,0.015380859375,0.88232421875,-0.466796875,6.378173351287842,-4.760741710662842,0.4882812201976776,100.0,29935.0,1.0
989598.7901351,316166.15625,308447.28125,339625.28125,332365.0,306548.28125,307075.96875,305340.40625,291559.21875,0.01513671875,0.88427734375,-0.469482421875,6.500243663787842,-4.943847179412842,0.5798339247703552,100.0,29936.0,1.0
989598.7901558,319160.65625,315687.28125,351014.6875,339902.0,319791.34375,315641.34375,311323.4375,293791.78125,0.0166015625,0.883544921875,-0.466796875,6.469726085662842,-5.187987804412842,0.7019042372703552,100.0,29937.0,1.0
989598.7926669,316870.6875,309301.03125,346669.9375,338415.71875,317114.59375,311287.84375,309295.3125,291982.90625,0.01708984375,0.88427734375,-0.467041015625,6.378173351287842,-5.279540538787842,0.7934569716453552,100.0,29938.0,1.0
989598.7949566,312522.03125,298480.90625,332915.3125,330132.96875,302603.90625,300383.59375,302253.09375,288724.125,0.015869140625,0.883056640625,-0.46826171875,6.256103038787842,-5.554198741912842,0.9460448622703552,100.0,29939.0,1.0
989598.800127,312037.59375,297852.9375,328451.21875,326331.375,295989.40625,297724.28125,299755.3125,288423.15625,0.014892578125,0.87939453125,-0.4677734375,6.225585460662842,-5.645751476287842,1.0375975370407104,100.0,29940.0,1.0
989598.8026363,316123.34375,308332.75,339470.625,332282.9375,306339.78125,306970.5625,305258.5,291517.46875,0.013916015625,0.88037109375,-0.4697265625,6.225585460662842,-5.737304210662842,1.1901854276657104,100.0,29941.0,1.0
989598.8051731,319197.15625,315732.0,351014.3125,339901.65625,319697.5625,315654.75,311306.875,293801.71875,0.013427734375,0.87939453125,-0.471923828125,6.286620616912842,-5.950927257537842,1.2512205839157104,100.0,29942.0,1.0
989598.8074442,316965.0,309531.71875,346871.65625,338528.28125,317238.15625,311471.65625,309372.9375,292035.3125,0.010498046875,0.879638671875,-0.471923828125,6.256103038787842,-6.164550304412842,1.2512205839157104,100.0,29943.0,1.0
989598.8101511,312582.625,298674.65625,333112.1875,330243.375,302764.0625,300574.5625,302330.875,288760.3125,0.01318359375,0.880126953125,-0.47412109375,6.408690929412842,-6.378173351287842,1.3122557401657104,100.0,29944.0,1.0
989598.8126622,312015.78125,297852.46875,328450.125,326327.96875,295970.46875,297760.21875,299736.90625,288404.125,0.012939453125,0.88037109375,-0.476806640625,6.347655773162842,-6.561278820037842,1.4038084745407104,100.0,29945.0,1.0
989598.8152024,316083.28125,308244.34375,339349.75,332211.125,306179.125,306905.65625,305184.375,291486.625,0.013671875,0.880859375,-0.476318359375,6.347655773162842,-6.591796398162842,1.4648436307907104,100.0,29946.0,1.0
989598.8174966,319217.53125,315781.53125,351021.125,339888.59375,319635.875,315682.09375,311285.4375,293800.90625,0.014892578125,0.88037109375,-0.474365234375,6.286620616912842,-6.713866710662842,1.5563963651657104,100.0,29947.0,1.0
989598.8227048,317044.21875,309762.5625,347088.46875,338631.4375,317406.6875,311677.21875,309454.1875,292073.21875,0.01806640625,0.87890625,-0.47705078125,6.103515148162842,-6.835937023162842,1.6174315214157104,100.0,29948.0,1.0
989598.8228113,312642.71875,298886.1875,333329.4375,330361.40625,302989.53125,300798.53125,302425.71875,288789.375,0.02001953125,0.8798828125,-0.478271484375,6.011962413787842,-6.805419445037842,1.7700194120407104,100.0,29949.0,1.0
989598.8278919,312004.53125,297883.59375,328474.625,326343.1875,296035.28125,297839.0625,299748.4375,288386.0625,0.02099609375,0.87841796875,-0.47802734375,5.920409679412842,-6.896972179412842,1.7700194120407104,100.0,29950.0,1.0
989598.8326787,316039.1875,308168.6875,339247.8125,332143.625,306101.96875,306877.21875,305134.9375,291443.59375,0.023193359375,0.877685546875,-0.48046875,5.950927257537842,-6.927489757537842,1.8310545682907104,100.0,29951.0,1.0
989598.8352194,319233.53125,315829.375,351042.3125,339880.375,319660.625,315747.28125,311296.15625,293800.90625,0.022216796875,0.8759765625,-0.482421875,5.889892101287842,-6.835937023162842,1.8005369901657104,100.0,29952.0,1.0
989598.8352618,317127.625,309996.71875,347315.8125,338734.09375,317658.1875,311914.5,309562.1875,292119.96875,0.023193359375,0.875,-0.48388671875,5.859374523162842,-6.561278820037842,1.8615721464157104,100.0,29953.0,1.0
989598.8401624,312705.75,299105.59375,333566.8125,330480.3125,303297.0,301055.65625,302541.96875,288830.875,0.0234375,0.876220703125,-0.484130859375,5.767821788787842,-6.561278820037842,1.9226073026657104,100.0,29954.0,1.0
989598.8426662,311993.1875,297922.65625,328523.1875,326359.34375,296179.03125,297962.28125,299780.09375,288388.125,0.024658203125,0.878173828125,-0.483642578125,5.676269054412842,-6.256103038787842,1.9531248807907104,100.0,29955.0,1.0
989598.8476601,316003.0,308100.125,339159.65625,332073.8125,306076.84375,306885.8125,305091.40625,291423.84375,0.024658203125,0.87841796875,-0.483154296875,5.645751476287842,-6.164550304412842,1.9836424589157104,100.0,29956.0,1.0
989598.8500281,319258.84375,315890.78125,351068.40625,339871.0625,319719.375,315842.0625,311300.90625,293813.78125,0.023681640625,0.878662109375,-0.485107421875,5.493163585662842,-5.950927257537842,2.014159917831421,100.0,29957.0,1.0
989598.8525769,317212.75,310226.21875,347526.28125,338835.375,317918.96875,312167.4375,309657.59375,292168.4375,0.023681640625,0.878662109375,-0.485595703125,5.340575695037842,-5.737304210662842,1.8615721464157104,100.0,29958.0,1.0
989598.8526163,312770.3125,299304.0,333781.46875,330596.53125,303603.59375,301322.4375,302645.21875,288870.21875,0.021240234375,0.880859375,-0.4873046875,5.279540538787842,-5.615233898162842,1.7395018339157104,100.0,29959.0,1.0
989598.8599999,311970.90625,297921.15625,328532.5625,326359.96875,296305.28125,298070.09375,299785.8125,288369.0625,0.02099609375,0.881591796875,-0.48876953125,5.004882335662842,-5.462646007537842,1.7700194120407104,100.0,29960.0,1.0
989598.8624838,315942.71875,307988.1875,339017.25,331982.4375,306037.5,306876.3125,305026.59375,291375.46875,0.0185546875,0.88330078125,-0.490478515625,4.699706554412842,-5.371093273162842,1.6479490995407104,100.0,29961.0,1.0
989598.8698695,319251.21875,315886.40625,351030.84375,339828.78125,319756.375,315916.96875,311282.125,293798.125,0.018310546875,0.882080078125,-0.49072265625,4.547118663787842,-5.371093273162842,1.6784666776657104,100.0,29962.0,1.0
989598.8751162,317276.0625,310400.5625,347700.34375,338913.875,318176.65625,312420.09375,309740.3125,292203.84375,0.019287109375,0.8837890625,-0.49169921875,4.425048351287842,-5.249022960662842,1.6479490995407104,100.0,29963.0,1.0
989598.8777993,312817.5,299445.71875,333954.46875,330677.8125,303885.03125,301584.875,302731.40625,288893.90625,0.019775390625,0.886474609375,-0.489990234375,4.119872570037842,-5.004882335662842,1.7395018339157104,100.0,29964.0,1.0
989598.877813,311943.1875,297878.21875,328509.59375,326334.6875,296407.3125,298173.96875,299782.3125,288347.1875,0.020263671875,0.887939453125,-0.492431640625,3.723144292831421,-4.913329601287842,1.6479490995407104,100.0,29965.0,1.0
989598.8824877,315884.15625,307852.03125,338867.03125,331880.59375,305981.4375,306858.875,304957.75,291336.125,0.021240234375,0.88720703125,-0.49365234375,3.570556402206421,-4.760741710662842,1.6479490995407104,100.0,29966.0,1.0
989598.8824993,319239.53125,315882.5625,350985.53125,339772.375,319762.46875,315957.9375,311256.8125,293788.84375,0.02294921875,0.88671875,-0.493896484375,3.295898199081421,-4.516601085662842,1.5563963651657104,100.0,29967.0,1.0
989598.8842202,317327.90625,310572.21875,347854.21875,338964.125,318377.90625,312604.53125,309804.9375,292235.3125,0.021728515625,0.88671875,-0.49267578125,2.929687261581421,-4.302978038787842,1.5258787870407104,100.0,29968.0,1.0
989598.8914048,312863.46875,299611.375,334136.4375,330757.65625,304155.65625,301777.25,302805.90625,288920.375,0.023681640625,0.88671875,-0.49267578125,2.624511480331421,-4.089354991912842,1.4648436307907104,100.0,29969.0,1.0
989598.8938203,311926.03125,297873.03125,328518.96875,326324.65625,296520.3125,298229.3125,299779.90625,288335.625,0.02685546875,0.8876953125,-0.492431640625,2.288818120956421,-3.875732183456421,1.4648436307907104,100.0,29970.0,1.0
989598.897617,315827.9375,307731.9375,338723.625,331772.6875,305914.5625,306794.6875,304878.15625,291290.71875,0.027099609375,0.88720703125,-0.492919921875,2.014159917831421,-3.631591558456421,1.4953612089157104,100.0,29971.0,1.0
989598.9535864,319243.09375,315888.625,350951.375,339725.78125,319784.0,315981.1875,311226.96875,293780.34375,0.02490234375,0.8857421875,-0.492919921875,1.6479490995407104,-3.326415777206421,1.4953612089157104,100.0,29972.0,1.0
989598.9536223,317395.6875,310758.375,348024.53125,339045.03125,318625.125,312784.4375,309874.3125,292273.75,0.0263671875,0.882080078125,-0.49169921875,1.2817381620407104,-3.082275152206421,1.4648436307907104,100.0,29973.0,1.0
989598.9673281,312920.0625,299782.0625,334326.59375,330872.53125,304462.78125,301969.03125,302893.34375,288961.03125,0.025390625,0.880126953125,-0.494873046875,1.1291502714157104,-2.777099370956421,1.4343260526657104,100.0,29974.0,1.0
989598.9673689,311917.96875,297870.1875,328529.53125,326346.46875,296658.53125,298272.25,299779.71875,288330.1875,0.0234375,0.8779296875,-0.49365234375,0.9765624403953552,-2.410888433456421,1.3427733182907104,100.0,29975.0,1.0
989598.9751862,315796.28125,307642.71875,338605.53125,331715.5625,305902.59375,306733.4375,304818.625,291269.09375,0.021728515625,0.875,-0.494140625,0.9765624403953552,-2.075195074081421,1.2207030057907104,100.0,29976.0,1.0
989598.9775573,319263.21875,315921.34375,350940.8125,339711.3125,319855.1875,316006.21875,311218.375,293790.71875,0.02099609375,0.87353515625,-0.496826171875,0.9155272841453552,-1.8005369901657104,1.0375975370407104,100.0,29977.0,1.0
989598.9800173,317477.75,310967.21875,348223.75,339145.09375,318920.59375,312980.0625,309962.46875,292320.6875,0.020751953125,0.8681640625,-0.49365234375,0.8544921278953552,-1.4953612089157104,0.9765624403953552,100.0,29978.0,1.0
989598.9826665,312993.625,299973.65625,334549.125,330998.3125,304815.21875,302184.5,302988.28125,288995.8125,0.02099609375,0.865966796875,-0.497314453125,1.0070799589157104,-1.1596678495407104,0.7629393935203552,100.0,29979.0,1.0
989598.9850133,311924.34375,297878.40625,328566.28125,326374.8125,296838.78125,298349.3125,299788.125,288323.5625,0.019287109375,0.8642578125,-0.4970703125,1.0070799589157104,-0.9155272841453552,0.6103515028953552,100.0,29980.0,1.0
989598.9876377,315756.3125,307527.75,338478.84375,331642.59375,305894.90625,306692.15625,304754.78125,291239.75,0.018798828125,0.8603515625,-0.496337890625,1.3122557401657104,-0.6713866591453552,0.4272460639476776,100.0,29981.0,1.0
989598.9892543,319267.0625,315910.4375,350904.6875,339682.25,319909.4375,316041.6875,311202.375,293795.28125,0.02001953125,0.860595703125,-0.49560546875,1.6174315214157104,-0.3051757514476776,0.2746581733226776,100.0,29982.0,1.0
989598.9987891,317560.46875,311149.625,348406.75,339245.9375,319209.75,313198.75,310053.65625,292370.5,0.01953125,0.8603515625,-0.495361328125,1.9836424589157104,0.2136230319738388,-0.0915527269244194,100.0,29983.0,1.0
989599.0012904,313061.125,300147.28125,334755.3125,331122.25,305167.125,302420.71875,303088.15625,289037.125,0.020751953125,0.859130859375,-0.497802734375,2.532958745956421,0.6103515028953552,-0.4882812201976776,100.0,29984.0,1.0
989599.0039021,311894.125,297852.46875,328552.15625,326375.71875,296992.90625,298409.46875,299779.28125,288305.40625,0.024169921875,0.85595703125,-0.496826171875,3.265380620956421,1.0681151151657104,-0.8544921278953552,100.0,29985.0,1.0
989599.008771,315672.4375,307370.84375,338291.25,331527.4375,305856.0,306605.875,304657.6875,291187.28125,0.0234375,0.85205078125,-0.49609375,4.058837413787842,1.4953612089157104,-1.0681151151657104,100.0,29986.0,1.0
989599.0113525,319237.5625,315867.09375,350821.03125,339612.34375,319948.875,316035.4375,311168.5625,293787.59375,0.022216796875,0.849365234375,-0.496337890625,4.730224132537842,1.8920897245407104,-0.9155272841453552,100.0,29987.0,1.0
989599.0138867,317582.625,311273.625,348528.34375,339292.15625,319476.625,313352.59375,310133.78125,292411.96875,0.01953125,0.845703125,-0.49658203125,5.157470226287842,2.044677495956421,-0.3051757514476776,100.0,29988.0,1.0
989599.0164318,313078.03125,300251.71875,334901.84375,331197.25,305503.03125,302584.78125,303193.65625,289070.28125,0.01611328125,0.842529296875,-0.49755859375,5.676269054412842,2.166747808456421,0.2441406100988388,100.0,29989.0,1.0
989599.0189172,311844.21875,297765.75,328499.03125,326345.59375,297140.875,298408.78125,299798.34375,288289.59375,0.01220703125,0.83837890625,-0.496337890625,6.225585460662842,2.197265386581421,0.7324218153953552,100.0,29990.0,1.0
989599.0214081,315588.84375,307148.3125,338061.75,331393.78125,305775.8125,306468.28125,304594.21875,291149.90625,0.0087890625,0.839599609375,-0.493896484375,7.232665538787842,2.105712652206421,1.1596678495407104,100.0,29991.0,1.0
989599.0237773,319221.0,315758.46875,350690.125,339531.40625,319890.5,315980.1875,311146.5,293782.65625,0.00634765625,0.84521484375,-0.49267578125,8.148192405700684,2.044677495956421,1.4648436307907104,100.0,29992.0,1.0
989599.0262837,317652.28125,311371.78125,348627.25,339347.25,319616.90625,313487.78125,310220.3125,292454.625,0.00341796875,0.85205078125,-0.48779296875,9.033202171325684,1.9836424589157104,1.7395018339157104,100.0,29993.0,1.0
989599.0350755,313139.71875,300369.8125,335046.0625,331291.40625,305715.90625,302760.28125,303307.65625,289112.6875,-0.001953125,0.86083984375,-0.485595703125,9.552000999450684,1.8920897245407104,1.9226073026657104,100.0,29994.0,1.0
989599.0350897,311840.75,297726.15625,328481.78125,326345.84375,297203.65625,298447.5625,299827.21875,288284.59375,-0.00341796875,0.868408203125,-0.483642578125,10.009764671325684,1.6784666776657104,2.166747808456421,100.0,29995.0,1.0
989599.0350917,315547.90625,307000.6875,337901.4375,331297.125,305657.78125,306370.09375,304533.59375,291092.6875,-0.00439453125,0.875732421875,-0.484375,10.162352561950684,1.4648436307907104,2.288818120956421,100.0,29996.0,1.0
989599.0350934,319203.84375,315709.5625,350598.84375,339457.5625,319812.875,315923.25,311105.375,293738.875,-0.003173828125,0.880859375,-0.48388671875,10.284422874450684,1.1291502714157104,2.471923589706421,100.0,29997.0,1.0
989599.0350955,317710.65625,311538.53125,348763.75,339407.15625,319792.9375,313628.875,310299.28125,292479.84375,-0.0068359375,0.885986328125,-0.48486328125,10.253905296325684,0.7934569716453552,2.655029058456421,100.0,29998.0,1.0
989599.0375595,313216.875,300595.46875,335275.28125,331417.75,306031.25,303001.0625,303452.9375,289157.28125,-0.00927734375,0.888427734375,-0.481201171875,10.253905296325684,0.4272460639476776,2.593993902206421,100.0,29999.0,1.0
989599.0426193,311844.40625,297790.78125,328547.78125,326370.875,297385.6875,298567.90625,299873.53125,288244.1875,-0.00927734375,0.890380859375,-0.47900390625,10.070799827575684,0.1525878757238388,2.502441167831421,100.0,30000.0,1.0
989599.0426367,315509.09375,306952.6875,337799.4375,331200.375,305653.3125,306356.6875,304467.96875,291007.125,-0.0068359375,0.881591796875,-0.480224609375,10.070799827575684,-0.03051757626235485,2.166747808456421,100.0,30001.0,1.0
989599.0451335,319217.71875,315771.4375,350582.75,339391.21875,319861.625,315978.84375,311058.875,293677.4375,-0.003662109375,0.863525390625,-0.481201171875,10.284422874450684,-0.0915527269244194,1.6174315214157104,100.0,30002.0,1.0
989599.0501443,317790.9375,311785.75,348967.625,339470.625,320087.8125,313860.78125,310344.875,292461.6875,0.0029296875,0.83740234375,-0.485107421875,10.803221702575684,0.1525878757238388,1.0681151151657104,100.0,30003.0,1.0
989599.0501604,313281.09375,300855.03125,335530.625,331520.5625,306444.84375,303263.03125,303507.375,289132.875,0.0068359375,0.81005859375,-0.491943359375,11.749266624450684,0.3967284858226776,0.5798339247703552,100.0,30004.0,1.0
989599.0525148,311833.5,297896.71875,328636.1875,326385.03125,297677.0625,298690.5,299846.96875,288197.0625,0.00830078125,0.781005859375,-0.497802734375,13.061522483825684,0.6713866591453552,0.3967284858226776,100.0,30005.0,1.0
989599.0549418,315456.4375,306915.46875,337710.09375,331114.28125,305749.71875,306331.65625,304349.25,290944.90625,0.010009765625,0.754638671875,-0.50830078125,14.892577171325684,0.8544921278953552,0.2746581733226776,100.0,30006.0,1.0
989599.0575183,319200.0,315772.5,350525.875,339311.375,319952.09375,315970.8125,310964.28125,293650.96875,0.011962890625,0.73828125,-0.512939453125,17.150876998901367,0.7629393935203552,0.2746581733226776,100.0,30007.0,1.0
989599.0624559,317829.84375,311938.1875,349092.34375,339500.40625,320365.25,314009.65625,310383.75,292473.84375,0.0087890625,0.73193359375,-0.51123046875,19.744871139526367,0.7019042372703552,0.3051757514476776,100.0,30008.0,1.0
989599.0650892,313306.46875,301019.8125,335691.125,331584.84375,306790.9375,303458.125,303611.625,289144.0625,0.0078125,0.74072265625,-0.512939453125,22.338865280151367,0.3967284858226776,0.3356933295726776,100.0,30009.0,1.0
989599.06761,311804.0,297903.0,328620.8125,326346.9375,297829.84375,298761.84375,299926.8125,288178.1875,0.011962890625,0.7607421875,-0.514892578125,24.658201217651367,0.3662109076976776,0.3967284858226776,100.0,30010.0,1.0
989599.0701777,315380.28125,306736.03125,337495.1875,330934.65625,305601.375,306216.6875,304350.65625,290862.90625,0.01025390625,0.781494140625,-0.5126953125,26.580808639526367,0.6103515028953552,0.7324218153953552,100.0,30011.0,1.0
989599.070204,319162.375,315606.03125,350330.34375,339141.5,319699.96875,315831.0625,310962.5,293550.3125,0.00537109375,0.80322265625,-0.514892578125,28.015134811401367,1.0375975370407104,1.0375975370407104,100.0,30012.0,1.0
989599.0726727,317864.96875,311947.125,349100.65625,339467.9375,320282.8125,314015.75,310482.5625,292421.625,-0.0009765625,0.82275390625,-0.513427734375,29.235837936401367,1.3427733182907104,1.2817381620407104,100.0,30013.0,1.0
989599.0744434,313360.375,301109.3125,335813.0625,331643.21875,306904.65625,303570.9375,303769.34375,289101.15625,-0.008056640625,0.84326171875,-0.513427734375,29.998777389526367,1.1291502714157104,1.2817381620407104,100.0,30014.0,1.0
989599.1038949,311794.59375,297874.75,328627.4375,326338.15625,297908.34375,298787.75,300000.84375,288079.5,-0.013916015625,0.8662109375,-0.51123046875,30.364988327026367,0.6408690810203552,1.0375975370407104,100.0,30015.0,1.0
989599.1064884,315310.96875,306553.84375,337297.75,330775.4375,305444.28125,306047.15625,304271.4375,290719.0625,-0.015869140625,0.88427734375,-0.50732421875,30.456541061401367,-0.3356933295726776,0.6103515028953552,100.0,30016.0,1.0
989599.1065292,319115.78125,315464.3125,350142.15625,338957.15625,319482.34375,315619.6875,310841.78125,293441.03125,-0.01171875,0.902099609375,-0.507080078125,29.907224655151367,-1.0986326932907104,0.0610351525247097,100.0,30017.0,1.0
989599.1087818,317901.28125,312007.46875,349132.46875,339427.15625,320285.65625,313987.03125,310475.125,292395.875,-0.0029296875,0.918212890625,-0.510498046875,28.930662155151367,-1.2817381620407104,-0.2441406100988388,100.0,30018.0,1.0
989599.111396,313427.1875,301269.4375,335979.90625,331710.46875,307070.78125,303691.75,303851.5,289132.25,0.00439453125,0.928955078125,-0.51318359375,27.923582077026367,-1.0070799589157104,-0.2746581733226776,100.0,30019.0,1.0
989599.1138975,311800.6875,297929.53125,328676.4375,326343.875,297968.0,298844.53125,300002.09375,288080.84375,0.007568359375,0.935546875,-0.517578125,26.702878952026367,-0.9460448622703552,-0.3051757514476776,100.0,30020.0,1.0
989599.1164522,315264.40625,306467.90625,337147.03125,330666.71875,305266.375,305952.84375,304116.34375,290662.90625,0.011962890625,0.938720703125,-0.523681640625,25.207517623901367,-0.8239745497703552,-0.3356933295726776,100.0,30021.0,1.0
989599.1189004,319102.46875,315412.8125,349991.59375,338868.8125,319243.09375,315527.4375,310650.1875,293383.46875,0.013916015625,0.93603515625,-0.528076171875,23.986814498901367,-0.5493163466453552,-0.1831054538488388,100.0,30022.0,1.0
989599.1214099,317957.6875,312143.5625,349201.59375,339494.3125,320275.9375,314093.4375,310361.59375,292397.5625,0.012451171875,0.93408203125,-0.52783203125,22.613523483276367,-0.0915527269244194,-0.0915527269244194,100.0,30023.0,1.0
989599.123899,313492.96875,301485.34375,336181.6875,331877.8125,307280.09375,303934.375,303767.28125,289180.4375,0.009765625,0.928955078125,-0.527587890625,21.240232467651367,-0.0610351525247097,0.0,100.0,30024.0,1.0
989599.1264223,311801.40625,298024.59375,328754.125,326442.6875,298116.75,299000.5625,299787.34375,288104.25,0.0087890625,0.9228515625,-0.524658203125,19.775388717651367,-0.03051757626235485,0.2746581733226776,100.0,30025.0,1.0
989599.1314816,315205.46875,306395.125,337024.1875,330621.3125,305187.96875,305916.53125,303715.34375,290646.71875,0.006591796875,0.908935546875,-0.5224609375,18.524168014526367,-0.2746581733226776,0.3356933295726776,100.0,30026.0,1.0
989599.1315202,319071.875,315362.21875,349887.78125,338813.5625,319116.40625,315459.46875,310228.8125,293398.65625,0.010009765625,0.892333984375,-0.522705078125,17.395017623901367,-0.4272460639476776,0.3356933295726776,100.0,30027.0,1.0
989599.1338802,317996.40625,312267.5625,349314.34375,339554.84375,320352.1875,314176.3125,310114.46875,292490.5625,0.01806640625,0.8740234375,-0.537109375,16.418455123901367,0.0915527269244194,0.4577636420726776,100.0,30028.0,1.0
989599.1364261,313559.21875,301707.875,336432.84375,332035.90625,307565.5625,304139.5625,303717.9375,289293.625,0.019287109375,0.853515625,-0.544677734375,15.960692405700684,0.9765624403953552,0.9460448622703552,100.0,30029.0,1.0
989599.1364689,311809.34375,298133.03125,328890.1875,326526.90625,298363.875,299115.875,299783.65625,288163.4375,0.016357421875,0.832763671875,-0.55126953125,15.838622093200684,1.4648436307907104,1.4953612089157104,100.0,30030.0,1.0
989599.141366,315136.1875,306325.03125,336945.78125,330569.25,305238.3125,305847.25,303668.21875,290629.46875,0.0087890625,0.814453125,-0.559326171875,16.052244186401367,1.5563963651657104,2.014159917831421,100.0,30031.0,1.0
989599.143924,319027.1875,315292.90625,349799.71875,338758.40625,319108.375,315375.0,310186.4375,293368.09375,0.0078125,0.80126953125,-0.560546875,16.571043014526367,1.4953612089157104,2.380370855331421,100.0,30032.0,1.0
989599.1476724,318042.90625,312380.5,349446.28125,339646.21875,320534.40625,314268.59375,310163.0,292496.5625,0.00732421875,0.794921875,-0.55224609375,17.181394577026367,1.5258787870407104,2.593993902206421,100.0,30033.0,1.0
989599.1477137,313623.96875,301904.5,336691.6875,332206.46875,307905.3125,304321.78125,303809.21875,289322.59375,0.01123046875,0.793701171875,-0.54833984375,18.005369186401367,1.5563963651657104,2.868652105331421,100.0,30034.0,1.0
989599.1514468,311819.46875,298216.625,329026.09375,326624.34375,298603.3125,299207.25,299822.8125,288178.28125,0.01708984375,0.795166015625,-0.54052734375,18.707273483276367,1.8310545682907104,3.326415777206421,100.0,30035.0,1.0
989599.1814206,315101.75,306245.8125,336872.0,330529.03125,305207.625,305774.65625,303602.0625,290596.84375,0.02099609375,0.8017578125,-0.53955078125,19.317625045776367,2.258300542831421,3.753661870956421,100.0,30036.0,1.0
989599.1890406,319001.96875,315214.6875,349701.375,338693.125,318986.15625,315252.25,310104.28125,293318.1875,0.0244140625,0.808837890625,-0.540283203125,19.805906295776367,2.655029058456421,4.089354991912842,100.0,30037.0,1.0
989599.1890827,318079.46875,312475.625,349543.46875,339710.3125,320625.6875,314288.4375,310200.65625,292482.96875,0.025634765625,0.814208984375,-0.540771484375,20.355222702026367,3.082275152206421,4.608153820037842,100.0,30038.0,1.0
989599.1890925,313702.71875,302114.78125,336943.25,332378.0625,308226.625,304499.875,303913.90625,289292.90625,0.02001953125,0.82275390625,-0.5390625,20.660398483276367,2.899169683456421,4.943847179412842,100.0,30039.0,1.0
989599.1914154,311848.6875,298338.40625,329183.625,326726.09375,298901.5625,299350.03125,299867.0,288093.0,0.0224609375,0.83056640625,-0.54296875,20.782468795776367,2.227782964706421,4.974364757537842,100.0,30040.0,1.0
989599.1962711,315062.25,306205.78125,336802.375,330470.8125,305279.5,305738.1875,303525.53125,290475.15625,0.03076171875,0.840576171875,-0.549560546875,20.843503952026367,2.258300542831421,5.157470226287842,100.0,30041.0,1.0
989599.1979144,318983.1875,315177.125,349594.625,338598.09375,318955.65625,315160.3125,309995.5625,293224.40625,0.036376953125,0.84912109375,-0.556640625,20.935056686401367,2.838134527206421,5.554198741912842,100.0,30042.0,1.0
989599.207674,318141.15625,312616.15625,349648.90625,339746.8125,320802.1875,314362.90625,310220.5,292475.375,0.039306640625,0.850341796875,-0.557373046875,20.782468795776367,3.753661870956421,5.920409679412842,100.0,30043.0,1.0
989599.2100345,313791.0625,302349.65625,337199.25,332512.4375,308605.625,304705.15625,304072.53125,289384.375,0.03564453125,0.851318359375,-0.557373046875,20.477293014526367,3.997802495956421,6.225585460662842,100.0,30044.0,1.0
989599.2126547,311877.40625,298470.1875,329334.65625,326786.1875,299201.0,299479.9375,299971.4375,288175.5,0.034912109375,0.85400390625,-0.555908203125,20.141599655151367,3.875732183456421,6.530761241912842,100.0,30045.0,1.0
989599.2151944,315026.5,306170.71875,336748.0,330391.53125,305328.96875,305699.8125,303487.1875,290507.34375,0.038330078125,0.8564453125,-0.555419921875,19.775388717651367,3.845214605331421,6.866454601287842,100.0,30046.0,1.0
989599.2176945,318964.5,315139.3125,349516.03125,338504.03125,318927.40625,315094.53125,309976.6875,293248.03125,0.041748046875,0.8564453125,-0.552978515625,19.317625045776367,3.753661870956421,6.988524913787842,100.0,30047.0,1.0
989599.2200394,318210.71875,312756.4375,349781.21875,339802.15625,320975.8125,314459.03125,310358.375,292555.8125,0.04541015625,0.857421875,-0.548828125,18.859861373901367,3.845214605331421,6.958007335662842,100.0,30048.0,1.0
989599.2226509,313884.9375,302595.96875,337478.375,332681.0625,308985.0,304935.21875,304325.8125,289476.75,0.05078125,0.85986328125,-0.545166015625,18.463132858276367,3.936767339706421,6.835937023162842,100.0,30049.0,1.0
989599.2251952,311926.3125,298663.03125,329540.8125,326902.78125,299555.6875,299682.46875,300186.71875,288231.84375,0.0546875,0.865966796875,-0.54296875,18.005369186401367,4.058837413787842,6.774901866912842,100.0,30050.0,1.0
989599.2275954,315026.40625,306262.90625,336783.59375,330375.25,305510.71875,305784.21875,303604.375,290516.71875,0.056396484375,0.868408203125,-0.543212890625,17.181394577026367,4.211425304412842,6.622313976287842,100.0,30051.0,1.0
989599.2301934,318945.375,315201.09375,349495.125,338438.78125,319030.40625,315135.28125,310016.84375,293255.25,0.05712890625,0.870361328125,-0.544921875,16.235349655151367,4.425048351287842,6.744384288787842,100.0,30052.0,1.0
989599.230235,318238.96875,312934.53125,349917.28125,339849.71875,321246.25,314632.1875,310467.0,292591.40625,0.053466796875,0.8662109375,-0.546142578125,15.228270530700684,4.608153820037842,6.835937023162842,100.0,30053.0,1.0
989599.2326478,313959.9375,302864.8125,337756.0625,332833.84375,309443.03125,305231.25,304507.75,289524.84375,0.0478515625,0.8583984375,-0.552001953125,14.190672874450684,4.699706554412842,6.805419445037842,100.0,30054.0,1.0
989599.2350501,311976.46875,298872.34375,329751.8125,327028.5625,299991.375,299947.8125,300356.125,288246.15625,0.041015625,0.855224609375,-0.555908203125,13.549803733825684,4.730224132537842,6.744384288787842,100.0,30055.0,1.0
989599.256339,314993.40625,306302.40625,336772.5,330350.75,305723.40625,305890.6875,303644.25,290458.34375,0.036865234375,0.85400390625,-0.55859375,13.092040061950684,4.577636241912842,6.286620616912842,100.0,30056.0,1.0
989599.256378,318935.53125,315252.25,349463.0,338393.4375,319183.8125,315231.21875,310029.4375,293204.9375,0.032958984375,0.847900390625,-0.558837890625,12.573241233825684,4.486083507537842,5.676269054412842,100.0,30057.0,1.0
989599.258915,318304.3125,313140.09375,350087.25,339938.03125,321605.78125,314888.96875,310568.28125,292612.25,0.03515625,0.84228515625,-0.55810546875,12.176512718200684,4.272460460662842,5.157470226287842,100.0,30058.0,1.0
989599.2589564,314060.625,303156.375,338078.375,333019.09375,310006.09375,305616.84375,304689.34375,289594.84375,0.03759765625,0.835205078125,-0.560546875,11.688231468200684,3.967284917831421,4.913329601287842,100.0,30059.0,1.0
989599.2613829,312019.90625,299073.0625,329974.71875,327132.46875,300504.8125,300275.125,300487.84375,288296.03125,0.04150390625,0.8271484375,-0.564453125,11.352538108825684,3.723144292831421,4.791259288787842,100.0,30060.0,1.0
989599.2689073,314971.6875,306363.84375,336795.75,330306.75,306037.78125,306072.375,303664.75,290469.96875,0.042236328125,0.822265625,-0.564453125,11.230467796325684,3.356933355331421,4.882812023162842,100.0,30061.0,1.0
989599.2716989,318903.875,315276.1875,349436.0,338322.1875,319417.875,315358.1875,310019.6875,293198.65625,0.0419921875,0.814208984375,-0.564208984375,10.894774436950684,3.051757574081421,5.096435070037842,100.0,30062.0,1.0
989599.273928,318341.15625,313276.625,350229.6875,339998.46875,321998.71875,315126.71875,310661.28125,292653.28125,0.04541015625,0.8076171875,-0.56591796875,10.864256858825684,2.777099370956421,5.126952648162842,100.0,30063.0,1.0
989599.2739693,314129.03125,303362.1875,338347.125,333185.21875,310553.625,305939.53125,304858.125,289656.90625,0.050048828125,0.8046875,-0.569580078125,11.260985374450684,2.716064214706421,5.065917491912842,100.0,30064.0,1.0
989599.2763493,312047.71875,299210.65625,330170.78125,327252.4375,301013.09375,300548.625,300610.6875,288325.34375,0.05078125,0.806396484375,-0.56787109375,11.657713890075684,2.655029058456421,4.943847179412842,100.0,30065.0,1.0
989599.2788083,314950.03125,306397.71875,336830.96875,330327.3125,306377.96875,306228.65625,303688.34375,290450.90625,0.052490234375,0.8046875,-0.565185546875,11.962889671325684,2.380370855331421,4.882812023162842,100.0,30066.0,1.0
989599.336474,318880.8125,315292.84375,349432.78125,338314.84375,319679.65625,315466.1875,310007.90625,293174.15625,0.059326171875,0.80712890625,-0.565673828125,12.145995140075684,1.9531248807907104,4.913329601287842,100.0,30067.0,1.0
989599.3365121,318365.5625,313367.8125,350351.28125,340081.4375,322380.46875,315300.34375,310735.84375,292668.46875,0.064208984375,0.810302734375,-0.56689453125,12.298583030700684,1.6479490995407104,5.126952648162842,100.0,30068.0,1.0
989599.3387925,314185.78125,303493.53125,338562.6875,333336.0625,311064.78125,306162.84375,304999.3125,289698.125,0.07470703125,0.815185546875,-0.572021484375,12.298583030700684,1.4343260526657104,5.493163585662842,100.0,30069.0,1.0
989599.3414043,312069.4375,299279.3125,330298.1875,327348.71875,301465.0625,300703.03125,300703.9375,288339.65625,0.08154296875,0.822021484375,-0.58203125,12.359618186950684,2.319335699081421,5.859374523162842,100.0,30070.0,1.0
989599.3439345,314909.09375,306334.53125,336765.15625,330286.46875,306628.9375,306244.65625,303681.625,290422.3125,0.0810546875,0.829833984375,-0.57958984375,12.603758811950684,3.326415777206421,6.378173351287842,100.0,30071.0,1.0
989599.3463665,318836.21875,315198.25,349310.9375,338233.21875,319837.375,315448.03125,309994.40625,293150.375,0.07470703125,0.8388671875,-0.578125,12.420653343200684,3.723144292831421,6.561278820037842,100.0,30072.0,1.0
989599.3489058,318377.1875,313370.125,350372.65625,340110.5,322666.125,315392.59375,310815.15625,292690.21875,0.07470703125,0.84814453125,-0.578857421875,11.993407249450684,3.540038824081421,6.805419445037842,100.0,30073.0,1.0
989599.3614449,314228.09375,303556.65625,338699.65625,333467.125,311478.46875,306334.25,305153.4375,289742.375,0.072509765625,0.857177734375,-0.573974609375,11.688231468200684,3.662109136581421,6.896972179412842,100.0,30074.0,1.0
989599.3637694,312082.9375,299281.46875,330361.9375,327429.03125,301812.40625,300813.28125,300824.28125,288347.96875,0.0693359375,0.862548828125,-0.57177734375,11.169432640075684,3.723144292831421,6.958007335662842,100.0,30075.0,1.0
989599.3663747,314863.5,306234.46875,336651.4375,330243.28125,306780.21875,306224.53125,303698.0,290383.875,0.0654296875,0.867431640625,-0.572265625,10.498045921325684,3.753661870956421,6.774901866912842,100.0,30076.0,1.0
989599.3712764,318793.1875,315105.875,349167.71875,338182.34375,319934.84375,315411.375,309991.25,293129.1875,0.0595703125,0.872802734375,-0.56884765625,9.857176780700684,3.814697027206421,6.561278820037842,100.0,30077.0,1.0
989599.3737805,318390.6875,313384.71875,350379.96875,340163.0,322918.4375,315475.5,310902.84375,292714.4375,0.05615234375,0.8759765625,-0.56982421875,8.972167015075684,3.753661870956421,6.103515148162842,100.0,30078.0,1.0
989599.3788032,314276.1875,303629.59375,338818.5625,333588.96875,311874.25,306504.84375,305314.90625,289784.46875,0.049072265625,0.874755859375,-0.57275390625,8.117674827575684,3.631591558456421,5.798339366912842,100.0,30079.0,1.0
989599.3813874,312093.03125,299292.8125,330400.8125,327496.15625,302158.6875,300941.21875,300944.875,288362.90625,0.0439453125,0.871337890625,-0.575439453125,7.110595226287842,3.234863042831421,5.493163585662842,100.0,30080.0,1.0
989599.3838903,314816.5625,306149.0,336527.625,330193.40625,306955.71875,306247.25,303718.65625,290353.90625,0.03955078125,0.864501953125,-0.573486328125,6.286620616912842,2.624511480331421,5.187987804412842,100.0,30081.0,1.0
989599.3864182,318740.53125,315031.65625,349016.15625,338097.78125,320049.0,315416.3125,309979.90625,293088.25,0.038818359375,0.854248046875,-0.57568359375,5.432128429412842,2.044677495956421,4.760741710662842,100.0,30082.0,1.0
989599.391342,318392.125,313438.09375,350394.71875,340179.25,323184.6875,315599.84375,310967.0625,292720.25,0.039306640625,0.8427734375,-0.577880859375,4.943847179412842,1.4648436307907104,4.516601085662842,100.0,30083.0,1.0
989599.3938251,314317.9375,303752.71875,338965.03125,333701.46875,312276.15625,306710.375,305429.625,289823.5625,0.043701171875,0.83251953125,-0.578125,4.547118663787842,1.0375975370407104,4.028319835662842,100.0,30084.0,1.0
989599.3938655,312110.21875,299358.28125,330490.59375,327568.125,302505.46875,301091.15625,301001.21875,288393.9375,0.05517578125,0.820556640625,-0.5810546875,4.333495616912842,0.6408690810203552,3.540038824081421,100.0,30085.0,1.0
989599.4015062,314778.5625,306125.75,336464.84375,330143.25,307130.15625,306282.75,303665.28125,290356.15625,0.06591796875,0.807861328125,-0.581787109375,4.241942882537842,0.3356933295726776,3.173827886581421,100.0,30086.0,1.0
989599.4015467,318730.15625,315070.90625,348983.25,338060.125,320232.90625,315485.15625,309932.0625,293117.125,0.07861328125,0.794921875,-0.5849609375,4.333495616912842,0.4272460639476776,2.777099370956421,100.0,30087.0,1.0
989599.4015567,318450.15625,313619.9375,350553.59375,340276.4375,323564.125,315801.375,311010.21875,292793.75,0.091796875,0.7822265625,-0.58984375,4.669188976287842,0.5798339247703552,2.441406011581421,100.0,30088.0,1.0
989599.4037783,314395.53125,303966.46875,339230.21875,333883.75,312789.78125,306964.21875,305530.75,289909.375,0.102294921875,0.773193359375,-0.5927734375,5.401610851287842,1.0070799589157104,2.166747808456421,100.0,30089.0,1.0
989599.4064751,312141.0625,299474.125,330657.96875,327701.71875,302946.875,301255.21875,301060.5,288436.75,0.10986328125,0.76611328125,-0.5986328125,6.225585460662842,1.6479490995407104,1.9531248807907104,100.0,30090.0,1.0
989599.4065175,314763.375,306144.625,336480.5,330178.46875,307418.03125,306339.4375,303659.375,290359.8125,0.114990234375,0.76318359375,-0.601806640625,6.927489757537842,2.319335699081421,1.7700194120407104,100.0,30091.0,1.0
989599.4087867,318716.40625,315099.96875,348986.125,338072.46875,320483.71875,315537.0,309933.78125,293126.5,0.120849609375,0.7646484375,-0.60205078125,7.659911632537842,3.082275152206421,1.6784666776657104,100.0,30092.0,1.0
989599.4114003,318493.40625,313746.96875,350707.75,340388.5625,323954.9375,315957.75,311114.03125,292845.875,0.122314453125,0.767578125,-0.597412109375,8.483885765075684,3.906249761581421,1.8615721464157104,100.0,30093.0,1.0
989599.41396,314466.625,304120.25,339476.6875,334072.59375,313265.0,307168.78125,305707.40625,289975.53125,0.12353515625,0.774658203125,-0.59619140625,9.155272483825684,4.791259288787842,1.9836424589157104,100.0,30094.0,1.0
989599.4140034,312165.71875,299527.4375,330800.125,327819.8125,303309.875,301364.03125,301199.25,288465.09375,0.118408203125,0.787841796875,-0.594970703125,9.765624046325684,5.676269054412842,2.288818120956421,100.0,30095.0,1.0
989599.4153413,314735.90625,306093.375,336454.65625,330169.78125,307584.4375,306321.5625,303720.53125,290344.78125,0.1083984375,0.802734375,-0.595458984375,10.040282249450684,6.439208507537842,2.502441167831421,100.0,30096.0,1.0
989599.4225919,318710.0625,315072.71875,348949.375,338043.59375,320583.84375,315517.96875,309995.03125,293111.3125,0.095458984375,0.81982421875,-0.594482421875,10.040282249450684,6.958007335662842,2.593993902206421,100.0,30097.0,1.0
989599.4226319,318534.8125,313833.34375,350819.0625,340454.53125,324193.46875,316055.8125,311267.1875,292865.8125,0.08056640625,0.8330078125,-0.595458984375,9.765624046325684,7.202147960662842,2.563476324081421,100.0,30098.0,1.0
989599.4250097,314506.21875,304225.59375,339663.28125,334198.46875,313653.375,307316.28125,305914.75,289998.0625,0.064453125,0.84326171875,-0.591796875,9.368895530700684,7.110595226287842,2.380370855331421,100.0,30099.0,1.0
989599.4276772,312162.59375,299522.15625,330877.09375,327877.65625,303626.1875,301422.84375,301335.0625,288443.28125,0.053955078125,0.8525390625,-0.587890625,8.819579124450684,6.713866710662842,1.8005369901657104,100.0,30100.0,1.0
989599.4300936,314693.0,305990.46875,336374.1875,330115.625,307742.0625,306271.5,303740.71875,290287.03125,0.03955078125,0.859375,-0.5830078125,8.056639671325684,6.072997570037842,1.2207030057907104,100.0,30101.0,1.0
989599.4301355,318660.53125,314994.65625,348850.125,337955.53125,320745.40625,315470.375,309968.1875,293059.1875,0.029296875,0.86474609375,-0.57763671875,7.385253429412842,5.126952648162842,0.4272460639476776,100.0,30102.0,1.0
989599.4326521,318529.4375,313855.625,350860.1875,340451.78125,324530.8125,316127.25,311287.21875,292855.875,0.026123046875,0.867431640625,-0.580078125,6.561278820037842,4.364013195037842,-0.5493163466453552,100.0,30103.0,1.0
989599.4351545,314549.78125,304275.125,339796.5,334267.03125,314082.625,307458.8125,305964.625,290015.78125,0.025146484375,0.865966796875,-0.581298828125,5.584716320037842,3.631591558456421,-1.4038084745407104,100.0,30104.0,1.0
989599.4376639,312176.625,299482.90625,330903.8125,327883.21875,303948.5,301492.9375,301313.34375,288434.0,0.026611328125,0.858642578125,-0.580078125,4.425048351287842,2.746581792831421,-2.258300542831421,100.0,30105.0,1.0
989599.4401765,314649.375,305856.90625,336225.0625,330005.65625,307871.96875,306228.5625,303608.125,290243.5,0.0302734375,0.84619140625,-0.58349609375,3.326415777206421,1.8310545682907104,-2.777099370956421,100.0,30106.0,1.0
989599.4490035,318624.3125,314900.40625,348702.15625,337839.5625,320839.90625,315444.90625,309813.0,293031.46875,0.038818359375,0.83251953125,-0.585205078125,2.563476324081421,0.9460448622703552,-3.265380620956421,100.0,30107.0,1.0
989599.4490428,318558.78125,313900.5,350885.75,340454.71875,324790.4375,316235.90625,311223.5625,292882.6875,0.046875,0.815185546875,-0.587646484375,2.044677495956421,0.3662109076976776,-3.723144292831421,100.0,30108.0,1.0
989599.4513526,314572.03125,304330.5625,339877.25,334330.25,314417.4375,307585.3125,305941.21875,290049.03125,0.053466796875,0.80224609375,-0.59228515625,1.9531248807907104,-0.0915527269244194,-4.302978038787842,100.0,30109.0,1.0
989599.4551848,312150.875,299434.625,330869.5,327905.125,304181.34375,301521.125,301252.625,288452.9375,0.05810546875,0.79296875,-0.5966796875,2.227782964706421,-0.2746581733226776,-4.882812023162842,100.0,30110.0,1.0
989599.4552279,314582.125,305698.9375,336027.46875,329916.5,307909.15625,306129.3125,303467.25,290227.125,0.06591796875,0.78515625,-0.601806640625,2.563476324081421,-0.3967284858226776,-5.401610851287842,100.0,30111.0,1.0
989599.4813624,318565.03125,314767.21875,348496.15625,337726.03125,320827.84375,315338.34375,309669.84375,293013.5,0.071533203125,0.780517578125,-0.605712890625,2.960204839706421,-0.4577636420726776,-5.584716320037842,100.0,30112.0,1.0
989599.4889863,318539.46875,313880.71875,350830.125,340435.0625,324928.84375,316225.625,311172.96875,292896.8125,0.075927734375,0.777587890625,-0.606201171875,3.448486089706421,-0.2746581733226776,-5.584716320037842,100.0,30113.0,1.0
989599.4890261,314589.28125,304343.96875,339915.96875,334401.25,314662.25,307616.15625,305977.4375,290089.34375,0.076904296875,0.776123046875,-0.606689453125,3.723144292831421,-0.2441406100988388,-5.371093273162842,100.0,30114.0,1.0
989599.4890349,312136.3125,299332.15625,330787.3125,327918.34375,304291.46875,301435.625,301267.65625,288461.15625,0.078369140625,0.77685546875,-0.606689453125,3.875732183456421,-0.0915527269244194,-5.065917491912842,100.0,30115.0,1.0
989599.4890441,314517.9375,305496.15625,335777.84375,329815.75,307824.75,305919.21875,303426.65625,290198.0,0.0732421875,0.780029296875,-0.608642578125,4.089354991912842,0.1525878757238388,-4.699706554412842,100.0,30116.0,1.0
989599.4927466,318515.0625,314615.125,348259.0625,337619.375,320728.875,315150.75,309663.40625,292997.5,0.06640625,0.7861328125,-0.609375,4.486083507537842,0.4882812201976776,-4.608153820037842,100.0,30117.0,1.0
989599.4927891,318546.15625,313850.78125,350756.375,340436.40625,324981.9375,316170.34375,311281.3125,292921.9375,0.05859375,0.794189453125,-0.613525390625,4.882812023162842,0.7934569716453552,-4.699706554412842,100.0,30118.0,1.0
989599.492799,314603.15625,304317.84375,339912.28125,334467.75,314801.96875,307603.75,306154.1875,290122.25,0.05322265625,0.803466796875,-0.614990234375,5.157470226287842,1.0375975370407104,-4.730224132537842,100.0,30119.0,1.0
989599.4951655,312081.0625,299172.21875,330648.3125,327907.15625,304326.25,301314.125,301390.59375,288448.46875,0.04296875,0.811279296875,-0.612548828125,5.249022960662842,1.2207030057907104,-4.699706554412842,100.0,30120.0,1.0
989599.4977121,314418.875,305236.25,335474.5,329692.34375,307679.1875,305678.28125,303463.46875,290149.71875,0.03466796875,0.817138671875,-0.613037109375,5.004882335662842,1.0375975370407104,-4.577636241912842,100.0,30121.0,1.0
989599.5000546,318440.40625,314410.125,347970.625,337475.25,320541.8125,314919.65625,309678.59375,292953.5,0.02587890625,0.822998046875,-0.609619140625,4.669188976287842,0.6408690810203552,-4.455565929412842,100.0,30122.0,1.0
989599.5025357,318536.78125,313794.09375,350649.09375,340393.65625,324945.90625,316060.46875,311357.21875,292917.125,0.0166015625,0.82666015625,-0.607421875,4.333495616912842,0.2136230319738388,-4.455565929412842,100.0,30123.0,1.0
989599.5314237,314621.125,304302.125,339903.53125,334499.6875,314869.84375,307549.65625,306262.53125,290128.15625,0.01171875,0.83056640625,-0.608642578125,4.028319835662842,-0.3051757514476776,-4.760741710662842,100.0,30124.0,1.0
989599.5352671,312065.9375,299067.34375,330546.1875,327895.1875,304285.75,301177.6875,301438.59375,288424.34375,0.008544921875,0.832763671875,-0.606689453125,3.692626714706421,-0.7629393935203552,-5.126952648162842,100.0,30125.0,1.0
989599.5353093,314355.65625,305049.75,335231.3125,329572.09375,307449.96875,305426.0625,303402.3125,290085.6875,0.00537109375,0.834716796875,-0.60693359375,3.295898199081421,-1.2817381620407104,-5.462646007537842,100.0,30126.0,1.0
989599.5353195,318406.78125,314308.09375,347772.34375,337356.78125,320312.5,314702.75,309606.375,292909.96875,0.002197265625,0.83203125,-0.604736328125,2.838134527206421,-1.8310545682907104,-5.767821788787842,100.0,30127.0,1.0
989599.5390697,318565.03125,313854.34375,350658.75,340390.34375,324925.96875,316007.46875,311369.03125,292923.5625,0.00146484375,0.829833984375,-0.608642578125,2.319335699081421,-2.349853277206421,-6.164550304412842,100.0,30128.0,1.0
989599.5391104,314658.5625,304397.875,340012.6875,334570.9375,314987.40625,307575.125,306318.15625,290145.875,0.0029296875,0.826904296875,-0.6083984375,1.6784666776657104,-2.960204839706421,-6.408690929412842,100.0,30129.0,1.0
989599.5391207,312062.8125,299055.34375,330546.8125,327914.78125,304321.34375,301129.875,301437.25,288411.625,0.0087890625,0.825439453125,-0.60888671875,1.3122557401657104,-3.509521245956421,-6.744384288787842,100.0,30130.0,1.0
989599.5412407,314322.75,304957.5625,335090.40625,329503.1875,307334.625,305296.15625,303329.375,290056.71875,0.0087890625,0.8203125,-0.610107421875,0.9460448622703552,-3.814697027206421,-7.049560070037842,100.0,30131.0,1.0
989599.5438828,318386.40625,314270.71875,347653.59375,337277.90625,320194.3125,314607.0,309526.625,292893.4375,0.013427734375,0.8154296875,-0.60693359375,0.4882812201976776,-4.089354991912842,-7.324218273162842,100.0,30132.0,1.0
989599.5464476,318598.46875,313952.96875,350717.5625,340415.375,324986.59375,316055.8125,311373.75,292955.125,0.019287109375,0.8095703125,-0.608642578125,0.1525878757238388,-4.211425304412842,-7.446288585662842,100.0,30133.0,1.0
989599.5487517,314716.875,304514.375,340161.90625,334669.375,315157.71875,307677.40625,306372.34375,290197.625,0.025390625,0.80322265625,-0.609619140625,-0.1525878757238388,-4.150390148162842,-7.568358898162842,100.0,30134.0,1.0
989599.5551545,312075.53125,299042.46875,330567.84375,327956.96875,304383.03125,301127.09375,301441.1875,288434.78125,0.0302734375,0.794677734375,-0.611572265625,-0.1831054538488388,-4.058837413787842,-7.720946788787842,100.0,30135.0,1.0
989599.5614417,314275.71875,304814.5,334921.5,329417.96875,307188.1875,305147.5625,303232.53125,290029.28125,0.038818359375,0.78466796875,-0.611083984375,-0.1525878757238388,-3.814697027206421,-7.812499523162842,100.0,30136.0,1.0
989599.561484,318356.71875,314175.59375,347502.0625,337184.125,320033.09375,314475.28125,309434.4375,292879.46875,0.0458984375,0.77685546875,-0.614501953125,0.03051757626235485,-3.417968511581421,-7.720946788787842,100.0,30137.0,1.0
989599.5637881,318619.9375,313987.125,350739.21875,340416.28125,324983.375,316028.125,311357.65625,292971.84375,0.04638671875,0.766845703125,-0.609375,0.4272460639476776,-3.143310308456421,-7.385253429412842,100.0,30138.0,1.0
989599.5676628,314741.1875,304566.59375,340255.4375,334735.90625,315244.09375,307665.59375,306408.53125,290222.3125,0.0517578125,0.765869140625,-0.6181640625,1.0986326932907104,-3.387450933456421,-7.110595226287842,100.0,30139.0,1.0
989599.5839893,312039.5625,298969.71875,330521.0625,327956.625,304335.46875,300978.21875,301426.15625,288420.9375,0.064208984375,0.767333984375,-0.634765625,1.3732908964157104,-2.227782964706421,-6.896972179412842,100.0,30140.0,1.0
989599.5840308,314196.96875,304638.90625,334702.71875,329315.59375,306949.71875,304872.53125,303155.125,289989.9375,0.061767578125,0.775390625,-0.636474609375,2.197265386581421,-0.3356933295726776,-6.347655773162842,100.0,30141.0,1.0
989599.5862828,318299.40625,314042.84375,347296.3125,337060.9375,319762.8125,314215.75,309369.78125,292836.21875,0.049072265625,0.77978515625,-0.634765625,2.441406011581421,0.7934569716453552,-5.859374523162842,100.0,30142.0,1.0
989599.5889152,318633.0625,314009.5625,350725.1875,340404.5625,324898.96875,315916.8125,311401.46875,292974.0,0.03857421875,0.7880859375,-0.6357421875,2.624511480331421,1.2817381620407104,-5.523681163787842,100.0,30143.0,1.0
989599.5963639,314781.875,304634.71875,340340.46875,334814.03125,315282.1875,307617.15625,306510.8125,290240.625,0.02880859375,0.7958984375,-0.6298828125,2.960204839706421,1.8920897245407104,-5.157470226287842,100.0,30144.0,1.0
989599.6014142,312037.875,298914.1875,330487.71875,327976.0,304265.71875,300834.8125,301468.8125,288395.53125,0.01904296875,0.8046875,-0.624755859375,3.021239995956421,2.380370855331421,-4.821776866912842,100.0,30145.0,1.0
989599.6039114,314152.8125,304472.4375,334511.5,329224.59375,306696.0,304609.5,303114.96875,289926.375,0.012939453125,0.8115234375,-0.62060546875,2.990722417831421,2.777099370956421,-4.760741710662842,100.0,30146.0,1.0
989599.6062723,318282.96875,313943.3125,347132.0,336975.28125,319506.5,313979.53125,309331.96875,292809.46875,0.004150390625,0.817138671875,-0.616455078125,2.746581792831421,3.051757574081421,-4.669188976287842,100.0,30147.0,1.0
989599.608935,318674.46875,314066.875,350751.0,340428.15625,324829.96875,315835.4375,311452.71875,292997.15625,-0.00390625,0.82275390625,-0.614013671875,2.380370855331421,3.448486089706421,-4.669188976287842,100.0,30148.0,1.0
989599.6089765,314846.78125,304742.90625,340475.90625,334912.65625,315356.03125,307636.625,306629.375,290278.1875,-0.01123046875,0.826904296875,-0.61376953125,1.8310545682907104,3.417968511581421,-4.913329601287842,100.0,30149.0,1.0
989599.6126956,312048.78125,298915.875,330511.0625,328018.125,304260.1875,300785.28125,301543.03125,288402.59375,-0.0146484375,0.830810546875,-0.61328125,1.3122557401657104,3.448486089706421,-5.157470226287842,100.0,30150.0,1.0
989599.6314366,314107.90625,304367.125,334366.5625,329149.9375,306507.78125,304441.40625,303080.5625,289892.5625,-0.019287109375,0.83154296875,-0.61376953125,0.8239745497703552,3.387450933456421,-5.279540538787842,100.0,30151.0,1.0
989599.6314793,318238.4375,313876.875,346984.75,336871.375,319288.0625,313822.09375,309270.65625,292767.8125,-0.02685546875,0.832275390625,-0.612548828125,0.2441406100988388,3.295898199081421,-5.462646007537842,100.0,30152.0,1.0
989599.6413551,318686.1875,314141.8125,350776.9375,340411.53125,324780.78125,315815.5,311456.5625,292987.5625,-0.037353515625,0.829833984375,-0.609619140625,-0.2136230319738388,2.990722417831421,-5.676269054412842,100.0,30153.0,1.0
989599.6413994,314880.03125,304851.0625,340600.1875,334969.78125,315432.65625,307682.9375,306671.03125,290287.125,-0.0419921875,0.82763671875,-0.6064453125,-0.7324218153953552,2.410888433456421,-6.042479991912842,100.0,30154.0,1.0
989599.6438799,312041.625,298904.34375,330525.375,328028.6875,304246.40625,300742.03125,301519.9375,288384.8125,-0.046630859375,0.823974609375,-0.60498046875,-1.4038084745407104,1.9836424589157104,-6.408690929412842,100.0,30155.0,1.0
989599.6464067,314042.84375,304227.46875,334192.46875,329034.59375,306291.4375,304253.3125,302946.875,289832.03125,-0.04931640625,0.8212890625,-0.60009765625,-1.8920897245407104,1.5869139432907104,-6.622313976287842,100.0,30156.0,1.0
989599.6489043,318191.3125,313787.03125,346823.8125,336739.59375,319052.75,313647.21875,309143.0625,292719.8125,-0.051025390625,0.821533203125,-0.598388671875,-2.197265386581421,1.0070799589157104,-6.927489757537842,100.0,30157.0,1.0
989599.6538983,318715.5,314231.125,350835.0625,340419.0625,324774.4375,315821.21875,311520.125,292998.03125,-0.056396484375,0.818115234375,-0.59765625,-2.685546636581421,0.5187987685203552,-7.019042491912842,100.0,30158.0,1.0
989599.6553706,314923.21875,304985.375,340764.78125,335059.90625,315576.53125,307779.0625,306925.6875,290295.625,-0.0654296875,0.81201171875,-0.594482421875,-3.234863042831421,0.2136230319738388,-7.324218273162842,100.0,30159.0,1.0
989599.6841401,312019.5625,298894.5,330544.40625,328028.75,304264.84375,300721.8125,301692.96875,288328.65625,-0.06884765625,0.80322265625,-0.595703125,-3.631591558456421,-0.5187987685203552,-7.934569835662842,100.0,30160.0,1.0
989599.7027501,313972.65625,304107.3125,334043.8125,328919.71875,306132.09375,304124.1875,303007.59375,289750.0625,-0.069580078125,0.79736328125,-0.59375,-3.540038824081421,-1.0375975370407104,-8.483885765075684,100.0,30161.0,1.0
989599.7027918,318149.46875,313734.375,346709.1875,336626.5,318902.46875,313568.71875,309176.6875,292673.84375,-0.06787109375,0.795166015625,-0.59375,-3.356933355331421,-1.6479490995407104,-8.728026390075684,100.0,30162.0,1.0
989599.7076487,318725.875,314320.25,350904.34375,340389.53125,324799.28125,315877.0,311531.9375,292993.65625,-0.066650390625,0.788330078125,-0.59228515625,-3.540038824081421,-2.258300542831421,-8.819579124450684,100.0,30163.0,1.0
989599.7126832,314969.4375,305123.84375,340950.5625,335118.1875,315728.40625,307889.40625,306843.78125,290327.1875,-0.06591796875,0.78515625,-0.595703125,-3.601073980331421,-2.929687261581421,-8.666991233825684,100.0,30164.0,1.0
989599.7439259,312034.3125,298941.28125,330639.90625,328072.5625,304354.875,300766.78125,301581.90625,288363.09375,-0.0673828125,0.7802734375,-0.599365234375,-3.601073980331421,-3.417968511581421,-8.392333030700684,100.0,30165.0,1.0
989599.7462955,313942.34375,304047.5,333969.9375,328862.75,306043.21875,304066.53125,302843.96875,289745.21875,-0.069091796875,0.77490234375,-0.599609375,-3.295898199081421,-3.875732183456421,-8.117674827575684,100.0,30166.0,1.0
989599.7513587,318124.71875,313707.46875,346627.5625,336529.40625,318763.15625,313521.40625,309007.78125,292649.71875,-0.072265625,0.776123046875,-0.601318359375,-2.990722417831421,-4.364013195037842,-8.026122093200684,100.0,30167.0,1.0
989599.753878,318770.65625,314460.28125,351020.9375,340410.28125,324852.03125,315991.8125,311479.96875,293025.84375,-0.072998046875,0.776611328125,-0.60546875,-2.288818120956421,-4.760741710662842,-7.781981945037842,100.0,30168.0,1.0
989599.7564161,315035.25,305300.0,341157.65625,335199.90625,315915.46875,308065.875,306856.125,290376.09375,-0.07666015625,0.7783203125,-0.608154296875,-1.7395018339157104,-5.187987804412842,-7.690429210662842,100.0,30169.0,1.0
989599.7587716,312060.40625,298994.65625,330726.53125,328096.71875,304461.4375,300840.375,301546.0625,288374.09375,-0.079345703125,0.784912109375,-0.607666015625,-1.2512205839157104,-5.645751476287842,-7.385253429412842,100.0,30170.0,1.0
989599.7614141,313908.8125,303983.125,333880.0,328783.53125,305982.34375,304006.90625,302729.90625,289724.5625,-0.081787109375,0.786865234375,-0.609375,-0.9155272841453552,-6.225585460662842,-7.110595226287842,100.0,30171.0,1.0
989599.7638891,318089.5625,313676.15625,346527.5,336432.5625,318675.0,313456.0625,308890.03125,292641.84375,-0.08447265625,0.789306640625,-0.6083984375,-0.5798339247703552,-6.652831554412842,-6.713866710662842,100.0,30172.0,1.0
989599.7663845,318792.03125,314574.34375,351087.90625,340410.28125,324925.8125,316045.8125,311439.03125,293054.4375,-0.0859375,0.78662109375,-0.6083984375,-0.3051757514476776,-7.141112804412842,-6.317138195037842,100.0,30173.0,1.0
989599.7688614,315084.0625,305459.03125,341330.03125,335299.59375,316115.5625,308191.9375,306887.3125,290412.5625,-0.088134765625,0.788818359375,-0.608642578125,-0.0610351525247097,-7.629394054412842,-6.072997570037842,100.0,30174.0,1.0
989599.7714164,312059.0625,299030.25,330773.75,328152.9375,304567.75,300884.28125,301548.90625,288375.4375,-0.0869140625,0.789794921875,-0.608642578125,0.3662109076976776,-7.995604991912842,-5.859374523162842,100.0,30175.0,1.0
989599.7738939,313856.875,303893.4375,333743.125,328724.53125,305896.15625,303937.15625,302650.21875,289694.90625,-0.087646484375,0.7890625,-0.610107421875,0.8239745497703552,-8.178709983825684,-5.554198741912842,100.0,30176.0,1.0
989599.7739343,318056.65625,313616.71875,346387.9375,336343.625,318536.34375,313391.5,308804.65625,292619.125,-0.08837890625,0.791748046875,-0.61083984375,1.2512205839157104,-8.605956077575684,-5.249022960662842,100.0,30177.0,1.0
989599.7789037,318815.65625,314643.8125,351117.84375,340411.09375,324926.34375,316092.84375,311430.34375,293062.5,-0.088623046875,0.79296875,-0.611083984375,1.5869139432907104,-9.002684593200684,-4.882812023162842,100.0,30178.0,1.0
989599.78157,315139.84375,305580.1875,341476.75,335392.3125,316240.4375,308302.625,306947.5,290453.59375,-0.087890625,0.79248046875,-0.614501953125,1.8310545682907104,-9.338377952575684,-4.486083507537842,100.0,30179.0,1.0
989599.7838165,312059.6875,299039.25,330810.84375,328205.4375,304595.625,300903.125,301583.15625,288387.84375,-0.08837890625,0.79296875,-0.612548828125,2.288818120956421,-9.613036155700684,-4.302978038787842,100.0,30180.0,1.0
989599.7864271,313799.1875,303775.40625,333588.0,328662.75,305716.28125,303828.71875,302618.5,289657.4375,-0.088134765625,0.79541015625,-0.60986328125,2.502441167831421,-9.887694358825684,-4.028319835662842,100.0,30181.0,1.0
989599.7864692,318007.3125,313533.84375,346220.84375,336257.6875,318314.4375,313302.53125,308776.21875,292587.5625,-0.083984375,0.796142578125,-0.611572265625,2.807616949081421,-10.040282249450684,-3.845214605331421,100.0,30182.0,1.0
989599.788907,318827.4375,314693.90625,351114.90625,340409.75,324850.0,316134.0625,311492.6875,293083.34375,-0.07861328125,0.79833984375,-0.611083984375,3.021239995956421,-10.253905296325684,-3.631591558456421,100.0,30183.0,1.0
989599.79125,315162.46875,305645.46875,341560.59375,335449.1875,316253.6875,308382.5625,307051.125,290474.6875,-0.074951171875,0.798828125,-0.609375,3.173827886581421,-10.284422874450684,-3.387450933456421,100.0,30184.0,1.0
989599.7939332,312044.40625,298992.25,330805.3125,328218.5625,304524.75,300894.375,301644.59375,288385.15625,-0.071044921875,0.801025390625,-0.612548828125,3.265380620956421,-10.314940452575684,-3.051757574081421,100.0,30185.0,1.0
989599.796368,313736.34375,303628.4375,333430.71875,328576.1875,305478.09375,303708.71875,302595.53125,289632.5,-0.06982421875,0.801513671875,-0.611083984375,3.417968511581421,-10.314940452575684,-2.807616949081421,100.0,30186.0,1.0
989599.7987884,317953.3125,313419.40625,346041.15625,336136.8125,318020.09375,313174.6875,308712.84375,292566.28125,-0.06787109375,0.80126953125,-0.612548828125,3.570556402206421,-10.131834983825684,-2.563476324081421,100.0,30187.0,1.0
989599.8014242,318831.1875,314715.34375,351086.28125,340372.46875,324691.65625,316113.5,311478.0,293088.5,-0.06494140625,0.802734375,-0.611083984375,3.662109136581421,-9.918211936950684,-2.349853277206421,100.0,30188.0,1.0
989599.8014665,315206.0,305727.8125,341655.625,335505.15625,316223.375,308427.8125,307105.90625,290509.03125,-0.062744140625,0.803955078125,-0.611572265625,3.601073980331421,-9.765624046325684,-2.044677495956421,100.0,30189.0,1.0
989599.8053346,312062.03125,298991.53125,330833.375,328260.5,304441.15625,300874.15625,301678.90625,288400.90625,-0.05615234375,0.805419921875,-0.60986328125,3.570556402206421,-9.643553733825684,-1.8005369901657104,100.0,30190.0,1.0
989599.8053754,313699.875,303521.40625,333286.6875,328510.125,305232.5625,303577.28125,302541.0625,289605.75,-0.052978515625,0.806396484375,-0.610107421875,3.417968511581421,-9.399413108825684,-1.4648436307907104,100.0,30191.0,1.0
989599.8053843,317920.59375,313349.46875,345875.46875,336033.0,317752.5,313048.28125,308629.5,292543.5,-0.049072265625,0.805419921875,-0.61083984375,3.448486089706421,-9.094237327575684,-1.0681151151657104,100.0,30192.0,1.0
989599.8053933,318862.5,314789.1875,351098.34375,340372.46875,324608.5,316127.0,311464.34375,293118.8125,-0.048095703125,0.80712890625,-0.610107421875,3.387450933456421,-8.666991233825684,-0.9460448622703552,100.0,30193.0,1.0
989599.8076855,315257.4375,305830.96875,341771.34375,335583.375,316278.90625,308512.28125,307137.84375,290551.59375,-0.045654296875,0.80908203125,-0.61279296875,3.265380620956421,-8.270262718200684,-0.6713866591453552,100.0,30194.0,1.0
989599.81004,312065.6875,298994.90625,330860.1875,328301.8125,304440.0625,300899.5625,301681.40625,288414.3125,-0.048828125,0.8134765625,-0.614013671875,3.173827886581421,-7.843017101287842,-0.4577636420726776,100.0,30195.0,1.0
989599.8126798,313662.84375,303440.40625,333173.15625,328470.6875,305092.21875,303523.375,302486.71875,289594.84375,-0.051513671875,0.816650390625,-0.615478515625,2.990722417831421,-7.476806163787842,-0.2136230319738388,100.0,30196.0,1.0
989599.8127211,317887.78125,313291.375,345738.6875,335965.59375,317567.4375,313001.6875,308562.53125,292533.3125,-0.05126953125,0.8203125,-0.614501953125,2.716064214706421,-7.171630382537842,-0.1831054538488388,100.0,30197.0,1.0
989599.8150488,318870.53125,314833.1875,351088.34375,340369.96875,324542.4375,316176.09375,311451.8125,293130.96875,-0.052734375,0.822509765625,-0.61767578125,2.593993902206421,-6.958007335662842,-0.1831054538488388,100.0,30198.0,1.0
989599.8175924,315302.9375,305926.375,341882.375,335672.625,316343.4375,308627.8125,307199.625,290595.21875,-0.049072265625,0.8232421875,-0.618896484375,2.166747808456421,-6.713866710662842,-0.03051757626235485,100.0,30199.0,1.0
989599.8176313,312079.53125,298998.5,330903.28125,328360.90625,304455.90625,300945.0625,301727.1875,288439.09375,-0.04736328125,0.82861328125,-0.61376953125,1.9226073026657104,-6.378173351287842,-0.03051757626235485,100.0,30200.0,1.0
989599.8226384,313609.125,303319.28125,333034.46875,328406.5,304923.21875,303432.1875,302432.15625,289571.6875,-0.044677734375,0.831787109375,-0.61328125,1.4953612089157104,-6.164550304412842,0.1220703050494194,100.0,30201.0,1.0
989599.8251524,317838.0625,313195.875,345562.375,335858.125,317330.5,312892.0625,308478.125,292508.34375,-0.041015625,0.833251953125,-0.614501953125,1.0681151151657104,-5.767821788787842,0.0610351525247097,100.0,30202.0,1.0
989599.8277233,318880.09375,314876.0,351072.875,340346.28125,324448.46875,316180.90625,311450.75,293149.65625,-0.040283203125,0.834716796875,-0.6142578125,0.5187987685203552,-5.432128429412842,0.1525878757238388,100.0,30203.0,1.0
989599.8277656,315330.65625,305990.5625,341969.28125,335715.96875,316361.40625,308681.09375,307239.59375,290618.375,-0.04150390625,0.834228515625,-0.611328125,0.0,-5.187987804412842,0.2746581733226776,100.0,30204.0,1.0
989599.830036,312090.53125,298984.1875,330934.9375,328391.75,304424.6875,300941.5625,301732.1875,288446.25,-0.0419921875,0.835693359375,-0.608642578125,-0.5493163466453552,-4.760741710662842,0.3051757514476776,100.0,30205.0,1.0
989599.8613878,313579.875,303222.96875,332921.46875,328342.84375,304740.9375,303336.4375,302372.09375,289551.125,-0.040283203125,0.830810546875,-0.609619140625,-1.0681151151657104,-4.425048351287842,0.3051757514476776,100.0,30206.0,1.0
989599.8614275,317807.59375,313131.5,345420.84375,335757.1875,317103.84375,312798.65625,308402.15625,292488.78125,-0.041015625,0.82763671875,-0.610595703125,-1.6479490995407104,-4.150390148162842,0.4272460639476776,100.0,30207.0,1.0
989599.8614376,318894.5,314920.8125,351069.5625,340328.21875,324353.25,316197.09375,311432.5,293164.6875,-0.04052734375,0.8203125,-0.610595703125,-1.9836424589157104,-3.784179449081421,0.3967284858226776,100.0,30208.0,1.0
989599.8652533,315385.90625,306090.25,342089.71875,335798.21875,316400.75,308771.65625,307286.34375,290665.75,-0.03955078125,0.814697265625,-0.612060546875,-2.349853277206421,-3.509521245956421,0.5493163466453552,100.0,30209.0,1.0
989599.8652954,312095.46875,298993.75,330975.96875,328432.15625,304402.25,300954.28125,301734.78125,288462.34375,-0.037353515625,0.807861328125,-0.609130859375,-2.593993902206421,-3.295898199081421,0.5493163466453552,100.0,30210.0,1.0
989599.8653055,313530.625,303139.03125,332799.34375,328282.84375,304563.46875,303250.78125,302300.90625,289537.1875,-0.0341796875,0.802001953125,-0.613037109375,-2.716064214706421,-2.960204839706421,0.6713866591453552,100.0,30211.0,1.0
989599.8677222,317747.3125,313045.84375,345250.34375,335649.28125,316867.09375,312706.09375,308316.40625,292467.5,-0.03076171875,0.796142578125,-0.61279296875,-2.777099370956421,-2.563476324081421,0.9765624403953552,100.0,30212.0,1.0
989599.8677637,318896.5625,314946.46875,351049.0,340305.15625,324255.78125,316215.78125,311418.375,293178.625,-0.029052734375,0.79150390625,-0.616943359375,-2.746581792831421,-2.227782964706421,1.2817381620407104,100.0,30213.0,1.0
989599.8700513,315406.8125,306143.90625,342179.125,335845.34375,316418.90625,308834.78125,307307.625,290679.4375,-0.027587890625,0.78759765625,-0.6181640625,-2.563476324081421,-2.014159917831421,1.6174315214157104,100.0,30214.0,1.0
989599.8725297,312100.1875,298967.1875,331002.4375,328456.125,304364.15625,300947.5625,301740.96875,288456.0625,-0.025634765625,0.783447265625,-0.619384765625,-2.410888433456421,-1.7700194120407104,1.9836424589157104,100.0,30215.0,1.0
989599.8751663,313486.4375,303030.125,332667.46875,328199.0,304350.3125,303129.0,302219.5625,289485.875,-0.02685546875,0.783447265625,-0.61865234375,-2.136230230331421,-1.4953612089157104,2.288818120956421,100.0,30216.0,1.0
989599.8789567,317717.625,313010.53125,345107.5625,335550.5625,316623.5625,312605.53125,308218.78125,292432.28125,-0.0263671875,0.781494140625,-0.61669921875,-1.8920897245407104,-1.3122557401657104,2.532958745956421,100.0,30217.0,1.0
989599.9063326,318906.5625,315026.84375,351037.65625,340275.65625,324137.25,316210.78125,311381.4375,293171.65625,-0.02734375,0.78125,-0.6123046875,-1.6174315214157104,-0.9765624403953552,2.868652105331421,100.0,30218.0,1.0
989599.9102628,315459.9375,306248.96875,342296.0625,335909.09375,316434.5625,308892.53125,307346.59375,290697.6875,-0.02880859375,0.781494140625,-0.613037109375,-1.2817381620407104,-0.8850097060203552,3.112792730331421,100.0,30219.0,1.0
989599.9103083,312137.21875,298978.8125,331081.21875,328515.40625,304349.25,300951.84375,301754.8125,288456.6875,-0.02685546875,0.7841796875,-0.610595703125,-1.0681151151657104,-0.7019042372703552,3.204345464706421,100.0,30220.0,1.0
989599.9103189,313475.90625,302949.46875,332592.1875,328162.78125,304187.3125,303037.1875,302160.1875,289457.25,-0.02685546875,0.78955078125,-0.612548828125,-0.9460448622703552,-0.6408690810203552,3.356933355331421,100.0,30221.0,1.0
989599.9140359,317701.28125,312956.53125,344991.0625,335465.375,316403.96875,312503.96875,308137.3125,292400.78125,-0.025634765625,0.792236328125,-0.612548828125,-0.7934569716453552,-0.4272460639476776,3.509521245956421,100.0,30222.0,1.0
989599.9140771,318934.71875,315091.9375,351062.6875,340271.71875,324061.96875,316223.1875,311373.6875,293179.1875,-0.02392578125,0.79345703125,-0.610595703125,-0.7019042372703552,-0.3662109076976776,3.692626714706421,100.0,30223.0,1.0
989599.914087,315521.8125,306359.5625,342440.71875,335991.34375,316495.1875,308975.5,307403.8125,290732.65625,-0.0234375,0.79541015625,-0.608154296875,-0.7019042372703552,-0.4272460639476776,3.723144292831421,100.0,30224.0,1.0
989599.9164568,312166.625,299011.46875,331159.53125,328569.40625,304360.21875,300968.5,301777.34375,288469.03125,-0.023193359375,0.79638671875,-0.604248046875,-0.5798339247703552,-0.3051757514476776,3.845214605331421,100.0,30225.0,1.0
989599.9212402,313458.90625,302895.21875,332520.3125,328121.65625,304044.09375,302953.875,302108.25,289440.875,-0.0205078125,0.7958984375,-0.6044921875,-0.7934569716453552,-0.1831054538488388,3.845214605331421,100.0,30226.0,1.0
989599.9237543,317674.4375,312913.71875,344871.15625,335378.8125,316200.9375,312415.09375,308068.03125,292381.40625,-0.01806640625,0.798095703125,-0.605224609375,-0.9460448622703552,0.0,3.997802495956421,100.0,30227.0,1.0
989599.9262472,318956.1875,315159.4375,351084.59375,340265.28125,324000.09375,316253.59375,311394.78125,293193.3125,-0.016845703125,0.79833984375,-0.60546875,-1.0375975370407104,0.1525878757238388,4.089354991912842,100.0,30228.0,1.0
989599.9326274,315586.625,306485.34375,342595.5,336094.34375,316588.78125,309087.71875,307522.5625,290774.84375,-0.0146484375,0.798583984375,-0.6064453125,-1.0986326932907104,0.3356933295726776,4.119872570037842,100.0,30229.0,1.0
989599.9363876,312186.21875,299049.8125,331247.875,328640.9375,304409.21875,301010.34375,301870.0625,288474.84375,-0.014404296875,0.7998046875,-0.60595703125,-1.3122557401657104,0.5187987685203552,4.058837413787842,100.0,30230.0,1.0
989599.936402,313416.34375,302828.5,332447.875,328077.9375,303933.9375,302878.84375,302100.46875,289398.0625,-0.011474609375,0.795166015625,-0.603759765625,-1.4038084745407104,0.5493163466453552,3.997802495956421,100.0,30231.0,1.0
989599.9404317,317629.21875,312849.0625,344759.03125,335290.5625,316039.90625,312332.125,308029.5,292344.03125,-0.006103515625,0.791015625,-0.604248046875,-1.4648436307907104,0.7324218153953552,3.936767339706421,100.0,30232.0,1.0
989599.9474907,318964.15625,315189.03125,351110.875,340260.09375,323978.09375,316281.75,311402.65625,293201.875,-0.002197265625,0.790771484375,-0.603271484375,-1.5563963651657104,1.0986326932907104,3.936767339706421,100.0,30233.0,1.0
989599.9475056,315617.90625,306581.28125,342739.53125,336168.71875,316700.8125,309179.1875,307558.59375,290800.5,0.00146484375,0.789306640625,-0.601806640625,-1.5258787870407104,1.3427733182907104,4.028319835662842,100.0,30234.0,1.0
989599.9500752,312224.75,299128.5,331368.46875,328722.46875,304505.875,301066.46875,301898.84375,288502.28125,0.003662109375,0.78662109375,-0.6044921875,-1.5869139432907104,1.6479490995407104,4.302978038787842,100.0,30235.0,1.0
989599.9562767,313408.84375,302806.53125,332414.90625,328057.65625,303871.96875,302833.4375,302064.4375,289388.75,0.003173828125,0.786376953125,-0.606201171875,-1.6174315214157104,2.044677495956421,4.394530773162842,100.0,30236.0,1.0
989599.9863164,317605.59375,312798.90625,344666.5,335219.40625,315902.5,312268.71875,307957.6875,292318.0,0.00244140625,0.791015625,-0.6064453125,-1.5563963651657104,2.319335699081421,4.486083507537842,100.0,30237.0,1.0
989599.9863562,318977.375,315235.0625,351142.0,340263.125,323962.90625,316317.875,311397.8125,293207.4375,0.0009765625,0.79345703125,-0.603759765625,-1.5563963651657104,2.471923589706421,4.486083507537842,100.0,30238.0,1.0
989599.9939771,315661.53125,306664.59375,342875.5,336249.46875,316796.21875,309263.3125,307615.53125,290819.8125,-0.003662109375,0.799560546875,-0.6025390625,-1.5258787870407104,2.777099370956421,4.577636241912842,100.0,30239.0,1.0
989599.9940194,312234.125,299141.375,331440.71875,328775.65625,304551.5625,301080.59375,301927.5625,288491.84375,-0.00439453125,0.80126953125,-0.603271484375,-1.6784666776657104,2.838134527206421,4.516601085662842,100.0,30240.0,1.0
989599.9963053,313371.5625,302735.25,332341.75,328016.78125,303773.0,302750.1875,302020.0,289347.625,-0.004638671875,0.807861328125,-0.600830078125,-1.9226073026657104,3.112792730331421,4.486083507537842,100.0,30241.0,1.0
989599.9988396,317571.8125,312749.125,344560.28125,335141.96875,315758.90625,312188.875,307897.875,292289.65625,-0.00390625,0.81103515625,-0.599609375,-2.288818120956421,3.234863042831421,4.455565929412842,100.0,30242.0,1.0
989600.0012984,318993.65625,315291.65625,351162.46875,340258.75,323947.0625,316345.0625,311404.15625,293213.78125,-0.00390625,0.81884765625,-0.599365234375,-2.441406011581421,3.356933355331421,4.364013195037842,100.0,30243.0,1.0
989600.0037602,315721.34375,306775.28125,343032.15625,336346.28125,316939.15625,309380.875,307697.96875,290852.4375,-0.002197265625,0.82275390625,-0.59765625,-2.838134527206421,3.601073980331421,4.302978038787842,100.0,30244.0,1.0
989600.0063151,312274.8125,299169.34375,331551.21875,328858.09375,304660.8125,301138.1875,301984.40625,288499.625,-0.002197265625,0.8291015625,-0.599365234375,-3.204345464706421,3.631591558456421,4.211425304412842,100.0,30245.0,1.0
989600.0088578,313357.71875,302648.53125,332281.3125,327991.40625,303708.625,302687.6875,301991.9375,289319.125,-0.001953125,0.83251953125,-0.60009765625,-3.692626714706421,3.814697027206421,4.028319835662842,100.0,30246.0,1.0
989600.0114022,317538.375,312659.96875,344429.9375,335052.5,315613.34375,312103.5,307833.0625,292249.6875,0.001220703125,0.83544921875,-0.598876953125,-4.241942882537842,3.875732183456421,3.997802495956421,100.0,30247.0,1.0
989600.0139001,319014.46875,315338.96875,351182.40625,340258.03125,323955.5625,316393.34375,311423.21875,293224.40625,0.0048828125,0.8359375,-0.597412109375,-4.699706554412842,3.997802495956421,4.089354991912842,100.0,30248.0,1.0
989600.0188234,315766.3125,306870.34375,343171.625,336432.46875,317089.8125,309501.3125,307780.6875,290886.15625,0.0087890625,0.835693359375,-0.598388671875,-5.279540538787842,4.241942882537842,4.028319835662842,100.0,30249.0,1.0
989600.0188636,312293.125,299184.90625,331637.6875,328927.46875,304773.90625,301195.5,302039.84375,288512.40625,0.011474609375,0.8359375,-0.59912109375,-5.767821788787842,4.425048351287842,4.058837413787842,100.0,30250.0,1.0
989600.021434,313330.6875,302567.1875,332210.25,327961.34375,303654.625,302628.59375,301961.96875,289295.5,0.01123046875,0.833984375,-0.5966796875,-6.195067882537842,4.577636241912842,4.089354991912842,100.0,30251.0,1.0
989600.0214751,317505.46875,312594.53125,344300.375,334974.78125,315487.5625,312027.0625,307775.40625,292228.78125,0.013916015625,0.8330078125,-0.59423828125,-6.622313976287842,4.913329601287842,4.119872570037842,100.0,30252.0,1.0
989600.0229131,319019.5,315379.71875,351171.65625,340247.9375,323950.03125,316413.53125,311420.96875,293229.875,0.014892578125,0.833740234375,-0.593505859375,-6.927489757537842,5.279540538787842,4.119872570037842,100.0,30253.0,1.0
989600.0604307,315816.21875,306967.78125,343297.40625,336524.65625,317229.21875,309595.71875,307842.625,290915.65625,0.016357421875,0.831298828125,-0.592529296875,-7.385253429412842,5.584716320037842,4.272460460662842,100.0,30254.0,1.0
989600.0714404,312318.625,299196.09375,331708.65625,329005.09375,304863.15625,301218.8125,302071.15625,288518.3125,0.016845703125,0.83056640625,-0.5927734375,-7.720946788787842,5.889892101287842,4.211425304412842,100.0,30255.0,1.0
989600.0714786,313299.21875,302464.625,332109.9375,327924.25,303566.03125,302526.9375,301905.28125,289258.6875,0.015625,0.828125,-0.590087890625,-8.209227561950684,6.011962413787842,4.394530773162842,100.0,30256.0,1.0
989600.0814211,317454.59375,312495.65625,344137.84375,334872.875,315313.3125,311898.125,307681.96875,292183.0,0.01611328125,0.82470703125,-0.5888671875,-8.483885765075684,6.347655773162842,4.394530773162842,100.0,30257.0,1.0
989600.0838671,319021.375,315413.15625,351154.59375,340228.15625,323917.5625,316408.28125,311406.65625,293228.25,0.01611328125,0.82177734375,-0.589599609375,-8.728026390075684,6.591796398162842,4.302978038787842,100.0,30258.0,1.0
989600.086402,315859.65625,307056.84375,343415.96875,336601.71875,317346.15625,309676.0,307903.0625,290943.09375,0.0126953125,0.81884765625,-0.58837890625,-8.911131858825684,6.896972179412842,4.364013195037842,100.0,30259.0,1.0
989600.0938915,312340.875,299198.3125,331775.4375,329060.53125,304932.625,301232.40625,302102.875,288523.9375,0.012451171875,0.8173828125,-0.589599609375,-8.880614280700684,7.049560070037842,4.150390148162842,100.0,30260.0,1.0
989600.096203,313253.09375,302342.59375,331992.1875,327856.125,303438.1875,302401.0625,301834.9375,289216.75,0.01416015625,0.814208984375,-0.58935546875,-8.972167015075684,7.293700695037842,4.119872570037842,100.0,30261.0,1.0
989600.0987247,317404.4375,312390.78125,343970.375,334761.5625,315125.0,311766.0,307594.25,292150.09375,0.01171875,0.8115234375,-0.5888671875,-8.941649436950684,7.415771007537842,3.967284917831421,100.0,30262.0,1.0
989600.1012504,319029.5,315436.15625,351136.8125,340199.8125,323875.90625,316396.03125,311397.1875,293242.21875,0.012451171875,0.81103515625,-0.585693359375,-8.880614280700684,7.568358898162842,3.906249761581421,100.0,30263.0,1.0
989600.1036728,315906.6875,307141.78125,343538.375,336670.125,317453.96875,309736.28125,307954.65625,290973.15625,0.01171875,0.80859375,-0.5869140625,-8.758543968200684,7.598876476287842,3.845214605331421,100.0,30264.0,1.0
989600.1061547,312375.5625,299214.875,331856.46875,329122.3125,305002.4375,301229.1875,302124.15625,288532.6875,0.0107421875,0.8076171875,-0.585693359375,-8.636473655700684,7.751464366912842,3.753661870956421,100.0,30265.0,1.0
989600.1113858,313245.3125,302259.09375,331924.125,327826.25,303346.90625,302287.59375,301780.125,289197.25,0.010986328125,0.807373046875,-0.58203125,-8.575438499450684,7.659911632537842,3.631591558456421,100.0,30266.0,1.0
989600.1189174,317370.90625,312300.8125,343833.0625,334671.625,314954.25,311625.625,307507.34375,292121.21875,0.01123046875,0.804931640625,-0.58203125,-8.453368186950684,7.812499523162842,3.570556402206421,100.0,30267.0,1.0
989600.1189298,319036.9375,315466.46875,351134.21875,340183.71875,323844.53125,316373.125,311385.65625,293250.53125,0.0107421875,0.802734375,-0.58154296875,-8.239745140075684,7.904052257537842,3.509521245956421,100.0,30268.0,1.0
989600.1263407,315959.53125,307242.53125,343680.71875,336757.9375,317586.46875,309809.3125,308022.53125,291016.59375,0.00927734375,0.800048828125,-0.5810546875,-8.026122093200684,7.843017101287842,3.631591558456421,100.0,30269.0,1.0
989600.1286881,312396.03125,299222.46875,331938.71875,329185.0625,305089.15625,301231.34375,302156.625,288546.0,0.01025390625,0.7978515625,-0.57958984375,-7.751464366912842,7.965087413787842,3.601073980331421,100.0,30270.0,1.0
989600.1313866,313208.125,302143.9375,331829.28125,327776.0,303250.6875,302157.0625,301722.46875,289167.9375,0.01025390625,0.79638671875,-0.58203125,-7.354735851287842,8.026122093200684,3.631591558456421,100.0,30271.0,1.0
989600.1314003,317323.875,312196.125,343685.90625,334572.625,314791.6875,311485.53125,307430.03125,292091.71875,0.009765625,0.796630859375,-0.58203125,-6.988524913787842,7.843017101287842,3.753661870956421,100.0,30272.0,1.0
989600.1338324,319019.5,315467.34375,351104.25,340146.0,323802.21875,316340.5,311368.84375,293244.875,0.00732421875,0.80029296875,-0.581787109375,-6.622313976287842,7.720946788787842,3.753661870956421,100.0,30273.0,1.0
989600.1363693,315982.78125,307299.84375,343784.6875,336819.25,317692.34375,309858.84375,308075.09375,291034.9375,0.005615234375,0.80126953125,-0.57958984375,-6.195067882537842,7.537841320037842,3.814697027206421,100.0,30274.0,1.0
989600.1388832,312406.6875,299195.28125,332002.8125,329241.03125,305152.5625,301213.71875,302187.8125,288544.3125,0.004150390625,0.802734375,-0.57763671875,-5.889892101287842,7.446288585662842,3.753661870956421,100.0,30275.0,1.0
989600.1388983,313161.1875,301995.40625,331718.5,327718.875,303125.34375,302005.6875,301662.1875,289119.03125,0.005859375,0.80517578125,-0.575927734375,-5.584716320037842,7.293700695037842,3.601073980331421,100.0,30276.0,1.0
989600.1413711,317256.03125,312034.46875,343495.0,334440.84375,314559.25,311290.0625,307323.8125,292025.90625,0.005126953125,0.810791015625,-0.578125,-5.310058116912842,7.019042491912842,3.509521245956421,100.0,30277.0,1.0
989600.1438645,319024.21875,315466.0,351083.0625,340118.09375,323731.15625,316287.40625,311361.0625,293245.96875,0.0029296875,0.8125,-0.576171875,-4.974364757537842,6.866454601287842,3.417968511581421,100.0,30278.0,1.0
989600.1463284,316024.0,307369.9375,343901.8125,336889.53125,317778.96875,309894.625,308140.28125,291062.46875,0.0029296875,0.813720703125,-0.57373046875,-4.821776866912842,6.652831554412842,3.387450933456421,100.0,30279.0,1.0
989600.1488276,312417.15625,299176.6875,332062.09375,329295.84375,305196.375,301182.4375,302223.125,288549.78125,0.00537109375,0.81396484375,-0.575439453125,-4.638671398162842,6.408690929412842,3.234863042831421,100.0,30280.0,1.0
989600.1539097,313116.125,301854.15625,331605.59375,327668.53125,302984.625,301838.0625,301607.40625,289090.3125,0.005615234375,0.81591796875,-0.57275390625,-4.516601085662842,6.225585460662842,3.112792730331421,100.0,30281.0,1.0
989600.1539289,317207.65625,311904.21875,343319.9375,334342.25,314336.96875,311097.84375,307238.6875,292003.46875,0.00537109375,0.817626953125,-0.572509765625,-4.486083507537842,5.889892101287842,2.990722417831421,100.0,30282.0,1.0
989600.155384,319007.59375,315451.875,351023.0625,340078.9375,323623.21875,316197.34375,311327.90625,293248.03125,0.005615234375,0.818359375,-0.57275390625,-4.333495616912842,5.828856945037842,2.929687261581421,100.0,30283.0,1.0
989600.162619,316051.53125,307428.9375,343983.4375,336953.5625,317829.5625,309902.84375,308183.53125,291098.0625,0.006591796875,0.819091796875,-0.575439453125,-4.272460460662842,5.645751476287842,2.838134527206421,100.0,30284.0,1.0
989600.1626387,312435.1875,299160.59375,332107.6875,329359.5,305217.28125,301139.4375,302253.28125,288570.78125,0.00634765625,0.81787109375,-0.57958984375,-4.119872570037842,5.340575695037842,2.685546636581421,100.0,30285.0,1.0
989600.1650962,313083.84375,301708.6875,331479.34375,327624.8125,302820.46875,301663.0,301551.5,289068.6875,0.007080078125,0.8193359375,-0.575927734375,-4.119872570037842,5.187987804412842,2.593993902206421,100.0,30286.0,1.0
989600.1676038,317160.0,311754.625,343124.25,334234.9375,314073.125,310883.8125,307147.9375,291975.125,0.0068359375,0.81982421875,-0.578125,-4.119872570037842,4.882812023162842,2.502441167831421,100.0,30287.0,1.0
989600.1724879,319010.71875,315445.625,350967.65625,340043.4375,323493.78125,316108.5625,311317.15625,293259.625,0.0068359375,0.818359375,-0.57763671875,-3.997802495956421,4.669188976287842,2.441406011581421,100.0,30288.0,1.0
989600.1725142,316095.15625,307501.0,344081.53125,337021.84375,317871.875,309922.6875,308254.09375,291131.84375,0.00537109375,0.820556640625,-0.57861328125,-3.845214605331421,4.486083507537842,2.349853277206421,100.0,30289.0,1.0
989600.1751014,312451.5625,299136.0,332156.6875,329412.15625,305221.65625,301098.9375,302296.625,288577.75,0.00390625,0.82177734375,-0.57763671875,-3.723144292831421,4.211425304412842,2.197265386581421,100.0,30290.0,1.0
989600.1776187,313034.9375,301544.8125,331349.34375,327566.625,302631.71875,301480.0,301500.0,289025.40625,0.002197265625,0.825439453125,-0.57861328125,-3.631591558456421,3.692626714706421,1.8005369901657104,100.0,30291.0,1.0
989600.1801683,317099.5625,311593.0625,342927.28125,334122.28125,313790.625,310668.78125,307065.96875,291926.59375,0.00048828125,0.82470703125,-0.579345703125,-3.540038824081421,3.448486089706421,1.7700194120407104,100.0,30292.0,1.0
989600.2064459,319008.9375,315435.0625,350916.25,340014.84375,323345.09375,316019.15625,311310.8125,293259.28125,-0.00146484375,0.824462890625,-0.5791015625,-3.417968511581421,3.173827886581421,1.7089842557907104,100.0,30293.0,1.0
989600.2064878,316132.71875,307569.5,344169.9375,337084.71875,317874.71875,309929.125,308312.90625,291154.46875,-0.00146484375,0.82421875,-0.577880859375,-3.417968511581421,2.838134527206421,1.6479490995407104,100.0,30294.0,1.0
989600.2089537,312465.78125,299119.5625,332202.1875,329469.75,305199.0625,301058.34375,302338.125,288580.625,-0.00439453125,0.82373046875,-0.578125,-3.448486089706421,2.502441167831421,1.5258787870407104,100.0,30295.0,1.0
989600.2112459,312996.21875,301397.375,331218.96875,327515.75,302426.1875,301307.4375,301455.125,288990.0,-0.00439453125,0.819580078125,-0.578369140625,-3.448486089706421,2.288818120956421,1.4038084745407104,100.0,30296.0,1.0
989600.2164127,317053.875,311463.0,342734.34375,334013.40625,313497.34375,310462.96875,306983.6875,291885.90625,-0.00146484375,0.814453125,-0.578369140625,-3.387450933456421,1.9226073026657104,1.3732908964157104,100.0,30297.0,1.0
989600.2188981,319017.0625,315464.3125,350865.53125,339978.1875,323186.46875,315936.46875,311297.15625,293256.6875,0.00146484375,0.813720703125,-0.58203125,-3.265380620956421,1.7089842557907104,1.3732908964157104,100.0,30298.0,1.0
989600.2214126,316171.53125,307655.9375,344258.625,337140.9375,317876.78125,309942.8125,308364.6875,291174.21875,0.005859375,0.8134765625,-0.58251953125,-3.051757574081421,1.7395018339157104,1.4343260526657104,100.0,30299.0,1.0
989600.2238543,312474.53125,299087.625,332246.09375,329510.78125,305173.5625,301009.625,302360.65625,288578.90625,0.00927734375,0.81640625,-0.583740234375,-2.746581792831421,1.6479490995407104,1.5869139432907104,100.0,30300.0,1.0
989600.2263812,312958.6875,301242.15625,331103.65625,327466.75,302237.1875,301138.71875,301401.5,288960.78125,0.011474609375,0.818359375,-0.585205078125,-2.502441167831421,1.4648436307907104,1.6784666776657104,100.0,30301.0,1.0
989600.2314437,316993.0,311313.3125,342538.1875,333893.0625,313205.71875,310255.1875,306883.5625,291845.59375,0.015625,0.81884765625,-0.586669921875,-2.380370855331421,1.3732908964157104,1.8615721464157104,100.0,30302.0,1.0
989600.231487,319008.5,315460.75,350810.90625,339928.21875,323024.125,315848.84375,311263.25,293260.8125,0.015625,0.81884765625,-0.5830078125,-2.288818120956421,1.2207030057907104,2.044677495956421,100.0,30303.0,1.0
989600.2339066,316203.0,307742.5,344353.40625,337185.8125,317875.25,309955.5,308401.25,291205.0625,0.013671875,0.81689453125,-0.582763671875,-2.288818120956421,1.2512205839157104,2.166747808456421,100.0,30304.0,1.0
989600.2364242,312482.3125,299099.34375,332307.5,329551.53125,305154.25,300978.21875,302383.4375,288587.78125,0.010498046875,0.8154296875,-0.580078125,-2.075195074081421,1.3122557401657104,2.197265386581421,100.0,30305.0,1.0
989600.2364658,312914.6875,301123.875,331001.09375,327411.3125,302056.3125,300983.78125,301348.8125,288932.875,0.004150390625,0.8154296875,-0.5810546875,-1.8005369901657104,1.4038084745407104,2.197265386581421,100.0,30306.0,1.0
989600.2413893,316949.09375,311178.84375,342361.15625,333781.46875,312926.40625,310056.15625,306795.21875,291815.90625,0.001220703125,0.8173828125,-0.579833984375,-1.7395018339157104,1.3122557401657104,2.075195074081421,100.0,30307.0,1.0
989600.2451804,319002.59375,315446.59375,350751.375,339873.59375,322854.59375,315754.71875,311228.75,293256.59375,-0.003173828125,0.8173828125,-0.581787109375,-1.4648436307907104,1.2512205839157104,1.9226073026657104,100.0,30308.0,1.0
989600.2487269,316254.03125,307829.21875,344460.34375,337251.09375,317896.90625,309993.3125,308465.1875,291243.15625,-0.0068359375,0.8173828125,-0.58251953125,-1.4648436307907104,1.1291502714157104,1.7700194120407104,100.0,30309.0,1.0
989600.2839596,312513.0625,299101.5,332376.1875,329611.96875,305153.4375,300968.84375,302428.3125,288604.21875,-0.00927734375,0.818603515625,-0.581787109375,-1.3122557401657104,0.8239745497703552,1.5869139432907104,100.0,30310.0,1.0
989600.2840015,312885.375,300979.5625,330890.40625,327360.0,301859.875,300827.5,301299.84375,288898.1875,-0.008056640625,0.8193359375,-0.582763671875,-1.2207030057907104,0.5187987685203552,1.2207030057907104,100.0,30311.0,1.0
989600.2938541,316903.9375,311024.53125,342173.125,333673.28125,312629.75,309858.75,306713.6875,291775.3125,-0.00634765625,0.819091796875,-0.582763671875,-1.0986326932907104,0.1831054538488388,1.0681151151657104,100.0,30312.0,1.0
989600.2938957,319003.125,315427.65625,350685.65625,339830.9375,322676.0625,315671.09375,311210.0625,293253.375,-0.005859375,0.8193359375,-0.582763671875,-1.0070799589157104,-0.0610351525247097,1.0375975370407104,100.0,30313.0,1.0
989600.2962763,316289.34375,307897.53125,344529.71875,337299.09375,317874.71875,310011.65625,308506.40625,291261.9375,-0.0029296875,0.8193359375,-0.580810546875,-0.9155272841453552,-0.2746581733226776,0.9460448622703552,100.0,30314.0,1.0
989600.2987982,312532.03125,299105.15625,332408.625,329659.46875,305117.59375,300945.15625,302456.03125,288611.8125,0.000244140625,0.818359375,-0.575439453125,-0.9155272841453552,-0.4272460639476776,0.7324218153953552,100.0,30315.0,1.0
989600.3012306,312854.6875,300858.59375,330763.375,327309.3125,301659.875,300677.125,301246.0,288870.375,-0.000732421875,0.818359375,-0.577880859375,-0.9460448622703552,-0.4577636420726776,0.5493163466453552,100.0,30316.0,1.0
989600.3064425,316853.34375,310884.4375,341969.5625,333552.78125,312326.03125,309662.5,306615.53125,291730.25,0.00390625,0.819091796875,-0.58154296875,-0.8850097060203552,-0.4272460639476776,0.4882812201976776,100.0,30317.0,1.0
989600.3087769,319004.375,315419.6875,350621.375,339776.40625,322491.78125,315590.46875,311178.84375,293242.46875,0.005859375,0.818359375,-0.58447265625,-0.9460448622703552,-0.4882812201976776,0.4882812201976776,100.0,30318.0,1.0
989600.3138929,316328.875,307983.53125,344620.09375,337340.21875,317855.40625,310038.75,308553.6875,291278.5625,0.005126953125,0.816650390625,-0.584228515625,-0.8544921278953552,-0.4272460639476776,0.4272460639476776,100.0,30319.0,1.0
989600.3164333,312547.3125,299129.75,332474.0,329705.875,305093.1875,300940.25,302502.09375,288619.0625,0.00439453125,0.814697265625,-0.585205078125,-0.7019042372703552,-0.3051757514476776,0.2441406100988388,100.0,30320.0,1.0
989600.318781,312802.84375,300738.625,330649.09375,327252.25,301451.375,300534.0625,301209.1875,288840.0,0.0048828125,0.813232421875,-0.58349609375,-0.4577636420726776,-0.3051757514476776,0.3051757514476776,100.0,30321.0,1.0
989600.3213889,316777.34375,310723.15625,341768.5625,333421.4375,312002.125,309458.9375,306525.5,291688.59375,0.003173828125,0.813720703125,-0.58349609375,-0.3356933295726776,-0.2746581733226776,0.3051757514476776,100.0,30322.0,1.0
989600.326356,318989.4375,315398.59375,350559.15625,339720.96875,322292.3125,315504.28125,311153.28125,293247.84375,0.001953125,0.8125,-0.581298828125,-0.0610351525247097,-0.1220703050494194,0.3051757514476776,100.0,30323.0,1.0
989600.3287725,316359.71875,308072.15625,344722.3125,337396.65625,317842.1875,310081.375,308611.96875,291324.34375,0.0,0.81201171875,-0.584716796875,0.03051757626235485,0.0,0.3662109076976776,100.0,30324.0,1.0
989600.3314092,312555.09375,299146.1875,332540.875,329759.25,305070.84375,300944.15625,302544.375,288647.03125,-0.002685546875,0.81201171875,-0.58544921875,0.1831054538488388,-0.03051757626235485,0.3662109076976776,100.0,30325.0,1.0
989600.3339676,312759.40625,300618.5625,330542.71875,327208.8125,301265.21875,300412.8125,301172.78125,288828.71875,-0.0048828125,0.81201171875,-0.583740234375,0.3662109076976776,-0.0610351525247097,0.3662109076976776,100.0,30326.0,1.0
989600.3340102,316731.21875,310584.84375,341587.78125,333321.125,311712.625,309289.5,306448.34375,291666.75,-0.00732421875,0.813232421875,-0.5849609375,0.5187987685203552,-0.0610351525247097,0.3051757514476776,100.0,30327.0,1.0
989600.3364587,318996.15625,315396.625,350515.875,339685.65625,322120.40625,315446.59375,311139.78125,293261.53125,-0.008056640625,0.812744140625,-0.586181640625,0.6408690810203552,-0.0915527269244194,0.2136230319738388,100.0,30328.0,1.0
989600.3387548,316415.0625,308175.3125,344836.90625,337460.21875,317844.6875,310134.75,308675.8125,291362.59375,-0.008544921875,0.814208984375,-0.585693359375,0.7019042372703552,-0.0610351525247097,0.0915527269244194,100.0,30329.0,1.0
989600.3413523,312586.46875,299179.375,332616.59375,329820.84375,305062.0625,300951.3125,302594.625,288661.71875,-0.008544921875,0.814208984375,-0.58740234375,0.8239745497703552,-0.1220703050494194,0.0610351525247097,100.0,30330.0,1.0
989600.3439625,312733.28125,300512.5,330447.21875,327170.1875,301080.25,300279.875,301137.125,288797.96875,-0.0087890625,0.814453125,-0.58544921875,0.9460448622703552,-0.1220703050494194,-0.03051757626235485,100.0,30331.0,1.0
989600.3440058,316689.90625,310457.59375,341414.0625,333218.3125,311423.46875,309105.78125,306371.4375,291622.25,-0.009033203125,0.816162109375,-0.58740234375,1.0681151151657104,-0.2746581733226776,0.0610351525247097,100.0,30332.0,1.0
989600.3514199,318988.28125,315387.34375,350458.65625,339634.25,321931.75,315353.09375,311105.8125,293241.40625,-0.00927734375,0.815185546875,-0.587890625,1.0375975370407104,-0.3356933295726776,0.0,100.0,30333.0,1.0
989600.3514618,316445.71875,308268.5625,344935.1875,337512.25,317829.5625,310163.0,308722.21875,291382.4375,-0.011474609375,0.816162109375,-0.5859375,1.0375975370407104,-0.4272460639476776,-0.1220703050494194,100.0,30334.0,1.0
989600.3826975,312590.0625,299201.90625,332682.75,329871.71875,305036.15625,300945.25,302628.40625,288661.4375,-0.010498046875,0.815185546875,-0.587646484375,1.1291502714157104,-0.5493163466453552,-0.1525878757238388,100.0,30335.0,1.0
989600.3827391,312678.21875,300385.03125,330331.34375,327112.34375,300869.25,300133.0625,301075.6875,288750.84375,-0.009521484375,0.814697265625,-0.58447265625,1.1291502714157104,-0.5187987685203552,-0.1831054538488388,100.0,30336.0,1.0
989600.387692,316640.375,310307.59375,341222.1875,333105.75,311103.40625,308911.21875,306267.625,291577.1875,-0.010986328125,0.81689453125,-0.58447265625,1.2207030057907104,-0.5493163466453552,-0.3356933295726776,100.0,30337.0,1.0
989600.4185018,319000.1875,315377.6875,350399.46875,339590.4375,321722.8125,315273.6875,311062.90625,293237.46875,-0.011962890625,0.819091796875,-0.58642578125,1.3122557401657104,-0.5798339247703552,-0.4272460639476776,100.0,30338.0,1.0
989600.4185415,316493.46875,308362.34375,345023.96875,337558.125,317778.6875,310191.1875,308746.375,291401.0625,-0.012451171875,0.820068359375,-0.588623046875,1.2207030057907104,-0.6103515028953552,-0.4882812201976776,100.0,30339.0,1.0
989600.4373154,312629.21875,299258.9375,332760.53125,329937.78125,305007.375,300966.78125,302668.03125,288687.375,-0.014404296875,0.819091796875,-0.58544921875,1.1291502714157104,-0.5798339247703552,-0.3662109076976776,100.0,30340.0,1.0
989600.4373565,312665.6875,300316.0,330248.75,327087.84375,300685.96875,300035.625,301045.28125,288744.21875,-0.010986328125,0.818603515625,-0.58837890625,0.9155272841453552,-0.7019042372703552,-0.4577636420726776,100.0,30341.0,1.0
989600.4373653,316592.625,310201.0,341045.25,333000.15625,310803.96875,308751.8125,306176.71875,291543.375,-0.01171875,0.81689453125,-0.58740234375,0.9460448622703552,-0.8239745497703552,-0.4882812201976776,100.0,30342.0,1.0
989600.4373746,318993.46875,315399.5,350341.09375,339536.15625,321533.25,315219.96875,311022.75,293235.40625,-0.013671875,0.8154296875,-0.587890625,0.9155272841453552,-0.8850097060203552,-0.5187987685203552,100.0,30343.0,1.0
989600.4426739,316532.53125,308490.375,345121.15625,337605.3125,317773.96875,310261.28125,308791.25,291435.46875,-0.012451171875,0.818115234375,-0.58349609375,0.8544921278953552,-0.8239745497703552,-0.5187987685203552,100.0,30344.0,1.0
989600.4427144,312645.125,299316.15625,332835.8125,329986.6875,305005.84375,301002.1875,302703.6875,288704.0,-0.014404296875,0.817626953125,-0.584716796875,0.7324218153953552,-0.8544921278953552,-0.5187987685203552,100.0,30345.0,1.0
989600.4476612,312617.5,300230.0625,330159.5,327041.1875,300523.34375,299940.125,301000.75,288720.90625,-0.0146484375,0.818359375,-0.5859375,0.6713866591453552,-0.9460448622703552,-0.4577636420726776,100.0,30346.0,1.0
989600.4514922,316527.28125,310083.4375,340866.8125,332883.90625,310526.625,308597.40625,306082.9375,291506.8125,-0.0146484375,0.816650390625,-0.587646484375,0.6103515028953552,-0.9765624403953552,-0.4882812201976776,100.0,30347.0,1.0
989600.4515343,318982.28125,315418.53125,350296.8125,339490.125,321370.625,315176.40625,310988.78125,293235.78125,-0.01513671875,0.816162109375,-0.584228515625,0.4882812201976776,-1.0070799589157104,-0.4272460639476776,100.0,30348.0,1.0
989600.4515444,316565.90625,308613.6875,345243.71875,337667.5625,317793.8125,310338.59375,308838.09375,291465.6875,-0.015380859375,0.817138671875,-0.587890625,0.4272460639476776,-1.0070799589157104,-0.3662109076976776,100.0,30349.0,1.0
989600.4539011,312668.09375,299374.4375,332936.65625,330055.875,305029.96875,301047.96875,302747.0625,288716.6875,-0.013671875,0.816650390625,-0.589599609375,0.3356933295726776,-1.0681151151657104,-0.3051757514476776,100.0,30350.0,1.0
989600.4563713,312610.8125,300162.40625,330107.84375,327033.65625,300397.90625,299872.625,300979.125,288703.09375,-0.01220703125,0.817138671875,-0.58984375,0.3356933295726776,-1.0681151151657104,-0.2136230319738388,100.0,30351.0,1.0
989600.4589057,316507.0625,309992.15625,340736.09375,332814.71875,310298.65625,308478.21875,306015.78125,291484.09375,-0.012939453125,0.815673828125,-0.591796875,0.2746581733226776,-1.0070799589157104,-0.0915527269244194,100.0,30352.0,1.0
989600.4612742,318999.5625,315450.375,350275.8125,339469.625,321243.75,315158.0,310971.78125,293249.4375,-0.013671875,0.8154296875,-0.589599609375,0.1831054538488388,-1.1596678495407104,-0.03051757626235485,100.0,30353.0,1.0
989600.4639161,316635.09375,308767.71875,345390.4375,337753.28125,317855.3125,310454.65625,308907.03125,291517.09375,-0.013671875,0.81689453125,-0.590087890625,0.2441406100988388,-1.1596678495407104,0.1220703050494194,100.0,30354.0,1.0
989600.4662316,312707.0,299466.8125,333060.84375,330148.0625,305098.375,301137.375,302806.59375,288749.5,-0.01318359375,0.81591796875,-0.589599609375,0.0610351525247097,-1.0681151151657104,0.1831054538488388,100.0,30355.0,1.0
989600.4680023,312574.5,300106.25,330054.46875,327018.90625,300297.3125,299827.5625,300954.1875,288691.21875,-0.015625,0.81591796875,-0.591552734375,0.0610351525247097,-0.9765624403953552,0.3356933295726776,100.0,30356.0,1.0
989600.4750237,316458.15625,309909.09375,340599.125,332732.71875,310092.46875,308381.3125,305947.65625,291456.375,-0.0146484375,0.81494140625,-0.592041015625,0.0,-0.9765624403953552,0.3967284858226776,100.0,30357.0,1.0
989600.4799529,319005.71875,315499.28125,350267.6875,339442.375,321147.09375,315164.53125,310954.90625,293244.71875,-0.0146484375,0.8154296875,-0.590576171875,0.0915527269244194,-1.0375975370407104,0.3967284858226776,100.0,30358.0,1.0
989600.4876929,316692.84375,308930.09375,345548.78125,337826.875,317937.9375,310579.65625,308968.09375,291543.75,-0.012451171875,0.814208984375,-0.591064453125,0.0,-0.8544921278953552,0.5493163466453552,100.0,30359.0,1.0
989600.4900294,312748.46875,299570.34375,333214.09375,330232.65625,305199.75,301243.5,302867.75,288763.8125,-0.01220703125,0.817626953125,-0.588623046875,0.03051757626235485,-0.8544921278953552,0.5187987685203552,100.0,30360.0,1.0
989600.4975398,312558.59375,300066.09375,330038.1875,327005.21875,300235.53125,299800.75,300929.875,288660.625,-0.009521484375,0.81787109375,-0.590576171875,0.0,-0.8239745497703552,0.6408690810203552,100.0,30361.0,1.0
989600.5000254,316416.84375,309816.21875,340472.875,332640.28125,309903.28125,308288.59375,305868.0,291409.28125,-0.01025390625,0.81787109375,-0.59033203125,-0.0915527269244194,-0.7019042372703552,0.7934569716453552,100.0,30362.0,1.0
989600.5026667,319015.46875,315524.46875,350251.84375,339411.4375,321056.53125,315172.40625,310931.375,293236.21875,-0.009521484375,0.817626953125,-0.58935546875,-0.0915527269244194,-0.5493163466453552,0.8850097060203552,100.0,30363.0,1.0
989600.5027094,316740.59375,309052.125,345683.59375,337898.40625,318020.53125,310705.71875,309024.6875,291567.0,-0.007568359375,0.8193359375,-0.587890625,-0.2746581733226776,-0.3967284858226776,1.0681151151657104,100.0,30364.0,1.0
989600.5102153,312787.8125,299643.75,333338.09375,330327.875,305305.96875,301355.0,302938.84375,288788.5,-0.01025390625,0.8203125,-0.588134765625,-0.3967284858226776,-0.3051757514476776,1.0681151151657104,100.0,30365.0,1.0
989600.5102555,312540.53125,299991.8125,329989.375,327003.4375,300176.25,299780.0,300920.9375,288645.78125,-0.009033203125,0.819091796875,-0.58740234375,-0.4882812201976776,-0.1525878757238388,1.0375975370407104,100.0,30366.0,1.0
989600.5125077,316385.03125,309711.25,340336.53125,332570.09375,309730.90625,308206.6875,305808.90625,291384.96875,-0.00830078125,0.82080078125,-0.58935546875,-0.5798339247703552,-0.03051757626235485,1.2207030057907104,100.0,30367.0,1.0
989600.5152123,319023.96875,315552.8125,350238.96875,339398.75,320986.96875,315190.1875,310926.0,293252.125,-0.00830078125,0.821533203125,-0.58740234375,-0.6713866591453552,0.1831054538488388,1.1291502714157104,100.0,30368.0,1.0
989600.5175841,316795.03125,309198.65625,345840.59375,337994.25,318132.21875,310844.90625,309098.0,291617.21875,-0.0078125,0.81982421875,-0.5888671875,-0.7934569716453552,0.3051757514476776,1.1596678495407104,100.0,30369.0,1.0
989600.5176257,312816.0625,299728.3125,333475.625,330428.34375,305425.0625,301462.8125,302995.4375,288815.75,-0.0078125,0.81982421875,-0.5869140625,-0.9460448622703552,0.3967284858226776,1.0681151151657104,100.0,30370.0,1.0
989600.520154,312513.6875,299944.875,329965.5,327015.15625,300145.6875,299766.3125,300900.0,288635.78125,-0.008544921875,0.819580078125,-0.587646484375,-1.0986326932907104,0.5493163466453552,1.0681151151657104,100.0,30371.0,1.0
989600.5226636,316339.59375,309625.59375,340214.40625,332512.78125,309589.375,308133.90625,305741.75,291363.6875,-0.009033203125,0.820068359375,-0.588134765625,-1.0986326932907104,0.6103515028953552,1.0375975370407104,100.0,30372.0,1.0
989600.5252114,319027.28125,315582.59375,350219.5,339383.375,320935.40625,315207.8125,310899.625,293257.59375,-0.0078125,0.817138671875,-0.58740234375,-1.1901854276657104,0.6408690810203552,1.0681151151657104,100.0,30373.0,1.0
989600.527484,316846.53125,309334.65625,345980.25,338075.5,318257.21875,310981.8125,309149.9375,291655.59375,-0.007080078125,0.81884765625,-0.588134765625,-1.2817381620407104,0.7934569716453552,0.9765624403953552,100.0,30374.0,1.0
989600.5301798,312861.21875,299818.96875,333616.25,330529.3125,305577.78125,301580.03125,303058.46875,288846.78125,-0.00732421875,0.81884765625,-0.58740234375,-1.3732908964157104,0.9460448622703552,0.9765624403953552,100.0,30375.0,1.0
989600.5302226,312493.21875,299887.90625,329936.96875,327014.875,300134.84375,299745.75,300882.75,288621.03125,-0.006103515625,0.81787109375,-0.586669921875,-1.4648436307907104,0.9765624403953552,0.8544921278953552,100.0,30376.0,1.0
989600.5326418,316286.40625,309517.3125,340071.96875,332424.375,309444.625,308039.96875,305666.375,291325.15625,-0.006591796875,0.817626953125,-0.587158203125,-1.4953612089157104,1.0681151151657104,0.7629393935203552,100.0,30377.0,1.0
989600.5350175,319019.03125,315599.40625,350192.21875,339347.15625,320889.09375,315212.09375,310877.71875,293244.25,-0.004638671875,0.817626953125,-0.588623046875,-1.6174315214157104,1.2512205839157104,0.7629393935203552,100.0,30378.0,1.0
989600.5402127,316890.4375,309471.8125,346124.90625,338147.21875,318398.375,311113.9375,309209.9375,291673.1875,-0.0029296875,0.816650390625,-0.5859375,-1.6479490995407104,1.3732908964157104,0.8239745497703552,100.0,30379.0,1.0
989600.5402547,312899.59375,299907.3125,333755.71875,330620.59375,305742.65625,301700.46875,303119.4375,288855.53125,-0.00146484375,0.81494140625,-0.5859375,-1.6784666776657104,1.5258787870407104,0.9155272841453552,100.0,30380.0,1.0
989600.5425363,312476.40625,299831.84375,329906.125,327009.15625,300142.1875,299739.21875,300862.4375,288586.6875,-0.0029296875,0.8154296875,-0.5849609375,-1.5563963651657104,1.7395018339157104,0.8544921278953552,100.0,30381.0,1.0
989600.5476362,316249.21875,309423.96875,339946.90625,332345.0625,309341.625,307975.5,305598.875,291281.15625,-0.0029296875,0.814697265625,-0.585205078125,-1.4343260526657104,1.8615721464157104,0.9765624403953552,100.0,30382.0,1.0
989600.5476771,319021.8125,315627.3125,350175.5,339316.125,320884.875,315243.84375,310860.46875,293243.625,-0.003662109375,0.817138671875,-0.58544921875,-1.3732908964157104,2.105712652206421,0.9460448622703552,100.0,30383.0,1.0
989600.5500759,316941.3125,309620.3125,346278.0625,338222.21875,318585.0625,311273.8125,309281.46875,291715.40625,-0.003173828125,0.816650390625,-0.583251953125,-1.3122557401657104,2.319335699081421,0.9460448622703552,100.0,30384.0,1.0
989600.5526515,312932.125,300010.125,333909.25,330710.875,305952.75,301843.59375,303196.34375,288887.5625,-0.00146484375,0.814697265625,-0.58349609375,-1.3427733182907104,2.319335699081421,1.0681151151657104,100.0,30385.0,1.0
989600.5549995,312457.09375,299799.65625,329900.3125,327012.21875,300197.09375,299759.09375,300866.65625,288587.0625,-0.003173828125,0.815185546875,-0.58251953125,-1.3122557401657104,2.532958745956421,1.1596678495407104,100.0,30386.0,1.0
989600.5589128,316202.46875,309330.28125,339823.34375,332260.03125,309254.71875,307908.71875,305536.28125,291258.34375,-0.00390625,0.815673828125,-0.5830078125,-1.3122557401657104,2.655029058456421,1.2207030057907104,100.0,30387.0,1.0
989600.58144,319022.25,315649.65625,350160.84375,339283.5,320892.84375,315272.53125,310854.65625,293253.75,-0.00537109375,0.814453125,-0.582763671875,-1.3122557401657104,2.746581792831421,1.3732908964157104,100.0,30388.0,1.0
989600.581481,316988.78125,309755.84375,346425.3125,338291.96875,318770.40625,311426.34375,309357.8125,291759.84375,-0.00390625,0.812255859375,-0.583740234375,-1.1291502714157104,2.990722417831421,1.3732908964157104,100.0,30389.0,1.0
989600.5839822,312962.53125,300094.96875,334050.0625,330798.15625,306160.09375,301977.53125,303272.25,288921.0625,-0.00439453125,0.8134765625,-0.583740234375,-1.0681151151657104,3.082275152206421,1.4953612089157104,100.0,30390.0,1.0
989600.5840245,312428.21875,299739.6875,329875.46875,326999.59375,300235.25,299752.71875,300855.21875,288574.34375,-0.00390625,0.81396484375,-0.580810546875,-0.9155272841453552,3.234863042831421,1.5869139432907104,100.0,30391.0,1.0
989600.5862581,316150.59375,309219.0625,339686.4375,332166.4375,309157.53125,307828.0625,305466.46875,291227.40625,-0.002197265625,0.812255859375,-0.581298828125,-0.7324218153953552,3.265380620956421,1.7089842557907104,100.0,30392.0,1.0
989600.5887733,319005.53125,315644.46875,350106.9375,339225.75,320865.5625,315270.84375,310822.125,293244.875,-0.004150390625,0.813720703125,-0.58056640625,-0.6408690810203552,3.417968511581421,1.5869139432907104,100.0,30393.0,1.0
989600.5914121,317027.875,309870.125,346539.59375,338345.15625,318927.40625,311553.65625,309416.1875,291785.5,-0.001708984375,0.81396484375,-0.582275390625,-0.4882812201976776,3.356933355331421,1.6784666776657104,100.0,30394.0,1.0
989600.6014013,312999.90625,300172.21875,334176.84375,330874.78125,306347.03125,302093.0625,303340.8125,288936.375,-0.001220703125,0.81689453125,-0.582763671875,-0.4577636420726776,3.417968511581421,1.6479490995407104,100.0,30395.0,1.0
989600.6038983,312410.0,299683.4375,329845.25,326986.09375,300268.53125,299741.03125,300845.90625,288546.09375,0.000244140625,0.818115234375,-0.580078125,-0.3967284858226776,3.479003667831421,1.7089842557907104,100.0,30396.0,1.0
989600.6064649,316101.78125,309101.3125,339535.625,332062.1875,309041.75,307726.9375,305385.09375,291171.28125,0.0,0.818115234375,-0.5791015625,-0.2136230319738388,3.570556402206421,1.6479490995407104,100.0,30397.0,1.0
989600.6065071,319007.96875,315651.875,350067.40625,339179.25,320837.21875,315262.96875,310793.96875,293229.96875,0.000732421875,0.81884765625,-0.578369140625,-0.2136230319738388,3.662109136581421,1.6784666776657104,100.0,30398.0,1.0
989600.6087713,317070.34375,309992.6875,346664.75,338404.25,319076.4375,311667.375,309468.5,291803.5625,-0.00146484375,0.81884765625,-0.58203125,-0.0915527269244194,3.723144292831421,1.6479490995407104,100.0,30399.0,1.0
989600.6139269,313032.96875,300249.9375,334303.25,330960.78125,306523.875,302196.40625,303401.53125,288949.59375,-0.001220703125,0.81982421875,-0.580810546875,-0.1220703050494194,3.692626714706421,1.6174315214157104,100.0,30400.0,1.0
989600.6162865,312391.65625,299620.3125,329809.21875,326987.53125,300289.625,299721.53125,300833.84375,288528.3125,-0.0029296875,0.81982421875,-0.58154296875,-0.2136230319738388,3.662109136581421,1.7089842557907104,100.0,30401.0,1.0
989600.622688,316057.78125,308985.53125,339391.9375,331989.84375,308936.25,307636.09375,305321.8125,291140.25,-0.001953125,0.818359375,-0.580078125,-0.2441406100988388,3.723144292831421,1.6174315214157104,100.0,30402.0,1.0
989600.6227803,319000.34375,315636.6875,350012.5,339141.78125,320802.53125,315247.40625,310768.21875,293221.65625,0.0,0.81884765625,-0.582763671875,-0.0915527269244194,3.723144292831421,1.5563963651657104,100.0,30403.0,1.0
989600.6250731,317119.59375,310101.84375,346783.5625,338481.0625,319231.125,311787.71875,309532.5,291839.40625,0.001953125,0.81689453125,-0.58349609375,0.03051757626235485,3.784179449081421,1.5563963651657104,100.0,30404.0,1.0
989600.6613842,313068.28125,300314.46875,334422.71875,331053.75,306703.59375,302299.59375,303466.0625,288978.65625,0.00244140625,0.815673828125,-0.58154296875,0.0610351525247097,3.936767339706421,1.5258787870407104,100.0,30405.0,1.0
989600.6652546,312367.25,299538.96875,329764.59375,326984.59375,300308.75,299687.65625,300815.4375,288512.40625,0.002685546875,0.817626953125,-0.58154296875,0.2746581733226776,3.906249761581421,1.3427733182907104,100.0,30406.0,1.0
989600.6652958,316014.4375,308854.0,339233.78125,331906.34375,308815.125,307522.28125,305241.875,291107.25,0.001220703125,0.818115234375,-0.58544921875,0.2136230319738388,3.906249761581421,1.3732908964157104,100.0,30407.0,1.0
989600.6653058,319000.96875,315622.46875,349951.28125,339105.84375,320758.90625,315220.6875,310736.125,293224.25,-0.002197265625,0.818603515625,-0.58740234375,0.2441406100988388,3.906249761581421,1.3122557401657104,100.0,30408.0,1.0
989600.6676818,317166.25,310202.34375,346882.375,338547.6875,319359.78125,311882.84375,309587.59375,291881.875,-0.002685546875,0.81884765625,-0.583984375,0.3662109076976776,3.967284917831421,1.2817381620407104,100.0,30409.0,1.0
989600.6726118,313100.46875,300368.65625,334525.4375,331142.53125,306855.125,302381.84375,303532.15625,289007.1875,-0.002685546875,0.81689453125,-0.584716796875,0.1831054538488388,3.875732183456421,1.2817381620407104,100.0,30410.0,1.0
989600.6751511,312344.0,299454.1875,329704.4375,326982.875,300293.375,299635.78125,300805.6875,288498.71875,-0.003662109375,0.816162109375,-0.585205078125,0.3051757514476776,3.753661870956421,1.1291502714157104,100.0,30411.0,1.0
989600.6776318,315965.0,308717.125,339058.375,331825.34375,308655.0625,307386.21875,305177.5,291080.875,-0.002685546875,0.81494140625,-0.58251953125,0.3356933295726776,3.723144292831421,1.0681151151657104,100.0,30412.0,1.0
989600.6792344,318980.78125,315581.78125,349853.46875,339050.78125,320651.71875,315149.6875,310700.71875,293216.71875,0.001220703125,0.813720703125,-0.5830078125,0.4272460639476776,3.662109136581421,0.9460448622703552,100.0,30413.0,1.0
989600.6889072,317192.71875,310275.40625,346948.09375,338589.875,319419.40625,311931.21875,309629.25,291898.875,0.001953125,0.813720703125,-0.582763671875,0.5493163466453552,3.631591558456421,0.7934569716453552,100.0,30414.0,1.0
989600.6913509,313131.25,300411.40625,334608.5,331221.03125,306949.8125,302426.09375,303592.59375,289024.875,0.00048828125,0.814208984375,-0.585205078125,0.5493163466453552,3.509521245956421,0.7934569716453552,100.0,30415.0,1.0
989600.6937659,312332.65625,299365.5,329634.34375,326978.0625,300230.96875,299553.25,300789.5,288476.28125,-0.00048828125,0.815185546875,-0.58544921875,0.6103515028953552,3.570556402206421,0.7629393935203552,100.0,30416.0,1.0
989600.6964177,315916.53125,308550.1875,338857.28125,331719.40625,308427.4375,307210.78125,305080.6875,291024.46875,-0.00390625,0.817138671875,-0.585693359375,0.5187987685203552,3.387450933456421,0.7324218153953552,100.0,30417.0,1.0
989600.7112825,318973.96875,315525.1875,349754.40625,338990.6875,320495.5,315063.59375,310651.34375,293196.0625,-0.003173828125,0.8173828125,-0.58642578125,0.6713866591453552,3.326415777206421,0.7629393935203552,100.0,30418.0,1.0
989600.7162816,317239.125,310354.6875,347028.09375,338642.34375,319448.5625,311982.34375,309670.03125,291920.875,-0.00244140625,0.818115234375,-0.586669921875,0.5798339247703552,3.265380620956421,0.6408690810203552,100.0,30419.0,1.0
989600.7187522,313164.84375,300461.90625,334700.59375,331293.625,307012.5,302473.21875,303637.1875,289036.3125,-0.0009765625,0.819580078125,-0.5859375,0.6103515028953552,3.173827886581421,0.6103515028953552,100.0,30420.0,1.0
989600.7263123,312307.09375,299289.15625,329579.25,326965.96875,300152.1875,299484.6875,300764.5625,288457.15625,-0.001953125,0.820068359375,-0.5869140625,0.5798339247703552,2.960204839706421,0.7019042372703552,100.0,30421.0,1.0
989600.7263459,315862.875,308428.53125,338692.25,331622.84375,308219.65625,307064.34375,304997.25,290986.375,-0.001953125,0.822021484375,-0.587646484375,0.4882812201976776,2.929687261581421,0.7324218153953552,100.0,30422.0,1.0
989600.7337338,318963.0,315517.5,349682.875,338937.65625,320364.71875,315003.25,310614.6875,293188.65625,-0.0009765625,0.82177734375,-0.584716796875,0.4272460639476776,2.777099370956421,0.7019042372703552,100.0,30423.0,1.0
989600.7414049,317271.84375,310464.9375,347122.53125,338690.71875,319497.46875,312051.1875,309716.15625,291946.96875,0.00048828125,0.821533203125,-0.583984375,0.3662109076976776,2.532958745956421,0.6713866591453552,100.0,30424.0,1.0
989600.7438991,313192.3125,300539.15625,334817.53125,331375.625,307112.625,302550.8125,303707.28125,289065.5625,-0.000732421875,0.8173828125,-0.586181640625,0.2746581733226776,2.471923589706421,0.7934569716453552,100.0,30425.0,1.0
989600.7513808,312268.625,299202.6875,329523.1875,326944.4375,300087.03125,299423.71875,300748.28125,288437.75,-0.001953125,0.8154296875,-0.587158203125,0.3662109076976776,2.319335699081421,0.7934569716453552,100.0,30426.0,1.0
989600.7538803,315791.1875,308274.03125,338516.03125,331519.21875,308008.9375,306918.6875,304925.90625,290953.46875,-0.001953125,0.8134765625,-0.587646484375,0.3662109076976776,2.227782964706421,0.8850097060203552,100.0,30427.0,1.0
989600.7563634,318934.03125,315487.375,349600.625,338875.09375,320221.75,314936.90625,310582.96875,293187.9375,-0.004150390625,0.814697265625,-0.585205078125,0.3051757514476776,2.288818120956421,0.9155272841453552,100.0,30428.0,1.0
989600.8063488,317307.53125,310582.78125,347224.8125,338747.84375,319555.5,312130.3125,309783.03125,291993.28125,-0.003662109375,0.814208984375,-0.586181640625,0.3051757514476776,2.136230230331421,0.9765624403953552,100.0,30429.0,1.0
989600.8088257,313225.1875,300620.59375,334931.4375,331458.15625,307209.8125,302625.8125,303786.6875,289104.09375,-0.00244140625,0.814453125,-0.5869140625,0.2746581733226776,2.105712652206421,0.8544921278953552,100.0,30430.0,1.0
989600.8137826,312253.09375,299143.0625,329487.875,326946.03125,300037.59375,299375.0625,300754.4375,288434.0,-0.001708984375,0.81591796875,-0.588623046875,0.1831054538488388,1.9226073026657104,0.8239745497703552,100.0,30431.0,1.0
989600.8162523,315753.90625,308150.90625,338362.96875,331435.78125,307819.21875,306786.46875,304862.53125,290925.03125,-0.00341796875,0.81591796875,-0.5908203125,0.1525878757238388,1.8615721464157104,0.6713866591453552,100.0,30432.0,1.0
989600.8214116,318934.90625,315469.21875,349530.25,338825.90625,320096.5,314877.71875,310550.3125,293184.8125,-0.002685546875,0.816650390625,-0.5908203125,0.0,1.7089842557907104,0.7019042372703552,100.0,30433.0,1.0
989600.8214538,317350.1875,310688.0,347314.75,338796.03125,319597.6875,312191.75,309824.53125,292019.84375,-0.00341796875,0.818359375,-0.591064453125,0.0610351525247097,1.7395018339157104,0.7019042372703552,100.0,30434.0,1.0
989600.8237568,313255.78125,300693.46875,335035.21875,331538.34375,307286.34375,302682.875,303833.90625,289119.03125,-0.00390625,0.81689453125,-0.591064453125,-0.03051757626235485,1.6784666776657104,0.6713866591453552,100.0,30435.0,1.0
989600.826411,312235.90625,299092.90625,329447.21875,326955.4375,299979.46875,299325.8125,300743.09375,288422.09375,-0.00537109375,0.81787109375,-0.589599609375,-0.1831054538488388,1.4648436307907104,0.7019042372703552,100.0,30436.0,1.0
989600.8313813,315700.78125,308028.40625,338196.21875,331358.5625,307615.625,306651.46875,304787.96875,290885.625,-0.006103515625,0.819580078125,-0.59033203125,-0.3356933295726776,1.3427733182907104,0.6713866591453552,100.0,30437.0,1.0
989600.8337144,318916.75,315437.3125,349438.875,338776.8125,319949.6875,314814.3125,310513.65625,293168.09375,-0.0068359375,0.821044921875,-0.5908203125,-0.6103515028953552,1.2207030057907104,0.6103515028953552,100.0,30438.0,1.0
989600.8362442,317395.5,310788.59375,347397.8125,338853.28125,319637.125,312269.875,309880.03125,292043.25,-0.006591796875,0.820068359375,-0.589599609375,-0.7019042372703552,1.0986326932907104,0.5798339247703552,100.0,30439.0,1.0
989600.8412715,313300.03125,300779.03125,335150.9375,331626.9375,307382.625,302779.25,303912.46875,289139.6875,-0.00830078125,0.820556640625,-0.58984375,-0.7324218153953552,0.9155272841453552,0.4882812201976776,100.0,30440.0,1.0
989600.8413096,312221.59375,299040.53125,329419.65625,326961.15625,299938.6875,299309.625,300751.125,288401.53125,-0.00634765625,0.82275390625,-0.588623046875,-0.7629393935203552,0.8544921278953552,0.4272460639476776,100.0,30441.0,1.0
989600.8438296,315651.8125,307907.71875,338048.0625,331273.53125,307434.40625,306552.125,304729.65625,290841.625,-0.00537109375,0.8212890625,-0.587158203125,-0.8239745497703552,0.8239745497703552,0.4272460639476776,100.0,30442.0,1.0
989600.8463686,318903.4375,315416.03125,349375.84375,338719.96875,319831.65625,314790.28125,310487.90625,293149.75,-0.00341796875,0.822998046875,-0.5869140625,-0.8544921278953552,0.6713866591453552,0.3356933295726776,100.0,30443.0,1.0
989600.8487949,317435.375,310903.9375,347518.40625,338909.15625,319713.8125,312386.5625,309943.53125,292071.96875,-0.00390625,0.821044921875,-0.5869140625,-1.0681151151657104,0.6713866591453552,0.5187987685203552,100.0,30444.0,1.0
989600.8488386,313335.625,300873.625,335297.46875,331717.25,307516.65625,302901.125,303992.84375,289170.0625,-0.002685546875,0.8203125,-0.58984375,-1.1596678495407104,0.6408690810203552,0.5493163466453552,100.0,30445.0,1.0
989600.8575718,312207.125,299000.90625,329414.3125,326969.375,299938.875,299307.5625,300759.46875,288395.1875,-0.000732421875,0.820068359375,-0.587890625,-1.3122557401657104,0.6713866591453552,0.6713866591453552,100.0,30446.0,1.0
989600.8576133,315602.4375,307789.0,337902.875,331184.28125,307281.5,306451.0,304664.9375,290809.25,0.00146484375,0.8193359375,-0.588134765625,-1.3427733182907104,0.7629393935203552,0.6713866591453552,100.0,30447.0,1.0
989600.857622,318889.9375,315400.375,349311.28125,338664.625,319737.96875,314756.65625,310456.0,293147.0625,0.000244140625,0.818359375,-0.5888671875,-1.4648436307907104,0.7324218153953552,0.7324218153953552,100.0,30448.0,1.0
989600.8576299,317464.34375,311010.21875,347613.71875,338946.96875,319789.8125,312468.46875,309981.53125,292094.40625,0.0009765625,0.8173828125,-0.58642578125,-1.4648436307907104,0.7934569716453552,0.7934569716453552,100.0,30449.0,1.0
989600.8576394,313365.40625,300962.59375,335415.9375,331787.6875,307642.53125,302990.96875,304048.8125,289192.59375,0.0009765625,0.817138671875,-0.587646484375,-1.5563963651657104,0.8544921278953552,0.7629393935203552,100.0,30450.0,1.0
989600.8600724,312180.9375,298952.375,329378.71875,326955.34375,299919.375,299278.53125,300742.90625,288380.25,0.0,0.81494140625,-0.587158203125,-1.6479490995407104,0.9155272841453552,0.7629393935203552,100.0,30451.0,1.0
