Time,FZ,C3,CZ,C4,PZ,PO7,OZ,PO8,AccX,AccY,AccZ,Gyro1,Gyro2,Gyro3,Battery,Counter,Validation
1135999.9908906,284009.875,281887.15625,313784.96875,285238.03125,292138.125,272876.46875,273120.90625,285561.0625,-0.242919921875,0.887939453125,-0.3740234375,-12.542723655700684,-1.0375975370407104,5.279540538787842,60.0,2792314.0,1.0
1135999.9909392,283591.25,282101.1875,313525.15625,284618.09375,292219.375,273201.28125,273328.3125,286026.71875,-0.242919921875,0.88818359375,-0.373291015625,-12.817381858825684,-1.0986326932907104,5.645751476287842,60.0,2792315.0,1.0
1135999.993271,283769.8125,281802.21875,313478.125,284654.3125,292081.53125,272964.96875,273128.9375,285687.0625,-0.240966796875,0.886474609375,-0.37646484375,-12.939452171325684,-1.1291502714157104,6.011962413787842,60.0,2792316.0,1.0
1135999.9933139,284302.84375,281394.4375,313702.90625,285297.5,291909.9375,272484.0625,272792.78125,284995.84375,-0.23681640625,0.881103515625,-0.376953125,-13.153075218200684,-1.1291502714157104,6.469726085662842,60.0,2792317.0,1.0
1135999.9950792,284391.09375,281390.25,313770.21875,285499.125,291835.3125,272352.1875,272703.28125,284763.75,-0.234375,0.87060546875,-0.375732421875,-13.397215843200684,-1.0375975370407104,6.927489757537842,60.0,2792318.0,1.0
1135999.9975729,283941.71875,281819.21875,313636.21875,285053.40625,291994.1875,272774.96875,273019.15625,285363.03125,-0.231689453125,0.85986328125,-0.373291015625,-13.336180686950684,-0.8544921278953552,7.385253429412842,60.0,2792319.0,1.0
1136000.0072318,283520.8125,282051.125,313369.3125,284406.46875,292074.625,273120.1875,273237.03125,285824.65625,-0.2255859375,0.85302734375,-0.373779296875,-13.031004905700684,-0.8544921278953552,7.720946788787842,60.0,2792320.0,1.0
1136000.0072814,283707.75,281768.15625,313339.8125,284469.0625,291954.65625,272903.46875,273057.0625,285518.4375,-0.226806640625,0.848388671875,-0.379638671875,-12.664793968200684,-0.7324218153953552,8.087157249450684,60.0,2792321.0,1.0
1136000.0089508,284260.75,281366.53125,313602.9375,285177.78125,291808.375,272433.4375,272736.71875,284875.59375,-0.224365234375,0.845458984375,-0.37939453125,-12.145995140075684,-0.5493163466453552,8.422850608825684,60.0,2792322.0,1.0
1136000.0151017,284371.96875,281376.375,313700.75,285416.40625,291752.96875,272317.3125,272661.6875,284664.78125,-0.22509765625,0.846923828125,-0.38134765625,-11.566161155700684,-0.4882812201976776,8.728026390075684,60.0,2792323.0,1.0
1136000.0219548,283921.15625,281805.09375,313554.21875,284943.53125,291901.625,272738.78125,272972.9375,285235.0,-0.225341796875,0.852294921875,-0.37744140625,-10.955809593200684,-0.2441406100988388,9.033202171325684,60.0,2792324.0,1.0
1136000.0219968,283469.21875,282017.25,313245.6875,284242.40625,291952.875,273067.0625,273170.6875,285657.1875,-0.224853515625,0.856201171875,-0.374755859375,-10.498045921325684,-0.1525878757238388,9.307860374450684,60.0,2792325.0,1.0
1136000.0240543,283670.65625,281759.75,313231.8125,284321.625,291849.59375,272869.125,273010.46875,285381.1875,-0.227294921875,0.861083984375,-0.3740234375,-10.101317405700684,-0.1220703050494194,9.735106468200684,60.0,2792326.0,1.0
1136000.0351737,284255.09375,281377.90625,313546.09375,285104.65625,291745.8125,272420.9375,272724.46875,284807.71875,-0.227294921875,0.86279296875,-0.369873046875,-9.887694358825684,-0.1525878757238388,9.979247093200684,60.0,2792327.0,1.0
1136000.0382797,284377.3125,281376.1875,313666.78125,285380.75,291706.71875,272301.75,272654.625,284607.71875,-0.228515625,0.867919921875,-0.369384765625,-9.704588890075684,-0.1525878757238388,10.284422874450684,60.0,2792328.0,1.0
1136000.0383225,283888.09375,281761.90625,313468.125,284848.84375,291808.5625,272680.46875,272921.34375,285110.1875,-0.2294921875,0.864990234375,-0.367919921875,-9.613036155700684,-0.2136230319738388,10.589598655700684,60.0,2792329.0,1.0
1136000.0401957,283394.03125,281951.90625,313098.875,284065.46875,291806.0625,272974.96875,273079.5,285473.1875,-0.229736328125,0.8681640625,-0.369384765625,-9.368895530700684,-0.2136230319738388,10.833739280700684,60.0,2792330.0,1.0
1136000.0490377,283615.40625,281730.15625,313110.6875,284167.40625,291729.4375,272810.5625,272955.3125,285240.375,-0.23095703125,0.86962890625,-0.36572265625,-9.216307640075684,-0.3356933295726776,10.925292015075684,60.0,2792331.0,1.0
1136000.0532736,284253.0625,281391.65625,313504.15625,285052.15625,291694.5625,272415.125,272728.9375,284751.125,-0.232666015625,0.87255859375,-0.364990234375,-9.063719749450684,-0.5798339247703552,11.047362327575684,60.0,2792332.0,1.0
1136000.0533169,284381.15625,281369.0625,313644.53125,285371.53125,291674.28125,272296.21875,272663.40625,284576.625,-0.231201171875,0.87451171875,-0.360595703125,-9.033202171325684,-0.7324218153953552,11.199950218200684,60.0,2792333.0,1.0
1136000.0619078,283880.40625,281740.90625,313418.9375,284800.9375,291753.59375,272655.1875,272903.625,285043.5,-0.229248046875,0.87744140625,-0.356689453125,-9.094237327575684,-0.9460448622703552,11.260985374450684,60.0,2792334.0,1.0
1136000.0619532,283373.46875,281934.375,313022.78125,283965.25,291730.875,272942.4375,273045.09375,285370.625,-0.225830078125,0.882080078125,-0.353271484375,-9.155272483825684,-1.0681151151657104,11.260985374450684,60.0,2792335.0,1.0
1136000.0644681,283605.65625,281732.84375,313052.1875,284084.25,291669.625,272798.5,272937.53125,285162.125,-0.22216796875,0.88671875,-0.3544921875,-9.429930686950684,-1.2512205839157104,11.352538108825684,60.0,2792336.0,1.0
1136000.0645037,284262.15625,281408.125,313487.625,285033.9375,291668.46875,272419.125,272727.875,284728.25,-0.21728515625,0.8876953125,-0.35302734375,-9.643553733825684,-1.2817381620407104,11.383055686950684,60.0,2792337.0,1.0
1136000.0778011,284420.0625,281400.59375,313671.875,285413.90625,291678.46875,272310.5,272673.875,284589.75,-0.214599609375,0.888671875,-0.3486328125,-10.009764671325684,-1.4953612089157104,11.413573265075684,60.0,2792338.0,1.0
1136000.0801483,283905.875,281752.15625,313435.75,284824.28125,291750.90625,272663.84375,272909.09375,285037.5,-0.2099609375,0.88916015625,-0.344970703125,-10.131834983825684,-1.4953612089157104,11.566161155700684,60.0,2792339.0,1.0
1136000.0832676,283373.8125,281940.28125,313004.71875,283935.9375,291701.1875,272943.5,273041.6875,285338.09375,-0.205322265625,0.88818359375,-0.34375,-10.437010765075684,-1.4038084745407104,11.596678733825684,60.0,2792340.0,1.0
1136000.0833114,283593.03125,281742.59375,313022.875,284046.6875,291634.75,272797.40625,272933.6875,285137.5625,-0.19921875,0.889404296875,-0.3408203125,-10.772704124450684,-1.4953612089157104,11.505125999450684,60.0,2792341.0,1.0
1136000.0927052,284278.34375,281429.21875,313513.53125,285078.09375,291680.71875,272443.09375,272759.34375,284769.375,-0.195556640625,0.8935546875,-0.340087890625,-11.016844749450684,-1.3732908964157104,11.322020530700684,60.0,2792342.0,1.0
1136000.095264,284450.90625,281416.625,313723.375,285494.46875,291715.59375,272340.28125,272717.75,284653.15625,-0.1923828125,0.903076171875,-0.3388671875,-11.291502952575684,-1.2512205839157104,11.474608421325684,60.0,2792343.0,1.0
1136000.0982722,283910.25,281739.71875,313447.125,284854.75,291757.4375,272663.3125,272913.46875,285046.34375,-0.189208984375,0.9091796875,-0.33154296875,-11.688231468200684,-1.0375975370407104,11.413573265075684,60.0,2792344.0,1.0
1136000.0983151,283365.6875,281927.5625,312995.96875,283930.03125,291696.71875,272939.5,273030.9375,285317.625,-0.185546875,0.9091796875,-0.3232421875,-12.298583030700684,-0.7934569716453552,11.413573265075684,60.0,2792345.0,1.0
1136000.1001454,283583.21875,281738.84375,313020.8125,284042.21875,291636.53125,272803.40625,272933.84375,285138.90625,-0.181640625,0.90625,-0.3193359375,-12.908934593200684,-0.5798339247703552,11.505125999450684,60.0,2792346.0,1.0
1136000.1088911,284288.46875,281437.90625,313542.34375,285122.53125,291704.6875,272461.4375,272778.90625,284817.46875,-0.1806640625,0.904052734375,-0.3125,-13.427733421325684,-0.4272460639476776,11.535643577575684,60.0,2792347.0,1.0
1136000.1128444,284454.65625,281398.375,313749.84375,285556.25,291729.15625,272337.59375,272718.46875,284696.0625,-0.17919921875,0.90478515625,-0.31396484375,-13.885497093200684,-0.2441406100988388,11.596678733825684,60.0,2792348.0,1.0
1136000.1377052,283894.71875,281696.90625,313436.375,284872.1875,291734.4375,272630.40625,272882.4375,285041.4375,-0.179931640625,0.90673828125,-0.31396484375,-14.373778343200684,0.1831054538488388,11.566161155700684,60.0,2792349.0,1.0
1136000.1401648,283316.5,281865.875,312929.625,283869.65625,291629.3125,272882.90625,272972.9375,285254.75,-0.179443359375,0.90478515625,-0.318603515625,-14.801024436950684,0.2746581733226776,11.657713890075684,60.0,2792350.0,1.0
1136000.1427031,283567.9375,281723.46875,312990.875,284015.21875,291607.40625,272791.0625,272918.9375,285119.75,-0.175048828125,0.905029296875,-0.312255859375,-15.106200218200684,0.4882812201976776,11.657713890075684,60.0,2792351.0,1.0
1136000.1452796,284322.15625,281465.34375,313580.15625,285179.75,291732.84375,272492.53125,272813.25,284874.78125,-0.172119140625,0.90576171875,-0.30419921875,-15.472411155700684,0.7934569716453552,11.779784202575684,60.0,2792352.0,1.0
1136000.1477015,284514.75,281436.90625,313823.34375,285662.5625,291782.0,272377.9375,272766.75,284774.75,-0.167236328125,0.904052734375,-0.3017578125,-15.747069358825684,1.0986326932907104,11.901854515075684,60.0,2792353.0,1.0
1136000.1502021,283929.21875,281711.65625,313474.75,284929.9375,291758.0625,272646.21875,272900.0625,285066.375,-0.163330078125,0.909912109375,-0.299560546875,-15.960692405700684,1.4343260526657104,11.932372093200684,60.0,2792354.0,1.0
1136000.1526884,283332.34375,281882.25,312936.78125,283882.0,291629.84375,272887.28125,272971.21875,285253.34375,-0.16064453125,0.916015625,-0.294189453125,-16.296384811401367,1.8310545682907104,11.993407249450684,60.0,2792355.0,1.0
1136000.1553992,283564.0,281733.375,312981.03125,284013.25,291596.5,272786.59375,272909.71875,285120.125,-0.157470703125,0.924560546875,-0.292236328125,-16.571043014526367,2.288818120956421,12.054442405700684,60.0,2792356.0,1.0
1136000.1576965,284336.65625,281476.34375,313604.1875,285236.875,291756.25,272502.90625,272827.5625,284921.53125,-0.1552734375,0.93017578125,-0.285888671875,-16.998289108276367,2.716064214706421,12.145995140075684,60.0,2792357.0,1.0
1136000.1607935,284551.5,281451.40625,313881.625,285767.78125,291835.125,272400.375,272797.34375,284852.4375,-0.150390625,0.9375,-0.280029296875,-17.425535202026367,3.082275152206421,12.420653343200684,60.0,2792358.0,1.0
1136000.1608364,283961.9375,281721.40625,313523.375,285013.28125,291802.3125,272664.375,272921.34375,285119.03125,-0.148681640625,0.944580078125,-0.27734375,-18.035886764526367,3.448486089706421,12.634276390075684,60.0,2792359.0,1.0
1136000.1626874,283330.46875,281871.5,312935.78125,283890.0625,291639.125,272886.03125,272964.53125,285255.3125,-0.150146484375,0.952880859375,-0.28173828125,-18.615720748901367,3.753661870956421,12.908934593200684,60.0,2792360.0,1.0
1136000.1664928,283564.15625,281736.6875,312979.96875,284014.25,291615.4375,272797.34375,272913.03125,285133.71875,-0.151611328125,0.9599609375,-0.28076171875,-19.256589889526367,4.058837413787842,13.061522483825684,60.0,2792361.0,1.0
1136000.1783437,284372.84375,281516.125,313658.75,285308.3125,291820.46875,272546.90625,272873.59375,284996.90625,-0.153076171875,0.9599609375,-0.274169921875,-19.927976608276367,4.364013195037842,13.336180686950684,60.0,2792362.0,1.0
1136000.1783889,284592.96875,281478.9375,313950.46875,285864.875,291900.90625,272435.5,272839.53125,284931.90625,-0.15185546875,0.945556640625,-0.260498046875,-20.721433639526367,4.608153820037842,13.580321311950684,60.0,2792363.0,1.0
1136000.1813719,283978.3125,281719.96875,313557.34375,285065.75,291829.5625,272666.25,272925.4375,285144.25,-0.150634765625,0.92138671875,-0.250244140625,-21.484373092651367,4.913329601287842,13.824461936950684,60.0,2792364.0,1.0
1136000.1814152,283326.78125,281866.34375,312936.34375,283890.3125,291637.875,272871.375,272952.4375,285245.8125,-0.151123046875,0.89892578125,-0.2568359375,-22.064207077026367,5.187987804412842,14.007567405700684,60.0,2792365.0,1.0
1136000.1814274,283566.21875,281751.25,312983.28125,284005.21875,291615.90625,272794.03125,272912.40625,285134.96875,-0.153076171875,0.890625,-0.26708984375,-21.881101608276367,5.310058116912842,13.916014671325684,60.0,2792366.0,1.0
1136000.1852054,284382.0625,281526.125,313679.65625,285332.46875,291825.90625,272542.96875,272871.28125,285017.9375,-0.1552734375,0.89013671875,-0.279541015625,-21.148679733276367,5.432128429412842,13.854979515075684,60.0,2792367.0,1.0
1136000.1965617,284617.125,281481.25,313992.9375,285928.90625,291922.375,272434.34375,272839.71875,284969.75,-0.16015625,0.896484375,-0.274658203125,-20.202634811401367,5.432128429412842,13.641356468200684,60.0,2792368.0,1.0
1136000.2088252,283989.3125,281704.5,313569.15625,285090.96875,291831.4375,272643.8125,272901.65625,285144.53125,-0.162109375,0.905029296875,-0.263916015625,-19.622800827026367,5.432128429412842,13.336180686950684,60.0,2792369.0,1.0
1136000.2088743,283312.40625,281841.03125,312908.0,283859.03125,291613.21875,272840.59375,272912.9375,285205.0625,-0.1640625,0.913330078125,-0.253662109375,-19.348142623901367,5.310058116912842,13.122557640075684,60.0,2792370.0,1.0
1136000.2088892,283543.25,281736.34375,312951.34375,283965.96875,291592.1875,272775.59375,272880.65625,285099.09375,-0.16259765625,0.9111328125,-0.248291015625,-19.256589889526367,5.187987804412842,13.000487327575684,60.0,2792371.0,1.0
1136000.2132774,284401.1875,281545.8125,313707.375,285367.78125,291855.5,272565.9375,272888.25,285051.375,-0.159912109375,0.90771484375,-0.25341796875,-19.226072311401367,5.096435070037842,12.786864280700684,60.0,2792372.0,1.0
1136000.2133209,284660.84375,281511.46875,314058.46875,286014.1875,291981.3125,272471.71875,272880.21875,285033.3125,-0.153564453125,0.897705078125,-0.261962890625,-18.981931686401367,4.943847179412842,12.725829124450684,60.0,2792373.0,1.0
1136000.2151655,284014.96875,281713.71875,313608.75,285140.9375,291867.75,272663.21875,272925.625,285171.4375,-0.150146484375,0.888427734375,-0.264892578125,-18.402097702026367,4.943847179412842,12.481688499450684,60.0,2792374.0,1.0
1136000.2240627,283310.96875,281839.40625,312907.8125,283843.125,291617.21875,272845.78125,272912.65625,285193.53125,-0.14306640625,0.8798828125,-0.265625,-17.486570358276367,5.035399913787842,12.207030296325684,60.0,2792375.0,1.0
1136000.2283192,283531.8125,281740.1875,312941.0625,283934.03125,291588.4375,272782.84375,272878.78125,285092.84375,-0.136474609375,0.87548828125,-0.26611328125,-16.571043014526367,5.004882335662842,11.901854515075684,60.0,2792376.0,1.0
1136000.2283639,284395.65625,281550.71875,313712.90625,285370.625,291862.46875,272572.28125,272891.9375,285072.90625,-0.133056640625,0.875244140625,-0.265380859375,-15.624999046325684,5.187987804412842,11.535643577575684,60.0,2792377.0,1.0
1136000.2414858,284672.1875,281513.0,314083.25,286052.1875,292002.21875,272475.90625,272889.15625,285065.40625,-0.128173828125,0.8798828125,-0.267822265625,-14.678954124450684,5.493163585662842,11.169432640075684,60.0,2792378.0,1.0
1136000.2463732,284019.4375,281705.40625,313619.84375,285159.71875,291874.46875,272655.875,272917.21875,285171.96875,-0.118896484375,0.8837890625,-0.26318359375,-13.549803733825684,5.767821788787842,10.772704124450684,60.0,2792379.0,1.0
1136000.2464168,283273.15625,281804.375,312867.65625,283797.53125,291583.34375,272809.9375,272872.15625,285139.53125,-0.112548828125,0.89306640625,-0.263427734375,-12.603758811950684,6.225585460662842,10.467528343200684,60.0,2792380.0,1.0
1136000.2464304,283489.25,281710.59375,312890.28125,283871.5625,291550.71875,272746.1875,272841.5,285040.0,-0.107666015625,0.8974609375,-0.264404296875,-11.901854515075684,6.744384288787842,10.253905296325684,60.0,2792381.0,1.0
1136000.2496356,284404.78125,281565.21875,313722.9375,285380.84375,291876.78125,272576.5,272901.21875,285085.4375,-0.10302734375,0.903076171875,-0.260498046875,-11.199950218200684,7.263183116912842,10.101317405700684,60.0,2792382.0,1.0
1136000.2496794,284696.0625,281521.9375,314114.53125,286097.5,292029.65625,272479.84375,272900.15625,285091.875,-0.09912109375,0.907470703125,-0.260498046875,-10.589598655700684,7.781981945037842,9.765624046325684,60.0,2792383.0,1.0
1136000.2602153,284027.46875,281692.0,313632.4375,285176.90625,291881.875,272642.03125,272910.0,285166.34375,-0.097412109375,0.909423828125,-0.2568359375,-10.070799827575684,8.453368186950684,9.613036155700684,60.0,2792384.0,1.0
1136000.2670349,283273.25,281804.1875,312863.1875,283776.34375,291581.90625,272802.0625,272866.8125,285117.0,-0.096923828125,0.910400390625,-0.257080078125,-9.490965843200684,9.063719749450684,9.338377952575684,60.0,2792385.0,1.0
1136000.267077,283496.21875,281736.96875,312892.53125,283849.03125,291563.15625,272763.28125,272857.15625,285035.09375,-0.099365234375,0.912841796875,-0.25439453125,-9.033202171325684,9.704588890075684,8.972167015075684,60.0,2792386.0,1.0
1136000.2757782,284407.71875,281578.34375,313730.8125,285378.0625,291890.375,272587.21875,272916.0625,285095.8125,-0.100341796875,0.916015625,-0.25244140625,-8.514403343200684,10.253905296325684,8.636473655700684,60.0,2792387.0,1.0
1136000.2758209,284705.71875,281521.40625,314136.625,286123.09375,292048.1875,272481.8125,272911.0625,285108.84375,-0.103515625,0.917724609375,-0.250244140625,-8.209227561950684,10.925292015075684,8.270262718200684,60.0,2792388.0,1.0
1136000.2820932,284033.5625,281679.5625,313640.6875,285193.53125,291887.78125,272625.9375,272902.84375,285156.3125,-0.105224609375,0.921630859375,-0.252685546875,-7.873534679412842,11.352538108825684,7.904052257537842,60.0,2792389.0,1.0
1136000.282137,283266.1875,281788.0,312848.34375,283761.03125,291570.28125,272776.0625,272841.40625,285082.21875,-0.109130859375,0.92529296875,-0.252685546875,-7.690429210662842,11.779784202575684,7.354735851287842,60.0,2792390.0,1.0
1136000.2932817,283482.90625,281725.5,312874.28125,283822.8125,291551.96875,272744.21875,272832.375,285013.46875,-0.11083984375,0.92822265625,-0.254638671875,-7.659911632537842,12.084959983825684,6.835937023162842,60.0,2792391.0,1.0
1136000.2933252,284408.34375,281581.375,313741.0,285387.625,291905.75,272589.28125,272915.0,285113.9375,-0.114013671875,0.9326171875,-0.254150390625,-7.720946788787842,12.512206077575684,6.317138195037842,60.0,2792392.0,1.0
1136000.2957008,284748.8125,281550.375,314201.71875,286208.5625,292113.25,272513.03125,272942.53125,285175.28125,-0.11669921875,0.93359375,-0.253173828125,-7.904052257537842,12.786864280700684,5.798339366912842,60.0,2792393.0,1.0
1136000.2957419,284080.59375,281705.75,313712.90625,285285.25,291958.6875,272658.65625,272933.9375,285216.6875,-0.125244140625,0.933837890625,-0.256103515625,-7.873534679412842,13.031004905700684,5.157470226287842,60.0,2792394.0,1.0
1136000.3039579,283286.03125,281799.71875,312887.15625,283805.125,291614.1875,272792.59375,272852.75,285108.5,-0.128173828125,0.933349609375,-0.25830078125,-7.843017101287842,13.183592796325684,4.547118663787842,60.0,2792395.0,1.0
1136000.3071343,283490.21875,281741.25,312893.9375,283833.09375,291584.15625,272761.125,272842.5625,285024.1875,-0.1337890625,0.93505859375,-0.261962890625,-7.873534679412842,13.244627952575684,3.875732183456421,60.0,2792396.0,1.0
1136000.3071787,284430.96875,281610.625,313775.21875,285414.53125,291953.9375,272619.5,272941.53125,285144.0,-0.138427734375,0.9375,-0.26318359375,-7.934569835662842,13.275145530700684,3.173827886581421,60.0,2792397.0,1.0
1136000.308907,284758.8125,281553.75,314218.0625,286223.3125,292138.5625,272517.3125,272947.4375,285185.75,-0.14111328125,0.938232421875,-0.2646484375,-7.934569835662842,13.061522483825684,2.349853277206421,60.0,2792398.0,1.0
1136000.3226535,284093.625,281703.4375,313723.03125,285300.4375,291974.6875,272653.21875,272928.75,285212.65625,-0.142578125,0.93994140625,-0.264404296875,-8.026122093200684,13.000487327575684,1.5563963651657104,60.0,2792399.0,1.0
1136000.325788,283305.34375,281811.53125,312908.875,283830.875,291643.15625,272804.125,272860.0,285116.71875,-0.144287109375,0.941162109375,-0.266357421875,-8.117674827575684,12.817381858825684,0.8544921278953552,60.0,2792400.0,1.0
1136000.3258322,283490.84375,281747.6875,312905.65625,283844.46875,291607.5,272771.59375,272847.21875,285039.21875,-0.144775390625,0.943603515625,-0.26611328125,-8.270262718200684,12.695311546325684,0.3356933295726776,60.0,2792401.0,1.0
1136000.3278168,284433.375,281621.875,313796.5,285440.375,291984.15625,272634.15625,272954.5,285179.65625,-0.14306640625,0.942138671875,-0.266845703125,-8.361815452575684,12.634276390075684,-0.1831054538488388,60.0,2792402.0,1.0
1136000.3314521,284784.75,281570.40625,314266.96875,286288.84375,292187.46875,272544.125,272976.0625,285246.09375,-0.138427734375,0.942626953125,-0.265869140625,-8.392333030700684,12.512206077575684,-0.6713866591453552,60.0,2792403.0,1.0
1136000.3352045,284118.5,281707.8125,313772.5625,285368.9375,292017.34375,272673.0625,272951.5625,285265.125,-0.132568359375,0.941162109375,-0.265869140625,-8.666991233825684,12.329100608825684,-0.9460448622703552,60.0,2792404.0,1.0
1136000.3494871,283314.71875,281811.625,312939.28125,283870.84375,291672.03125,272814.125,272873.875,285153.375,-0.125732421875,0.936279296875,-0.26416015625,-8.758543968200684,12.329100608825684,-1.1596678495407104,60.0,2792405.0,1.0
1136000.3495291,283493.34375,281760.75,312924.34375,283861.1875,291635.125,272790.8125,272865.71875,285071.65625,-0.119873046875,0.9306640625,-0.2646484375,-8.850096702575684,12.420653343200684,-1.3732908964157104,60.0,2792406.0,1.0
1136000.3516155,284433.84375,281635.46875,313809.9375,285445.28125,292008.65625,272658.84375,272975.25,285207.75,-0.1171875,0.927001953125,-0.268310546875,-8.758543968200684,12.573241233825684,-1.4038084745407104,60.0,2792407.0,1.0
1136000.3539514,284770.90625,281556.625,314256.6875,286275.625,292180.40625,272535.5625,272967.90625,285235.1875,-0.11279296875,0.924072265625,-0.270263671875,-8.728026390075684,12.786864280700684,-1.4038084745407104,60.0,2792408.0,1.0
1136000.3576843,284111.15625,281690.375,313759.40625,285361.6875,292002.84375,272652.5,272933.59375,285240.375,-0.1123046875,0.921875,-0.268798828125,-8.605956077575684,12.969969749450684,-1.3732908964157104,60.0,2792409.0,1.0
1136000.3663296,283306.6875,281796.0625,312923.0,283857.6875,291652.28125,272793.40625,272851.59375,285125.46875,-0.112060546875,0.919677734375,-0.26708984375,-8.361815452575684,13.122557640075684,-1.5563963651657104,60.0,2792410.0,1.0
1136000.3764921,283467.34375,281739.625,312891.4375,283817.625,291604.71875,272770.15625,272837.75,285040.0,-0.1142578125,0.921630859375,-0.269775390625,-7.995604991912842,13.366698265075684,-1.5869139432907104,60.0,2792411.0,1.0
1136000.3765361,284413.53125,281621.53125,313781.40625,285397.71875,291983.1875,272645.34375,272957.09375,285185.28125,-0.11572265625,0.923828125,-0.269287109375,-7.873534679412842,13.519286155700684,-1.7089842557907104,60.0,2792412.0,1.0
1136000.3765485,284777.25,281557.875,314250.625,286251.125,292174.6875,272536.71875,272965.40625,285224.375,-0.114501953125,0.92626953125,-0.2744140625,-7.751464366912842,13.824461936950684,-1.7395018339157104,60.0,2792413.0,1.0
1136000.379529,284114.1875,281688.21875,313740.53125,285321.0,291985.78125,272640.5,272915.15625,285204.0625,-0.118896484375,0.92919921875,-0.27294921875,-7.629394054412842,13.946532249450684,-1.6784666776657104,60.0,2792414.0,1.0
1136000.3795728,283305.59375,281802.21875,312895.46875,283804.03125,291632.96875,272784.46875,272829.59375,285082.5625,-0.119873046875,0.9287109375,-0.275390625,-7.446288585662842,14.099120140075684,-1.7700194120407104,60.0,2792415.0,1.0
1136000.3813989,283446.96875,281736.5,312849.34375,283751.84375,291578.96875,272757.71875,272810.84375,284995.125,-0.122314453125,0.928466796875,-0.2783203125,-7.507323741912842,14.190672874450684,-1.6174315214157104,60.0,2792416.0,1.0
1136000.3951641,284381.96875,281612.3125,313738.65625,285342.03125,291959.9375,272631.84375,272928.125,285150.96875,-0.12353515625,0.927978515625,-0.281005859375,-7.324218273162842,14.251708030700684,-1.7089842557907104,60.0,2792417.0,1.0
1136000.3983892,284767.21875,281561.0,314243.71875,286248.34375,292178.25,272538.21875,272958.34375,285224.46875,-0.1240234375,0.9267578125,-0.284912109375,-7.263183116912842,14.282225608825684,-1.6784666776657104,60.0,2792418.0,1.0
1136000.3984328,284142.90625,281711.375,313779.71875,285378.40625,292025.09375,272667.96875,272939.21875,285233.65625,-0.1220703125,0.923095703125,-0.285400390625,-7.080077648162842,14.373778343200684,-1.7700194120407104,60.0,2792419.0,1.0
1136000.4029243,283321.6875,281812.0625,312924.875,283847.5,291662.75,272799.46875,272842.65625,285097.40625,-0.11669921875,0.916748046875,-0.287109375,-6.896972179412842,14.526366233825684,-1.7395018339157104,60.0,2792420.0,1.0
1136000.4077062,283445.0,281748.125,312862.5625,283761.03125,291597.5625,272768.90625,272816.8125,285005.21875,-0.112060546875,0.911865234375,-0.287841796875,-6.713866710662842,14.709471702575684,-1.7700194120407104,60.0,2792421.0,1.0
1136000.410164,284378.84375,281623.9375,313759.3125,285355.875,291983.8125,272648.03125,272941.625,285178.9375,-0.1064453125,0.90087890625,-0.290283203125,-6.317138195037842,14.801024436950684,-1.8005369901657104,60.0,2792422.0,1.0
1136000.4128085,284780.625,281574.3125,314286.1875,286297.59375,292219.46875,272562.1875,272984.1875,285271.3125,-0.10009765625,0.89404296875,-0.295654296875,-5.889892101287842,15.045165061950684,-1.8005369901657104,60.0,2792423.0,1.0
1136000.4164491,284161.21875,281719.78125,313830.40625,285445.46875,292066.15625,272684.0625,272960.9375,285286.78125,-0.0947265625,0.88671875,-0.296630859375,-5.310058116912842,15.380858421325684,-1.7395018339157104,60.0,2792424.0,1.0
1136000.4207836,283358.96875,281845.59375,312997.21875,283936.8125,291723.4375,272839.8125,272886.1875,285178.84375,-0.094482421875,0.881591796875,-0.2978515625,-4.638671398162842,15.716551780700684,-1.6784666776657104,60.0,2792425.0,1.0
1136000.4208269,283471.1875,281787.75,312929.0,283842.84375,291656.9375,272817.34375,272866.25,285096.4375,-0.09130859375,0.876220703125,-0.294677734375,-3.875732183456421,16.235349655151367,-1.5869139432907104,60.0,2792426.0,1.0
1136000.433957,284391.0,281647.09375,313816.8125,285435.1875,292040.5,272687.53125,272988.65625,285276.125,-0.08837890625,0.875,-0.297119140625,-3.204345464706421,16.540525436401367,-1.5563963651657104,60.0,2792427.0,1.0
1136000.4371342,284798.15625,281582.90625,314352.09375,286397.9375,292277.3125,272591.59375,273025.59375,285378.5,-0.089599609375,0.8720703125,-0.2978515625,-2.410888433456421,16.967771530151367,-1.5258787870407104,60.0,2792428.0,1.0
1136000.4371792,284181.4375,281712.71875,313895.84375,285558.46875,292122.21875,272704.71875,272993.125,285384.40625,-0.091552734375,0.871337890625,-0.30078125,-1.6174315214157104,17.364500045776367,-1.5258787870407104,60.0,2792429.0,1.0
1136000.4389056,283364.15625,281827.15625,313036.46875,284015.59375,291759.21875,272844.4375,272898.71875,285239.75,-0.093994140625,0.87451171875,-0.3017578125,-0.8850097060203552,17.730710983276367,-1.4038084745407104,60.0,2792430.0,1.0
1136000.442693,283469.40625,281776.75,312946.875,283872.1875,291685.375,272823.09375,272873.40625,285131.75,-0.1015625,0.877685546875,-0.29931640625,-0.0610351525247097,17.974851608276367,-1.3732908964157104,60.0,2792431.0,1.0
1136000.4570281,284387.6875,281650.59375,313824.6875,285441.625,292063.90625,272699.34375,272996.71875,285298.5,-0.103515625,0.88037109375,-0.299560546875,0.3356933295726776,18.096921920776367,-1.3732908964157104,60.0,2792432.0,1.0
1136000.4570708,284790.21875,281570.21875,314348.15625,286390.78125,292291.0,272590.96875,273028.1875,285377.78125,-0.110107421875,0.887939453125,-0.30078125,1.0681151151657104,18.310544967651367,-1.3122557401657104,60.0,2792433.0,1.0
1136000.4596607,284174.375,281692.25,313876.53125,285522.0,292112.625,272684.0625,272975.34375,285344.625,-0.119384765625,0.894287109375,-0.303955078125,1.5869139432907104,18.341062545776367,-1.4953612089157104,60.0,2792434.0,1.0
1136000.459715,283345.75,281804.71875,312995.59375,283942.625,291728.90625,272811.28125,272861.34375,285169.65625,-0.126953125,0.901123046875,-0.304443359375,1.9836424589157104,18.280027389526367,-1.5563963651657104,60.0,2792435.0,1.0
1136000.4651422,283433.0,281755.03125,312889.03125,283772.03125,291645.9375,272790.09375,272833.09375,285055.46875,-0.132568359375,0.909423828125,-0.302490234375,2.410888433456421,18.066404342651367,-1.6784666776657104,60.0,2792436.0,1.0
1136000.4794864,284345.125,281630.5625,313768.34375,285333.8125,292032.34375,272674.125,272971.6875,285237.5,-0.140380859375,0.921142578125,-0.30419921875,2.655029058456421,17.669675827026367,-1.6784666776657104,60.0,2792437.0,1.0
1136000.4795279,284757.75,281557.0625,314302.28125,286295.625,292260.78125,272565.5,273003.5,285317.96875,-0.14013671875,0.927978515625,-0.305419921875,2.685546636581421,17.303464889526367,-1.6784666776657104,60.0,2792438.0,1.0
1136000.4820247,284155.3125,281679.28125,313837.71875,285446.0,292082.15625,272654.5625,272945.03125,285276.9375,-0.137939453125,0.9306640625,-0.303466796875,2.563476324081421,16.906736373901367,-1.7395018339157104,60.0,2792439.0,1.0
1136000.4820679,283334.40625,281797.9375,312960.125,283870.84375,291702.78125,272788.9375,272835.875,285101.0625,-0.135498046875,0.93017578125,-0.30517578125,2.441406011581421,16.479490280151367,-1.6784666776657104,60.0,2792440.0,1.0
1136000.4840623,283418.15625,281758.15625,312847.09375,283685.84375,291617.21875,272776.9375,272813.875,284994.6875,-0.135009765625,0.9296875,-0.306396484375,2.441406011581421,16.113279342651367,-1.7395018339157104,60.0,2792441.0,1.0
1136000.4957154,284318.59375,281625.09375,313719.25,285245.90625,291996.0625,272657.59375,272950.9375,285187.34375,-0.1328125,0.927001953125,-0.30517578125,2.319335699081421,15.777586936950684,-1.7089842557907104,60.0,2792442.0,1.0
1136000.4957535,284739.875,281544.375,314267.78125,286240.75,292230.84375,272549.9375,272989.375,285280.875,-0.129638671875,0.92529296875,-0.3076171875,2.319335699081421,15.502928733825684,-1.5563963651657104,60.0,2792443.0,1.0
1136000.5019152,284150.3125,281662.21875,313822.0,285425.875,292063.03125,272640.59375,272936.625,285252.53125,-0.128662109375,0.921142578125,-0.306396484375,2.319335699081421,15.258788108825684,-1.5563963651657104,60.0,2792444.0,1.0
1136000.5019472,283338.9375,281790.5,312959.65625,283872.09375,291691.34375,272781.40625,272833.0,285092.9375,-0.12841796875,0.91943359375,-0.30712890625,2.288818120956421,14.953612327575684,-1.5563963651657104,60.0,2792445.0,1.0
1136000.5157348,283408.40625,281750.625,312836.1875,283668.3125,291602.65625,272770.0625,272807.15625,284983.3125,-0.126953125,0.919677734375,-0.308349609375,2.227782964706421,14.678954124450684,-1.4343260526657104,60.0,2792446.0,1.0
1136000.5157765,284301.34375,281620.90625,313703.53125,285219.1875,291986.125,272654.5625,272946.71875,285179.65625,-0.125732421875,0.917724609375,-0.30908203125,2.166747808456421,14.373778343200684,-1.4343260526657104,60.0,2792447.0,1.0
1136000.5190088,284755.0625,281563.40625,314285.65625,286258.4375,292254.09375,272572.03125,273012.09375,285311.625,-0.126953125,0.91552734375,-0.30810546875,2.105712652206421,14.038084983825684,-1.4343260526657104,60.0,2792448.0,1.0
1136000.5190522,284192.78125,281691.28125,313864.28125,285481.9375,292102.71875,272671.90625,272968.625,285296.875,-0.1298828125,0.913330078125,-0.309814453125,2.105712652206421,13.793944358825684,-1.2817381620407104,60.0,2792449.0,1.0
1136000.519065,283356.375,281793.28125,312973.78125,283900.53125,291702.4375,272786.15625,272836.5,285105.8125,-0.12939453125,0.908935546875,-0.30859375,2.044677495956421,13.366698265075684,-1.2207030057907104,60.0,2792450.0,1.0
1136000.5214496,283402.15625,281745.28125,312825.71875,283664.21875,291597.90625,272769.34375,272802.0625,284985.46875,-0.12890625,0.90576171875,-0.313232421875,2.166747808456421,13.031004905700684,-1.2512205839157104,60.0,2792451.0,1.0
1136000.5252145,284283.625,281614.375,313682.15625,285196.75,291976.03125,272655.25,272941.28125,285181.4375,-0.12841796875,0.904052734375,-0.319091796875,2.258300542831421,12.634276390075684,-1.1901854276657104,60.0,2792452.0,1.0
1136000.5389572,284724.65625,281535.625,314251.78125,286225.1875,292228.40625,272547.875,272989.1875,285294.375,-0.12939453125,0.905029296875,-0.320556640625,2.410888433456421,12.268065452575684,-1.1291502714157104,60.0,2792453.0,1.0
1136000.5421363,284173.9375,281663.09375,313838.1875,285465.125,292079.75,272638.0,272941.09375,285274.25,-0.128173828125,0.90576171875,-0.3251953125,2.563476324081421,11.962889671325684,-1.0681151151657104,60.0,2792454.0,1.0
1136000.5421794,283363.0,281792.75,312974.3125,283913.84375,291709.40625,272779.90625,272833.1875,285106.15625,-0.125,0.907470703125,-0.325927734375,2.746581792831421,11.566161155700684,-1.1596678495407104,60.0,2792455.0,1.0
1136000.5476895,283393.65625,281745.4375,312814.09375,283651.78125,291599.8125,272763.53125,272796.0,284976.53125,-0.119873046875,0.911376953125,-0.32666015625,2.838134527206421,11.291502952575684,-0.9765624403953552,60.0,2792456.0,1.0
1136000.5570767,284260.46875,281608.46875,313654.625,285153.65625,291964.65625,272643.8125,272930.1875,285162.59375,-0.11865234375,0.91259765625,-0.330078125,2.929687261581421,11.138915061950684,-0.8239745497703552,60.0,2792457.0,1.0
1136000.5571206,284714.21875,281531.3125,314234.15625,286201.21875,292221.28125,272537.34375,272983.125,285279.34375,-0.115478515625,0.912353515625,-0.333251953125,2.960204839706421,10.864256858825684,-0.6103515028953552,60.0,2792458.0,1.0
1136000.5632782,284178.46875,281658.625,313839.78125,285472.03125,292081.34375,272631.40625,272940.28125,285267.1875,-0.107666015625,0.9072265625,-0.331787109375,2.990722417831421,10.681151390075684,-0.3051757514476776,60.0,2792459.0,1.0
1136000.5633214,283383.75,281803.46875,312997.03125,283942.625,291726.75,272787.6875,272845.34375,285117.625,-0.105224609375,0.9033203125,-0.333740234375,2.990722417831421,10.528563499450684,-0.1220703050494194,60.0,2792460.0,1.0
1136000.5659114,283395.46875,281746.0625,312818.84375,283652.6875,291605.4375,272766.9375,272800.625,284984.03125,-0.099365234375,0.900146484375,-0.334228515625,3.021239995956421,10.498045921325684,0.2746581733226776,60.0,2792461.0,1.0
1136000.5659556,284256.4375,281611.0625,313654.28125,285146.84375,291970.21875,272653.9375,272940.84375,285178.84375,-0.095947265625,0.894287109375,-0.338623046875,3.143310308456421,10.681151390075684,0.6103515028953552,60.0,2792462.0,1.0
1136000.5764573,284706.875,281528.28125,314233.625,286196.9375,292223.15625,272541.8125,272989.125,285293.3125,-0.094970703125,0.892822265625,-0.34033203125,3.479003667831421,10.742186546325684,0.8850097060203552,60.0,2792463.0,1.0
1136000.5794855,284193.3125,281666.25,313856.78125,285493.5625,292092.625,272636.65625,272950.3125,285280.5,-0.093017578125,0.89013671875,-0.341552734375,3.784179449081421,10.864256858825684,1.2207030057907104,60.0,2792464.0,1.0
1136000.5795269,283390.71875,281797.5625,313008.84375,283965.6875,291735.96875,272782.75,272846.59375,285123.25,-0.092041015625,0.88916015625,-0.34130859375,4.119872570037842,10.986327171325684,1.6784666776657104,60.0,2792465.0,1.0
1136000.5814675,283388.65625,281742.5,312818.125,283654.375,291609.46875,272763.34375,272795.8125,284985.28125,-0.091064453125,0.890625,-0.34033203125,4.425048351287842,10.955809593200684,1.9836424589157104,60.0,2792466.0,1.0
1136000.5903121,284235.34375,281601.25,313636.21875,285121.625,291963.3125,272644.28125,272925.1875,285170.8125,-0.091552734375,0.8916015625,-0.339599609375,4.608153820037842,11.047362327575684,2.288818120956421,60.0,2792467.0,1.0
1136000.5926988,284694.53125,281513.96875,314217.34375,286178.53125,292216.53125,272529.28125,272973.71875,285284.625,-0.093505859375,0.89306640625,-0.338623046875,4.730224132537842,11.138915061950684,2.471923589706421,60.0,2792468.0,1.0
1136000.6020525,284189.5625,281646.21875,313844.78125,285489.90625,292083.75,272616.625,272933.21875,285261.65625,-0.09814453125,0.89404296875,-0.331787109375,4.852294445037842,11.199950218200684,2.746581792831421,60.0,2792469.0,1.0
1136000.6020958,283401.0,281796.40625,313003.65625,283963.0,291725.6875,272768.53125,272831.5625,285102.15625,-0.10009765625,0.895263671875,-0.332763671875,4.913329601287842,11.047362327575684,3.021239995956421,60.0,2792470.0,1.0
1136000.6039606,283378.90625,281737.9375,312790.875,283612.0,291582.90625,272741.375,272770.96875,284945.875,-0.10498046875,0.89599609375,-0.33349609375,4.943847179412842,11.108397483825684,3.112792730331421,60.0,2792471.0,1.0
1136000.6131061,284205.40625,281590.0625,313589.90625,285044.21875,291925.6875,272616.625,272892.8125,285111.53125,-0.111572265625,0.898193359375,-0.3349609375,4.974364757537842,10.894774436950684,3.204345464706421,60.0,2792472.0,1.0
1136000.6131592,284679.34375,281510.84375,314182.21875,286107.96875,292183.90625,272503.53125,272943.0625,285216.0625,-0.117919921875,0.904296875,-0.32861328125,5.035399913787842,10.589598655700684,3.082275152206421,60.0,2792473.0,1.0
1136000.618949,284195.28125,281650.40625,313827.71875,285444.65625,292061.59375,272597.0625,272906.0625,285200.5,-0.127685546875,0.913330078125,-0.3251953125,5.004882335662842,10.101317405700684,3.051757574081421,60.0,2792474.0,1.0
1136000.6214527,283399.46875,281795.4375,312981.375,283915.53125,291701.90625,272743.40625,272794.375,285031.875,-0.134033203125,0.922119140625,-0.320068359375,4.730224132537842,9.613036155700684,2.807616949081421,60.0,2792475.0,1.0
1136000.6239667,283362.71875,281734.53125,312753.9375,283543.875,291555.1875,272716.59375,272729.65625,284867.28125,-0.138671875,0.93310546875,-0.318115234375,4.364013195037842,8.972167015075684,2.532958745956421,60.0,2792476.0,1.0
1136000.6278129,284179.5625,281584.34375,313545.46875,284967.0625,291900.28125,272602.4375,272864.21875,285042.6875,-0.141357421875,0.9423828125,-0.312744140625,3.784179449081421,8.331297874450684,2.380370855331421,60.0,2792477.0,1.0
1136000.6345125,284662.625,281504.5,314155.46875,286066.84375,292174.59375,272500.15625,272933.59375,285178.40625,-0.144775390625,0.9462890625,-0.312744140625,2.990722417831421,7.507323741912842,2.014159917831421,60.0,2792478.0,1.0
1136000.6345565,284196.53125,281643.0,313822.625,285440.1875,292065.78125,272595.28125,272904.25,285180.90625,-0.144775390625,0.950927734375,-0.311767578125,2.227782964706421,6.713866710662842,1.7700194120407104,60.0,2792479.0,1.0
1136000.6427185,283402.34375,281784.96875,312978.4375,283917.875,291706.46875,272742.15625,272793.65625,285024.0,-0.14306640625,0.95068359375,-0.309326171875,1.4038084745407104,5.920409679412842,1.3732908964157104,60.0,2792480.0,1.0
1136000.6457273,283358.25,281734.0,312744.28125,283530.8125,291554.46875,272726.53125,272734.75,284866.65625,-0.143798828125,0.94873046875,-0.309814453125,0.7019042372703552,5.126952648162842,1.0986326932907104,60.0,2792481.0,1.0
1136000.6457681,284173.9375,281588.4375,313534.71875,284948.90625,291894.5,272614.5,272874.03125,285046.09375,-0.14013671875,0.946533203125,-0.308349609375,0.0610351525247097,4.394530773162842,0.9155272841453552,60.0,2792482.0,1.0
1136000.6515645,284672.53125,281513.4375,314158.53125,286066.9375,292173.875,272514.90625,272950.84375,285192.28125,-0.138427734375,0.94287109375,-0.307373046875,-0.6103515028953552,3.723144292831421,0.5493163466453552,60.0,2792483.0,1.0
1136000.6551998,284212.90625,281644.6875,313827.53125,285450.84375,292055.3125,272599.90625,272911.3125,285181.4375,-0.13427734375,0.938232421875,-0.3046875,-1.2207030057907104,2.990722417831421,0.2746581733226776,60.0,2792484.0,1.0
1136000.6694992,283407.34375,281783.90625,312971.1875,283912.59375,291682.3125,272737.6875,272789.375,285001.125,-0.134033203125,0.933349609375,-0.307373046875,-1.8005369901657104,2.349853277206421,0.0915527269244194,60.0,2792485.0,1.0
1136000.6695416,283354.34375,281746.0625,312724.0625,283500.78125,291531.03125,272730.71875,272735.375,284841.25,-0.133544921875,0.9306640625,-0.309326171875,-2.136230230331421,1.7395018339157104,-0.1525878757238388,60.0,2792486.0,1.0
1136000.6714836,284163.90625,281596.40625,313509.34375,284910.0,291874.1875,272621.1875,272877.625,285027.9375,-0.1337890625,0.9296875,-0.310791015625,-2.410888433456421,1.2207030057907104,-0.3967284858226776,60.0,2792487.0,1.0
1136000.6740625,284651.625,281495.65625,314119.28125,286024.5625,292137.9375,272496.3125,272935.09375,285158.125,-0.133056640625,0.92724609375,-0.306884765625,-2.655029058456421,0.6713866591453552,-0.6408690810203552,60.0,2792488.0,1.0
1136000.6764515,284195.65625,281620.09375,313793.84375,285420.96875,292023.59375,272576.21875,272896.3125,285146.5,-0.130859375,0.926025390625,-0.3056640625,-2.960204839706421,0.0610351525247097,-1.0375975370407104,60.0,2792489.0,1.0
1136000.6857979,283391.4375,281762.25,312936.15625,283876.46875,291653.71875,272718.84375,272776.59375,284966.53125,-0.125732421875,0.922607421875,-0.30517578125,-3.295898199081421,-0.5187987685203552,-1.1291502714157104,60.0,2792490.0,1.0
1136000.685843,283319.1875,281711.3125,312661.40625,283423.8125,291482.21875,272700.5,272703.90625,284789.21875,-0.123291015625,0.9189453125,-0.303955078125,-3.540038824081421,-0.8850097060203552,-1.2817381620407104,60.0,2792491.0,1.0
1136000.6877073,284132.09375,281581.75,313448.53125,284831.6875,291828.5,272595.4375,272850.15625,284987.71875,-0.12060546875,0.913330078125,-0.306396484375,-3.692626714706421,-1.3732908964157104,-1.4343260526657104,60.0,2792492.0,1.0
1136000.6915625,284646.625,281499.84375,314092.625,285990.9375,292121.75,272491.65625,272931.0,285140.875,-0.118408203125,0.907470703125,-0.3076171875,-3.784179449081421,-1.7700194120407104,-1.5563963651657104,60.0,2792493.0,1.0
1136000.7033037,284203.53125,281622.53125,313779.4375,285407.46875,292013.3125,272570.0625,272889.96875,285128.25,-0.11572265625,0.90576171875,-0.3095703125,-3.723144292831421,-1.9836424589157104,-1.7395018339157104,60.0,2792494.0,1.0
1136000.7033467,283405.5625,281775.125,312923.46875,283865.125,291648.875,272722.15625,272776.5,284948.1875,-0.11474609375,0.9033203125,-0.310302734375,-3.570556402206421,-2.258300542831421,-1.8005369901657104,60.0,2792495.0,1.0
1136000.7052063,283330.5625,281740.625,312643.96875,283398.0625,291479.46875,272714.90625,272712.84375,284772.59375,-0.113037109375,0.90185546875,-0.310546875,-3.387450933456421,-2.410888433456421,-1.8615721464157104,60.0,2792496.0,1.0
1136000.7119499,284120.8125,281592.46875,313410.71875,284785.65625,291806.875,272595.1875,272842.65625,284955.96875,-0.11181640625,0.897705078125,-0.3154296875,-3.143310308456421,-2.593993902206421,-1.9226073026657104,60.0,2792497.0,1.0
1136000.7119917,284639.90625,281499.75,314073.0625,285983.78125,292105.84375,272485.75,272925.625,285129.6875,-0.110595703125,0.8955078125,-0.315185546875,-2.868652105331421,-2.868652105331421,-1.9531248807907104,60.0,2792498.0,1.0
1136000.7155022,284200.03125,281613.5625,313771.46875,285425.4375,292000.25,272558.625,272887.46875,285122.25,-0.1123046875,0.89306640625,-0.31494140625,-2.502441167831421,-3.082275152206421,-1.9531248807907104,60.0,2792499.0,1.0
1136000.7202056,283389.28125,281758.40625,312907.09375,283866.8125,291625.71875,272702.84375,272764.4375,284929.78125,-0.107666015625,0.885498046875,-0.314453125,-2.105712652206421,-3.204345464706421,-2.014159917831421,60.0,2792500.0,1.0
1136000.7239641,283306.5,281727.75,312620.46875,283382.5,291454.875,272699.4375,272698.71875,284754.8125,-0.109619140625,0.882080078125,-0.31787109375,-1.5563963651657104,-3.387450933456421,-2.075195074081421,60.0,2792501.0,1.0
1136000.7332798,284126.71875,281610.0,313425.65625,284806.03125,291820.53125,272614.84375,272865.09375,284983.5,-0.105712890625,0.8779296875,-0.319091796875,-0.9460448622703552,-3.417968511581421,-2.044677495956421,60.0,2792502.0,1.0
1136000.7333243,284673.875,281533.75,314120.6875,286034.9375,292145.28125,272521.6875,272964.34375,285181.28125,-0.1015625,0.87353515625,-0.32080078125,-0.4272460639476776,-3.570556402206421,-2.136230230331421,60.0,2792503.0,1.0
1136000.7377733,284239.5625,281632.8125,313821.09375,285481.84375,292038.0625,272582.9375,272914.09375,285164.28125,-0.097900390625,0.873046875,-0.3212890625,0.1525878757238388,-3.540038824081421,-2.227782964706421,60.0,2792504.0,1.0
1136000.7401991,283420.65625,281767.625,312942.0625,283910.1875,291651.125,272713.75,272780.34375,284964.1875,-0.09228515625,0.875244140625,-0.324951171875,0.8239745497703552,-3.479003667831421,-2.227782964706421,60.0,2792505.0,1.0
1136000.7439229,283326.15625,281741.6875,312645.75,283407.96875,291477.84375,272713.375,272717.59375,284789.75,-0.087646484375,0.87744140625,-0.326904296875,1.4648436307907104,-3.356933355331421,-2.166747808456421,60.0,2792506.0,1.0
1136000.7758014,284133.4375,281610.8125,313437.53125,284815.6875,291831.375,272616.0,272871.1875,285003.625,-0.08447265625,0.881591796875,-0.32763671875,2.136230230331421,-3.173827886581421,-2.044677495956421,60.0,2792507.0,1.0
1136000.7758442,284676.40625,281518.34375,314130.53125,286056.03125,292150.625,272508.28125,272959.6875,285194.78125,-0.07958984375,0.883544921875,-0.32958984375,2.655029058456421,-2.899169683456421,-2.044677495956421,60.0,2792508.0,1.0
1136000.7783712,284245.71875,281620.28125,313838.625,285522.71875,292048.0,272566.21875,272908.375,285175.90625,-0.076904296875,0.88818359375,-0.33251953125,3.204345464706421,-2.502441167831421,-1.8615721464157104,60.0,2792509.0,1.0
1136000.778416,283424.4375,281762.625,312961.8125,283948.34375,291665.6875,272699.875,272775.15625,284972.59375,-0.0771484375,0.89404296875,-0.3349609375,3.692626714706421,-2.197265386581421,-1.6784666776657104,60.0,2792510.0,1.0
1136000.7802072,283308.90625,281725.0625,312642.625,283407.53125,291480.96875,272692.09375,272698.96875,284784.40625,-0.074951171875,0.8974609375,-0.337890625,4.058837413787842,-1.8615721464157104,-1.4953612089157104,60.0,2792511.0,1.0
1136000.782682,284118.5,281605.53125,313431.03125,284801.125,291837.1875,272607.0,272859.1875,285001.125,-0.075927734375,0.904296875,-0.339599609375,4.516601085662842,-1.4038084745407104,-1.2207030057907104,60.0,2792512.0,1.0
1136000.785278,284677.5625,281512.46875,314139.5625,286055.5,292166.375,272501.65625,272956.46875,285194.9375,-0.076904296875,0.910888671875,-0.343505859375,4.882812023162842,-1.0070799589157104,-0.9765624403953552,60.0,2792513.0,1.0
1136000.7876629,284265.125,281618.65625,313869.375,285544.875,292076.59375,272562.5625,272910.15625,285183.0625,-0.0791015625,0.91845703125,-0.34326171875,5.187987804412842,-0.6103515028953552,-0.7629393935203552,60.0,2792514.0,1.0
1136000.7901988,283439.0,281756.53125,312988.0,283969.09375,291691.71875,272695.21875,272773.8125,284975.90625,-0.08056640625,0.92626953125,-0.34228515625,5.371093273162842,-0.2136230319738388,-0.3051757514476776,60.0,2792515.0,1.0
1136000.7927294,283312.5,281726.6875,312654.96875,283407.25,291493.75,272690.65625,272694.34375,284780.71875,-0.08203125,0.929931640625,-0.341552734375,5.462646007537842,0.1831054538488388,0.03051757626235485,60.0,2792516.0,1.0
1136000.7951617,284116.25,281617.40625,313438.09375,284784.84375,291843.875,272607.875,272854.46875,284995.40625,-0.08154296875,0.93115234375,-0.340087890625,5.340575695037842,0.4272460639476776,0.2746581733226776,60.0,2792517.0,1.0
1136000.7978192,284687.03125,281530.34375,314159.40625,286067.75,292181.46875,272508.71875,272960.9375,285202.09375,-0.083740234375,0.928955078125,-0.336181640625,5.126952648162842,0.7324218153953552,0.5187987685203552,60.0,2792518.0,1.0
1136000.8001986,284287.65625,281633.78125,313902.625,285591.90625,292099.75,272570.875,272922.5,285202.28125,-0.0849609375,0.92529296875,-0.337890625,4.943847179412842,0.9155272841453552,0.7629393935203552,60.0,2792519.0,1.0
1136000.8032985,283464.46875,281776.375,313029.75,284031.125,291722.375,272709.4375,272793.125,285012.28125,-0.08642578125,0.92041015625,-0.337158203125,4.791259288787842,1.0375975370407104,0.9460448622703552,60.0,2792520.0,1.0
1136000.8033411,283317.9375,281741.96875,312675.53125,283441.6875,291514.0625,272704.09375,272705.6875,284806.9375,-0.086181640625,0.9130859375,-0.337158203125,4.638671398162842,1.1596678495407104,1.1901854276657104,60.0,2792521.0,1.0
1136000.8163858,284115.625,281633.0625,313444.6875,284805.84375,291855.78125,272623.625,272861.875,285014.15625,-0.08837890625,0.908935546875,-0.33984375,4.669188976287842,1.2207030057907104,1.3122557401657104,60.0,2792522.0,1.0
1136000.8195226,284699.1875,281547.3125,314174.15625,286102.6875,292197.9375,272529.1875,272974.0,285225.875,-0.08935546875,0.90234375,-0.338134765625,4.699706554412842,1.4038084745407104,1.4648436307907104,60.0,2792523.0,1.0
1136000.819569,284309.28125,281644.78125,313925.15625,285642.15625,292118.1875,272589.46875,272936.53125,285226.4375,-0.0888671875,0.893310546875,-0.336669921875,4.882812023162842,1.5563963651657104,1.5563963651657104,60.0,2792524.0,1.0
1136000.8270837,283471.8125,281779.25,313039.78125,284066.625,291727.75,272716.59375,272794.46875,285021.21875,-0.09033203125,0.88623046875,-0.333740234375,4.913329601287842,1.6479490995407104,1.4953612089157104,60.0,2792525.0,1.0
1136000.827126,283311.15625,281742.6875,312670.0625,283448.375,291509.59375,272706.3125,272703.28125,284811.75,-0.09130859375,0.8759765625,-0.330078125,5.249022960662842,1.8005369901657104,1.5563963651657104,60.0,2792526.0,1.0
1136000.8288995,284099.90625,281620.0,313426.375,284792.8125,291845.03125,272616.8125,272853.3125,285017.125,-0.09326171875,0.8642578125,-0.32861328125,5.462646007537842,1.8005369901657104,1.4953612089157104,60.0,2792527.0,1.0
1136000.8314571,284686.40625,281530.15625,314155.125,286091.53125,292178.34375,272511.0625,272955.75,285222.9375,-0.096435546875,0.85595703125,-0.325927734375,5.737304210662842,1.8920897245407104,1.3732908964157104,60.0,2792528.0,1.0
1136000.8409224,284316.25,281638.15625,313921.875,285649.125,292100.46875,272572.84375,272921.78125,285220.0,-0.101318359375,0.8486328125,-0.326171875,6.134032726287842,1.7395018339157104,1.2207030057907104,60.0,2792529.0,1.0
1136000.8409659,283504.34375,281794.4375,313060.59375,284097.65625,291729.25,272724.28125,272801.0,285035.625,-0.109130859375,0.8427734375,-0.324951171875,6.530761241912842,1.5869139432907104,0.8239745497703552,60.0,2792530.0,1.0
1136000.8426495,283332.6875,281761.09375,312683.40625,283461.96875,291513.0,272722.9375,272712.3125,284827.9375,-0.11767578125,0.843017578125,-0.326416015625,7.049560070037842,1.3732908964157104,0.5493163466453552,60.0,2792531.0,1.0
1136000.8619995,284114.03125,281640.84375,313431.03125,284790.84375,291843.25,272634.78125,272862.875,285024.4375,-0.128173828125,0.84423828125,-0.325439453125,7.659911632537842,1.0070799589157104,0.03051757626235485,60.0,2792532.0,1.0
1136000.8620402,284712.875,281552.78125,314178.90625,286117.4375,292194.0,272536.96875,272978.5625,285244.75,-0.136962890625,0.84716796875,-0.323486328125,8.239745140075684,0.5493163466453552,-0.6103515028953552,60.0,2792533.0,1.0
1136000.8639607,284335.5625,281643.71875,313950.28125,285694.03125,292122.65625,272589.5625,272941.46875,285245.46875,-0.1474609375,0.848876953125,-0.326171875,8.666991233825684,-0.0610351525247097,-1.2207030057907104,60.0,2792534.0,1.0
1136000.8671575,283501.9375,281787.84375,313074.71875,284125.8125,291745.4375,272727.9375,272808.40625,285050.125,-0.155029296875,0.85302734375,-0.32568359375,8.850096702575684,-0.7324218153953552,-1.8615721464157104,60.0,2792535.0,1.0
1136000.8672022,283326.0625,281767.71875,312691.1875,283474.125,291531.65625,272737.15625,272725.34375,284846.53125,-0.164794921875,0.8564453125,-0.3291015625,9.155272483825684,-1.5258787870407104,-2.624511480331421,60.0,2792536.0,1.0
1136000.8689761,284097.125,281645.0625,313432.0,284795.46875,291862.75,272651.5,272876.625,285050.03125,-0.174560546875,0.858154296875,-0.33056640625,9.368895530700684,-2.441406011581421,-3.448486089706421,60.0,2792537.0,1.0
1136000.8714768,284698.03125,281544.90625,314186.875,286138.1875,292216.71875,272547.8125,272989.125,285274.0,-0.18310546875,0.86083984375,-0.33544921875,9.613036155700684,-3.448486089706421,-4.241942882537842,60.0,2792538.0,1.0
1136000.880183,284339.40625,281638.0625,313973.4375,285737.125,292151.34375,272600.8125,272953.09375,285277.75,-0.1884765625,0.859375,-0.3388671875,9.918211936950684,-4.577636241912842,-5.187987804412842,60.0,2792539.0,1.0
1136000.8846576,283508.03125,281786.03125,313099.40625,284169.0,291773.53125,272742.78125,272823.875,285081.59375,-0.19189453125,0.856201171875,-0.3447265625,10.406493186950684,-5.645751476287842,-6.011962413787842,60.0,2792540.0,1.0
1136000.8847017,283313.125,281761.53125,312696.8125,283487.375,291545.96875,272745.9375,272731.15625,284867.1875,-0.19580078125,0.852294921875,-0.347900390625,10.803221702575684,-6.774901866912842,-6.835937023162842,60.0,2792541.0,1.0
1136000.8864117,284082.375,281638.875,313432.34375,284791.8125,291871.25,272657.21875,272878.96875,285070.5,-0.1982421875,0.8466796875,-0.353271484375,11.260985374450684,-7.995604991912842,-7.659911632537842,60.0,2792542.0,1.0
1136000.9001474,284707.78125,281552.78125,314207.34375,286157.25,292234.0625,272559.59375,272999.84375,285305.625,-0.19677734375,0.841552734375,-0.359375,11.871336936950684,-9.155272483825684,-8.392333030700684,60.0,2792543.0,1.0
1136000.9076431,284372.5,281658.09375,314023.4375,285794.25,292190.78125,272626.375,272980.78125,285327.28125,-0.197021484375,0.836669921875,-0.363037109375,12.542723655700684,-10.162352561950684,-9.185790061950684,60.0,2792544.0,1.0
1136000.9076861,283533.9375,281797.75,313150.46875,284230.25,291817.875,272762.46875,272851.34375,285141.125,-0.195068359375,0.8359375,-0.368408203125,13.305663108825684,-11.108397483825684,-9.735106468200684,60.0,2792545.0,1.0
1136000.9076983,283315.25,281762.71875,312722.5625,283515.96875,291576.46875,272755.5,272747.53125,284916.1875,-0.193115234375,0.836181640625,-0.379638671875,14.160155296325684,-12.145995140075684,-10.284422874450684,60.0,2792546.0,1.0
1136000.9120933,284079.40625,281643.53125,313442.90625,284797.96875,291894.5,272670.375,272892.0,285106.09375,-0.19091796875,0.83837890625,-0.382080078125,15.106200218200684,-13.000487327575684,-10.833739280700684,60.0,2792547.0,1.0
1136000.9121345,284707.9375,281546.15625,314214.84375,286171.09375,292253.28125,272565.9375,273007.25,285332.625,-0.189453125,0.8427734375,-0.38427734375,15.930174827575684,-13.732909202575684,-11.260985374450684,60.0,2792548.0,1.0
1136000.9177095,284370.0,281639.3125,314030.65625,285816.34375,292199.71875,272619.3125,272976.3125,285345.59375,-0.188720703125,0.847900390625,-0.38427734375,16.662595748901367,-14.343260765075684,-11.535643577575684,60.0,2792549.0,1.0
1136000.9282722,283544.78125,281797.65625,313178.0,284274.78125,291846.125,272776.59375,272866.34375,285181.90625,-0.190185546875,0.85791015625,-0.3896484375,17.272947311401367,-15.106200218200684,-11.810301780700684,60.0,2792550.0,1.0
1136000.9283203,283321.34375,281773.625,312749.46875,283548.15625,291609.28125,272783.65625,272770.96875,284964.5625,-0.1875,0.868896484375,-0.390625,17.822263717651367,-15.655516624450684,-11.993407249450684,60.0,2792551.0,1.0
1136000.9345509,284065.90625,281644.34375,313447.75,284795.84375,291907.625,272684.9375,272896.65625,285128.0625,-0.18896484375,0.88134765625,-0.388916015625,18.188474655151367,-16.326902389526367,-12.237547874450684,60.0,2792552.0,1.0
1136000.9345945,284701.59375,281550.375,314221.65625,286165.1875,292261.5,272575.59375,273005.28125,285335.78125,-0.188232421875,0.894775390625,-0.385498046875,18.402097702026367,-16.723630905151367,-12.237547874450684,60.0,2792553.0,1.0
1136000.9409117,284366.25,281631.90625,314042.375,285825.0,292207.59375,272617.4375,272972.125,285348.90625,-0.1865234375,0.908203125,-0.379638671875,18.188474655151367,-17.059324264526367,-12.176512718200684,60.0,2792554.0,1.0
1136000.9409581,283523.5,281781.21875,313180.9375,284276.75,291844.59375,272761.46875,272851.78125,285180.75,-0.190185546875,0.9228515625,-0.37548828125,17.730710983276367,-17.333982467651367,-12.084959983825684,60.0,2792555.0,1.0
1136000.9520493,283291.3125,281766.09375,312741.5,283526.09375,291606.6875,272773.5625,272756.21875,284959.8125,-0.19189453125,0.935791015625,-0.37060546875,17.089841842651367,-17.669675827026367,-11.932372093200684,60.0,2792556.0,1.0
1136000.9520921,284055.1875,281657.28125,313445.78125,284772.59375,291914.5,272691.65625,272897.65625,285131.125,-0.191650390625,0.9521484375,-0.366455078125,16.143796920776367,-18.096921920776367,-11.749266624450684,60.0,2792557.0,1.0
1136000.9582293,284702.59375,281557.15625,314222.28125,286155.0,292267.125,272575.59375,273004.03125,285333.09375,-0.19384765625,0.966796875,-0.357421875,14.953612327575684,-18.341062545776367,-11.383055686950684,60.0,2792558.0,1.0
1136000.9582788,284365.96875,281625.90625,314037.1875,285816.34375,292203.375,272602.25,272953.875,285327.0,-0.193603515625,0.97900390625,-0.3544921875,13.519286155700684,-18.554685592651367,-11.199950218200684,60.0,2792559.0,1.0
1136000.9645147,283525.28125,281776.375,313174.40625,284265.375,291839.0625,272753.34375,272836.3125,285164.71875,-0.190673828125,0.987548828125,-0.34765625,11.871336936950684,-18.737791061401367,-10.864256858825684,60.0,2792560.0,1.0
1136000.9645562,283284.3125,281761.28125,312722.90625,283495.59375,291592.1875,272769.15625,272742.71875,284949.09375,-0.180419921875,0.992919921875,-0.340087890625,9.887694358825684,-18.920896530151367,-10.406493186950684,60.0,2792561.0,1.0
1136000.970877,284030.15625,281636.8125,313402.5,284709.03125,291877.6875,272673.15625,272864.125,285093.28125,-0.168212890625,0.994873046875,-0.33935546875,7.934569835662842,-18.829343795776367,-9.826659202575684,60.0,2792562.0,1.0
1136000.9709204,284697.40625,281546.0625,314196.96875,286115.3125,292240.03125,272567.90625,272980.4375,285297.15625,-0.15185546875,0.991943359375,-0.33837890625,6.011962413787842,-18.554685592651367,-9.124754905700684,60.0,2792563.0,1.0
1136000.9814567,284385.8125,281632.8125,314037.8125,285817.03125,292193.90625,272614.40625,272956.21875,285311.1875,-0.13232421875,0.98486328125,-0.34326171875,4.180907726287842,-18.035886764526367,-8.148192405700684,60.0,2792564.0,1.0
1136000.9963869,283516.34375,281770.40625,313151.8125,284240.8125,291808.28125,272751.375,272830.59375,285136.03125,-0.125244140625,0.97998046875,-0.343505859375,3.265380620956421,-17.639158248901367,-7.720946788787842,60.0,2792565.0,1.0
1136000.9964293,283240.34375,281742.21875,312664.8125,283424.4375,291537.03125,272755.125,272722.15625,284899.46875,-0.10693359375,0.970458984375,-0.343994140625,1.4648436307907104,-16.754148483276367,-6.713866710662842,60.0,2792566.0,1.0
1136000.9964415,283976.4375,281616.09375,313327.40625,284616.3125,291807.9375,272653.125,272834.15625,285029.1875,-0.092041015625,0.9609375,-0.345703125,0.0,-15.533446311950684,-5.676269054412842,60.0,2792567.0,1.0
1136000.9995066,284642.40625,281507.8125,314119.4375,286028.40625,292159.125,272528.03125,272935.65625,285219.28125,-0.0771484375,0.95654296875,-0.34716796875,-1.3427733182907104,-14.068602561950684,-4.394530773162842,60.0,2792568.0,1.0
1136000.9995486,284341.21875,281588.53125,313974.625,285757.3125,292116.75,272568.28125,272913.125,285242.0625,-0.06494140625,0.952392578125,-0.345703125,-2.471923589706421,-12.420653343200684,-2.990722417831421,60.0,2792569.0,1.0
1136001.002159,283475.5625,281733.5625,313092.25,284178.3125,291738.375,272711.21875,272795.90625,285075.59375,-0.0537109375,0.94677734375,-0.3447265625,-3.723144292831421,-10.711668968200684,-1.4648436307907104,60.0,2792570.0,1.0
1136001.0022037,283194.28125,281714.78125,312596.65625,283340.75,291464.96875,272722.9375,272693.875,284836.53125,-0.042236328125,0.94140625,-0.33837890625,-5.493163585662842,-7.751464366912842,1.1291502714157104,60.0,2792571.0,1.0
1136001.0076248,283943.34375,281606.15625,313272.15625,284541.5625,291751.6875,272637.5625,272820.65625,284980.1875,-0.037841796875,0.93603515625,-0.3330078125,-6.683349132537842,-5.828856945037842,2.929687261581421,60.0,2792572.0,1.0
1136001.0218081,284617.28125,281491.96875,314073.125,285976.625,292102.28125,272501.9375,272908.65625,285170.625,-0.037353515625,0.9306640625,-0.33056640625,-7.843017101287842,-3.814697027206421,4.730224132537842,60.0,2792573.0,1.0
1136001.0218519,284340.5625,281576.75,313949.40625,285733.0,292073.03125,272542.0,272886.125,285195.65625,-0.038330078125,0.9267578125,-0.32958984375,-8.819579124450684,-1.6784666776657104,6.469726085662842,60.0,2792574.0,1.0
1136001.0282588,283511.96875,281748.125,313102.8125,284191.09375,291728.0,272711.15625,272797.59375,285057.96875,-0.04150390625,0.9248046875,-0.325927734375,-9.735106468200684,0.1525878757238388,8.239745140075684,60.0,2792575.0,1.0
1136001.0283018,283240.34375,281749.75,312617.25,283353.4375,291468.09375,272737.96875,272707.75,284838.40625,-0.05126953125,0.924072265625,-0.322265625,-10.498045921325684,1.8920897245407104,9.826659202575684,60.0,2792576.0,1.0
1136001.0303219,283988.21875,281640.3125,313292.34375,284552.28125,291753.21875,272650.0,272829.15625,284983.6875,-0.06396484375,0.92529296875,-0.3154296875,-11.383055686950684,3.479003667831421,11.260985374450684,60.0,2792577.0,1.0
1136001.0327211,284704.5625,281553.9375,314146.53125,286050.9375,292146.78125,272548.4375,272958.09375,285220.6875,-0.07177734375,0.92919921875,-0.31103515625,-12.298583030700684,4.760741710662842,12.573241233825684,60.0,2792578.0,1.0
1136001.0353422,284426.6875,281631.90625,314041.5625,285838.25,292127.84375,272588.21875,272940.65625,285259.6875,-0.0830078125,0.932861328125,-0.308837890625,-13.244627952575684,5.889892101287842,13.580321311950684,60.0,2792579.0,1.0
1136001.043957,283572.40625,281795.4375,313192.65625,284306.0625,291781.75,272751.8125,272841.3125,285127.28125,-0.092529296875,0.940673828125,-0.3017578125,-14.190672874450684,6.835937023162842,14.404295921325684,60.0,2792580.0,1.0
1136001.0471563,283279.84375,281798.90625,312707.625,283468.15625,291533.28125,272785.96875,272750.65625,284924.9375,-0.101806640625,0.943603515625,-0.293701171875,-15.075682640075684,7.476806163787842,14.953612327575684,60.0,2792581.0,1.0
1136001.0472004,284010.125,281681.15625,313375.3125,284648.59375,291825.375,272696.3125,272869.40625,285074.34375,-0.107177734375,0.9482421875,-0.287353515625,-16.052244186401367,7.934569835662842,15.350340843200684,60.0,2792582.0,1.0
1136001.0527118,284726.1875,281579.0625,314235.3125,286154.5625,292226.4375,272587.40625,272998.21875,285317.09375,-0.1142578125,0.949462890625,-0.280517578125,-17.089841842651367,8.270262718200684,15.655516624450684,60.0,2792583.0,1.0
1136001.0614042,284468.25,281659.34375,314161.03125,285993.53125,292232.4375,272633.625,272996.1875,285387.25,-0.12109375,0.947265625,-0.2744140625,-18.402097702026367,8.483885765075684,15.686034202575684,60.0,2792584.0,1.0
1136001.0645157,283628.375,281830.65625,313354.65625,284530.125,291927.21875,272815.9375,272925.09375,285317.78125,-0.127685546875,0.942138671875,-0.2685546875,-19.470212936401367,8.544920921325684,15.533446311950684,60.0,2792585.0,1.0
1136001.0645591,283331.875,281832.90625,312883.84375,283714.1875,291701.71875,272861.71875,272847.84375,285155.4375,-0.1328125,0.939453125,-0.265869140625,-20.385740280151367,8.361815452575684,15.228270530700684,60.0,2792586.0,1.0
1136001.0678192,284048.3125,281700.65625,313531.15625,284866.90625,291980.3125,272766.75,272956.9375,285297.0625,-0.13720703125,0.93505859375,-0.268798828125,-20.996091842651367,7.934569835662842,14.953612327575684,60.0,2792587.0,1.0
1136001.0795555,284748.1875,281577.375,314353.0625,286328.8125,292351.1875,272632.375,273060.375,285495.8125,-0.1376953125,0.9306640625,-0.263916015625,-21.453855514526367,7.568358898162842,14.465331077575684,60.0,2792588.0,1.0
1136001.0795986,284506.15625,281663.90625,314291.375,286190.21875,292365.9375,272679.6875,273063.84375,285572.34375,-0.1376953125,0.92431640625,-0.25927734375,-21.789548873901367,7.049560070037842,13.916014671325684,60.0,2792589.0,1.0
1136001.0820539,283698.8125,281871.4375,313540.625,284789.40625,292107.0,272896.125,273029.34375,285566.0,-0.138427734375,0.922607421875,-0.25439453125,-22.338865280151367,6.591796398162842,13.366698265075684,60.0,2792590.0,1.0
1136001.0820967,283406.09375,281885.375,313086.875,283986.78125,291904.5,272958.1875,272965.875,285437.4375,-0.13427734375,0.9189453125,-0.251708984375,-22.674558639526367,6.011962413787842,12.725829124450684,60.0,2792591.0,1.0
1136001.0927101,284084.25,281724.4375,313679.5625,285058.78125,292144.375,272834.15625,273036.125,285519.9375,-0.130859375,0.9140625,-0.251708984375,-22.827146530151367,5.371093273162842,12.145995140075684,60.0,2792592.0,1.0
1136001.0952511,284762.21875,281571.28125,314446.5,286442.8125,292463.03125,272662.40625,273093.96875,285640.1875,-0.12646484375,0.910888671875,-0.250732421875,-22.857664108276367,4.882812023162842,11.444090843200684,60.0,2792593.0,1.0
1136001.0977275,284549.6875,281670.34375,314401.8125,286322.71875,292482.5,272715.34375,273100.59375,285713.6875,-0.12353515625,0.90625,-0.252685546875,-22.796628952026367,4.425048351287842,10.681151390075684,60.0,2792594.0,1.0
1136001.1002245,283786.78125,281915.0625,313716.21875,285009.25,292276.25,272967.03125,273104.1875,285785.3125,-0.120849609375,0.900146484375,-0.2548828125,-22.644041061401367,3.875732183456421,10.009764671325684,60.0,2792595.0,1.0
1136001.1064547,283494.15625,281938.46875,313282.6875,284230.96875,292096.28125,273043.65625,273054.5625,285699.21875,-0.115966796875,0.896240234375,-0.256103515625,-22.247312545776367,3.448486089706421,9.429930686950684,60.0,2792596.0,1.0
1136001.11091,284150.5,281764.6875,313829.6875,285231.875,292302.28125,272906.125,273105.0625,285733.0,-0.115234375,0.88671875,-0.25634765625,-21.820066452026367,3.082275152206421,8.728026390075684,60.0,2792597.0,1.0
1136001.1109543,284807.5625,281592.28125,314538.84375,286530.6875,292569.59375,272706.125,273128.75,285766.09375,-0.112548828125,0.880615234375,-0.260009765625,-21.209714889526367,2.777099370956421,8.056639671325684,60.0,2792598.0,1.0
1136001.1214586,284593.0625,281695.21875,314488.0625,286405.53125,292574.59375,272750.125,273130.8125,285813.75,-0.107421875,0.872314453125,-0.256103515625,-20.446775436401367,2.380370855331421,7.476806163787842,60.0,2792599.0,1.0
1136001.1245254,283843.125,281964.125,313840.9375,285156.25,292395.0625,273022.46875,273160.3125,285931.21875,-0.105224609375,0.86572265625,-0.257568359375,-19.561765670776367,2.014159917831421,6.866454601287842,60.0,2792600.0,1.0
1136001.1245684,283536.4375,281990.875,313410.46875,284381.4375,292225.65625,273110.0,273120.625,285863.96875,-0.103759765625,0.863037109375,-0.2578125,-18.920896530151367,1.8615721464157104,6.591796398162842,60.0,2792601.0,1.0
1136001.1332992,284143.71875,281778.09375,313890.84375,285286.40625,292381.40625,272939.125,273128.9375,285827.78125,-0.09912109375,0.858154296875,-0.26123046875,-17.791746139526367,1.6479490995407104,5.981444835662842,60.0,2792602.0,1.0
1136001.1333425,284766.59375,281568.4375,314529.65625,286497.0,292582.125,272691.90625,273102.5625,285769.125,-0.095703125,0.856689453125,-0.26171875,-16.387937545776367,1.4038084745407104,5.371093273162842,60.0,2792603.0,1.0
1136001.1353423,284571.34375,281677.84375,314480.21875,286386.375,292582.75,272736.28125,273106.40625,285809.8125,-0.09130859375,0.85498046875,-0.26220703125,-15.045165061950684,1.3427733182907104,4.821776866912842,60.0,2792604.0,1.0
1136001.1377239,283847.5,281970.03125,313872.6875,285202.375,292441.46875,273035.6875,273170.6875,285985.9375,-0.08349609375,0.8525390625,-0.264892578125,-13.702391624450684,1.2817381620407104,4.394530773162842,60.0,2792605.0,1.0
1136001.1414692,283537.15625,282008.9375,313449.25,284428.46875,292282.875,273135.46875,273141.5625,285942.5625,-0.07666015625,0.84912109375,-0.2666015625,-12.542723655700684,1.2512205839157104,4.150390148162842,60.0,2792606.0,1.0
1136001.1558067,284093.1875,281743.40625,313856.875,285237.875,292380.59375,272919.375,273098.71875,285826.53125,-0.07177734375,0.8505859375,-0.268798828125,-11.138915061950684,1.4343260526657104,3.814697027206421,60.0,2792607.0,1.0
1136001.1558697,284692.21875,281499.65625,314436.5,286369.3125,292525.25,272634.25,273028.625,285680.625,-0.068603515625,0.854248046875,-0.27099609375,-9.613036155700684,1.7089842557907104,3.509521245956421,60.0,2792608.0,1.0
1136001.157816,284500.25,281610.53125,314374.09375,286242.4375,292501.125,272660.90625,273019.40625,285681.78125,-0.06689453125,0.8583984375,-0.277587890625,-8.148192405700684,2.044677495956421,3.234863042831421,60.0,2792609.0,1.0
1136001.1602277,283797.875,281925.34375,313791.40625,285082.5625,292373.71875,272975.96875,273102.46875,285873.625,-0.062744140625,0.8642578125,-0.276611328125,-6.622313976287842,2.380370855331421,3.143310308456421,60.0,2792610.0,1.0
1136001.1639673,283481.28125,281964.0625,313364.40625,284298.65625,292212.78125,273080.46875,273075.46875,285828.75,-0.06201171875,0.872314453125,-0.275390625,-5.249022960662842,2.807616949081421,2.960204839706421,60.0,2792611.0,1.0
1136001.1727303,284032.3125,281712.375,313743.125,285054.75,292286.09375,272863.125,273023.53125,285671.21875,-0.058837890625,0.878662109375,-0.276123046875,-4.241942882537842,3.265380620956421,2.838134527206421,60.0,2792612.0,1.0
1136001.1759085,284635.4375,281470.0,314298.96875,286151.59375,292404.8125,272570.875,272942.875,285481.3125,-0.05712890625,0.884521484375,-0.27490234375,-3.234863042831421,3.784179449081421,2.746581792831421,60.0,2792613.0,1.0
1136001.175963,284452.875,281570.46875,314231.03125,286029.84375,292370.84375,272589.0,272927.6875,285460.59375,-0.0556640625,0.88916015625,-0.27490234375,-2.410888433456421,4.272460460662842,2.685546636581421,60.0,2792614.0,1.0
1136001.1777958,283742.8125,281870.1875,313641.40625,284870.59375,292234.5,272892.71875,273005.46875,285643.0625,-0.056396484375,0.89306640625,-0.275390625,-1.5258787870407104,4.730224132537842,2.624511480331421,60.0,2792615.0,1.0
1136001.1914569,283414.40625,281912.8125,313194.1875,284058.15625,292057.5625,272992.96875,272972.40625,285583.78125,-0.058837890625,0.89599609375,-0.273681640625,-0.8239745497703552,5.187987804412842,2.532958745956421,60.0,2792616.0,1.0
1136001.1946213,283956.5,281660.875,313551.625,284781.4375,292113.09375,272772.3125,272912.9375,285411.3125,-0.062255859375,0.899658203125,-0.27294921875,0.0,5.706786632537842,2.502441167831421,60.0,2792617.0,1.0
1136001.1946675,284565.875,281416.0625,314107.8125,285886.25,292231.1875,272475.75,272834.71875,285219.0,-0.067138671875,0.904052734375,-0.27001953125,0.3967284858226776,5.981444835662842,2.349853277206421,60.0,2792618.0,1.0
1136001.1965231,284414.34375,281538.84375,314065.71875,285801.40625,292211.625,272506.3125,272839.1875,285214.09375,-0.075927734375,0.90625,-0.267822265625,0.8239745497703552,6.256103038787842,2.319335699081421,60.0,2792619.0,1.0
1136001.2002231,283718.40625,281855.875,313484.46875,284653.6875,292074.625,272816.65625,272924.46875,285397.375,-0.0810546875,0.907470703125,-0.2685546875,1.1291502714157104,6.469726085662842,2.227782964706421,60.0,2792620.0,1.0
1136001.2045468,283359.59375,281873.46875,313005.625,283806.46875,291873.375,272899.625,272871.375,285317.4375,-0.084716796875,0.91015625,-0.26708984375,1.5563963651657104,6.652831554412842,1.9226073026657104,60.0,2792621.0,1.0
1136001.2045896,283869.5,281601.5,313336.5,284502.5,291907.53125,272664.75,272793.75,285139.59375,-0.089599609375,0.9130859375,-0.267822265625,1.7089842557907104,6.683349132537842,1.5869139432907104,60.0,2792622.0,1.0
1136001.2183052,284499.71875,281376.1875,313928.3125,285656.375,292049.59375,272388.5625,272742.78125,284987.09375,-0.092041015625,0.91162109375,-0.26806640625,1.9226073026657104,6.591796398162842,1.2512205839157104,60.0,2792623.0,1.0
1136001.2183489,284359.25,281484.5625,313907.375,285607.375,292043.25,272420.75,272758.09375,284991.71875,-0.095458984375,0.912841796875,-0.26708984375,2.075195074081421,6.469726085662842,0.7934569716453552,60.0,2792624.0,1.0
1136001.2203056,283639.09375,281774.5,313290.8125,284419.96875,291876.78125,272705.78125,272812.0,285131.65625,-0.094482421875,0.9150390625,-0.264404296875,2.288818120956421,6.347655773162842,0.5493163466453552,60.0,2792625.0,1.0
1136001.2227257,283272.4375,281805.8125,312789.6875,283533.0625,291657.09375,272790.34375,272752.375,285025.15625,-0.096435546875,0.9150390625,-0.26904296875,2.410888433456421,6.256103038787842,0.3051757514476776,60.0,2792626.0,1.0
1136001.2414496,283800.03125,281563.40625,313144.65625,284252.4375,291716.125,272583.1875,272704.78125,284877.28125,-0.099853515625,0.91943359375,-0.271240234375,2.441406011581421,6.042479991912842,0.0,60.0,2792627.0,1.0
1136001.2451334,284447.5,281341.5,313766.90625,285456.46875,291883.21875,272319.0,272669.65625,284763.28125,-0.10009765625,0.9228515625,-0.271484375,2.288818120956421,5.889892101287842,-0.3356933295726776,60.0,2792628.0,1.0
1136001.2451739,284304.09375,281435.5625,313743.125,285410.5,291864.90625,272334.65625,272667.25,284756.5,-0.099853515625,0.91845703125,-0.269287109375,2.349853277206421,5.737304210662842,-0.6713866591453552,60.0,2792629.0,1.0
1136001.2451852,283565.6875,281714.15625,313097.34375,284176.4375,291669.09375,272601.25,272701.5,284846.53125,-0.10009765625,0.9189453125,-0.272216796875,2.166747808456421,5.554198741912842,-0.9765624403953552,60.0,2792630.0,1.0
1136001.2478015,283176.3125,281752.25,312557.25,283225.9375,291418.5625,272678.15625,272624.59375,284697.65625,-0.10107421875,0.915771484375,-0.272705078125,2.105712652206421,5.401610851287842,-1.1901854276657104,60.0,2792631.0,1.0
1136001.250168,283723.84375,281546.15625,312935.625,283969.8125,291500.1875,272500.9375,272608.40625,284586.28125,-0.10302734375,0.91259765625,-0.27490234375,2.227782964706421,5.249022960662842,-1.4953612089157104,60.0,2792632.0,1.0
1136001.2527324,284406.46875,281336.875,313624.75,285267.5625,291720.0625,272265.625,272617.34375,284550.78125,-0.107421875,0.911865234375,-0.276123046875,2.227782964706421,4.943847179412842,-1.7395018339157104,60.0,2792633.0,1.0
1136001.2552051,284263.59375,281407.75,313613.125,285252.0,291710.5,272268.9375,272607.34375,284549.875,-0.108642578125,0.911865234375,-0.2802734375,2.227782964706421,4.760741710662842,-2.105712652206421,60.0,2792634.0,1.0
1136001.264658,283505.6875,281663.5625,312930.34375,283966.6875,291485.34375,272512.46875,272610.65625,284587.625,-0.113525390625,0.91259765625,-0.279052734375,2.258300542831421,4.486083507537842,-2.380370855331421,60.0,2792635.0,1.0
1136001.2648003,283109.90625,281696.90625,312367.0,282977.21875,291217.9375,272585.0,272525.28125,284420.25,-0.1171875,0.91552734375,-0.2802734375,2.227782964706421,4.241942882537842,-2.624511480331421,60.0,2792636.0,1.0
1136001.2664371,283684.25,281520.59375,312791.125,283783.65625,291343.46875,272442.5625,272546.09375,284374.28125,-0.11767578125,0.917236328125,-0.27587890625,2.105712652206421,4.028319835662842,-2.899169683456421,60.0,2792637.0,1.0
1136001.2702066,284414.59375,281354.5625,313563.15625,285201.84375,291632.625,272251.0625,272603.9375,284434.1875,-0.118896484375,0.916259765625,-0.274169921875,1.9531248807907104,3.692626714706421,-3.234863042831421,60.0,2792638.0,1.0
1136001.2845588,284318.75,281449.5,313613.40625,285268.34375,291676.40625,272287.0,272629.78125,284495.15625,-0.123046875,0.91650390625,-0.275634765625,1.7395018339157104,3.417968511581421,-3.509521245956421,60.0,2792639.0,1.0
1136001.2846021,283526.4375,281661.78125,312889.9375,283935.84375,291417.9375,272496.21875,272597.5,284489.71875,-0.12548828125,0.9189453125,-0.276611328125,1.6479490995407104,3.051757574081421,-3.845214605331421,60.0,2792640.0,1.0
1136001.286563,283087.0,281672.9375,312280.34375,282889.5,291118.15625,272547.96875,272487.96875,284283.71875,-0.129638671875,0.92236328125,-0.272216796875,1.4953612089157104,2.746581792831421,-4.272460460662842,60.0,2792641.0,1.0
1136001.2889728,283676.46875,281523.625,312736.78125,283735.125,291274.1875,272433.71875,272539.3125,284292.125,-0.130126953125,0.926025390625,-0.268310546875,1.1596678495407104,2.380370855331421,-4.516601085662842,60.0,2792642.0,1.0
1136001.2914798,284447.5,281387.28125,313581.21875,285252.53125,291630.90625,272282.25,272642.21875,284449.3125,-0.1328125,0.925537109375,-0.2666015625,0.8544921278953552,1.9836424589157104,-4.760741710662842,60.0,2792643.0,1.0
1136001.3002125,284340.75,281453.53125,313642.28125,285345.15625,291681.25,272302.46875,272655.09375,284520.46875,-0.13818359375,0.927001953125,-0.26513671875,0.3967284858226776,1.4953612089157104,-5.065917491912842,60.0,2792644.0,1.0
1136001.3046345,283544.84375,281664.09375,312913.53125,283996.28125,291418.46875,272509.875,272614.9375,284501.15625,-0.140380859375,0.9306640625,-0.261962890625,0.0,0.9460448622703552,-5.218505382537842,60.0,2792645.0,1.0
1136001.3046797,283101.65625,281690.09375,312301.625,282931.15625,291125.9375,272574.09375,272513.5625,284299.71875,-0.142333984375,0.931640625,-0.262939453125,-0.3967284858226776,0.6103515028953552,-5.340575695037842,60.0,2792646.0,1.0
1136001.3102074,283685.6875,281548.9375,312762.0625,283779.71875,291290.71875,272467.6875,272574.71875,284336.375,-0.14404296875,0.932373046875,-0.2607421875,-0.7629393935203552,0.1525878757238388,-5.584716320037842,60.0,2792647.0,1.0
1136001.3170532,284472.625,281413.21875,313638.53125,285350.25,291672.9375,272325.875,272693.1875,284538.96875,-0.148193359375,0.930419921875,-0.2626953125,-1.1901854276657104,-0.2746581733226776,-5.767821788787842,60.0,2792648.0,1.0
1136001.3170955,284380.71875,281473.125,313719.34375,285478.5625,291739.4375,272343.21875,272708.625,284626.78125,-0.147216796875,0.9296875,-0.261474609375,-1.6479490995407104,-0.7019042372703552,-5.889892101287842,60.0,2792649.0,1.0
1136001.3195362,283567.03125,281669.46875,312965.65625,284099.4375,291459.875,272531.625,272649.0,284584.75,-0.1484375,0.93115234375,-0.259033203125,-2.044677495956421,-1.1596678495407104,-5.981444835662842,60.0,2792650.0,1.0
1136001.3195811,283112.46875,281694.84375,312335.5,283004.84375,291154.71875,272592.15625,272539.84375,284371.25,-0.14794921875,0.929931640625,-0.261474609375,-2.319335699081421,-1.4648436307907104,-6.134032726287842,60.0,2792651.0,1.0
1136001.3334103,283700.25,281566.90625,312799.8125,283855.375,291332.28125,272499.875,272609.21875,284421.9375,-0.1474609375,0.929443359375,-0.25927734375,-2.593993902206421,-1.8615721464157104,-6.042479991912842,60.0,2792652.0,1.0
1136001.3334547,284502.59375,281439.59375,313700.125,285453.875,291735.0625,272368.8125,272741.71875,284640.8125,-0.145751953125,0.927978515625,-0.260986328125,-2.868652105331421,-2.197265386581421,-5.920409679412842,60.0,2792653.0,1.0
1136001.3357563,284425.4375,281500.375,313798.5625,285600.84375,291809.90625,272386.78125,272761.125,284732.28125,-0.148193359375,0.925537109375,-0.259765625,-3.021239995956421,-2.593993902206421,-5.950927257537842,60.0,2792654.0,1.0
1136001.3358232,283623.625,281696.0,313051.3125,284223.625,291534.0,272576.59375,272702.5625,284687.46875,-0.148681640625,0.922119140625,-0.265869140625,-3.234863042831421,-2.899169683456421,-5.828856945037842,60.0,2792655.0,1.0
1136001.3465038,283165.78125,281728.1875,312420.4375,283117.21875,291234.125,272645.15625,272596.34375,284477.625,-0.147216796875,0.918701171875,-0.2705078125,-3.173827886581421,-3.143310308456421,-5.798339366912842,60.0,2792656.0,1.0
1136001.3489529,283747.90625,281606.59375,312882.40625,283955.9375,291407.75,272555.5,272661.34375,284525.28125,-0.14697265625,0.913818359375,-0.2734375,-3.173827886581421,-3.326415777206421,-5.706786632537842,60.0,2792657.0,1.0
1136001.3515234,284557.65625,281476.5,313790.875,285566.25,291814.65625,272422.0,272786.5,284753.71875,-0.14599609375,0.908447265625,-0.2744140625,-2.929687261581421,-3.570556402206421,-5.554198741912842,60.0,2792658.0,1.0
1136001.3551762,284477.09375,281523.28125,313887.625,285717.96875,291887.40625,272425.3125,272793.21875,284833.9375,-0.14599609375,0.904541015625,-0.27685546875,-2.502441167831421,-3.631591558456421,-5.554198741912842,60.0,2792659.0,1.0
1136001.3645548,283658.75,281708.34375,313132.3125,284331.625,291606.25,272607.15625,272729.46875,284774.65625,-0.14306640625,0.9013671875,-0.27978515625,-2.197265386581421,-3.845214605331421,-5.401610851287842,60.0,2792660.0,1.0
1136001.3645975,283168.09375,281731.59375,312468.375,283174.1875,291284.8125,272664.75,272610.65625,284547.03125,-0.142822265625,0.899169921875,-0.28466796875,-1.8005369901657104,-3.845214605331421,-5.340575695037842,60.0,2792661.0,1.0
1136001.3683006,283751.84375,281625.90625,312930.59375,284004.9375,291469.25,272589.5625,272690.5,284611.125,-0.141357421875,0.8974609375,-0.291259765625,-1.1596678495407104,-3.845214605331421,-5.157470226287842,60.0,2792662.0,1.0
1136001.368344,284580.375,281510.5,313863.75,285661.84375,291896.90625,272467.875,272835.34375,284866.03125,-0.1396484375,0.8974609375,-0.29541015625,-0.4882812201976776,-3.875732183456421,-4.791259288787842,60.0,2792663.0,1.0
1136001.37658,284501.875,281545.34375,313967.28125,285834.75,291969.59375,272463.5,272839.34375,284939.6875,-0.14013671875,0.89892578125,-0.30078125,0.1831054538488388,-3.814697027206421,-4.669188976287842,60.0,2792664.0,1.0
1136001.3789716,283689.0625,281729.8125,313219.46875,284463.59375,291692.96875,272644.96875,272777.65625,284891.3125,-0.14111328125,0.899658203125,-0.302734375,0.9460448622703552,-3.845214605331421,-4.394530773162842,60.0,2792665.0,1.0
1136001.3827221,283192.59375,281749.46875,312546.78125,283307.75,291368.59375,272698.34375,272655.1875,284678.625,-0.14404296875,0.8994140625,-0.306884765625,1.7700194120407104,-3.814697027206421,-4.150390148162842,60.0,2792666.0,1.0
1136001.4158738,283745.65625,281615.71875,312976.375,284113.75,291524.6875,272595.90625,272703.8125,284712.59375,-0.14501953125,0.89990234375,-0.31396484375,2.532958745956421,-3.784179449081421,-3.845214605331421,60.0,2792667.0,1.0
1136001.4159179,284602.4375,281519.96875,313929.46875,285782.96875,291969.59375,272496.21875,272864.21875,284956.5,-0.146728515625,0.89892578125,-0.321533203125,3.265380620956421,-3.570556402206421,-3.631591558456421,60.0,2792668.0,1.0
1136001.417796,284522.15625,281542.5,314029.6875,285903.6875,292039.78125,272486.03125,272865.71875,285026.59375,-0.14404296875,0.900634765625,-0.33447265625,4.333495616912842,-3.448486089706421,-3.570556402206421,60.0,2792669.0,1.0
1136001.4226833,283704.96875,281719.6875,313282.59375,284517.96875,291761.53125,272661.25,272804.3125,284981.0,-0.141357421875,0.90478515625,-0.338134765625,5.554198741912842,-3.204345464706421,-3.417968511581421,60.0,2792670.0,1.0
1136001.4252319,283195.1875,281745.8125,312604.71875,283339.3125,291436.53125,272722.40625,272685.5625,284762.5,-0.138671875,0.9111328125,-0.339111328125,6.744384288787842,-2.990722417831421,-3.265380620956421,60.0,2792671.0,1.0
1136001.4277624,283765.78125,281647.46875,313039.875,284113.65625,291610.25,272656.0625,272759.78125,284806.3125,-0.138427734375,0.917236328125,-0.33837890625,7.781981945037842,-2.807616949081421,-2.807616949081421,60.0,2792672.0,1.0
1136001.4303397,284590.03125,281515.125,313952.71875,285739.0,292017.25,272520.71875,272886.125,285022.65625,-0.137939453125,0.923095703125,-0.341796875,8.728026390075684,-2.746581792831421,-2.349853277206421,60.0,2792673.0,1.0
1136001.4327267,284563.28125,281566.625,314106.65625,285986.65625,292123.09375,272534.75,272914.46875,285126.28125,-0.13818359375,0.927490234375,-0.34619140625,9.521483421325684,-2.624511480331421,-1.8615721464157104,60.0,2792674.0,1.0
1136001.435225,283764.625,281756.90625,313383.4375,284654.03125,291860.25,272719.46875,272863.3125,285098.46875,-0.1376953125,0.9296875,-0.352294921875,10.223387718200684,-2.563476324081421,-1.3122557401657104,60.0,2792675.0,1.0
1136001.4377414,283230.15625,281766.5625,312681.53125,283446.25,291515.5,272762.90625,272724.71875,284858.15625,-0.14111328125,0.926513671875,-0.3583984375,10.925292015075684,-2.319335699081421,-0.7019042372703552,60.0,2792676.0,1.0
1136001.4403367,283753.25,281634.9375,313073.75,284172.21875,291653.875,272664.65625,272767.125,284870.9375,-0.1435546875,0.925048828125,-0.364990234375,11.779784202575684,-2.136230230331421,-0.4272460639476776,60.0,2792677.0,1.0
1136001.4433247,284577.5,281504.40625,313986.59375,285788.625,292058.28125,272528.125,272892.625,285083.1875,-0.141845703125,0.919921875,-0.3720703125,12.634276390075684,-1.9531248807907104,-0.03051757626235485,60.0,2792678.0,1.0
1136001.4433677,284552.375,281545.0,314133.75,286028.03125,292146.53125,272524.71875,272906.5,285167.0625,-0.143798828125,0.9189453125,-0.380615234375,13.580321311950684,-1.8310545682907104,0.0915527269244194,60.0,2792679.0,1.0
1136001.4450484,283763.375,281736.15625,313418.9375,284715.09375,291888.84375,272708.90625,272857.5,285143.53125,-0.142333984375,0.91845703125,-0.38671875,14.770506858825684,-1.6174315214157104,0.3662109076976776,60.0,2792680.0,1.0
1136001.4481337,283242.21875,281774.6875,312734.90625,283522.875,291567.25,272778.90625,272742.0,284934.6875,-0.141845703125,0.917724609375,-0.39013671875,15.838622093200684,-1.5563963651657104,0.3662109076976776,60.0,2792681.0,1.0
1136001.4481762,283759.25,281649.96875,313114.15625,284217.5625,291699.5,272687.09375,272785.1875,284942.09375,-0.14208984375,0.918212890625,-0.392822265625,16.967771530151367,-1.4343260526657104,0.5493163466453552,60.0,2792682.0,1.0
1136001.4540902,284586.28125,281524.15625,314014.9375,285815.875,292095.75,272550.5625,272910.4375,285135.9375,-0.14453125,0.91796875,-0.3984375,18.066404342651367,-1.3732908964157104,0.7629393935203552,60.0,2792683.0,1.0
1136001.4564797,284574.46875,281572.0,314171.9375,286072.9375,292188.8125,272548.34375,272929.65625,285214.875,-0.1435546875,0.91845703125,-0.40234375,19.104001998901367,-1.1901854276657104,0.8544921278953552,60.0,2792684.0,1.0
1136001.4602072,283793.75,281759.5625,313469.28125,284776.96875,291937.125,272732.4375,272884.5,285194.0625,-0.144287109375,0.91796875,-0.40576171875,20.172117233276367,-1.0986326932907104,1.0070799589157104,60.0,2792685.0,1.0
1136001.4695556,283256.15625,281779.875,312769.5,283564.875,291601.84375,272793.40625,272761.125,284975.0,-0.142822265625,0.9140625,-0.410400390625,21.057126998901367,-0.8850097060203552,1.1596678495407104,60.0,2792686.0,1.0
1136001.4696092,283742.28125,281644.40625,313109.96875,284208.96875,291698.25,272685.65625,272782.84375,284954.625,-0.142822265625,0.908203125,-0.41650390625,21.881101608276367,-0.7629393935203552,1.4038084745407104,60.0,2792687.0,1.0
1136001.4715827,284559.09375,281509.40625,314000.53125,285793.09375,292084.21875,272541.0,272898.09375,285139.53125,-0.1416015625,0.902099609375,-0.423095703125,22.827146530151367,-0.7934569716453552,1.3427733182907104,60.0,2792688.0,1.0
1136001.4751609,284561.5,281548.3125,314168.4375,286069.71875,292180.5,272533.03125,272917.3125,285213.1875,-0.143310546875,0.898193359375,-0.42724609375,23.803709030151367,-0.6713866591453552,1.4953612089157104,60.0,2792689.0,1.0
1136001.484539,283802.25,281745.0,313484.84375,284802.09375,291936.3125,272723.40625,272880.40625,285201.84375,-0.14111328125,0.895263671875,-0.43212890625,24.963376998901367,-0.5493163466453552,1.4343260526657104,60.0,2792690.0,1.0
1136001.4845833,283272.25,281783.0,312791.75,283591.71875,291607.84375,272797.25,272763.09375,284993.96875,-0.138916015625,0.893310546875,-0.437255859375,25.939939498901367,-0.3662109076976776,1.5258787870407104,60.0,2792691.0,1.0
1136001.4906821,283750.65625,281651.3125,313123.53125,284215.5,291709.59375,272696.75,272785.25,284970.375,-0.13720703125,0.889892578125,-0.440185546875,26.947019577026367,-0.2441406100988388,1.5869139432907104,60.0,2792692.0,1.0
1136001.4907321,284558.375,281504.5,313999.46875,285785.5625,292083.84375,272543.5,272891.5625,285142.375,-0.13330078125,0.88916015625,-0.436279296875,27.984617233276367,-0.03051757626235485,1.6784666776657104,60.0,2792693.0,1.0
1136001.4926451,284574.5625,281545.4375,314178.46875,286082.84375,292186.125,272537.875,272914.28125,285222.5,-0.131591796875,0.8828125,-0.44189453125,28.747556686401367,0.0610351525247097,1.6479490995407104,60.0,2792694.0,1.0
1136001.5040278,283804.40625,281730.25,313486.625,284812.5625,291933.03125,272716.59375,272867.875,285198.25,-0.126953125,0.88232421875,-0.443603515625,29.479978561401367,0.2441406100988388,1.8005369901657104,60.0,2792695.0,1.0
1136001.5069413,283277.25,281782.5625,312798.90625,283605.5625,291611.4375,272799.65625,272761.5625,284994.5,-0.126220703125,0.880615234375,-0.44677734375,30.181882858276367,0.3967284858226776,2.044677495956421,60.0,2792696.0,1.0
1136001.5069853,283747.625,281661.3125,313122.5625,284212.09375,291712.09375,272708.375,272795.71875,284977.34375,-0.126708984375,0.87939453125,-0.443115234375,30.792234420776367,0.5798339247703552,2.136230230331421,60.0,2792697.0,1.0
1136001.5112774,284550.0625,281518.4375,313988.28125,285771.53125,292077.78125,272552.34375,272902.5625,285145.34375,-0.125,0.87451171875,-0.43896484375,31.433103561401367,0.8239745497703552,2.197265386581421,60.0,2792698.0,1.0
1136001.513936,284564.1875,281538.21875,314163.53125,286075.78125,292171.1875,272531.34375,272915.09375,285215.4375,-0.121826171875,0.87109375,-0.442138671875,31.860349655151367,1.0375975370407104,2.136230230331421,60.0,2792699.0,1.0
1136001.5251863,283811.65625,281729.1875,313490.75,284829.71875,291928.8125,272713.125,272872.25,285192.90625,-0.11767578125,0.870849609375,-0.443359375,32.287593841552734,1.2512205839157104,2.227782964706421,60.0,2792700.0,1.0
1136001.5282484,283253.125,281763.78125,312768.6875,283581.5,291580.21875,272775.59375,272741.09375,284962.21875,-0.11328125,0.87353515625,-0.4443359375,32.684322357177734,1.5563963651657104,2.319335699081421,60.0,2792701.0,1.0
1136001.5282896,283705.34375,281639.15625,313063.71875,284151.03125,291664.8125,272677.71875,272760.6875,284933.78125,-0.110107421875,0.874755859375,-0.44189453125,32.989498138427734,1.9226073026657104,2.502441167831421,60.0,2792702.0,1.0
1136001.5301166,284523.0625,281501.8125,313940.28125,285717.28125,292044.875,272533.125,272877.8125,285113.15625,-0.107666015625,0.8779296875,-0.442626953125,33.111568450927734,2.288818120956421,2.593993902206421,60.0,2792703.0,1.0
1136001.5390837,284571.0625,281544.71875,314145.125,286059.78125,292161.53125,272529.5625,272910.25,285201.65625,-0.10888671875,0.88232421875,-0.438232421875,33.172603607177734,2.685546636581421,2.777099370956421,60.0,2792704.0,1.0
1136001.5433158,283824.53125,281730.78125,313472.59375,284825.0,291914.6875,272699.96875,272860.53125,285167.875,-0.110107421875,0.885498046875,-0.4345703125,33.020015716552734,3.021239995956421,3.082275152206421,60.0,2792705.0,1.0
1136001.543359,283253.125,281754.65625,312739.0,283563.8125,291553.40625,272751.75,272715.0625,284922.09375,-0.109619140625,0.88720703125,-0.431884765625,32.684322357177734,3.204345464706421,3.295898199081421,60.0,2792706.0,1.0
1136001.5570582,283686.75,281625.8125,313019.125,284102.84375,291627.0625,272649.375,272725.90625,284878.71875,-0.1103515625,0.888427734375,-0.42919921875,32.440181732177734,3.509521245956421,3.448486089706421,60.0,2792707.0,1.0
1136001.5571,284506.0625,281496.0,313904.78125,285678.375,292019.375,272515.15625,272853.21875,285082.65625,-0.109619140625,0.88916015625,-0.426513671875,31.982419967651367,3.845214605331421,3.631591558456421,60.0,2792708.0,1.0
1136001.5613523,284572.5,281544.65625,314130.8125,286051.125,292146.625,272519.53125,272894.15625,285187.34375,-0.10986328125,0.887939453125,-0.4248046875,31.463621139526367,4.058837413787842,3.723144292831421,60.0,2792709.0,1.0
1136001.5613942,283827.21875,281718.0,313458.03125,284817.125,291888.84375,272679.9375,272830.40625,285138.53125,-0.111083984375,0.88720703125,-0.42138671875,30.914304733276367,4.272460460662842,3.936767339706421,60.0,2792710.0,1.0
1136001.5614054,283250.53125,281745.4375,312717.1875,283537.78125,291523.625,272734.75,272686.65625,284890.34375,-0.110595703125,0.8857421875,-0.419677734375,30.242918014526367,4.516601085662842,4.241942882537842,60.0,2792711.0,1.0
1136001.5640858,283676.90625,281629.65625,312994.96875,284071.1875,291603.8125,272650.96875,272716.25,284866.125,-0.108642578125,0.8857421875,-0.41943359375,29.571531295776367,4.791259288787842,4.486083507537842,60.0,2792712.0,1.0
1136001.5752463,284511.6875,281518.34375,313904.0625,285691.4375,292014.65625,272539.21875,272871.0,285100.28125,-0.10791015625,0.884033203125,-0.4189453125,28.778074264526367,4.974364757537842,4.577636241912842,60.0,2792713.0,1.0
1136001.5820208,284549.4375,281524.71875,314101.84375,286033.5,292107.8125,272502.03125,272877.0,285157.3125,-0.10986328125,0.881103515625,-0.419677734375,28.167722702026367,5.126952648162842,4.638671398162842,60.0,2792714.0,1.0
1136001.582064,283803.40625,281693.59375,313424.125,284784.5625,291843.0625,272653.65625,272807.78125,285090.0,-0.112060546875,0.877197265625,-0.419189453125,27.648923873901367,5.340575695037842,4.669188976287842,60.0,2792715.0,1.0
1136001.5845508,283243.90625,281743.03125,312699.21875,283518.5625,291492.59375,272726.875,272680.03125,284849.84375,-0.11328125,0.876220703125,-0.41748046875,27.069089889526367,5.432128429412842,4.760741710662842,60.0,2792716.0,1.0
1136001.5845944,283663.15625,281633.6875,312963.59375,284022.8125,291567.6875,272648.03125,272710.96875,284819.96875,-0.114013671875,0.8779296875,-0.420166015625,26.550291061401367,5.401610851287842,4.760741710662842,60.0,2792717.0,1.0
1136001.5977784,284455.8125,281481.34375,313831.46875,285582.8125,291943.21875,272503.0,272834.96875,285024.375,-0.11376953125,0.879150390625,-0.41796875,25.878904342651367,5.554198741912842,4.669188976287842,60.0,2792718.0,1.0
1136001.6008243,284525.90625,281499.9375,314058.21875,285976.5625,292059.625,272479.3125,272860.625,285115.28125,-0.11376953125,0.87890625,-0.419677734375,25.268552780151367,5.645751476287842,4.638671398162842,60.0,2792719.0,1.0
1136001.6008663,283804.75,281676.59375,313398.375,284765.96875,291809.46875,272636.125,272798.125,285052.78125,-0.114013671875,0.87890625,-0.418701171875,24.536130905151367,5.737304210662842,4.577636241912842,60.0,2792720.0,1.0
1136001.6095652,283222.90625,281711.46875,312637.09375,283446.78125,291431.1875,272688.875,272643.8125,284772.59375,-0.11279296875,0.88037109375,-0.41650390625,23.925779342651367,5.828856945037842,4.547118663787842,60.0,2792721.0,1.0
1136001.6096099,283625.21875,281601.9375,312884.21875,283923.40625,291494.125,272610.65625,272667.25,284739.59375,-0.11181640625,0.88037109375,-0.42333984375,23.071287155151367,5.889892101287842,4.486083507537842,60.0,2792722.0,1.0
1136001.6158027,284453.59375,281488.59375,313796.0625,285538.28125,291908.0,272500.21875,272827.71875,284994.40625,-0.112060546875,0.8818359375,-0.425537109375,22.399900436401367,5.859374523162842,4.394530773162842,60.0,2792723.0,1.0
1136001.6158549,284534.875,281503.53125,314044.96875,285964.84375,292043.09375,272480.375,272863.03125,285095.53125,-0.11328125,0.87890625,-0.429931640625,21.697996139526367,5.889892101287842,4.150390148162842,60.0,2792724.0,1.0
1136001.6296523,283804.5,281661.5,313367.53125,284735.5625,291765.03125,272612.875,272774.625,284996.1875,-0.114013671875,0.876220703125,-0.43017578125,21.118162155151367,5.920409679412842,4.119872570037842,60.0,2792725.0,1.0
1136001.6296966,283199.84375,281694.125,312574.3125,283374.625,291357.3125,272655.4375,272603.5,284685.0625,-0.115234375,0.874267578125,-0.433837890625,20.568845748901367,5.828856945037842,4.089354991912842,60.0,2792726.0,1.0
1136001.6326266,283592.34375,281585.59375,312814.75,283838.75,291420.09375,272582.125,272634.15625,284663.875,-0.116943359375,0.87255859375,-0.439208984375,19.927976608276367,5.767821788787842,3.906249761581421,60.0,2792727.0,1.0
1136001.6326694,284428.65625,281474.0,313750.375,285485.625,291860.15625,272483.96875,272812.53125,284953.46875,-0.1181640625,0.872314453125,-0.436767578125,19.500730514526367,5.737304210662842,3.845214605331421,60.0,2792728.0,1.0
1136001.6326815,284529.5,281501.28125,314024.6875,285949.09375,292013.3125,272469.375,272854.8125,285070.3125,-0.118408203125,0.869873046875,-0.43505859375,19.012449264526367,5.645751476287842,3.662109136581421,60.0,2792729.0,1.0
1136001.6351737,283811.5625,281669.46875,313357.78125,284732.0,291746.0625,272607.96875,272770.96875,284966.4375,-0.11669921875,0.865478515625,-0.438232421875,18.402097702026367,5.523681163787842,3.570556402206421,60.0,2792730.0,1.0
1136001.6489807,283193.125,281695.21875,312552.3125,283348.875,291329.0,272646.78125,272591.59375,284637.3125,-0.1181640625,0.864990234375,-0.443603515625,18.035886764526367,5.340575695037842,3.326415777206421,60.0,2792731.0,1.0
1136001.65263,283594.125,281616.4375,312808.375,283822.28125,291413.375,272596.4375,272644.96875,284637.5,-0.118896484375,0.86376953125,-0.447265625,17.700193405151367,5.187987804412842,3.112792730331421,60.0,2792732.0,1.0
1136001.6526737,284460.65625,281530.78125,313785.53125,285522.8125,291891.90625,272528.75,272858.65625,284981.90625,-0.120361328125,0.86474609375,-0.4482421875,17.578123092651367,5.035399913787842,2.777099370956421,60.0,2792733.0,1.0
1136001.6526862,284559.96875,281533.375,314068.03125,286007.21875,292043.34375,272502.5625,272893.34375,285112.25,-0.123046875,0.8642578125,-0.452880859375,17.547605514526367,4.913329601287842,2.502441167831421,60.0,2792734.0,1.0
1136001.6602249,283817.625,281665.6875,313375.5,284765.625,291749.8125,272609.5625,272779.4375,284983.3125,-0.123046875,0.8662109375,-0.455810546875,17.364500045776367,4.791259288787842,2.227782964706421,60.0,2792735.0,1.0
1136001.6627371,283206.90625,281700.21875,312573.96875,283382.59375,291343.90625,272656.34375,272606.0,284664.0625,-0.121826171875,0.87158203125,-0.455322265625,17.272947311401367,4.638671398162842,1.8615721464157104,60.0,2792736.0,1.0
1136001.665237,283587.15625,281608.65625,312812.6875,283832.65625,291419.28125,272601.25,272649.4375,284662.4375,-0.121826171875,0.87451171875,-0.453369140625,16.967771530151367,4.394530773162842,1.5869139432907104,60.0,2792737.0,1.0
1136001.6715486,284446.53125,281517.65625,313788.03125,285534.25,291896.0,272529.375,272861.71875,285016.3125,-0.120849609375,0.87548828125,-0.45458984375,16.754148483276367,4.180907726287842,1.3732908964157104,60.0,2792738.0,1.0
1136001.6757859,284570.53125,281529.71875,314099.5,286062.46875,292073.03125,272517.03125,272916.15625,285171.25,-0.11962890625,0.872314453125,-0.450927734375,16.510007858276367,3.997802495956421,1.2207030057907104,60.0,2792739.0,1.0
1136001.6758285,283852.6875,281677.6875,313436.1875,284858.4375,291801.40625,272639.34375,272818.0625,285064.3125,-0.117919921875,0.86962890625,-0.452880859375,16.235349655151367,3.845214605331421,1.0681151151657104,60.0,2792740.0,1.0
1136001.6789605,283222.375,281706.8125,312613.125,283443.75,291380.125,272675.46875,272631.75,284727.96875,-0.11767578125,0.865966796875,-0.45458984375,16.021726608276367,3.692626714706421,0.9765624403953552,60.0,2792741.0,1.0
1136001.687732,283595.46875,281624.21875,312840.03125,283873.875,291447.8125,272623.0625,272676.71875,284718.59375,-0.1181640625,0.85888671875,-0.455322265625,15.991209983825684,3.631591558456421,0.8850097060203552,60.0,2792742.0,1.0
1136001.6921222,284473.625,281551.4375,313841.21875,285610.25,291949.46875,272573.625,272915.53125,285101.96875,-0.11767578125,0.855712890625,-0.455322265625,15.960692405700684,3.479003667831421,0.8544921278953552,60.0,2792743.0,1.0
1136001.6921664,284596.90625,281551.34375,314151.625,286145.34375,292118.625,272549.125,272959.15625,285241.71875,-0.11572265625,0.85400390625,-0.453369140625,16.021726608276367,3.295898199081421,0.7324218153953552,60.0,2792744.0,1.0
1136001.6939583,283866.625,281676.78125,313472.9375,284929.3125,291829.21875,272646.6875,272836.5,285103.40625,-0.114990234375,0.850830078125,-0.455078125,16.082761764526367,3.173827886581421,0.6103515028953552,60.0,2792745.0,1.0
1136001.7077091,283235.59375,281713.1875,312656.21875,283512.125,291416.6875,272692.46875,272658.3125,284775.71875,-0.114990234375,0.853515625,-0.452880859375,16.143796920776367,3.082275152206421,0.3967284858226776,60.0,2792746.0,1.0
1136001.7108993,283610.46875,281644.875,312888.125,283934.3125,291493.6875,272656.25,272712.03125,284784.5625,-0.11279296875,0.853515625,-0.4501953125,16.021726608276367,2.990722417831421,0.2746581733226776,60.0,2792747.0,1.0
1136001.7109518,284470.5,281551.0,313868.84375,285640.90625,291976.75,272587.3125,272926.15625,285143.71875,-0.110595703125,0.854248046875,-0.451416015625,15.960692405700684,2.960204839706421,0.2441406100988388,60.0,2792748.0,1.0
1136001.712836,284606.375,281548.3125,314188.03125,286187.8125,292149.21875,272554.40625,272962.09375,285278.625,-0.1103515625,0.85400390625,-0.452392578125,15.869139671325684,2.868652105331421,0.2136230319738388,60.0,2792749.0,1.0
1136001.7189883,283887.90625,281682.40625,313521.75,284981.1875,291869.1875,272658.5625,272845.4375,285144.71875,-0.109619140625,0.856201171875,-0.44921875,15.747069358825684,2.777099370956421,0.2136230319738388,60.0,2792750.0,1.0
1136001.7282445,283257.6875,281725.5,312700.84375,283560.59375,291456.84375,272709.96875,272667.25,284818.1875,-0.10888671875,0.85791015625,-0.44873046875,15.655516624450684,2.685546636581421,0.3662109076976776,60.0,2792751.0,1.0
1136001.7282851,283605.90625,281649.53125,312903.96875,283942.625,291515.5625,272665.1875,272707.46875,284807.0,-0.10888671875,0.861328125,-0.44677734375,15.686034202575684,2.716064214706421,0.4882812201976776,60.0,2792752.0,1.0
1136001.7308009,284472.53125,281567.96875,313886.90625,285655.125,292001.59375,272602.875,272932.15625,285171.0,-0.109619140625,0.861328125,-0.4462890625,15.411375999450684,2.532958745956421,0.6103515028953552,60.0,2792753.0,1.0
1136001.7308442,284618.09375,281563.40625,314215.28125,286223.40625,292181.40625,272571.84375,272977.75,285312.25,-0.110595703125,0.85986328125,-0.445556640625,15.319823265075684,2.532958745956421,0.6713866591453552,60.0,2792754.0,1.0
1136001.7390908,283913.21875,281700.5625,313555.75,285025.15625,291902.4375,272677.53125,272862.96875,285172.6875,-0.111572265625,0.8583984375,-0.447021484375,15.258788108825684,2.532958745956421,0.7934569716453552,60.0,2792755.0,1.0
1136001.7427221,283273.875,281744.5625,312724.96875,283579.90625,291484.375,272728.21875,272682.34375,284837.78125,-0.114013671875,0.85888671875,-0.447021484375,15.014647483825684,2.502441167831421,0.9460448622703552,60.0,2792756.0,1.0
1136001.7464631,283601.8125,281657.21875,312901.5625,283923.0625,291523.8125,272670.1875,272710.0625,284808.53125,-0.115478515625,0.857177734375,-0.44970703125,14.953612327575684,2.441406011581421,0.9460448622703552,60.0,2792757.0,1.0
1136001.7556839,284467.90625,281566.28125,313878.5,285629.8125,292002.40625,272603.21875,272932.59375,285173.21875,-0.11474609375,0.859130859375,-0.44677734375,14.892577171325684,2.258300542831421,0.9460448622703552,60.0,2792758.0,1.0
1136001.7557272,284619.625,281552.6875,314210.03125,286206.59375,292178.25,272567.5625,272977.03125,285312.96875,-0.114501953125,0.8564453125,-0.44775390625,14.831542015075684,2.227782964706421,1.0681151151657104,60.0,2792759.0,1.0
1136001.7628316,283909.0,281679.46875,313543.9375,285011.40625,291891.625,272661.25,272853.9375,285162.84375,-0.115478515625,0.856689453125,-0.451171875,14.831542015075684,2.014159917831421,1.0986326932907104,60.0,2792760.0,1.0
1136001.7652264,283259.90625,281731.15625,312701.1875,283552.28125,291463.71875,272711.15625,272668.6875,284816.21875,-0.115478515625,0.85546875,-0.446044921875,14.801024436950684,1.8920897245407104,1.0681151151657104,60.0,2792761.0,1.0
1136001.7677241,283596.625,281663.5625,312885.28125,283895.875,291516.03125,272676.375,272714.53125,284804.40625,-0.11767578125,0.855224609375,-0.447509765625,14.617918968200684,1.6784666776657104,1.0986326932907104,60.0,2792762.0,1.0
1136001.7701806,284444.125,281548.65625,313849.25,285595.84375,291981.84375,272594.75,272924.03125,285161.875,-0.11767578125,0.853271484375,-0.4453125,14.526366233825684,1.5563963651657104,1.2512205839157104,60.0,2792763.0,1.0
1136001.779083,284609.0625,281535.53125,314197.5,286204.1875,292166.375,272557.375,272970.0625,285307.96875,-0.117431640625,0.851318359375,-0.444580078125,14.556883811950684,1.3427733182907104,1.2817381620407104,60.0,2792764.0,1.0
1136001.7833175,283907.21875,281664.1875,313538.03125,285013.09375,291881.4375,272650.25,272846.3125,285153.46875,-0.119140625,0.850830078125,-0.445556640625,14.434813499450684,1.1291502714157104,1.1901854276657104,60.0,2792765.0,1.0
1136001.7833607,283250.53125,281709.0625,312681.78125,283525.28125,291440.03125,272691.84375,272647.40625,284791.0,-0.120849609375,0.849853515625,-0.443359375,14.221190452575684,0.9765624403953552,1.1596678495407104,60.0,2792766.0,1.0
1136001.7851653,283574.71875,281642.90625,312843.4375,283834.625,291478.28125,272651.15625,272681.8125,284770.53125,-0.120849609375,0.845458984375,-0.445068359375,14.251708030700684,0.6713866591453552,1.0375975370407104,60.0,2792767.0,1.0
1136001.7995757,284448.9375,281555.375,313835.3125,285568.5,291973.34375,272595.71875,272920.90625,285160.96875,-0.122802734375,0.844482421875,-0.4453125,14.404295921325684,0.4272460639476776,0.8544921278953552,60.0,2792768.0,1.0
1136001.7996187,284630.34375,281545.09375,314202.25,286199.96875,292168.53125,272564.15625,272978.5625,285316.90625,-0.12158203125,0.842529296875,-0.443603515625,14.465331077575684,0.3051757514476776,0.7019042372703552,60.0,2792769.0,1.0
1136001.8015459,283940.3125,281680.8125,313554.40625,285030.34375,291889.65625,272659.90625,272856.96875,285160.625,-0.12109375,0.840087890625,-0.43994140625,14.343260765075684,0.1220703050494194,0.7019042372703552,60.0,2792770.0,1.0
1136001.8040256,283267.25,281722.21875,312684.65625,283530.1875,291443.0625,272700.78125,272654.90625,284788.25,-0.12109375,0.833251953125,-0.435302734375,14.312743186950684,-0.1831054538488388,0.5187987685203552,60.0,2792771.0,1.0
1136001.8064973,283556.65625,281635.21875,312816.625,283803.5,291457.03125,272644.28125,272671.0,284746.75,-0.12060546875,0.8251953125,-0.435791015625,14.190672874450684,-0.3356933295726776,0.4577636420726776,60.0,2792772.0,1.0
1136001.8152326,284433.65625,281559.65625,313817.6875,285545.4375,291955.09375,272596.875,272913.28125,285147.375,-0.1181640625,0.8212890625,-0.43798828125,14.160155296325684,-0.4577636420726776,0.4272460639476776,60.0,2792773.0,1.0
1136001.8303433,284626.59375,281551.15625,314206.96875,286216.15625,292168.59375,272574.625,272983.5625,285325.03125,-0.119140625,0.8232421875,-0.443359375,14.221190452575684,-0.6408690810203552,0.3662109076976776,60.0,2792774.0,1.0
1136001.8303872,283916.25,281651.46875,313543.65625,285035.8125,291875.625,272650.09375,272846.40625,285155.78125,-0.118408203125,0.828857421875,-0.447021484375,14.526366233825684,-0.7324218153953552,0.2441406100988388,60.0,2792775.0,1.0
1136001.8303998,283239.53125,281704.0625,312667.46875,283513.84375,291424.03125,272693.53125,272643.8125,284780.0,-0.12158203125,0.834716796875,-0.443115234375,14.739989280700684,-0.9155272841453552,0.1220703050494194,60.0,2792776.0,1.0
1136001.832721,283534.3125,281642.0,312806.6875,283784.5625,291449.6875,272653.21875,272676.28125,284749.25,-0.12158203125,0.84033203125,-0.435302734375,14.831542015075684,-1.1291502714157104,-0.0610351525247097,60.0,2792777.0,1.0
1136001.8352069,284412.1875,281558.5,313811.0,285533.0,291954.84375,272601.1875,272920.53125,285156.96875,-0.12060546875,0.843994140625,-0.424072265625,14.465331077575684,-1.3122557401657104,-0.3051757514476776,60.0,2792778.0,1.0
1136001.8376675,284614.0,281536.5,314201.625,286218.40625,292160.65625,272557.09375,272972.75,285322.34375,-0.119384765625,0.844482421875,-0.418701171875,13.854979515075684,-1.4343260526657104,-0.3051757514476776,60.0,2792779.0,1.0
1136001.8421878,283925.46875,281651.03125,313556.09375,285062.1875,291880.0,272636.40625,272837.375,285156.5,-0.11669921875,0.84326171875,-0.413330078125,13.122557640075684,-1.6479490995407104,-0.2441406100988388,60.0,2792780.0,1.0
1136001.8422322,283252.5,281709.5,312679.0,283536.71875,291430.46875,272689.78125,272642.21875,284789.3125,-0.1123046875,0.84130859375,-0.421630859375,12.603758811950684,-1.7395018339157104,-0.1220703050494194,60.0,2792781.0,1.0
1136001.8527016,283531.8125,281640.5,312796.84375,283774.4375,291440.46875,272648.125,272671.4375,284748.09375,-0.11279296875,0.841064453125,-0.421142578125,12.176512718200684,-1.8310545682907104,-0.03051757626235485,60.0,2792782.0,1.0
1136001.8558311,284421.75,281570.9375,313811.1875,285531.21875,291951.09375,272601.53125,272923.5,285165.0,-0.11474609375,0.842529296875,-0.421630859375,12.054442405700684,-1.8920897245407104,-0.0915527269244194,60.0,2792783.0,1.0
1136001.8558741,284643.75,281555.90625,314225.65625,286244.15625,292178.09375,272567.03125,272991.53125,285351.15625,-0.114501953125,0.84765625,-0.419677734375,11.840819358825684,-2.044677495956421,-0.1220703050494194,60.0,2792784.0,1.0
1136001.8576731,283952.1875,281655.78125,313579.4375,285091.0625,291894.125,272640.875,272853.84375,285180.65625,-0.115234375,0.85302734375,-0.41455078125,11.596678733825684,-2.166747808456421,-0.1525878757238388,60.0,2792785.0,1.0
1136001.8696947,283264.75,281706.75,312689.65625,283549.875,291440.75,272688.53125,272648.1875,284799.0625,-0.11767578125,0.859619140625,-0.414306640625,10.955809593200684,-2.319335699081421,-0.1525878757238388,60.0,2792786.0,1.0
1136001.8697382,283529.03125,281640.21875,312793.375,283759.78125,291447.53125,272651.34375,272670.8125,284752.125,-0.117919921875,0.86328125,-0.413818359375,10.406493186950684,-2.410888433456421,-0.0610351525247097,60.0,2792787.0,1.0
1136001.8714158,284419.78125,281572.28125,313810.71875,285523.25,291961.4375,272616.0,272930.8125,285177.34375,-0.11865234375,0.864013671875,-0.416015625,9.765624046325684,-2.685546636581421,0.0,60.0,2792788.0,1.0
1136001.8739729,284640.8125,281549.375,314228.34375,286256.125,292184.0625,272572.75,272993.03125,285360.4375,-0.12158203125,0.86474609375,-0.415283203125,9.094237327575684,-2.960204839706421,0.2441406100988388,60.0,2792789.0,1.0
1136001.8826013,283949.96875,281656.125,313584.25,285109.375,291897.625,272639.53125,272849.46875,285185.375,-0.12109375,0.8623046875,-0.415771484375,8.697508811950684,-3.082275152206421,0.3356933295726776,60.0,2792790.0,1.0
1136001.8858173,283240.59375,281702.4375,312675.875,283537.625,291428.59375,272680.65625,272632.09375,284791.09375,-0.12353515625,0.859619140625,-0.414306640625,8.056639671325684,-3.295898199081421,0.3356933295726776,60.0,2792791.0,1.0
1136001.8858519,283512.59375,281656.84375,312778.34375,283734.5625,291437.34375,272658.125,272665.0,284748.90625,-0.12548828125,0.8583984375,-0.412353515625,7.568358898162842,-3.509521245956421,0.4272460639476776,60.0,2792792.0,1.0
1136001.8913801,284407.8125,281575.75,313796.6875,285504.46875,291954.375,272619.6875,272927.875,285176.625,-0.1259765625,0.855224609375,-0.41455078125,7.171630382537842,-3.784179449081421,0.5493163466453552,60.0,2792793.0,1.0
1136001.9006974,284644.84375,281546.96875,314228.25,286257.375,292182.8125,272577.21875,272993.3125,285363.125,-0.1259765625,0.854736328125,-0.41552734375,6.683349132537842,-4.058837413787842,0.5187987685203552,60.0,2792794.0,1.0
1136001.9007337,283969.8125,281659.1875,313597.75,285123.34375,291903.4375,272650.875,272855.625,285190.40625,-0.12548828125,0.85400390625,-0.415771484375,6.225585460662842,-4.302978038787842,0.2746581733226776,60.0,2792795.0,1.0
1136001.9032152,283251.5,281701.65625,312673.5625,283527.15625,291420.34375,272680.125,272630.59375,284781.09375,-0.126220703125,0.85400390625,-0.415283203125,5.889892101287842,-4.608153820037842,0.3967284858226776,60.0,2792796.0,1.0
1136001.9032468,283509.375,281646.5625,312757.0625,283702.46875,291419.1875,272646.875,272653.03125,284724.3125,-0.12744140625,0.856201171875,-0.418212890625,5.462646007537842,-4.852294445037842,0.3662109076976776,60.0,2792797.0,1.0
1136001.9114681,284417.90625,281583.1875,313784.71875,285484.1875,291944.03125,272616.90625,272919.5625,285160.8125,-0.126220703125,0.8564453125,-0.418212890625,5.096435070037842,-5.065917491912842,0.3662109076976776,60.0,2792798.0,1.0
1136001.9151211,284666.5625,281552.6875,314234.78125,286271.21875,292185.9375,272578.5625,272992.59375,285363.125,-0.125,0.857666015625,-0.419189453125,4.638671398162842,-5.249022960662842,0.1831054538488388,60.0,2792799.0,1.0
1136001.9243737,283967.46875,281635.65625,313584.4375,285120.75,291886.71875,272627.46875,272834.0,285167.25,-0.1259765625,0.856201171875,-0.41845703125,4.211425304412842,-5.523681163787842,0.1525878757238388,60.0,2792800.0,1.0
1136001.9243939,283239.53125,281680.8125,312650.9375,283508.46875,291400.59375,272659.90625,272606.625,284755.0625,-0.12548828125,0.85791015625,-0.419921875,3.814697027206421,-5.676269054412842,0.0,60.0,2792801.0,1.0
1136001.9331265,283476.8125,281623.59375,312714.25,283650.34375,291390.84375,272628.53125,272625.75,284696.5,-0.125,0.858642578125,-0.42236328125,3.417968511581421,-5.950927257537842,0.0,60.0,2792802.0,1.0
1136001.9331473,284381.71875,281554.46875,313741.96875,285435.1875,291915.3125,272595.4375,272894.53125,285138.0,-0.12646484375,0.859375,-0.42236328125,2.990722417831421,-6.103515148162842,-0.03051757626235485,60.0,2792803.0,1.0
1136001.9356291,284661.0,281540.4375,314222.71875,286261.5625,292176.28125,272567.375,272986.25,285359.0,-0.1259765625,0.86083984375,-0.4208984375,2.685546636581421,-6.286620616912842,-0.0610351525247097,60.0,2792804.0,1.0
1136001.935649,283992.78125,281652.1875,313607.40625,285150.4375,291907.71875,272642.03125,272856.4375,285189.21875,-0.125,0.86181640625,-0.423095703125,2.319335699081421,-6.469726085662842,-0.1220703050494194,60.0,2792805.0,1.0
1136001.9512756,283239.0,281683.84375,312650.0625,283511.59375,291405.78125,272665.0,272617.1875,284762.03125,-0.125,0.86181640625,-0.424560546875,1.9226073026657104,-6.622313976287842,-0.1220703050494194,60.0,2792806.0,1.0
1136001.9712298,283461.4375,281627.625,312693.6875,283622.375,291379.3125,272628.8125,272625.03125,284687.03125,-0.123291015625,0.864501953125,-0.42333984375,1.4648436307907104,-6.744384288787842,-0.3356933295726776,60.0,2792807.0,1.0
1136001.9712514,284379.46875,281571.28125,313737.0625,285427.21875,291916.65625,272606.71875,272902.5625,285140.21875,-0.1220703125,0.86572265625,-0.42529296875,1.1291502714157104,-6.774901866912842,-0.3662109076976776,60.0,2792808.0,1.0
1136001.971258,284666.8125,281535.78125,314225.65625,286276.34375,292179.15625,272567.28125,272985.09375,285360.625,-0.123046875,0.8671875,-0.42431640625,0.7019042372703552,-6.927489757537842,-0.3356933295726776,60.0,2792809.0,1.0
1136001.9769821,283985.71875,281626.625,313595.4375,285152.75,291897.15625,272624.40625,272835.59375,285176.34375,-0.12353515625,0.866455078125,-0.423828125,0.3051757514476776,-6.958007335662842,-0.3356933295726776,60.0,2792810.0,1.0
1136001.9770023,283237.03125,281679.90625,312642.96875,283503.8125,291405.34375,272665.28125,272609.40625,284753.0,-0.12353515625,0.86572265625,-0.42333984375,-0.1831054538488388,-7.019042491912842,-0.3356933295726776,60.0,2792811.0,1.0
1136001.9770081,283474.59375,281645.5,312698.78125,283622.90625,291393.8125,272651.59375,272638.8125,284695.625,-0.1220703125,0.866943359375,-0.42431640625,-0.8239745497703552,-6.958007335662842,-0.4272460639476776,60.0,2792812.0,1.0
1136001.9770136,284399.9375,281593.71875,313750.75,285441.8125,291935.875,272634.875,272923.65625,285161.875,-0.120361328125,0.86865234375,-0.42578125,-1.1596678495407104,-7.049560070037842,-0.3967284858226776,60.0,2792813.0,1.0
1136001.9770198,284688.625,281560.8125,314253.125,286314.15625,292207.84375,272596.53125,273011.28125,285390.75,-0.1220703125,0.867431640625,-0.422119140625,-1.5563963651657104,-7.019042491912842,-0.4577636420726776,60.0,2792814.0,1.0
1136001.9787746,283984.375,281623.15625,313603.21875,285178.6875,291903.4375,272626.5625,272839.96875,285178.6875,-0.122314453125,0.86767578125,-0.423095703125,-2.075195074081421,-6.958007335662842,-0.5493163466453552,60.0,2792815.0,1.0
1136001.9812854,283213.4375,281661.78125,312623.84375,283491.75,291389.6875,272651.78125,272596.0625,284738.34375,-0.123046875,0.86572265625,-0.426025390625,-2.593993902206421,-7.080077648162842,-0.5798339247703552,60.0,2792816.0,1.0
1136001.9850145,283419.5,281615.53125,312649.78125,283566.65625,291360.71875,272629.0625,272612.875,284671.65625,-0.12353515625,0.865966796875,-0.426513671875,-2.990722417831421,-7.019042491912842,-0.5493163466453552,60.0,2792817.0,1.0
1136001.999437,284355.34375,281567.25,313714.09375,285399.96875,291912.0,272618.0625,272904.0,285151.40625,-0.123779296875,0.865478515625,-0.424560546875,-3.387450933456421,-6.896972179412842,-0.5493163466453552,60.0,2792818.0,1.0
1136001.9994594,284675.9375,281545.96875,314244.53125,286305.375,292202.5,272591.0625,273005.90625,285396.125,-0.123779296875,0.86669921875,-0.425048828125,-3.753661870956421,-6.744384288787842,-0.5798339247703552,60.0,2792819.0,1.0
1136002.0019316,284005.3125,281635.21875,313627.53125,285204.4375,291926.75,272644.625,272860.09375,285207.75,-0.122802734375,0.869140625,-0.4228515625,-4.180907726287842,-6.683349132537842,-0.7324218153953552,60.0,2792820.0,1.0
1136002.0019578,283223.34375,281674.5625,312636.1875,283498.1875,291406.15625,272666.96875,272611.28125,284758.1875,-0.12060546875,0.87255859375,-0.42138671875,-4.699706554412842,-6.591796398162842,-0.6713866591453552,60.0,2792821.0,1.0
1136002.0125469,283408.25,281618.40625,312633.59375,283537.0625,291353.125,272625.75,272607.34375,284667.0,-0.12158203125,0.873291015625,-0.421875,-5.126952648162842,-6.561278820037842,-0.7629393935203552,60.0,2792822.0,1.0
1136002.0225201,284355.6875,281567.0,313709.4375,285385.75,291915.9375,272620.3125,272909.625,285159.8125,-0.122802734375,0.877685546875,-0.421875,-5.645751476287842,-6.500243663787842,-0.6713866591453552,60.0,2792823.0,1.0
1136002.0225468,284700.09375,281553.84375,314273.15625,286346.5,292227.0,272603.59375,273026.84375,285424.28125,-0.120361328125,0.87744140625,-0.418212890625,-6.164550304412842,-6.195067882537842,-0.5493163466453552,60.0,2792824.0,1.0
1136002.0225528,284022.8125,281631.1875,313650.78125,285251.90625,291937.03125,272639.71875,272862.78125,285224.28125,-0.1162109375,0.875732421875,-0.4208984375,-6.866454601287842,-6.134032726287842,-0.4882812201976776,60.0,2792825.0,1.0
1136002.0256183,283242.3125,281681.96875,312664.34375,283550.3125,291426.0,272674.5,272626.125,284790.46875,-0.1162109375,0.8759765625,-0.41943359375,-7.568358898162842,-5.920409679412842,-0.3051757514476776,60.0,2792826.0,1.0
1136002.0256389,283424.78125,281636.375,312656.9375,283568.5625,291372.53125,272645.25,272629.6875,284697.59375,-0.11767578125,0.873779296875,-0.41748046875,-8.087157249450684,-5.676269054412842,-0.1831054538488388,60.0,2792827.0,1.0
1136002.02749,284364.71875,281589.625,313726.34375,285417.40625,291927.3125,272636.03125,272923.5625,285181.28125,-0.115966796875,0.874755859375,-0.418212890625,-8.544920921325684,-5.462646007537842,0.0,60.0,2792828.0,1.0
1136002.0551267,284728.25,281579.78125,314312.21875,286422.5,292254.78125,272623.875,273048.375,285469.6875,-0.116455078125,0.875,-0.4208984375,-9.002684593200684,-5.249022960662842,0.0915527269244194,60.0,2792829.0,1.0
1136002.0575963,284051.0,281649.15625,313691.375,285321.0,291967.875,272661.25,272883.625,285265.125,-0.116455078125,0.874267578125,-0.421630859375,-9.490965843200684,-4.974364757537842,0.2441406100988388,60.0,2792830.0,1.0
