Time,FZ,C3,CZ,C4,PZ,PO7,OZ,PO8,AccX,AccY,AccZ,Gyro1,Gyro2,Gyro3,Battery,Counter,Validation
1212952.8096044,289080.3125,299034.0,315120.375,296068.625,312019.1875,302253.8125,299110.25,305415.9375,-0.039794921875,0.991943359375,-0.06884765625,0.0610351525247097,-0.7629393935203552,0.4882812201976776,80.0,1159374.0,1.0
1212952.812636,289113.75,298898.1875,314989.8125,296109.5625,312356.4375,302419.375,298990.71875,305757.65625,-0.039794921875,0.990966796875,-0.06982421875,0.0610351525247097,-0.7019042372703552,0.5187987685203552,80.0,1159375.0,1.0
1212952.8126601,289174.53125,297248.25,314515.0625,296130.125,311434.75,300354.625,297916.59375,304264.65625,-0.040283203125,0.99169921875,-0.0693359375,0.0610351525247097,-0.7019042372703552,0.5187987685203552,80.0,1159376.0,1.0
1212952.8275285,289153.1875,296337.125,314329.03125,296042.34375,310493.375,298874.5,297359.65625,302919.4375,-0.0419921875,0.993408203125,-0.070068359375,0.2746581733226776,-0.7324218153953552,0.5187987685203552,80.0,1159377.0,1.0
1212952.827554,289097.84375,297458.90625,314716.6875,296029.03125,310868.96875,300066.0,298110.40625,303660.71875,-0.0400390625,0.99072265625,-0.0703125,0.2441406100988388,-0.6103515028953552,0.5187987685203552,80.0,1159378.0,1.0
1212952.8275592,289067.78125,299039.34375,315118.125,296070.875,312022.21875,302258.71875,299118.5625,305424.0,-0.039306640625,0.99169921875,-0.070068359375,0.3356933295726776,-0.7019042372703552,0.5493163466453552,80.0,1159379.0,1.0
1212952.8275676,289102.65625,298901.5,314987.59375,296106.34375,312350.25,302421.96875,298992.78125,305759.53125,-0.039306640625,0.991943359375,-0.0693359375,0.3051757514476776,-0.7019042372703552,0.3662109076976776,80.0,1159380.0,1.0
1212952.829616,289175.34375,297263.5625,314525.625,296139.71875,311445.90625,300367.9375,297929.8125,304283.25,-0.040283203125,0.990234375,-0.0703125,0.3967284858226776,-0.7019042372703552,0.3662109076976776,80.0,1159381.0,1.0
1212952.8332177,289161.03125,296350.0,314342.6875,296053.59375,310507.21875,298887.4375,297374.59375,302938.84375,-0.0400390625,0.990966796875,-0.071044921875,0.4882812201976776,-0.6408690810203552,0.4272460639476776,80.0,1159382.0,1.0
1212952.8407951,289106.78125,297463.65625,314726.78125,296035.71875,310873.1875,300074.6875,298119.09375,303671.53125,-0.04052734375,0.989990234375,-0.072265625,0.5187987685203552,-0.5798339247703552,0.3967284858226776,80.0,1159383.0,1.0
1212952.8433649,289073.78125,299038.1875,315125.5625,296074.53125,312021.0625,302260.25,299119.1875,305429.4375,-0.0380859375,0.990966796875,-0.069580078125,0.6103515028953552,-0.6713866591453552,0.3662109076976776,80.0,1159384.0,1.0
1212952.847201,289118.84375,298911.6875,315001.09375,296114.6875,312361.34375,302430.375,298999.46875,305772.15625,-0.03759765625,0.990234375,-0.06982421875,0.5493163466453552,-0.6408690810203552,0.3051757514476776,80.0,1159385.0,1.0
1212952.8589611,289184.90625,297264.96875,314531.15625,296138.71875,311445.75,300367.75,297934.5625,304285.84375,-0.0400390625,0.990966796875,-0.068603515625,0.5798339247703552,-0.5493163466453552,0.3662109076976776,80.0,1159386.0,1.0
1212952.8589897,289165.78125,296350.34375,314347.71875,296050.84375,310503.65625,298888.53125,297379.34375,302942.40625,-0.039306640625,0.990234375,-0.07080078125,0.6408690810203552,-0.7324218153953552,0.3356933295726776,80.0,1159387.0,1.0
1212952.8614124,289112.0625,297471.25,314736.8125,296040.65625,310877.03125,300082.09375,298130.625,303682.625,-0.0380859375,0.989990234375,-0.07275390625,0.6408690810203552,-0.6408690810203552,0.3356933295726776,80.0,1159388.0,1.0
1212952.861442,289077.90625,299050.09375,315131.28125,296078.5625,312027.0625,302268.71875,299126.96875,305438.46875,-0.038330078125,0.99169921875,-0.07275390625,0.7324218153953552,-0.6408690810203552,0.3051757514476776,80.0,1159389.0,1.0
1212952.8646193,289111.25,298918.46875,314998.6875,296114.40625,312364.65625,302436.46875,299002.875,305776.53125,-0.039794921875,0.99365234375,-0.06982421875,0.7629393935203552,-0.5493163466453552,0.3356933295726776,80.0,1159390.0,1.0
1212952.8733669,289180.96875,297272.40625,314531.15625,296141.3125,311457.53125,300378.75,297939.5625,304293.8125,-0.039794921875,0.9921875,-0.07080078125,0.7934569716453552,-0.6408690810203552,0.2441406100988388,80.0,1159391.0,1.0
1212952.8764579,289165.34375,296351.875,314346.71875,296054.3125,310518.0625,298894.96875,297377.8125,302948.9375,-0.0380859375,0.994140625,-0.070068359375,0.7934569716453552,-0.6408690810203552,0.2136230319738388,80.0,1159392.0,1.0
1212952.876486,289106.78125,297465.15625,314724.90625,296035.09375,310879.0625,300075.03125,298117.3125,303679.9375,-0.03857421875,0.9931640625,-0.07373046875,0.7934569716453552,-0.6713866591453552,0.2441406100988388,80.0,1159393.0,1.0
1212952.8845766,289077.625,299051.15625,315124.46875,296079.4375,312036.0,302266.0625,299123.5,305444.8125,-0.037841796875,0.992919921875,-0.0712890625,0.7629393935203552,-0.7324218153953552,0.1525878757238388,80.0,1159394.0,1.0
1212952.8871576,289120.09375,298921.59375,314999.9375,296120.3125,312380.5,302441.125,299004.125,305792.34375,-0.038818359375,0.992431640625,-0.072509765625,0.7019042372703552,-0.7019042372703552,0.1831054538488388,80.0,1159395.0,1.0
1212952.893367,289183.40625,297265.96875,314529.21875,296141.5,311461.75,300374.90625,297929.625,304302.75,-0.040283203125,0.99462890625,-0.0712890625,0.7019042372703552,-0.6713866591453552,0.1831054538488388,80.0,1159396.0,1.0
1212952.8977143,289162.375,296342.3125,314338.3125,296044.125,310506.59375,298878.875,297362.25,302944.03125,-0.040771484375,0.9931640625,-0.069580078125,0.7324218153953552,-0.7019042372703552,0.1220703050494194,80.0,1159397.0,1.0
1212952.8977423,289109.1875,297458.0,314724.90625,296029.5625,310870.125,300063.15625,298109.96875,303673.75,-0.040283203125,0.9921875,-0.06982421875,0.7324218153953552,-0.6408690810203552,0.0610351525247097,80.0,1159398.0,1.0
1212952.9058669,289071.375,299036.125,315118.84375,296068.0,312018.65625,302250.9375,299109.1875,305431.3125,-0.040283203125,0.992431640625,-0.070068359375,0.5798339247703552,-0.6408690810203552,0.1525878757238388,80.0,1159399.0,1.0
1212952.9126816,289108.84375,298908.0,314990.90625,296106.90625,312361.4375,302423.59375,298984.71875,305775.71875,-0.04052734375,0.99169921875,-0.06884765625,0.5798339247703552,-0.6103515028953552,0.2136230319738388,80.0,1159400.0,1.0
1212952.9127108,289177.84375,297262.65625,314528.03125,296137.03125,311452.8125,300367.5,297927.03125,304295.6875,-0.038818359375,0.99169921875,-0.072021484375,0.5187987685203552,-0.5187987685203552,0.1220703050494194,80.0,1159401.0,1.0
1212952.9189311,289158.1875,296343.09375,314341.4375,296045.75,310506.875,298879.5,297366.0,302942.59375,-0.04052734375,0.991455078125,-0.072021484375,0.5493163466453552,-0.5187987685203552,0.2136230319738388,80.0,1159402.0,1.0
1212952.9189626,289105.25,297459.96875,314727.59375,296027.21875,310869.15625,300061.71875,298108.625,303669.21875,-0.039306640625,0.99169921875,-0.0712890625,0.4577636420726776,-0.6103515028953552,0.3051757514476776,80.0,1159403.0,1.0
1212952.9245773,289078.96875,299050.96875,315131.90625,296075.6875,312027.96875,302258.0,299116.96875,305438.9375,-0.03759765625,0.98974609375,-0.071044921875,0.4882812201976776,-0.5798339247703552,0.2746581733226776,80.0,1159404.0,1.0
1212952.9340101,289115.625,298920.4375,315001.53125,296114.21875,312370.21875,302430.46875,298997.78125,305783.15625,-0.0390625,0.989990234375,-0.07373046875,0.4882812201976776,-0.6103515028953552,0.2441406100988388,80.0,1159405.0,1.0
1212952.9340596,289184.28125,297275.1875,314533.6875,296141.6875,311460.03125,300370.1875,297930.875,304299.625,-0.03955078125,0.989990234375,-0.07470703125,0.3967284858226776,-0.6103515028953552,0.3356933295726776,80.0,1159406.0,1.0
1212952.9364151,289167.75,296354.71875,314350.125,296053.59375,310516.53125,298883.15625,297372.1875,302950.375,-0.0400390625,0.989501953125,-0.073974609375,0.3051757514476776,-0.5493163466453552,0.3662109076976776,80.0,1159407.0,1.0
1212952.9364586,289114.09375,297470.25,314735.71875,296036.25,310882.125,300063.96875,298113.625,303679.125,-0.037353515625,0.99072265625,-0.073486328125,0.3051757514476776,-0.5187987685203552,0.4272460639476776,80.0,1159408.0,1.0
1212952.9435955,289083.625,299057.9375,315134.9375,296080.25,312037.4375,302252.71875,299114.8125,305443.03125,-0.0390625,0.99169921875,-0.072509765625,0.3356933295726776,-0.4882812201976776,0.2746581733226776,80.0,1159409.0,1.0
1212952.9459088,289124.65625,298932.34375,315007.96875,296119.84375,312382.4375,302432.4375,298996.0,305790.46875,-0.03955078125,0.99169921875,-0.073974609375,0.3662109076976776,-0.4882812201976776,0.3051757514476776,80.0,1159410.0,1.0
1212952.9497394,289188.3125,297281.0,314535.90625,296141.9375,311470.9375,300373.21875,297930.625,304304.8125,-0.039794921875,0.990234375,-0.0751953125,0.3662109076976776,-0.3967284858226776,0.4272460639476776,80.0,1159411.0,1.0
1212952.9702773,289167.46875,296355.34375,314343.15625,296044.9375,310520.375,298878.6875,297362.625,302945.625,-0.040283203125,0.989990234375,-0.0751953125,0.3967284858226776,-0.5187987685203552,0.4272460639476776,80.0,1159412.0,1.0
1212952.9703308,289107.65625,297458.375,314722.78125,296025.0,310878.71875,300055.03125,298101.75,303669.28125,-0.039794921875,0.9931640625,-0.0751953125,0.3967284858226776,-0.4882812201976776,0.4272460639476776,80.0,1159413.0,1.0
1212952.9703422,289078.6875,299045.6875,315125.09375,296072.84375,312035.46875,302250.0625,299110.15625,305437.0625,-0.03955078125,0.992919921875,-0.07470703125,0.3356933295726776,-0.5798339247703552,0.4577636420726776,80.0,1159414.0,1.0
1212952.9703547,289121.4375,298928.125,315000.8125,296117.1875,312385.65625,302432.78125,298997.15625,305791.90625,-0.03955078125,0.9921875,-0.072021484375,0.2441406100988388,-0.5493163466453552,0.3356933295726776,80.0,1159415.0,1.0
1212952.9724348,289188.75,297283.40625,314531.625,296142.21875,311478.46875,300373.84375,297931.59375,304308.8125,-0.039306640625,0.99267578125,-0.072265625,0.1525878757238388,-0.4882812201976776,0.3662109076976776,80.0,1159416.0,1.0
1212952.9746888,289169.28125,296358.65625,314343.9375,296049.59375,310531.46875,298881.5625,297369.21875,302955.125,-0.037109375,0.992431640625,-0.072998046875,0.0610351525247097,-0.5187987685203552,0.3662109076976776,80.0,1159417.0,1.0
1212952.9809872,289120.8125,297472.84375,314731.1875,296035.8125,310896.0625,300064.5,298117.65625,303685.21875,-0.035888671875,0.99365234375,-0.0732421875,0.03051757626235485,-0.5493163466453552,0.3967284858226776,80.0,1159418.0,1.0
1212952.9846889,289093.28125,299057.25,315132.6875,296082.125,312051.28125,302259.15625,299119.8125,305446.96875,-0.035888671875,0.9931640625,-0.0751953125,0.0915527269244194,-0.5187987685203552,0.3967284858226776,80.0,1159419.0,1.0
1212952.9886076,289121.4375,298922.5,314997.25,296113.5,312386.65625,302430.21875,298993.84375,305785.125,-0.033203125,0.99169921875,-0.07421875,0.03051757626235485,-0.3967284858226776,0.3967284858226776,80.0,1159420.0,1.0
1212953.002812,289194.03125,297279.8125,314532.96875,296141.0625,311477.03125,300375.71875,297931.15625,304303.28125,-0.034912109375,0.9912109375,-0.071533203125,-0.0915527269244194,-0.3356933295726776,0.4272460639476776,80.0,1159421.0,1.0
1212953.002856,289179.90625,296359.28125,314349.40625,296053.4375,310530.84375,298888.96875,297372.90625,302951.09375,-0.033935546875,0.99267578125,-0.074462890625,-0.1220703050494194,-0.0915527269244194,0.5187987685203552,80.0,1159422.0,1.0
1212953.0053565,289124.375,297470.8125,314733.6875,296038.0625,310895.4375,300069.6875,298114.25,303677.625,-0.037109375,0.9951171875,-0.072998046875,-0.1220703050494194,-0.0915527269244194,0.6408690810203552,80.0,1159423.0,1.0
1212953.0054167,289091.3125,299050.1875,315131.71875,296076.40625,312042.53125,302256.125,299110.96875,305434.1875,-0.03857421875,0.99462890625,-0.070556640625,-0.1831054538488388,-0.03051757626235485,0.6408690810203552,80.0,1159424.0,1.0
1212953.0123083,289130.1875,298924.03125,315004.5,296113.96875,312382.90625,302430.5625,298991.78125,305782.0625,-0.03857421875,0.993896484375,-0.072509765625,-0.3967284858226776,0.03051757626235485,0.7324218153953552,80.0,1159425.0,1.0
1212953.0148697,289199.3125,297280.8125,314538.78125,296143.8125,311474.875,300373.84375,297933.375,304302.84375,-0.04052734375,0.99365234375,-0.0712890625,-0.4882812201976776,0.1525878757238388,0.7629393935203552,80.0,1159426.0,1.0
1212953.0172392,289183.40625,296357.5,314355.65625,296057.53125,310530.75,298885.21875,297373.96875,302950.65625,-0.0390625,0.99462890625,-0.0712890625,-0.4882812201976776,0.1525878757238388,0.8544921278953552,80.0,1159427.0,1.0
1212953.0196561,289132.0625,297470.71875,314741.46875,296042.6875,310894.8125,300065.84375,298116.59375,303678.25,-0.04296875,0.9912109375,-0.0693359375,-0.6103515028953552,0.1525878757238388,0.8850097060203552,80.0,1159428.0,1.0
1212953.0284322,289100.0625,299057.25,315140.03125,296084.46875,312045.03125,302253.1875,299116.6875,305437.3125,-0.041259765625,0.989990234375,-0.073974609375,-0.7019042372703552,0.03051757626235485,0.8239745497703552,80.0,1159429.0,1.0
1212953.0316118,289136.46875,298932.96875,315010.65625,296120.46875,312382.71875,302425.90625,298995.8125,305779.125,-0.04052734375,0.99072265625,-0.07373046875,-0.7019042372703552,-0.03051757626235485,0.9155272841453552,80.0,1159430.0,1.0
1212953.0316552,289213.53125,297300.46875,314555.59375,296155.1875,311482.65625,300378.3125,297942.59375,304307.65625,-0.039794921875,0.990234375,-0.076171875,-0.6713866591453552,-0.1525878757238388,0.8850097060203552,80.0,1159431.0,1.0
1212953.0347002,289192.875,296372.625,314364.59375,296060.59375,310529.03125,298881.09375,297372.8125,302946.71875,-0.039794921875,0.98779296875,-0.077880859375,-0.7324218153953552,-0.1220703050494194,0.8544921278953552,80.0,1159432.0,1.0
1212953.04845,289141.28125,297485.28125,314753.53125,296049.125,310891.84375,300061.53125,298121.21875,303674.3125,-0.038818359375,0.9892578125,-0.076904296875,-0.6713866591453552,-0.0915527269244194,0.9460448622703552,80.0,1159433.0,1.0
1212953.0515614,289109.0,299069.40625,315152.28125,296092.84375,312044.6875,302256.125,299124.8125,305436.6875,-0.0390625,0.9892578125,-0.071533203125,-0.7324218153953552,-0.0915527269244194,1.0681151151657104,80.0,1159434.0,1.0
1212953.0516048,289138.78125,298939.84375,315018.25,296126.28125,312386.28125,302434.9375,299004.5625,305783.3125,-0.03955078125,0.9921875,-0.0703125,-0.5798339247703552,-0.0610351525247097,0.9765624403953552,80.0,1159435.0,1.0
1212953.0535674,289202.0,297289.9375,314544.40625,296147.5625,311476.75,300379.5625,297936.96875,304300.5,-0.040771484375,0.99267578125,-0.07080078125,-0.5493163466453552,-0.1831054538488388,0.9155272841453552,80.0,1159436.0,1.0
1212953.0559557,289186.53125,296365.1875,314358.15625,296060.125,310531.8125,298890.75,297376.65625,302951.0,-0.042724609375,0.99658203125,-0.071533203125,-0.5493163466453552,-0.0915527269244194,0.8850097060203552,80.0,1159437.0,1.0
1212953.0597596,289130.03125,297472.3125,314742.4375,296044.9375,310889.34375,300065.3125,298119.1875,303677.34375,-0.04296875,0.997802734375,-0.069091796875,-0.6103515028953552,-0.2746581733226776,0.9765624403953552,80.0,1159438.0,1.0
1212953.0690817,289088.1875,299049.1875,315133.5,296082.75,312040.28125,302256.9375,299116.78125,305436.0625,-0.04296875,0.99755859375,-0.0712890625,-0.7629393935203552,-0.3356933295726776,0.8544921278953552,80.0,1159439.0,1.0
1212953.0691258,289121.96875,298920.8125,315001.90625,296116.90625,312382.71875,302439.15625,298998.75,305785.75,-0.043701171875,1.000244140625,-0.0693359375,-0.9155272841453552,-0.3662109076976776,0.7324218153953552,80.0,1159440.0,1.0
1212953.073547,289190.90625,297278.75,314536.8125,296144.96875,311479.25,300389.40625,297943.5,304313.125,-0.04345703125,1.000244140625,-0.06787109375,-0.8850097060203552,-0.4577636420726776,0.7629393935203552,80.0,1159441.0,1.0
1212953.0777893,289167.21875,296345.78125,314342.78125,296050.3125,310529.75,298890.65625,297377.0,302956.4375,-0.042724609375,1.002197265625,-0.06884765625,-1.0681151151657104,-0.5493163466453552,0.6408690810203552,80.0,1159442.0,1.0
1212953.0778454,289106.6875,297452.65625,314718.5625,296029.65625,310886.3125,300059.84375,298111.84375,303675.8125,-0.04248046875,1.00146484375,-0.069091796875,-1.2207030057907104,-0.6713866591453552,0.6103515028953552,80.0,1159443.0,1.0
1212953.0796572,289067.53125,299033.53125,315113.125,296067.8125,312034.03125,302249.96875,299110.96875,305434.28125,-0.039794921875,1.00341796875,-0.06884765625,-1.5258787870407104,-0.7019042372703552,0.6103515028953552,80.0,1159444.0,1.0
1212953.0934399,289105.34375,298914.8125,314985.96875,296108.40625,312382.375,302434.6875,298996.96875,305790.375,-0.037109375,1.003173828125,-0.067626953125,-1.6784666776657104,-0.7019042372703552,0.5798339247703552,80.0,1159445.0,1.0
1212953.0966305,289173.75,297269.28125,314517.03125,296134.53125,311472.75,300379.46875,297932.21875,304310.34375,-0.03857421875,1.00244140625,-0.068115234375,-1.8920897245407104,-0.6408690810203552,0.5798339247703552,80.0,1159446.0,1.0
1212953.0966757,289159.15625,296342.40625,314330.1875,296044.84375,310524.84375,298885.125,297366.8125,302953.78125,-0.036865234375,1.000244140625,-0.065673828125,-1.8920897245407104,-0.6713866591453552,0.5187987685203552,80.0,1159447.0,1.0
1212953.0984484,289109.0,297458.1875,314720.71875,296031.96875,310889.34375,300064.84375,298116.40625,303680.75,-0.03564453125,0.998779296875,-0.06640625,-1.9836424589157104,-0.6713866591453552,0.5798339247703552,80.0,1159448.0,1.0
1212953.104734,289074.15625,299042.3125,315121.0,296072.75,312040.75,302256.21875,299122.21875,305441.25,-0.0322265625,0.997802734375,-0.0654296875,-2.044677495956421,-0.5493163466453552,0.5798339247703552,80.0,1159449.0,1.0
1212953.1140296,289112.75,298923.03125,314998.5,296112.625,312385.84375,302444.96875,299013.5,305795.21875,-0.031982421875,0.994140625,-0.0654296875,-2.105712652206421,-0.4882812201976776,0.7019042372703552,80.0,1159450.0,1.0
1212953.114075,289180.96875,297275.0,314532.5,296141.84375,311476.40625,300390.03125,297950.5625,304316.4375,-0.031005859375,0.9931640625,-0.0654296875,-2.075195074081421,-0.4272460639476776,0.7324218153953552,80.0,1159451.0,1.0
1212953.1165964,289166.0625,296342.46875,314342.34375,296054.59375,310520.8125,298884.78125,297375.21875,302953.40625,-0.02978515625,0.9921875,-0.068359375,-2.075195074081421,-0.3356933295726776,0.7629393935203552,80.0,1159452.0,1.0
1212953.1166332,289108.90625,297444.34375,314722.3125,296037.15625,310877.8125,300052.78125,298110.875,303670.8125,-0.02880859375,0.988037109375,-0.06640625,-1.9836424589157104,-0.1525878757238388,0.6713866591453552,80.0,1159453.0,1.0
1212953.127292,289071.0,299029.0625,315118.3125,296074.34375,312030.46875,302244.9375,299112.9375,305431.0625,-0.029052734375,0.98876953125,-0.065185546875,-1.7395018339157104,-0.03051757626235485,0.8850097060203552,80.0,1159454.0,1.0
1212953.130367,289113.125,298914.90625,314997.4375,296118.78125,312383.78125,302437.71875,299006.8125,305792.96875,-0.028564453125,0.98828125,-0.06591796875,-1.6479490995407104,0.03051757626235485,1.0681151151657104,80.0,1159455.0,1.0
1212953.1304111,289179.46875,297267.75,314530.71875,296144.90625,311475.875,300384.9375,297943.03125,304313.03125,-0.029052734375,0.986328125,-0.06787109375,-1.5258787870407104,0.0915527269244194,1.0070799589157104,80.0,1159456.0,1.0
1212953.1322527,289163.90625,296343.71875,314343.40625,296057.625,310528.59375,298888.0625,297374.6875,302954.21875,-0.03125,0.98681640625,-0.06787109375,-1.3732908964157104,0.3051757514476776,1.0375975370407104,80.0,1159457.0,1.0
1212953.1409504,289112.5,297455.34375,314730.5625,296046.53125,310890.25,300062.71875,298120.53125,303679.125,-0.029296875,0.98583984375,-0.066650390625,-1.2207030057907104,0.3662109076976776,1.1596678495407104,80.0,1159458.0,1.0
1212953.148466,289079.9375,299042.65625,315132.34375,296094.75,312046.71875,302262.125,299131.4375,305446.71875,-0.03076171875,0.987548828125,-0.06787109375,-1.0375975370407104,0.5187987685203552,1.2512205839157104,80.0,1159459.0,1.0
1212953.1509927,289104.53125,298913.125,314996.25,296122.4375,312382.28125,302439.3125,299009.84375,305789.3125,-0.031982421875,0.9853515625,-0.066162109375,-1.0070799589157104,0.5187987685203552,1.2512205839157104,80.0,1159460.0,1.0
1212953.1534864,289174.90625,297275.1875,314533.21875,296153.84375,311480.875,300393.0625,297952.34375,304315.0,-0.0322265625,0.98583984375,-0.06494140625,-0.8239745497703552,0.6408690810203552,1.2207030057907104,80.0,1159461.0,1.0
1212953.1629402,289161.59375,296347.84375,314343.59375,296067.46875,310535.125,298900.0625,297389.09375,302961.90625,-0.032470703125,0.986083984375,-0.063720703125,-0.7324218153953552,0.6408690810203552,1.2817381620407104,80.0,1159462.0,1.0
1212953.1629855,289103.09375,297450.40625,314720.71875,296043.9375,310886.0625,300063.59375,298118.28125,303677.0625,-0.033447265625,0.988037109375,-0.062744140625,-0.7324218153953552,0.7019042372703552,1.1901854276657104,80.0,1159463.0,1.0
1212953.1653652,289064.84375,299033.46875,315118.40625,296080.59375,312036.90625,302254.53125,299119.09375,305438.5625,-0.031982421875,0.987060546875,-0.063720703125,-0.6103515028953552,0.5798339247703552,1.1291502714157104,80.0,1159464.0,1.0
1212953.1654083,289099.09375,298912.65625,314989.65625,296118.34375,312383.96875,302445.3125,299004.3125,305792.25,-0.03466796875,0.986328125,-0.064208984375,-0.7019042372703552,0.6103515028953552,1.1901854276657104,80.0,1159465.0,1.0
1212953.1734884,289171.3125,297275.0,314524.8125,296149.375,311479.4375,300396.65625,297942.59375,304316.34375,-0.0341796875,0.98779296875,-0.066650390625,-0.5493163466453552,0.5493163466453552,1.1901854276657104,80.0,1159466.0,1.0
1212953.1777948,289152.625,296346.6875,314336.625,296062.8125,310530.65625,298899.15625,297380.0625,302962.09375,-0.034423828125,0.987060546875,-0.06689453125,-0.4882812201976776,0.5187987685203552,1.1291502714157104,80.0,1159467.0,1.0
1212953.1778385,289091.3125,297444.875,314716.15625,296041.4375,310884.25,300068.25,298120.4375,303679.40625,-0.033935546875,0.9892578125,-0.06787109375,-0.3662109076976776,0.5798339247703552,1.0986326932907104,80.0,1159468.0,1.0
1212953.1858663,289057.5,299036.3125,315115.625,296082.75,312037.6875,302265.875,299126.09375,305445.90625,-0.034423828125,0.9912109375,-0.066162109375,-0.3967284858226776,0.4882812201976776,1.0070799589157104,80.0,1159469.0,1.0
1212953.1890806,289094.15625,298916.59375,314988.5,296118.53125,312382.28125,302451.125,299004.5625,305797.28125,-0.034912109375,0.9912109375,-0.064697265625,-0.3051757514476776,0.5493163466453552,0.9155272841453552,80.0,1159470.0,1.0
1212953.1891238,289165.25,297270.15625,314524.8125,296146.15625,311474.78125,300397.09375,297942.34375,304316.96875,-0.03369140625,0.991455078125,-0.06689453125,-0.1831054538488388,0.4577636420726776,0.9765624403953552,80.0,1159471.0,1.0
1212953.1909325,289147.625,296340.15625,314334.28125,296058.15625,310524.5,298894.15625,297373.15625,302956.4375,-0.035888671875,0.991455078125,-0.067138671875,-0.1831054538488388,0.3356933295726776,0.7629393935203552,80.0,1159472.0,1.0
1212953.204672,289094.25,297450.25,314717.75,296043.59375,310886.75,300067.90625,298114.0,303677.625,-0.036376953125,0.992919921875,-0.0654296875,-0.1525878757238388,0.2136230319738388,0.8239745497703552,80.0,1159473.0,1.0
1212953.2079556,289051.15625,299028.90625,315110.53125,296076.6875,312034.21875,302255.3125,299109.8125,305434.46875,-0.036376953125,0.9931640625,-0.06298828125,-0.03051757626235485,0.0915527269244194,0.7934569716453552,80.0,1159474.0,1.0
1212953.2079999,289089.34375,298913.1875,314984.03125,296113.34375,312384.5,302444.6875,298997.34375,305792.09375,-0.037353515625,0.993896484375,-0.0654296875,-0.03051757626235485,0.0,0.6408690810203552,80.0,1159475.0,1.0
1212953.2096808,289165.34375,297273.125,314524.65625,296144.53125,311482.40625,300395.125,297938.03125,304320.4375,-0.0380859375,0.993896484375,-0.064208984375,0.1220703050494194,-0.0915527269244194,0.6408690810203552,80.0,1159476.0,1.0
1212953.2134272,289152.1875,296339.34375,314339.46875,296059.6875,310530.84375,298892.28125,297368.0625,302961.625,-0.035888671875,0.99267578125,-0.066162109375,-0.03051757626235485,-0.0915527269244194,0.5798339247703552,80.0,1159477.0,1.0
1212953.2223113,289095.34375,297435.03125,314718.3125,296037.0625,310878.28125,300052.59375,298102.1875,303671.34375,-0.035888671875,0.99267578125,-0.066162109375,-0.0915527269244194,-0.0915527269244194,0.5187987685203552,80.0,1159478.0,1.0
1212953.2266293,289064.84375,299025.84375,315121.78125,296079.53125,312032.6875,302251.3125,299107.75,305436.96875,-0.0361328125,0.994873046875,-0.067138671875,0.03051757626235485,-0.1831054538488388,0.4272460639476776,80.0,1159479.0,1.0
1212953.2266739,289101.5,298915.09375,314998.59375,296120.40625,312385.40625,302447.90625,299000.71875,305798.0,-0.03466796875,0.9931640625,-0.06640625,0.0,-0.2136230319738388,0.4577636420726776,80.0,1159480.0,1.0
1212953.2323079,289167.84375,297271.5,314531.15625,296148.65625,311478.8125,300395.84375,297940.53125,304321.15625,-0.032958984375,0.992919921875,-0.06591796875,0.0915527269244194,-0.2746581733226776,0.3967284858226776,80.0,1159481.0,1.0
1212953.2414342,289148.71875,296337.125,314338.0625,296060.59375,310524.03125,298890.75,297366.375,302956.375,-0.031982421875,0.9921875,-0.066650390625,0.1220703050494194,-0.3662109076976776,0.3662109076976776,80.0,1159482.0,1.0
1212953.2414786,289095.34375,297443.8125,314721.15625,296047.09375,310884.34375,300062.53125,298109.96875,303677.34375,-0.032470703125,0.994873046875,-0.0673828125,0.1831054538488388,-0.3967284858226776,0.3356933295726776,80.0,1159483.0,1.0
1212953.2484951,289058.9375,299032.75,315118.40625,296084.90625,312036.90625,302258.28125,299117.75,305440.1875,-0.03369140625,0.994873046875,-0.065673828125,0.2441406100988388,-0.4577636420726776,0.3662109076976776,80.0,1159484.0,1.0
1212953.2510616,289098.46875,298924.09375,314995.90625,296125.9375,312390.78125,302454.6875,299011.1875,305801.28125,-0.03173828125,0.99609375,-0.068359375,0.1525878757238388,-0.4577636420726776,0.3051757514476776,80.0,1159485.0,1.0
1212953.2534788,289166.0625,297282.78125,314529.75,296154.1875,311487.75,300403.0,297949.125,304327.96875,-0.0322265625,0.993896484375,-0.067626953125,0.2136230319738388,-0.4272460639476776,0.2746581733226776,80.0,1159486.0,1.0
1212953.255985,289146.90625,296348.75,314338.78125,296066.3125,310535.46875,298899.0,297379.34375,302967.71875,-0.03564453125,0.9951171875,-0.06689453125,0.1831054538488388,-0.4577636420726776,0.3051757514476776,80.0,1159487.0,1.0
1212953.2628316,289088.8125,297450.25,314718.03125,296044.75,310891.3125,300064.21875,298113.09375,303682.15625,-0.03564453125,0.995361328125,-0.0673828125,0.2136230319738388,-0.6103515028953552,0.3051757514476776,80.0,1159488.0,1.0
1212953.262875,289054.65625,299037.65625,315115.53125,296081.15625,312043.40625,302257.65625,299118.65625,305443.84375,-0.03759765625,0.994140625,-0.064453125,0.0915527269244194,-0.7019042372703552,0.3662109076976776,80.0,1159489.0,1.0
1212953.268599,289094.09375,298922.59375,314991.96875,296118.875,312393.0,302452.28125,299010.5625,305804.0625,-0.037109375,0.99609375,-0.066162109375,0.0610351525247097,-0.6713866591453552,0.3051757514476776,80.0,1159490.0,1.0
1212953.2728279,289167.84375,297282.96875,314526.875,296149.53125,311492.59375,300403.96875,297946.4375,304332.25,-0.037841796875,0.9951171875,-0.066650390625,0.03051757626235485,-0.7324218153953552,0.2746581733226776,80.0,1159491.0,1.0
1212953.2728733,289157.03125,296355.96875,314343.40625,296068.0,310549.15625,298908.1875,297381.40625,302979.53125,-0.03759765625,0.994384765625,-0.067626953125,0.0,-0.8239745497703552,0.1831054538488388,80.0,1159492.0,1.0
1212953.2760025,289095.96875,297446.65625,314716.0625,296038.40625,310889.28125,300062.09375,298105.40625,303679.21875,-0.0400390625,0.994873046875,-0.068115234375,0.0915527269244194,-0.9155272841453552,0.0610351525247097,80.0,1159493.0,1.0
1212953.2847433,289062.6875,299036.21875,315116.25,296077.125,312037.15625,302255.5,299110.875,305435.875,-0.03857421875,0.993408203125,-0.064453125,0.03051757626235485,-1.0375975370407104,0.0610351525247097,80.0,1159494.0,1.0
1212953.2941658,289099.625,298923.9375,314994.21875,296119.3125,312388.96875,302453.71875,299004.21875,305798.96875,-0.039306640625,0.993408203125,-0.0615234375,0.0610351525247097,-1.1901854276657104,0.0610351525247097,80.0,1159495.0,1.0
1212953.2942143,289168.90625,297279.1875,314527.40625,296150.875,311488.46875,300406.21875,297943.5,304327.15625,-0.035888671875,0.99169921875,-0.061767578125,-0.0915527269244194,-1.2207030057907104,-0.1220703050494194,80.0,1159496.0,1.0
1212953.3102821,289157.375,296342.40625,314339.9375,296062.8125,310534.40625,298897.90625,297370.03125,302961.5625,-0.033935546875,0.989501953125,-0.0625,0.0,-1.2207030057907104,-0.1831054538488388,80.0,1159497.0,1.0
1212953.3103339,289101.0625,297439.875,314721.78125,296045.21875,310889.4375,300057.96875,298104.34375,303675.375,-0.033203125,0.98876953125,-0.064697265625,-0.0610351525247097,-1.3122557401657104,-0.1220703050494194,80.0,1159498.0,1.0
1212953.312341,289061.1875,299027.28125,315118.03125,296082.5,312043.40625,302254.15625,299108.46875,305437.21875,-0.0322265625,0.988037109375,-0.0673828125,-0.03051757626235485,-1.2817381620407104,0.0,80.0,1159499.0,1.0
1212953.3153602,289100.4375,298915.625,314996.25,296120.65625,312393.625,302453.375,299002.4375,305798.96875,-0.03076171875,0.98583984375,-0.06982421875,0.1220703050494194,-1.0681151151657104,-0.03051757626235485,80.0,1159500.0,1.0
1212953.31542,289174.90625,297278.46875,314537.875,296155.625,311496.25,300409.53125,297945.71875,304333.6875,-0.031005859375,0.985595703125,-0.07421875,0.3051757514476776,-1.0070799589157104,0.0,80.0,1159501.0,1.0
1212953.3174281,289150.21875,296338.09375,314340.8125,296062.8125,310541.125,298897.375,297370.46875,302966.8125,-0.02978515625,0.984375,-0.07568359375,0.5187987685203552,-0.9155272841453552,0.0610351525247097,80.0,1159502.0,1.0
1212953.3216082,289091.65625,297435.40625,314718.03125,296043.78125,310892.125,300056.71875,298104.6875,303676.4375,-0.030029296875,0.985107421875,-0.069580078125,0.5798339247703552,-0.8544921278953552,0.2136230319738388,80.0,1159503.0,1.0
1212953.3216517,289053.84375,299020.03125,315114.09375,296078.09375,312037.875,302247.71875,299106.84375,305432.21875,-0.030517578125,0.988037109375,-0.06884765625,0.7629393935203552,-0.7324218153953552,0.2136230319738388,80.0,1159504.0,1.0
1212953.3297346,289090.15625,298909.34375,314991.15625,296116.90625,312391.03125,302449.59375,299001.0,305798.34375,-0.0302734375,0.98681640625,-0.06494140625,0.9155272841453552,-0.6408690810203552,0.2136230319738388,80.0,1159505.0,1.0
1212953.3340782,289163.90625,297275.90625,314527.25,296149.53125,311495.09375,300406.84375,297941.4375,304334.21875,-0.032958984375,0.98876953125,-0.06640625,0.9155272841453552,-0.5798339247703552,0.3051757514476776,80.0,1159506.0,1.0
1212953.3341221,289144.3125,296337.03125,314331.34375,296053.4375,310536.28125,298894.78125,297365.21875,302965.3125,-0.033935546875,0.991455078125,-0.06787109375,0.9765624403953552,-0.5798339247703552,0.3967284858226776,80.0,1159507.0,1.0
1212953.3422005,289087.46875,297433.4375,314709.4375,296031.0,310884.53125,300054.84375,298098.625,303672.6875,-0.03564453125,0.992431640625,-0.06884765625,1.0070799589157104,-0.4882812201976776,0.3967284858226776,80.0,1159508.0,1.0
1212953.3465408,289052.59375,299022.8125,315110.09375,296070.15625,312035.8125,302252.65625,299105.78125,305434.28125,-0.037109375,0.99365234375,-0.066162109375,0.9155272841453552,-0.5187987685203552,0.3051757514476776,80.0,1159509.0,1.0
1212953.3465845,289089.78125,298914.1875,314989.28125,296110.90625,312391.03125,302456.03125,299005.46875,305801.90625,-0.04248046875,0.99267578125,-0.067138671875,0.9460448622703552,-0.5493163466453552,0.03051757626235485,80.0,1159510.0,1.0
1212953.3572735,289156.125,297270.25,314520.0,296133.1875,311482.5625,300402.28125,297937.3125,304328.21875,-0.042724609375,0.994873046875,-0.066162109375,0.7934569716453552,-0.6103515028953552,-0.03051757626235485,80.0,1159511.0,1.0
1212953.3628347,289140.46875,296331.21875,314329.1875,296042.25,310519.5625,298888.0625,297359.40625,302959.9375,-0.04248046875,0.99560546875,-0.067138671875,0.6713866591453552,-0.6408690810203552,-0.1831054538488388,80.0,1159512.0,1.0
1212953.3628787,289091.84375,297435.46875,314715.0,296032.34375,310876.03125,300052.15625,298099.96875,303672.78125,-0.04150390625,0.995849609375,-0.068603515625,0.6103515028953552,-0.6713866591453552,-0.2746581733226776,80.0,1159513.0,1.0
1212953.3648711,289062.96875,299031.65625,315118.75,296076.0625,312034.75,302251.65625,299108.71875,305436.25,-0.042236328125,0.9990234375,-0.06982421875,0.5798339247703552,-0.8544921278953552,-0.4577636420726776,80.0,1159514.0,1.0
1212953.3673173,289097.9375,298920.25,314990.1875,296106.8125,312382.71875,302446.46875,298998.0625,305793.6875,-0.041748046875,0.99853515625,-0.0673828125,0.4272460639476776,-0.8850097060203552,-0.4577636420726776,80.0,1159515.0,1.0
1212953.3922701,289174.28125,297285.625,314532.0625,296144.0,311492.21875,300410.5,297952.53125,304335.03125,-0.04150390625,0.996826171875,-0.0693359375,0.3356933295726776,-1.0070799589157104,-0.5187987685203552,80.0,1159516.0,1.0
1212953.3946665,289153.34375,296338.0,314335.1875,296050.375,310534.40625,298895.84375,297372.28125,302964.40625,-0.04052734375,0.9951171875,-0.070556640625,0.2746581733226776,-1.0375975370407104,-0.5798339247703552,80.0,1159517.0,1.0
1212953.3974324,289095.34375,297431.09375,314710.25,296028.84375,310879.4375,300046.78125,298095.125,303666.25,-0.0361328125,0.99609375,-0.072021484375,0.3967284858226776,-1.0375975370407104,-0.6103515028953552,80.0,1159518.0,1.0
1212953.3997267,289059.84375,299020.84375,315110.09375,296065.5,312028.75,302238.875,299099.96875,305425.875,-0.0361328125,0.99658203125,-0.072998046875,0.2746581733226776,-1.0070799589157104,-0.6713866591453552,80.0,1159519.0,1.0
1212953.4022774,289095.15625,298911.0625,314985.96875,296098.75,312373.78125,302435.125,298990.28125,305785.1875,-0.035888671875,0.99560546875,-0.074951171875,0.3356933295726776,-1.0375975370407104,-0.5798339247703552,80.0,1159520.0,1.0
1212953.4047419,289164.625,297271.59375,314523.125,296131.3125,311472.65625,300390.125,297935.71875,304318.75,-0.035888671875,0.994873046875,-0.072509765625,0.3051757514476776,-0.9765624403953552,-0.4272460639476776,80.0,1159521.0,1.0
1212953.4072793,289148.71875,296331.5625,314332.34375,296045.90625,310520.65625,298880.375,297363.6875,302953.40625,-0.03515625,0.994873046875,-0.07177734375,0.2136230319738388,-0.8850097060203552,-0.4272460639476776,80.0,1159522.0,1.0
1212953.4097503,289097.125,297431.71875,314716.96875,296031.0625,310874.25,300040.96875,298101.21875,303665.1875,-0.0380859375,0.994384765625,-0.072265625,0.2441406100988388,-0.7934569716453552,-0.3051757514476776,80.0,1159523.0,1.0
1212953.4122828,289064.03125,299025.21875,315119.1875,296072.03125,312028.84375,302241.65625,299111.875,305430.4375,-0.036376953125,0.9931640625,-0.07470703125,0.1831054538488388,-0.7324218153953552,-0.2136230319738388,80.0,1159524.0,1.0
1212953.4147414,289098.5625,298915.0,314993.84375,296108.3125,312382.28125,302446.21875,299003.59375,305795.3125,-0.036376953125,0.994140625,-0.07421875,0.1831054538488388,-0.5798339247703552,-0.1220703050494194,80.0,1159525.0,1.0
1212953.4179422,289166.15625,297272.6875,314527.875,296137.03125,311477.90625,300397.96875,297942.5,304323.3125,-0.038330078125,0.996826171875,-0.072021484375,0.2136230319738388,-0.5798339247703552,-0.0915527269244194,80.0,1159526.0,1.0
1212953.4179883,289151.125,296337.9375,314339.84375,296052.8125,310524.21875,298891.75,297373.0625,302961.625,-0.038330078125,0.99365234375,-0.067138671875,0.2746581733226776,-0.5798339247703552,-0.03051757626235485,80.0,1159527.0,1.0
1212953.4197529,289090.40625,297429.65625,314713.5625,296028.65625,310864.5,300040.71875,298097.71875,303660.71875,-0.04052734375,0.9931640625,-0.06640625,0.1831054538488388,-0.5798339247703552,0.0,80.0,1159528.0,1.0
1212953.4234077,289057.59375,299027.03125,315117.21875,296072.84375,312021.875,302244.25,299108.28125,305427.9375,-0.03857421875,0.993408203125,-0.072509765625,0.2136230319738388,-0.4882812201976776,0.0915527269244194,80.0,1159529.0,1.0
1212953.437833,289086.84375,298916.0625,314989.46875,296105.5625,312370.46875,302445.3125,299001.0,305790.125,-0.039794921875,0.99365234375,-0.07177734375,0.1525878757238388,-0.6103515028953552,0.1831054538488388,80.0,1159530.0,1.0
1212953.4378784,289158.8125,297281.875,314530.46875,296140.25,311474.4375,300406.65625,297946.34375,304330.46875,-0.03955078125,0.99365234375,-0.07177734375,0.2136230319738388,-0.6103515028953552,0.3662109076976776,80.0,1159531.0,1.0
1212953.440428,289146.84375,296345.96875,314342.78125,296056.375,310525.375,298899.6875,297375.9375,302971.03125,-0.0419921875,0.993896484375,-0.07177734375,0.1831054538488388,-0.5798339247703552,0.4272460639476776,80.0,1159532.0,1.0
1212953.4404753,289086.9375,297437.0,314712.84375,296032.25,310868.625,300046.4375,298101.03125,303669.125,-0.041259765625,0.990966796875,-0.072021484375,0.2136230319738388,-0.4272460639476776,0.4882812201976776,80.0,1159533.0,1.0
1212953.4423071,289051.96875,299026.21875,315111.40625,296069.34375,312019.5625,302241.71875,299102.75,305427.9375,-0.038330078125,0.99072265625,-0.070556640625,0.0915527269244194,-0.5187987685203552,0.5798339247703552,80.0,1159534.0,1.0
1212953.4589831,289094.25,298923.5625,314995.1875,296107.4375,312377.90625,302450.59375,298999.5625,305797.28125,-0.040771484375,0.98974609375,-0.06689453125,0.1220703050494194,-0.4577636420726776,0.6408690810203552,80.0,1159535.0,1.0
1212953.4590287,289170.78125,297290.03125,314537.6875,296143.90625,311487.9375,300414.6875,297949.21875,304338.59375,-0.03857421875,0.989013671875,-0.072509765625,0.1525878757238388,-0.4272460639476776,0.6713866591453552,80.0,1159536.0,1.0
1212953.46592,289144.5,296332.90625,314335.625,296044.03125,310516.78125,298885.5625,297362.625,302958.5,-0.040283203125,0.99072265625,-0.070556640625,0.1831054538488388,-0.4882812201976776,0.7019042372703552,80.0,1159537.0,1.0
1212953.4659637,289092.65625,297430.125,314715.34375,296029.28125,310864.84375,300039.28125,298095.75,303662.0625,-0.041259765625,0.989013671875,-0.0703125,0.0610351525247097,-0.5187987685203552,0.6713866591453552,80.0,1159538.0,1.0
1212953.4659758,289058.21875,299022.375,315115.28125,296070.5,312017.9375,302238.4375,299104.1875,305425.6875,-0.041015625,0.98974609375,-0.068603515625,0.0,-0.5187987685203552,0.7629393935203552,80.0,1159539.0,1.0
1212953.4691873,289092.90625,298915.71875,314993.6875,296106.96875,312374.9375,302448.625,299002.25,305796.71875,-0.039306640625,0.98828125,-0.0703125,0.0,-0.4882812201976776,0.8544921278953552,80.0,1159540.0,1.0
1212953.4692329,289166.15625,297280.28125,314532.25,296140.34375,311482.46875,300412.75,297945.375,304334.5625,-0.0380859375,0.988037109375,-0.071533203125,0.0610351525247097,-0.5493163466453552,0.7934569716453552,80.0,1159541.0,1.0
1212953.4709312,289153.53125,296341.59375,314344.125,296056.375,310529.9375,298901.65625,297370.40625,302967.09375,-0.038330078125,0.9892578125,-0.072021484375,0.0915527269244194,-0.5493163466453552,0.7019042372703552,80.0,1159542.0,1.0
1212953.4796851,289097.125,297430.28125,314718.9375,296034.03125,310872.8125,300047.40625,298095.40625,303662.40625,-0.036865234375,0.988525390625,-0.07177734375,0.1525878757238388,-0.5187987685203552,0.8544921278953552,80.0,1159543.0,1.0
1212953.4939734,289064.3125,299021.03125,315118.5,296073.28125,312024.46875,302245.75,299104.8125,305426.15625,-0.037841796875,0.98876953125,-0.075439453125,0.1831054538488388,-0.4882812201976776,0.7934569716453552,80.0,1159544.0,1.0
1212953.4940017,289098.46875,298917.84375,314994.125,296107.53125,312376.375,302451.84375,299003.21875,305796.71875,-0.037841796875,0.987548828125,-0.072509765625,0.2136230319738388,-0.4577636420726776,0.8544921278953552,80.0,1159545.0,1.0
1212953.4964742,289170.34375,297285.09375,314531.625,296140.15625,311483.5625,300412.75,297946.875,304336.71875,-0.0361328125,0.988037109375,-0.06982421875,0.2136230319738388,-0.4577636420726776,0.8239745497703552,80.0,1159546.0,1.0
1212953.4965095,289149.4375,296334.875,314332.15625,296044.3125,310523.6875,298891.28125,297362.09375,302962.1875,-0.037109375,0.98974609375,-0.074951171875,0.2136230319738388,-0.4577636420726776,0.7019042372703552,80.0,1159547.0,1.0
1212953.507828,289096.125,297427.96875,314710.15625,296025.90625,310868.78125,300043.5625,298093.53125,303663.3125,-0.038330078125,0.99072265625,-0.07275390625,0.2136230319738388,-0.4272460639476776,0.7019042372703552,80.0,1159548.0,1.0
1212953.5078725,289056.78125,299018.625,315108.125,296064.4375,312019.28125,302242.90625,299103.0,305428.65625,-0.03564453125,0.994140625,-0.0712890625,0.1525878757238388,-0.3662109076976776,0.6713866591453552,80.0,1159549.0,1.0
1212953.5170943,289090.15625,298913.125,314986.0625,296099.46875,312374.40625,302451.40625,298996.875,305799.25,-0.03759765625,0.9931640625,-0.071533203125,0.1220703050494194,-0.3662109076976776,0.7019042372703552,80.0,1159550.0,1.0
1212953.5171447,289163.5625,297278.5625,314528.125,296132.8125,311482.3125,300414.625,297938.21875,304336.625,-0.03662109375,0.994140625,-0.0751953125,0.03051757626235485,-0.1831054538488388,0.7324218153953552,80.0,1159551.0,1.0
1212953.5171597,289153.625,296344.0,314340.5625,296049.125,310534.40625,298907.125,297365.9375,302970.84375,-0.03662109375,0.99560546875,-0.076171875,0.0,-0.3051757514476776,0.7324218153953552,80.0,1159552.0,1.0
1212953.5203406,289099.53125,297436.03125,314717.75,296031.0625,310880.9375,300057.625,298096.03125,303671.09375,-0.03759765625,0.99658203125,-0.072509765625,0.0,-0.2136230319738388,0.7019042372703552,80.0,1159553.0,1.0
1212953.5203879,289064.9375,299028.09375,315118.5625,296071.5,312029.21875,302254.875,299108.8125,305430.0625,-0.03662109375,0.997802734375,-0.072265625,-0.1220703050494194,-0.2746581733226776,0.5798339247703552,80.0,1159554.0,1.0
1212953.5285968,289090.15625,298915.625,314986.96875,296096.15625,312367.78125,302450.6875,298997.4375,305785.1875,-0.03466796875,0.996826171875,-0.07177734375,-0.1831054538488388,-0.1220703050494194,0.7934569716453552,80.0,1159555.0,1.0
1212953.5328296,289157.65625,297277.5,314521.4375,296125.21875,311475.40625,300409.15625,297937.21875,304322.6875,-0.035400390625,0.99609375,-0.070068359375,-0.2746581733226776,-0.1220703050494194,0.7629393935203552,80.0,1159556.0,1.0
1212953.5328743,289150.125,296338.5625,314333.75,296042.875,310523.3125,298895.40625,297366.1875,302956.8125,-0.03515625,0.994873046875,-0.069580078125,-0.4272460639476776,-0.1525878757238388,0.7629393935203552,80.0,1159557.0,1.0
1212953.5410091,289096.03125,297431.625,314712.5,296025.71875,310867.09375,300043.03125,298093.53125,303653.03125,-0.03515625,0.996337890625,-0.06689453125,-0.3662109076976776,-0.1525878757238388,0.8239745497703552,80.0,1159558.0,1.0
1212953.5453553,289062.15625,299026.84375,315115.1875,296069.78125,312021.6875,302245.84375,299103.5625,305419.34375,-0.03466796875,0.997314453125,-0.0673828125,-0.3967284858226776,-0.0610351525247097,0.7934569716453552,80.0,1159559.0,1.0
1212953.5453989,289096.21875,298922.9375,314990.46875,296103.9375,312374.9375,302451.125,298998.6875,305787.15625,-0.03515625,0.998046875,-0.06982421875,-0.5493163466453552,-0.0610351525247097,0.8544921278953552,80.0,1159560.0,1.0
1212953.5534419,289166.40625,297285.0,314524.46875,296129.5,311474.25,300405.03125,297938.84375,304320.34375,-0.03466796875,0.998291015625,-0.06982421875,-0.6103515028953552,0.0,0.8850097060203552,80.0,1159561.0,1.0
1212953.5565314,289149.0625,296338.375,314329.375,296036.875,310516.96875,298886.28125,297360.75,302951.28125,-0.03564453125,0.99658203125,-0.0693359375,-0.7324218153953552,0.0915527269244194,0.8850097060203552,80.0,1159562.0,1.0
1212953.5565845,289094.96875,297426.90625,314709.71875,296020.15625,310859.40625,300033.1875,298090.65625,303652.84375,-0.0361328125,0.994384765625,-0.072265625,-0.8850097060203552,0.0915527269244194,0.8239745497703552,80.0,1159563.0,1.0
1212953.5595735,289061.53125,299025.21875,315113.375,296061.46875,312010.96875,302235.375,299101.5,305415.9375,-0.03564453125,0.994873046875,-0.071044921875,-0.9155272841453552,0.0610351525247097,0.8850097060203552,80.0,1159564.0,1.0
1212953.579098,289098.28125,298930.1875,314994.375,296103.6875,312377.0,302453.71875,299006.09375,305795.46875,-0.03564453125,0.990234375,-0.070556640625,-0.8239745497703552,0.0915527269244194,0.7934569716453552,80.0,1159565.0,1.0
1212953.579146,289162.375,297285.1875,314524.5625,296129.875,311477.65625,300406.46875,297942.96875,304329.125,-0.03759765625,0.991455078125,-0.072021484375,-0.8239745497703552,0.1220703050494194,0.7934569716453552,80.0,1159566.0,1.0
1212953.5817207,289147.8125,296336.59375,314332.25,296041.1875,310517.6875,298883.6875,297363.5,302956.375,-0.037353515625,0.990966796875,-0.071044921875,-0.8239745497703552,0.1831054538488388,0.8239745497703552,80.0,1159567.0,1.0
1212953.5817685,289092.46875,297424.03125,314709.28125,296020.09375,310855.03125,300027.40625,298091.09375,303649.0,-0.03955078125,0.990234375,-0.07080078125,-0.7324218153953552,0.1220703050494194,0.7629393935203552,80.0,1159568.0,1.0
1212953.5834787,289058.75,299020.59375,315111.25,296060.3125,312008.09375,302229.65625,299099.625,305410.75,-0.040283203125,0.98828125,-0.0693359375,-0.8850097060203552,0.0915527269244194,0.6713866591453552,80.0,1159569.0,1.0
1212953.5896985,289094.34375,298921.96875,314991.34375,296098.65625,312367.34375,302443.78125,298999.9375,305784.21875,-0.03955078125,0.9892578125,-0.065673828125,-0.8239745497703552,0.0915527269244194,0.7324218153953552,80.0,1159570.0,1.0
1212953.5923082,289165.15625,297283.9375,314528.5,296132.71875,311470.0625,300401.375,297943.125,304321.78125,-0.03955078125,0.989013671875,-0.06640625,-0.7324218153953552,0.0,0.7324218153953552,80.0,1159571.0,1.0
1212953.599128,289153.28125,296338.0,314339.21875,296050.5625,310520.90625,298889.15625,297366.5625,302956.09375,-0.040283203125,0.989501953125,-0.067138671875,-0.6408690810203552,-0.0610351525247097,0.8544921278953552,80.0,1159572.0,1.0
1212953.5991628,289103.8125,297429.9375,314720.4375,296031.625,310865.46875,300038.3125,298097.53125,303653.03125,-0.0380859375,0.987060546875,-0.06787109375,-0.5187987685203552,-0.1220703050494194,0.7629393935203552,80.0,1159573.0,1.0
1212953.6022045,289068.25,299023.15625,315121.625,296066.84375,312012.5625,302234.84375,299107.125,305411.3125,-0.037841796875,0.9873046875,-0.064697265625,-0.5187987685203552,-0.1831054538488388,0.7629393935203552,80.0,1159574.0,1.0
1212953.6164964,289107.21875,298928.21875,315005.375,296107.6875,312376.8125,302455.5,299011.5625,305789.75,-0.037353515625,0.98828125,-0.068359375,-0.4882812201976776,-0.2136230319738388,0.7019042372703552,80.0,1159575.0,1.0
1212953.616537,289175.53125,297290.09375,314537.0625,296134.96875,311476.40625,300412.28125,297949.75,304323.3125,-0.036865234375,0.990478515625,-0.07080078125,-0.4577636420726776,-0.2746581733226776,0.7019042372703552,80.0,1159576.0,1.0
1212953.6183766,289154.15625,296337.125,314340.46875,296042.6875,310512.78125,298887.375,297369.15625,302949.21875,-0.036376953125,0.989990234375,-0.0673828125,-0.5493163466453552,-0.2441406100988388,0.8239745497703552,80.0,1159577.0,1.0
1212953.6214648,289099.625,297426.4375,314720.53125,296024.8125,310851.4375,300029.96875,298095.9375,303644.53125,-0.037109375,0.989013671875,-0.06884765625,-0.4577636420726776,-0.3662109076976776,0.7934569716453552,80.0,1159578.0,1.0
1212953.6215062,289066.28125,299024.6875,315124.5625,296066.84375,312002.375,302230.65625,299104.1875,305407.28125,-0.0380859375,0.989013671875,-0.069091796875,-0.2746581733226776,-0.4272460639476776,0.7019042372703552,80.0,1159579.0,1.0
1212953.6271707,289097.84375,298924.90625,315000.65625,296102.34375,312364.125,302444.6875,299002.0625,305781.34375,-0.035888671875,0.98974609375,-0.0673828125,-0.2136230319738388,-0.4577636420726776,0.7324218153953552,80.0,1159580.0,1.0
1212953.6414601,289170.875,297290.1875,314539.03125,296139.25,311474.96875,300410.9375,297948.21875,304323.5625,-0.03662109375,0.990478515625,-0.06396484375,-0.2746581733226776,-0.4882812201976776,0.7934569716453552,80.0,1159581.0,1.0
1212953.6414965,289156.21875,296342.84375,314347.96875,296056.125,310521.28125,298895.9375,297373.53125,302957.34375,-0.0361328125,0.991455078125,-0.067626953125,-0.3051757514476776,-0.5798339247703552,0.7934569716453552,80.0,1159582.0,1.0
1212953.643377,289101.3125,297429.21875,314721.6875,296033.5,310859.5,300036.875,298097.4375,303649.53125,-0.036376953125,0.990478515625,-0.0673828125,-0.2746581733226776,-0.5493163466453552,0.7629393935203552,80.0,1159583.0,1.0
1212953.6458542,289068.40625,299024.25,315123.03125,296071.59375,312009.96875,302235.46875,299105.5,305411.75,-0.03564453125,0.990478515625,-0.06591796875,-0.2441406100988388,-0.5493163466453552,0.7629393935203552,80.0,1159584.0,1.0
1212953.6483704,289103.8125,298927.59375,315001.71875,296107.25,312372.625,302453.1875,299004.03125,305789.59375,-0.037109375,0.99267578125,-0.06591796875,-0.2136230319738388,-0.5493163466453552,0.9155272841453552,80.0,1159585.0,1.0
1212953.6508687,289170.96875,297287.59375,314535.71875,296137.75,311479.25,300415.6875,297947.875,304333.59375,-0.03515625,0.992919921875,-0.066162109375,-0.0915527269244194,-0.5798339247703552,0.9155272841453552,80.0,1159586.0,1.0
1212953.6533435,289156.125,296339.625,314340.5625,296050.84375,310525.375,298896.125,297372.8125,302966.5625,-0.0341796875,0.9921875,-0.06640625,-0.1525878757238388,-0.4882812201976776,0.8544921278953552,80.0,1159587.0,1.0
1212953.6674925,289103.8125,297428.875,314717.21875,296033.84375,310866.8125,300039.625,298101.125,303659.28125,-0.034423828125,0.9931640625,-0.068359375,-0.1525878757238388,-0.4882812201976776,0.8850097060203552,80.0,1159588.0,1.0
1212953.6675151,289067.4375,299026.375,315119.125,296073.28125,312019.28125,302240.5625,299109.09375,305420.40625,-0.0341796875,0.994140625,-0.06591796875,-0.2136230319738388,-0.5798339247703552,0.8239745497703552,80.0,1159589.0,1.0
1212953.6733167,289100.6875,298930.09375,314999.65625,296108.6875,312384.59375,302458.09375,299006.28125,305799.3125,-0.033203125,0.994140625,-0.06689453125,-0.1525878757238388,-0.6103515028953552,0.8850097060203552,80.0,1159590.0,1.0
1212953.6758198,289171.5,297293.0625,314533.40625,296135.875,311487.03125,300416.03125,297947.53125,304339.125,-0.03466796875,0.993896484375,-0.06640625,-0.2136230319738388,-0.5187987685203552,0.9155272841453552,80.0,1159591.0,1.0
1212953.6782922,289149.6875,296336.125,314334.03125,296042.4375,310516.34375,298886.28125,297364.3125,302959.84375,-0.034912109375,0.99365234375,-0.0712890625,-0.1220703050494194,-0.4577636420726776,0.9155272841453552,80.0,1159592.0,1.0
1212953.680765,289096.3125,297423.3125,314713.125,296026.59375,310857.0,300028.03125,298091.71875,303654.375,-0.0341796875,0.99169921875,-0.06787109375,-0.1220703050494194,-0.5798339247703552,0.7324218153953552,80.0,1159593.0,1.0
1212953.6851546,289067.34375,299026.5625,315120.53125,296072.375,312020.0,302234.59375,299103.0,305425.34375,-0.032470703125,0.990966796875,-0.070068359375,0.0,-0.4577636420726776,0.6713866591453552,80.0,1159594.0,1.0
1212953.6851744,289102.3125,298931.0,314999.03125,296102.59375,312372.71875,302445.3125,298995.28125,305795.9375,-0.03125,0.9921875,-0.06787109375,0.0610351525247097,-0.4272460639476776,0.7019042372703552,80.0,1159595.0,1.0
1212953.6882861,289172.84375,297292.625,314536.0,296132.5625,311473.28125,300403.71875,297934.09375,304330.46875,-0.0341796875,0.991943359375,-0.068603515625,0.0,-0.4272460639476776,0.6713866591453552,80.0,1159596.0,1.0
1212953.7071869,289165.96875,296352.125,314350.5625,296057.0,310527.96875,298893.0,297367.34375,302970.125,-0.03466796875,0.9931640625,-0.06787109375,-0.03051757626235485,-0.4272460639476776,0.7019042372703552,80.0,1159597.0,1.0
1212953.7072083,289115.53125,297444.25,314732.96875,296043.25,310873.53125,300038.03125,298101.75,303666.4375,-0.03662109375,0.993896484375,-0.070556640625,0.0,-0.4577636420726776,0.7019042372703552,80.0,1159598.0,1.0
1212953.7102498,289076.8125,299035.5,315130.375,296077.03125,312017.5,302232.96875,299106.6875,305422.21875,-0.035888671875,0.9921875,-0.070068359375,0.0,-0.4882812201976776,0.6103515028953552,80.0,1159599.0,1.0
1212953.7102892,289113.84375,298946.90625,315012.625,296115.3125,312382.09375,302456.59375,299012.1875,305804.25,-0.035400390625,0.9931640625,-0.068603515625,0.03051757626235485,-0.3967284858226776,0.5187987685203552,80.0,1159600.0,1.0
1212953.712203,289188.59375,297316.21875,314551.90625,296150.25,311496.4375,300427.03125,297960.21875,304354.78125,-0.0361328125,0.9931640625,-0.069580078125,0.0915527269244194,-0.3967284858226776,0.4577636420726776,80.0,1159601.0,1.0
1212953.7158846,289164.625,296354.46875,314347.4375,296054.0625,310528.875,298895.84375,297374.15625,302978.4375,-0.035888671875,0.994140625,-0.068603515625,0.03051757626235485,-0.3356933295726776,0.5187987685203552,80.0,1159602.0,1.0
1212953.7252506,289105.625,297435.46875,314720.09375,296031.78125,310864.59375,300032.21875,298092.8125,303665.71875,-0.034912109375,0.994873046875,-0.06787109375,0.03051757626235485,-0.2441406100988388,0.3967284858226776,80.0,1159603.0,1.0
1212953.7252831,289075.46875,299037.65625,315127.4375,296074.53125,312018.84375,302238.25,299107.3125,305427.3125,-0.033203125,0.995361328125,-0.068115234375,-0.03051757626235485,-0.3356933295726776,0.4272460639476776,80.0,1159604.0,1.0
1212953.7276801,289108.75,298944.21875,315007.875,296112.78125,312380.125,302459.53125,299015.84375,305808.8125,-0.033203125,0.994873046875,-0.067138671875,0.03051757626235485,-0.3051757514476776,0.3051757514476776,80.0,1159605.0,1.0
1212953.7277087,289172.9375,297302.53125,314538.3125,296140.59375,311483.5625,300420.59375,297958.4375,304352.1875,-0.036865234375,0.99462890625,-0.0673828125,-0.1220703050494194,-0.3662109076976776,0.3356933295726776,80.0,1159606.0,1.0
1212953.7333342,289153.8125,296340.6875,314336.09375,296044.03125,310516.09375,298887.90625,297367.4375,302974.4375,-0.035400390625,0.9912109375,-0.066162109375,0.03051757626235485,-0.3356933295726776,0.3051757514476776,80.0,1159607.0,1.0
1212953.7422064,289102.03125,297422.53125,314711.15625,296025.09375,310855.03125,300024.625,298090.5625,303662.59375,-0.03515625,0.993896484375,-0.06787109375,0.0915527269244194,-0.3967284858226776,0.3356933295726776,80.0,1159608.0,1.0
1212953.746547,289070.03125,299022.09375,315118.3125,296068.90625,312010.53125,302229.5625,299103.0,305426.6875,-0.033935546875,0.9931640625,-0.069091796875,0.03051757626235485,-0.3662109076976776,0.3662109076976776,80.0,1159609.0,1.0
1212953.7465975,289110.0,298935.28125,315002.25,296105.375,312375.375,302452.5625,299006.1875,305807.71875,-0.0361328125,0.991943359375,-0.069580078125,0.0915527269244194,-0.4577636420726776,0.3662109076976776,80.0,1159610.0,1.0
1212953.7548437,289176.96875,297293.9375,314535.1875,296131.125,311479.09375,300410.6875,297949.5625,304344.5,-0.035400390625,0.990966796875,-0.068115234375,0.03051757626235485,-0.4577636420726776,0.3662109076976776,80.0,1159611.0,1.0
1212953.7590763,289163.71875,296339.625,314342.53125,296042.875,310514.375,298880.03125,297369.21875,302965.84375,-0.03564453125,0.990966796875,-0.069091796875,0.0915527269244194,-0.4577636420726776,0.3967284858226776,80.0,1159612.0,1.0
1212953.7591204,289115.0,297428.5,314724.5625,296029.8125,310857.96875,300020.6875,298098.0625,303658.9375,-0.03857421875,0.9912109375,-0.068115234375,0.1525878757238388,-0.3967284858226776,0.3662109076976776,80.0,1159613.0,1.0
1212953.7728347,289081.90625,299029.0625,315129.75,296072.65625,312014.625,302224.5625,299107.84375,305420.875,-0.0390625,0.990234375,-0.068603515625,0.1525878757238388,-0.5187987685203552,0.4272460639476776,80.0,1159614.0,1.0
1212953.772879,289120.0,298945.46875,315016.46875,296113.40625,312385.75,302453.375,299016.09375,305806.125,-0.038330078125,0.99169921875,-0.071044921875,0.1220703050494194,-0.5493163466453552,0.3967284858226776,80.0,1159615.0,1.0
1212953.7751386,289184.75,297304.40625,314548.875,296141.40625,311490.78125,300413.90625,297954.3125,304343.96875,-0.03759765625,0.9912109375,-0.070068359375,0.1525878757238388,-0.6408690810203552,0.3662109076976776,80.0,1159616.0,1.0
1212953.7751817,289168.1875,296345.4375,314350.125,296049.59375,310523.40625,298880.3125,297366.71875,302960.84375,-0.036865234375,0.99169921875,-0.068603515625,0.1831054538488388,-0.7324218153953552,0.4882812201976776,80.0,1159617.0,1.0
1212953.7823704,289113.65625,297426.4375,314723.84375,296023.46875,310852.96875,300010.3125,298085.65625,303640.9375,-0.03759765625,0.990234375,-0.071044921875,0.2136230319738388,-0.7324218153953552,0.4272460639476776,80.0,1159618.0,1.0
1212953.7846982,289077.71875,299025.9375,315125.5625,296065.78125,312008.71875,302215.625,299094.4375,305405.21875,-0.03857421875,0.990478515625,-0.06982421875,0.3051757514476776,-0.7629393935203552,0.3662109076976776,80.0,1159619.0,1.0
1212953.7872994,289120.0,298943.6875,315015.84375,296113.96875,312382.8125,302449.78125,299007.625,305796.1875,-0.03857421875,0.99365234375,-0.0673828125,0.3967284858226776,-0.7629393935203552,0.2746581733226776,80.0,1159620.0,1.0
1212953.7965854,289194.9375,297312.1875,314557.71875,296149.71875,311492.40625,300420.34375,297956.1875,304345.46875,-0.039306640625,0.9931640625,-0.066162109375,0.2441406100988388,-0.8850097060203552,0.3967284858226776,80.0,1159621.0,1.0
1212953.7966297,289167.125,296347.9375,314348.5,296051.46875,310520.8125,298880.375,297361.28125,302959.59375,-0.037353515625,0.9921875,-0.06640625,0.2441406100988388,-0.9155272841453552,0.3662109076976776,80.0,1159622.0,1.0
1212953.7990365,289108.125,297424.5,314719.8125,296031.0625,310855.375,300014.875,298086.90625,303646.125,-0.037353515625,0.99169921875,-0.06689453125,0.2136230319738388,-1.0070799589157104,0.2746581733226776,80.0,1159623.0,1.0
1212953.7990873,289073.34375,299022.90625,315121.0625,296073.09375,312006.75,302218.65625,299099.25,305409.15625,-0.03564453125,0.99267578125,-0.069580078125,0.1525878757238388,-0.9155272841453552,0.3967284858226776,80.0,1159624.0,1.0
1212953.8060042,289106.25,298935.03125,314998.78125,296108.78125,312373.5,302444.96875,299002.6875,305792.53125,-0.03515625,0.991943359375,-0.068359375,0.1831054538488388,-0.9765624403953552,0.3967284858226776,80.0,1159625.0,1.0
1212953.8153196,289177.21875,297301.0,314538.40625,296144.90625,311487.84375,300414.53125,297955.75,304345.75,-0.035400390625,0.991943359375,-0.069580078125,0.1831054538488388,-1.0070799589157104,0.4272460639476776,80.0,1159626.0,1.0
1212953.8153627,289160.78125,296340.875,314340.5625,296058.71875,310529.59375,298884.84375,297371.375,302972.09375,-0.035400390625,0.9931640625,-0.06982421875,0.2136230319738388,-0.9765624403953552,0.3051757514476776,80.0,1159627.0,1.0
1212953.8173157,289118.84375,297433.5,314727.40625,296050.84375,310877.1875,300026.84375,298104.0625,303665.53125,-0.03466796875,0.992431640625,-0.06884765625,0.2441406100988388,-1.0375975370407104,0.2746581733226776,80.0,1159628.0,1.0
1212953.8259673,289084.78125,299035.34375,315132.96875,296088.5625,312026.15625,302228.78125,299118.3125,305424.96875,-0.0361328125,0.990966796875,-0.0673828125,0.2746581733226776,-1.0681151151657104,0.4272460639476776,80.0,1159629.0,1.0
1212953.8303487,289116.53125,298948.59375,315012.4375,296123.15625,312393.8125,302458.09375,299023.875,305809.34375,-0.035888671875,0.993408203125,-0.068603515625,0.1525878757238388,-1.0375975370407104,0.4272460639476776,80.0,1159630.0,1.0
1212953.8303928,289190.1875,297314.59375,314553.6875,296159.09375,311512.15625,300433.46875,297973.71875,304363.375,-0.035888671875,0.9931640625,-0.07080078125,0.1831054538488388,-1.0681151151657104,0.3356933295726776,80.0,1159631.0,1.0
1212953.8334092,289181.96875,296362.78125,314361.125,296074.625,310556.21875,298908.90625,297394.53125,302989.90625,-0.03662109375,0.994873046875,-0.070068359375,0.1525878757238388,-1.0986326932907104,0.3356933295726776,80.0,1159632.0,1.0
1212953.8478322,289122.5,297435.75,314729.90625,296049.125,310884.96875,300031.59375,298102.1875,303664.375,-0.03662109375,0.995361328125,-0.068115234375,0.2441406100988388,-1.0375975370407104,0.3051757514476776,80.0,1159633.0,1.0
1212953.8478757,289082.28125,299026.46875,315127.875,296082.5625,312029.28125,302222.78125,299103.0,305416.84375,-0.036865234375,0.995849609375,-0.0673828125,0.1525878757238388,-1.0375975370407104,0.2441406100988388,80.0,1159634.0,1.0
1212953.8504794,289116.53125,298939.5625,315009.5,296116.28125,312392.5625,302449.15625,299008.96875,305798.625,-0.03662109375,0.994384765625,-0.0673828125,0.1831054538488388,-1.0681151151657104,0.2746581733226776,80.0,1159635.0,1.0
1212953.850525,289186.34375,297306.375,314543.15625,296146.875,311499.46875,300414.34375,297952.25,304343.25,-0.03515625,0.996826171875,-0.070556640625,0.2136230319738388,-1.0681151151657104,0.2441406100988388,80.0,1159636.0,1.0
1212953.8615928,289173.75,296350.09375,314347.0,296063.1875,310542.375,298885.125,297366.375,302967.28125,-0.035400390625,0.99365234375,-0.068603515625,0.2136230319738388,-0.9765624403953552,0.3051757514476776,80.0,1159637.0,1.0
1212953.8616387,289116.6875,297426.0,314720.96875,296040.90625,310870.59375,300010.84375,298087.4375,303646.3125,-0.036376953125,0.99560546875,-0.070556640625,0.0915527269244194,-0.9155272841453552,0.3662109076976776,80.0,1159638.0,1.0
1212953.8753617,289079.6875,299023.0,315121.78125,296077.46875,312015.0,302210.96875,299100.0625,305404.5,-0.03662109375,0.994384765625,-0.0712890625,0.0915527269244194,-0.9155272841453552,0.3662109076976776,80.0,1159639.0,1.0
1212953.8754073,289119.65625,298942.53125,315006.375,296119.59375,312388.1875,302446.28125,299009.5,305795.03125,-0.036376953125,0.990966796875,-0.067138671875,0.0,-0.9765624403953552,0.3051757514476776,80.0,1159640.0,1.0
1212953.8821192,289187.0625,297308.875,314540.1875,296144.8125,311495.96875,300409.59375,297946.875,304334.65625,-0.037353515625,0.992431640625,-0.067138671875,-0.0610351525247097,-0.8850097060203552,0.3967284858226776,80.0,1159641.0,1.0
1212953.8821697,289171.0625,296349.625,314344.5,296055.21875,310537.1875,298878.5,297363.15625,302956.28125,-0.0361328125,0.990966796875,-0.06640625,0.03051757626235485,-0.8544921278953552,0.4577636420726776,80.0,1159642.0,1.0
1212953.8821856,289112.125,297422.6875,314716.96875,296033.3125,310869.34375,300005.40625,298081.96875,303636.3125,-0.03515625,0.990478515625,-0.066162109375,0.0,-0.8850097060203552,0.4272460639476776,80.0,1159643.0,1.0
1212953.8879362,289081.21875,299029.96875,315126.09375,296076.40625,312022.59375,302213.40625,299100.6875,305401.375,-0.035888671875,0.991943359375,-0.069580078125,0.0,-0.9155272841453552,0.4882812201976776,80.0,1159644.0,1.0
1212953.8879818,289118.75,298952.53125,315012.28125,296118.15625,312400.59375,302457.03125,299015.75,305799.5,-0.0341796875,0.990234375,-0.0712890625,0.03051757626235485,-0.7934569716453552,0.5493163466453552,80.0,1159645.0,1.0
1212953.88975,289182.5,297311.65625,314541.53125,296144.0,311508.15625,300418.53125,297951.1875,304343.4375,-0.033203125,0.989990234375,-0.06982421875,0.0610351525247097,-0.7629393935203552,0.4882812201976776,80.0,1159646.0,1.0
1212953.9041056,289164.25,296347.125,314340.28125,296053.25,310540.75,298878.5,297360.75,302959.3125,-0.034912109375,0.99267578125,-0.0693359375,0.1831054538488388,-0.7324218153953552,0.5493163466453552,80.0,1159647.0,1.0
1212953.9041498,289109.375,297420.0,314714.90625,296029.5625,310865.3125,300002.28125,298082.96875,303638.8125,-0.0341796875,0.9921875,-0.07177734375,0.2441406100988388,-0.6103515028953552,0.5187987685203552,80.0,1159648.0,1.0
1212953.9108668,289085.75,299036.3125,315130.375,296081.3125,312031.625,302220.53125,299104.25,305416.3125,-0.035888671875,0.99267578125,-0.0732421875,0.2441406100988388,-0.6103515028953552,0.5798339247703552,80.0,1159649.0,1.0
1212953.9109085,289117.59375,298952.28125,315011.5625,296117.8125,312404.34375,302458.375,299014.3125,305808.90625,-0.03515625,0.992919921875,-0.07275390625,0.2441406100988388,-0.5798339247703552,0.5187987685203552,80.0,1159650.0,1.0
1212953.9109197,289188.125,297318.28125,314547.4375,296148.90625,311517.4375,300429.1875,297963.25,304358.25,-0.034423828125,0.9951171875,-0.0732421875,0.2441406100988388,-0.5798339247703552,0.4577636420726776,80.0,1159651.0,1.0
1212953.9141418,289175.53125,296356.96875,314351.1875,296061.5625,310556.03125,298894.34375,297378.1875,302979.0625,-0.033203125,0.994873046875,-0.073974609375,0.1831054538488388,-0.5187987685203552,0.5798339247703552,80.0,1159652.0,1.0
1212953.9141861,289112.0625,297422.6875,314716.5,296031.53125,310876.9375,300010.21875,298088.78125,303648.46875,-0.0322265625,0.99365234375,-0.072998046875,0.2136230319738388,-0.4272460639476776,0.5493163466453552,80.0,1159653.0,1.0
1212953.9247569,289078.4375,299027.65625,315121.0,296075.96875,312032.25,302219.90625,299102.9375,305416.125,-0.0322265625,0.992919921875,-0.072998046875,0.3051757514476776,-0.3051757514476776,0.6408690810203552,80.0,1159654.0,1.0
1212953.9390813,289111.875,298941.28125,315002.34375,296112.875,312404.0,302456.84375,299014.3125,305808.4375,-0.03173828125,0.9912109375,-0.0732421875,0.3051757514476776,-0.3051757514476776,0.6408690810203552,80.0,1159655.0,1.0
1212953.9391251,289179.28125,297308.0,314536.71875,296138.8125,311513.6875,300421.6875,297952.0,304350.5625,-0.03173828125,0.988525390625,-0.073974609375,0.3662109076976776,-0.2441406100988388,0.6713866591453552,80.0,1159656.0,1.0
1212953.9415784,289170.0,296348.21875,314341.90625,296049.5,310544.5,298882.53125,297364.3125,302964.59375,-0.031494140625,0.989501953125,-0.072021484375,0.4882812201976776,-0.1525878757238388,0.6103515028953552,80.0,1159657.0,1.0
1212953.9416223,289115.96875,297418.75,314716.875,296028.5625,310871.65625,300007.1875,298083.5,303639.96875,-0.0322265625,0.991455078125,-0.0732421875,0.5187987685203552,-0.0915527269244194,0.6103515028953552,80.0,1159658.0,1.0
1212953.9437081,289083.4375,299027.8125,315125.1875,296073.0,312027.78125,302217.0625,299097.375,305406.46875,-0.03369140625,0.991455078125,-0.071044921875,0.4882812201976776,-0.0610351525247097,0.6408690810203552,80.0,1159659.0,1.0
1212953.9460354,289120.8125,298950.3125,315009.9375,296113.25,312403.375,302454.96875,299011.46875,305802.625,-0.033935546875,0.991943359375,-0.070556640625,0.4882812201976776,-0.1220703050494194,0.6408690810203552,80.0,1159660.0,1.0
1212953.9497394,289185.28125,297311.375,314542.0,296138.375,311509.46875,300418.71875,297952.4375,304346.5625,-0.03515625,0.992919921875,-0.067138671875,0.3356933295726776,-0.03051757626235485,0.6408690810203552,80.0,1159661.0,1.0
1212953.96404,289168.90625,296342.5625,314342.53125,296049.84375,310543.15625,298881.5625,297362.09375,302961.71875,-0.037109375,0.992431640625,-0.069580078125,0.2441406100988388,-0.03051757626235485,0.7019042372703552,80.0,1159662.0,1.0
1212953.9640828,289115.1875,297413.9375,314716.6875,296029.125,310873.25,300007.28125,298078.5,303637.65625,-0.03759765625,0.990966796875,-0.07080078125,0.2441406100988388,-0.0915527269244194,0.6713866591453552,80.0,1159663.0,1.0
1212953.9666833,289085.5,299028.0,315128.6875,296075.5,312034.40625,302221.4375,299100.25,305407.1875,-0.036376953125,0.989990234375,-0.0712890625,0.2136230319738388,-0.0610351525247097,0.6713866591453552,80.0,1159664.0,1.0
1212953.9667284,289119.125,298949.78125,315012.0,296112.71875,312406.59375,302457.375,299007.4375,305798.0625,-0.03564453125,0.989501953125,-0.069580078125,0.2441406100988388,-0.1525878757238388,0.6103515028953552,80.0,1159665.0,1.0
1212953.9685008,289177.75,297309.25,314539.84375,296133.53125,311512.6875,300420.6875,297945.71875,304340.5625,-0.036865234375,0.98828125,-0.0732421875,0.1831054538488388,-0.2746581733226776,0.6103515028953552,80.0,1159666.0,1.0
1212953.9722488,289165.875,296351.59375,314347.875,296051.71875,310556.40625,298890.40625,297367.71875,302967.28125,-0.0390625,0.987548828125,-0.068115234375,0.2441406100988388,-0.1831054538488388,0.5187987685203552,80.0,1159667.0,1.0
1212953.9858151,289106.25,297421.625,314717.0625,296026.78125,310879.625,300008.78125,298080.09375,303636.75,-0.03857421875,0.991943359375,-0.071533203125,0.3967284858226776,-0.2746581733226776,0.3967284858226776,80.0,1159668.0,1.0
1212953.9941291,289074.5,299022.53125,315122.15625,296068.1875,312032.25,302216.53125,299092.71875,305399.21875,-0.036865234375,0.99169921875,-0.0712890625,0.3967284858226776,-0.3356933295726776,0.4882812201976776,80.0,1159669.0,1.0
1212953.994173,289110.53125,298940.5625,315006.1875,296103.6875,312398.0,302452.71875,299003.875,305786.0,-0.0380859375,0.992431640625,-0.073974609375,0.4272460639476776,-0.3662109076976776,0.4577636420726776,80.0,1159670.0,1.0
1212953.9959443,289181.53125,297311.125,314543.34375,296134.0625,311507.875,300422.03125,297952.53125,304332.78125,-0.037109375,0.992919921875,-0.07470703125,0.3967284858226776,-0.3967284858226776,0.3967284858226776,80.0,1159671.0,1.0
1212953.9985241,289174.625,296355.625,314351.1875,296052.28125,310548.96875,298889.96875,297371.46875,302958.15625,-0.04052734375,0.995849609375,-0.073974609375,0.3356933295726776,-0.4882812201976776,0.4577636420726776,80.0,1159672.0,1.0
1212954.0009448,289125.8125,297431.09375,314730.0,296036.34375,310877.375,300011.65625,298088.34375,303637.65625,-0.04052734375,0.997314453125,-0.07373046875,0.2136230319738388,-0.6408690810203552,0.4272460639476776,80.0,1159673.0,1.0
1212954.0036184,289084.34375,299027.8125,315129.21875,296076.6875,312029.03125,302214.03125,299098.625,305400.65625,-0.0419921875,0.999267578125,-0.072265625,0.2136230319738388,-0.7324218153953552,0.2746581733226776,80.0,1159674.0,1.0
1212954.0340794,289113.9375,298942.34375,315010.5625,296104.40625,312387.71875,302446.65625,299006.09375,305784.65625,-0.041259765625,0.999755859375,-0.070068359375,0.0915527269244194,-0.8544921278953552,0.2441406100988388,80.0,1159675.0,1.0
1212954.0341234,289187.59375,297313.625,314554.6875,296143.1875,311503.125,300424.8125,297957.25,304342.34375,-0.041015625,1.000244140625,-0.071533203125,-0.0915527269244194,-0.8850097060203552,0.1525878757238388,80.0,1159676.0,1.0
1212954.0359683,289174.71875,296351.4375,314355.5625,296062.1875,310539.78125,298891.75,297374.59375,302965.46875,-0.0419921875,1.001220703125,-0.071044921875,-0.2441406100988388,-1.0986326932907104,0.1220703050494194,80.0,1159677.0,1.0
1212954.0384465,289119.03125,297421.8125,314726.4375,296038.59375,310866.8125,300011.65625,298092.53125,303636.75,-0.04345703125,1.001220703125,-0.072265625,-0.3356933295726776,-1.1596678495407104,0.0915527269244194,80.0,1159678.0,1.0
1212954.041055,289082.90625,299021.125,315128.84375,296075.4375,312010.78125,302212.125,299097.125,305393.875,-0.043212890625,0.9990234375,-0.070068359375,-0.3967284858226776,-1.2512205839157104,0.0610351525247097,80.0,1159679.0,1.0
1212954.0435718,289116.78125,298948.25,315011.1875,296115.03125,312384.0625,302456.125,299009.125,305790.03125,-0.039306640625,1.0009765625,-0.069091796875,-0.5798339247703552,-1.3122557401657104,0.0610351525247097,80.0,1159680.0,1.0
1212954.0459533,289182.78125,297316.9375,314547.09375,296146.0625,311496.875,300429.28125,297958.25,304343.78125,-0.03466796875,0.9990234375,-0.07080078125,-0.5798339247703552,-1.3732908964157104,0.0610351525247097,80.0,1159681.0,1.0
1212954.0485076,289167.5625,296350.96875,314347.625,296060.40625,310537.0,298893.625,297371.8125,302969.6875,-0.033203125,0.99853515625,-0.071044921875,-0.7324218153953552,-1.3427733182907104,0.0915527269244194,80.0,1159682.0,1.0
1212954.0511315,289114.71875,297423.9375,314720.90625,296042.875,310867.8125,300017.90625,298092.0,303645.78125,-0.031982421875,0.99853515625,-0.071044921875,-0.7934569716453552,-1.3122557401657104,0.1525878757238388,80.0,1159683.0,1.0
1212954.0534989,289080.125,299025.125,315124.46875,296084.71875,312022.84375,302226.4375,299108.1875,305410.9375,-0.02978515625,0.99658203125,-0.071044921875,-0.8239745497703552,-1.1291502714157104,0.2136230319738388,80.0,1159684.0,1.0
1212954.0560163,289113.75,298945.5625,315007.25,296117.8125,312392.28125,302464.09375,299015.65625,305800.125,-0.02783203125,0.996826171875,-0.072021484375,-0.8544921278953552,-1.0681151151657104,0.2746581733226776,80.0,1159685.0,1.0
1212954.0585112,289183.21875,297310.59375,314545.21875,296150.15625,311503.40625,300437.3125,297961.375,304347.71875,-0.02978515625,0.9970703125,-0.072021484375,-0.9155272841453552,-0.9460448622703552,0.3967284858226776,80.0,1159686.0,1.0
1212954.0666541,289171.5,296346.875,314348.78125,296068.625,310543.15625,298901.40625,297378.875,302968.0,-0.02978515625,0.990966796875,-0.067138671875,-1.0070799589157104,-0.8850097060203552,0.4882812201976776,80.0,1159687.0,1.0
1212954.0667015,289119.90625,297422.25,314724.28125,296051.46875,310870.84375,300023.53125,298099.96875,303643.71875,-0.029296875,0.989501953125,-0.06787109375,-1.0070799589157104,-0.7629393935203552,0.6103515028953552,80.0,1159688.0,1.0
1212954.0685221,289088.625,299027.71875,315131.53125,296093.9375,312021.78125,302229.9375,299116.6875,305409.59375,-0.02734375,0.989501953125,-0.069580078125,-0.9765624403953552,-0.7324218153953552,0.7934569716453552,80.0,1159689.0,1.0
1212954.0710009,289129.125,298956.03125,315019.0625,296131.21875,312394.53125,302472.84375,299026.9375,305801.75,-0.029541015625,0.9873046875,-0.06982421875,-0.8544921278953552,-0.5187987685203552,0.8544921278953552,80.0,1159690.0,1.0
1212954.0740422,289197.25,297325.0625,314553.25,296161.0625,311507.0625,300445.1875,297973.25,304349.15625,-0.033203125,0.98681640625,-0.069580078125,-0.7629393935203552,-0.3967284858226776,0.8544921278953552,80.0,1159691.0,1.0
1212954.0740857,289179.5625,296359.90625,314354.59375,296073.71875,310543.4375,298906.6875,297387.65625,302967.53125,-0.033203125,0.98681640625,-0.072021484375,-0.6103515028953552,-0.3051757514476776,0.8239745497703552,80.0,1159692.0,1.0
1212954.0823833,289120.375,297418.40625,314720.625,296048.96875,310864.9375,300020.40625,298099.0625,303635.3125,-0.03369140625,0.98779296875,-0.068359375,-0.7324218153953552,-0.2441406100988388,0.8544921278953552,80.0,1159693.0,1.0
1212954.0853587,289083.96875,299015.65625,315121.875,296086.78125,312011.9375,302222.40625,299107.75,305396.8125,-0.032958984375,0.989013671875,-0.06884765625,-0.6713866591453552,-0.1220703050494194,0.9460448622703552,80.0,1159694.0,1.0
1212954.0854042,289119.90625,298942.78125,315007.09375,296125.125,312383.875,302464.8125,299020.3125,305790.5625,-0.034423828125,0.9892578125,-0.06640625,-0.6713866591453552,-0.03051757626235485,0.8544921278953552,80.0,1159695.0,1.0
1212954.0872579,289186.71875,297311.5625,314540.375,296153.9375,311494.65625,300434.28125,297964.0625,304340.75,-0.031494140625,0.988037109375,-0.06640625,-0.5493163466453552,-0.03051757626235485,0.9155272841453552,80.0,1159696.0,1.0
1212954.1010099,289172.40625,296352.3125,314345.03125,296071.9375,310533.53125,298896.5625,297380.84375,302961.09375,-0.03173828125,0.9873046875,-0.06787109375,-0.5187987685203552,0.0,0.8239745497703552,80.0,1159697.0,1.0
1212954.1041838,289117.3125,297418.6875,314716.875,296055.21875,310862.34375,300015.0625,298093.4375,303633.53125,-0.03173828125,0.9892578125,-0.0673828125,-0.5187987685203552,0.0610351525247097,0.8544921278953552,80.0,1159698.0,1.0
1212954.1042498,289082.375,299023.71875,315121.53125,296091.96875,312010.15625,302221.15625,299102.75,305394.40625,-0.031982421875,0.9873046875,-0.0673828125,-0.3967284858226776,0.1220703050494194,0.7934569716453552,80.0,1159699.0,1.0
1212954.1059997,289116.34375,298949.5,315004.59375,296124.875,312381.1875,302464.34375,299014.84375,305788.25,-0.032958984375,0.98486328125,-0.066162109375,-0.3662109076976776,0.0915527269244194,0.7019042372703552,80.0,1159700.0,1.0
1212954.1084827,289185.625,297317.1875,314542.53125,296155.34375,311491.78125,300437.84375,297962.28125,304339.9375,-0.03369140625,0.9853515625,-0.06787109375,-0.3051757514476776,0.03051757626235485,0.6713866591453552,80.0,1159701.0,1.0
1212954.1222797,289163.46875,296338.1875,314337.5,296061.84375,310518.3125,298888.96875,297364.59375,302950.90625,-0.032958984375,0.9853515625,-0.069580078125,-0.2136230319738388,0.0,0.6408690810203552,80.0,1159702.0,1.0
1212954.1254685,289114.375,297411.0625,314716.0625,296048.0625,310851.1875,300012.71875,298085.28125,303631.65625,-0.03466796875,0.98681640625,-0.06982421875,-0.2136230319738388,0.0610351525247097,0.6103515028953552,80.0,1159703.0,1.0
1212954.125513,289081.28125,299018.15625,315121.15625,296087.3125,312000.78125,302220.90625,299103.46875,305396.71875,-0.033447265625,0.989013671875,-0.0712890625,-0.1220703050494194,0.0,0.5493163466453552,80.0,1159704.0,1.0
1212954.1272424,289112.9375,298944.6875,315005.125,296122.53125,312371.90625,302464.96875,299014.40625,305790.9375,-0.0361328125,0.991943359375,-0.06787109375,-0.1525878757238388,-0.0610351525247097,0.4577636420726776,80.0,1159705.0,1.0
1212954.1297386,289182.0625,297312.375,314543.0625,296158.46875,311490.78125,300437.84375,297958.5,304346.1875,-0.0380859375,0.992431640625,-0.068359375,0.0,-0.1220703050494194,0.3662109076976776,80.0,1159706.0,1.0
1212954.1435906,289159.875,296337.375,314339.03125,296067.90625,310519.3125,298889.59375,297362.875,302955.75,-0.0380859375,0.993408203125,-0.0634765625,-0.03051757626235485,-0.2441406100988388,0.3967284858226776,80.0,1159707.0,1.0
1212954.1472621,289110.875,297411.53125,314714.625,296052.34375,310849.21875,300011.125,298083.3125,303630.84375,-0.038330078125,0.9931640625,-0.065185546875,-0.0610351525247097,-0.3356933295726776,0.3356933295726776,80.0,1159708.0,1.0
1212954.1473055,289070.65625,299014.15625,315115.28125,296086.34375,311999.625,302215.90625,299092.46875,305391.0,-0.03955078125,0.992919921875,-0.069091796875,-0.0915527269244194,-0.2746581733226776,0.1831054538488388,80.0,1159709.0,1.0
1212954.1473177,289104.09375,298943.0625,315001.4375,296118.6875,312373.0625,302463.03125,299007.71875,305787.0,-0.04052734375,0.994140625,-0.06884765625,-0.03051757626235485,-0.3662109076976776,0.0915527269244194,80.0,1159710.0,1.0
1212954.1497228,289175.15625,297315.0625,314541.28125,296149.1875,311487.40625,300440.09375,297957.25,304341.0,-0.04052734375,0.994384765625,-0.070068359375,-0.0915527269244194,-0.5187987685203552,0.1220703050494194,80.0,1159711.0,1.0
1212954.1534821,289156.84375,296342.40625,314338.3125,296058.25,310518.3125,298895.40625,297362.09375,302953.6875,-0.0380859375,0.994384765625,-0.06787109375,-0.0915527269244194,-0.6408690810203552,0.0915527269244194,80.0,1159712.0,1.0
1212954.1678133,289106.3125,297413.75,314715.09375,296042.4375,310847.4375,300014.78125,298080.8125,303628.0625,-0.039794921875,0.9951171875,-0.069580078125,-0.1525878757238388,-0.6713866591453552,-0.03051757626235485,80.0,1159713.0,1.0
1212954.1678566,289074.78125,299021.5625,315123.03125,296085.09375,312000.6875,302225.71875,299098.0,305393.78125,-0.037353515625,0.995849609375,-0.06884765625,-0.2136230319738388,-0.7934569716453552,0.0610351525247097,80.0,1159714.0,1.0
1212954.1703957,289108.21875,298950.5625,315006.5625,296118.59375,312376.46875,302474.28125,299012.34375,305792.1875,-0.0380859375,0.994873046875,-0.06689453125,-0.2136230319738388,-0.8239745497703552,0.1831054538488388,80.0,1159715.0,1.0
1212954.1704318,289182.0625,297324.4375,314549.0625,296154.09375,311497.40625,300454.125,297964.25,304352.0,-0.037353515625,0.9970703125,-0.069580078125,-0.2136230319738388,-0.9155272841453552,0.1525878757238388,80.0,1159716.0,1.0
1212954.1772936,289165.78125,296351.15625,314348.5,296064.25,310529.5,298905.78125,297370.75,302964.15625,-0.037109375,0.996826171875,-0.070556640625,-0.2441406100988388,-0.8544921278953552,0.2441406100988388,80.0,1159717.0,1.0
1212954.1797583,289107.03125,297410.09375,314713.84375,296038.21875,310851.53125,300010.75,298075.53125,303626.46875,-0.036376953125,0.996826171875,-0.068359375,-0.3356933295726776,-0.9155272841453552,0.3967284858226776,80.0,1159718.0,1.0
1212954.1841043,289073.875,299018.875,315120.1875,296079.625,312007.46875,302218.84375,299092.5625,305393.15625,-0.03564453125,0.998291015625,-0.069091796875,-0.3356933295726776,-1.0681151151657104,0.3662109076976776,80.0,1159719.0,1.0
1212954.1841482,289113.3125,298951.65625,315012.96875,296123.875,312392.03125,302478.65625,299019.78125,305803.15625,-0.035400390625,0.99755859375,-0.0693359375,-0.2746581733226776,-1.0681151151657104,0.3051757514476776,80.0,1159720.0,1.0
1212954.1898746,289175.8125,297314.25,314541.375,296147.5625,311499.375,300446.1875,297955.90625,304351.75,-0.03515625,0.996337890625,-0.069580078125,-0.3662109076976776,-0.9460448622703552,0.4272460639476776,80.0,1159721.0,1.0
1212954.2008248,289161.21875,296346.5,314339.125,296059.5,310527.96875,298893.71875,297357.15625,302961.5625,-0.0361328125,0.9931640625,-0.070068359375,-0.3662109076976776,-1.0681151151657104,0.5187987685203552,80.0,1159722.0,1.0
1212954.2096949,289109.90625,297416.875,314714.46875,296044.9375,310855.03125,300007.0,298072.875,303630.75,-0.038818359375,0.99365234375,-0.068359375,-0.4577636420726776,-1.0681151151657104,0.4577636420726776,80.0,1159723.0,1.0
1212954.2097382,289072.8125,299021.46875,315116.0625,296081.9375,312005.5,302213.3125,299083.15625,305390.65625,-0.035888671875,0.993896484375,-0.069091796875,-0.4577636420726776,-1.1596678495407104,0.6408690810203552,80.0,1159724.0,1.0
1212954.2097503,289107.03125,298951.125,315001.90625,296117.34375,312383.53125,302467.65625,299004.75,305790.5625,-0.036376953125,0.99267578125,-0.065185546875,-0.5187987685203552,-1.1596678495407104,0.5798339247703552,80.0,1159725.0,1.0
1212954.2128532,289176.6875,297321.75,314540.8125,296148.8125,311499.8125,300447.96875,297958.34375,304345.9375,-0.037353515625,0.989990234375,-0.06689453125,-0.4577636420726776,-1.1291502714157104,0.6103515028953552,80.0,1159726.0,1.0
1212954.2128972,289165.96875,296351.4375,314342.96875,296064.78125,310538.0625,298906.125,297371.09375,302963.6875,-0.038330078125,0.992919921875,-0.0693359375,-0.3662109076976776,-1.1901854276657104,0.5798339247703552,80.0,1159727.0,1.0
1212954.2209638,289110.4375,297417.78125,314713.375,296041.0,310860.5625,300018.09375,298085.03125,303630.9375,-0.03759765625,0.991943359375,-0.0712890625,-0.3356933295726776,-1.2207030057907104,0.5798339247703552,80.0,1159728.0,1.0
1212954.2253476,289066.53125,299017.28125,315111.6875,296070.25,312005.59375,302220.28125,299091.3125,305387.875,-0.0380859375,0.9931640625,-0.072509765625,-0.2746581733226776,-1.1291502714157104,0.6103515028953552,80.0,1159729.0,1.0
1212954.2253919,289096.9375,298938.9375,314994.46875,296103.75,312380.84375,302469.8125,299003.6875,305787.15625,-0.038818359375,0.99267578125,-0.068115234375,-0.2746581733226776,-1.1291502714157104,0.5493163466453552,80.0,1159730.0,1.0
1212954.2310081,289173.03125,297314.25,314538.15625,296141.0625,311500.90625,300449.40625,297957.34375,304348.59375,-0.038818359375,0.991455078125,-0.067138671875,-0.2136230319738388,-1.1291502714157104,0.4577636420726776,80.0,1159731.0,1.0
1212954.2453732,289159.0625,296343.8125,314336.625,296054.59375,310528.40625,298899.6875,297363.875,302958.96875,-0.037841796875,0.99072265625,-0.064208984375,-0.2441406100988388,-1.2207030057907104,0.4882812201976776,80.0,1159732.0,1.0
1212954.2454193,289101.3125,297404.09375,314706.59375,296034.125,310849.46875,300008.625,298075.375,303623.34375,-0.037109375,0.99072265625,-0.064697265625,-0.2441406100988388,-1.2817381620407104,0.3662109076976776,80.0,1159733.0,1.0
1212954.2479635,289065.375,299006.625,315110.71875,296074.875,312000.875,302215.34375,299087.8125,305387.96875,-0.03271484375,0.988037109375,-0.066650390625,-0.3051757514476776,-1.2207030057907104,0.3356933295726776,80.0,1159734.0,1.0
1212954.2480081,289103.1875,298944.125,315000.75,296114.75,312382.28125,302470.78125,299008.875,305794.21875,-0.0322265625,0.98486328125,-0.068115234375,-0.3051757514476776,-1.1596678495407104,0.3967284858226776,80.0,1159735.0,1.0
1212954.2534275,289176.15625,297320.40625,314541.4375,296149.71875,311504.21875,300451.53125,297961.1875,304355.84375,-0.028564453125,0.98388671875,-0.07080078125,-0.3051757514476776,-1.0375975370407104,0.3051757514476776,80.0,1159736.0,1.0
1212954.2684439,289164.1875,296347.5625,314343.25,296066.5625,310538.875,298904.78125,297369.84375,302970.9375,-0.02978515625,0.98388671875,-0.071533203125,-0.0915527269244194,-0.9460448622703552,0.3051757514476776,80.0,1159737.0,1.0
1212954.2684866,289112.9375,297416.78125,314716.40625,296045.21875,310857.78125,300011.125,298079.65625,303634.875,-0.030029296875,0.98388671875,-0.070556640625,0.0915527269244194,-0.7019042372703552,0.3356933295726776,80.0,1159738.0,1.0
1212954.2684982,289071.90625,299010.28125,315116.4375,296079.4375,312005.96875,302217.3125,299091.03125,305394.125,-0.02880859375,0.98486328125,-0.0693359375,0.3356933295726776,-0.5798339247703552,0.4272460639476776,80.0,1159739.0,1.0
1212954.2710058,289112.0625,298946.8125,315008.15625,296119.9375,312393.1875,302480.625,299019.6875,305802.8125,-0.02880859375,0.987548828125,-0.069091796875,0.3662109076976776,-0.4882812201976776,0.3662109076976776,80.0,1159740.0,1.0
1212954.2741398,289183.5,297324.96875,314548.34375,296152.5,311514.84375,300461.28125,297970.59375,304361.125,-0.02734375,0.986328125,-0.06884765625,0.6408690810203552,-0.3662109076976776,0.4577636420726776,80.0,1159741.0,1.0
1212954.2741849,289166.15625,296347.5625,314343.15625,296059.6875,310536.90625,298903.28125,297363.96875,302961.1875,-0.02880859375,0.98828125,-0.06982421875,0.6103515028953552,-0.2136230319738388,0.5493163466453552,80.0,1159742.0,1.0
1212954.2797616,289114.28125,297412.78125,314716.34375,296041.34375,310858.0625,300012.28125,298076.875,303623.96875,-0.028076171875,0.98828125,-0.070556640625,0.6408690810203552,-0.2136230319738388,0.5798339247703552,80.0,1159743.0,1.0
1212954.2891028,289081.46875,299023.34375,315125.09375,296087.40625,312017.125,302227.15625,299098.53125,305393.5,-0.032958984375,0.989013671875,-0.06884765625,0.8239745497703552,-0.03051757626235485,0.6713866591453552,80.0,1159744.0,1.0
1212954.2891457,289109.625,298952.4375,315004.75,296116.46875,312388.8125,302475.8125,299007.625,305790.65625,-0.03564453125,0.990478515625,-0.068603515625,0.7934569716453552,-0.03051757626235485,0.6408690810203552,80.0,1159745.0,1.0
1212954.2916131,289174.90625,297319.34375,314537.25,296144.625,311502.25,300450.71875,297952.6875,304344.84375,-0.039306640625,0.990234375,-0.0693359375,0.7019042372703552,-0.1220703050494194,0.5798339247703552,80.0,1159746.0,1.0
1212954.2916565,289166.6875,296352.5,314342.25,296063.4375,310539.78125,298910.0625,297365.125,302963.78125,-0.040771484375,0.99169921875,-0.06982421875,0.7629393935203552,-0.03051757626235485,0.5187987685203552,80.0,1159747.0,1.0
1212954.2998708,289111.34375,297411.78125,314709.90625,296041.34375,310860.5625,300015.21875,298074.84375,303630.03125,-0.04345703125,0.992431640625,-0.0693359375,0.6713866591453552,-0.0915527269244194,0.3662109076976776,80.0,1159748.0,1.0
1212954.3026947,289067.96875,299009.21875,315105.15625,296072.75,312005.25,302214.375,299082.625,305387.4375,-0.04541015625,0.994140625,-0.0693359375,0.6713866591453552,-0.2136230319738388,0.2136230319738388,80.0,1159749.0,1.0
1212954.3027385,289099.4375,298940.65625,314994.65625,296108.875,312381.28125,302471.15625,299004.40625,305791.8125,-0.043701171875,0.99658203125,-0.07080078125,0.6408690810203552,-0.3662109076976776,0.1220703050494194,80.0,1159750.0,1.0
1212954.3097908,289167.46875,297314.6875,314529.65625,296138.1875,311498.03125,300447.4375,297952.96875,304350.84375,-0.041259765625,0.99755859375,-0.070068359375,0.5187987685203552,-0.4577636420726776,0.0610351525247097,80.0,1159751.0,1.0
1212954.3122652,289152.8125,296335.6875,314327.59375,296052.0,310530.65625,298897.28125,297360.65625,302963.875,-0.039306640625,0.99609375,-0.07080078125,0.4272460639476776,-0.4882812201976776,0.0,80.0,1159752.0,1.0
1212954.3186173,289103.8125,297399.0,314702.28125,296032.875,310847.96875,300002.1875,298076.09375,303626.1875,-0.040283203125,0.99658203125,-0.0703125,0.2746581733226776,-0.6408690810203552,-0.0915527269244194,80.0,1159753.0,1.0
1212954.3228592,289072.96875,299012.34375,315113.46875,296078.65625,312002.125,302214.8125,299092.90625,305395.125,-0.038818359375,0.997314453125,-0.071533203125,0.3356933295726776,-0.5187987685203552,-0.1831054538488388,80.0,1159754.0,1.0
1212954.3229024,289097.9375,298940.5625,314996.53125,296111.8125,312379.15625,302470.875,299008.5,305799.25,-0.0390625,0.998291015625,-0.07275390625,0.2746581733226776,-0.6408690810203552,-0.1525878757238388,80.0,1159755.0,1.0
1212954.33101,289169.375,297312.0,314532.59375,296144.625,311496.875,300448.59375,297955.90625,304357.0,-0.035400390625,0.99755859375,-0.072509765625,0.1831054538488388,-0.6408690810203552,-0.1220703050494194,80.0,1159756.0,1.0
1212954.3353519,289161.3125,296337.9375,314335.09375,296060.59375,310528.96875,298899.25,297361.28125,302970.125,-0.03759765625,0.994384765625,-0.073486328125,0.1220703050494194,-0.5798339247703552,-0.0610351525247097,80.0,1159757.0,1.0
1212954.3353956,289109.53125,297399.71875,314710.875,296040.03125,310844.28125,300002.53125,298073.125,303630.59375,-0.036376953125,0.99365234375,-0.07373046875,0.0915527269244194,-0.4272460639476776,-0.0915527269244194,80.0,1159758.0,1.0
1212954.3411488,289078.625,299018.875,315122.34375,296082.21875,311993.34375,302215.53125,299093.0,305394.21875,-0.035888671875,0.9931640625,-0.070068359375,0.1831054538488388,-0.4577636420726776,0.0,80.0,1159759.0,1.0
1212954.3447496,289116.625,298965.6875,315016.125,296123.78125,312383.625,302481.0625,299021.28125,305808.625,-0.034423828125,0.9931640625,-0.070068359375,0.1831054538488388,-0.4577636420726776,0.1831054538488388,80.0,1159760.0,1.0
1212954.3535099,289186.4375,297330.53125,314551.46875,296158.125,311512.0,300461.46875,297967.375,304369.875,-0.035888671875,0.99267578125,-0.070556640625,0.1525878757238388,-0.4272460639476776,0.2136230319738388,80.0,1159761.0,1.0
1212954.3566078,289171.15625,296354.90625,314349.21875,296072.28125,310546.46875,298910.34375,297373.34375,302978.71875,-0.03564453125,0.994384765625,-0.06982421875,-0.03051757626235485,-0.4272460639476776,0.4577636420726776,80.0,1159762.0,1.0
1212954.3566517,289115.0,297413.5,314717.75,296046.8125,310856.1875,300009.96875,298084.3125,303632.46875,-0.03515625,0.99169921875,-0.073974609375,0.03051757626235485,-0.5187987685203552,0.5493163466453552,80.0,1159763.0,1.0
1212954.3623723,289077.09375,299019.25,315117.21875,296080.78125,311999.875,302214.5625,299093.34375,305391.28125,-0.03759765625,0.992919921875,-0.072509765625,-0.1220703050494194,-0.3662109076976776,0.5493163466453552,80.0,1159764.0,1.0
1212954.3690929,289109.09375,298952.71875,315002.96875,296116.625,312382.4375,302476.53125,299013.5,305799.6875,-0.038818359375,0.994140625,-0.073974609375,0.0,-0.4882812201976776,0.6103515028953552,80.0,1159765.0,1.0
1212954.3691371,289175.625,297320.9375,314540.5625,296151.34375,311508.0625,300463.25,297966.5625,304364.0625,-0.037353515625,0.99267578125,-0.073974609375,-0.0915527269244194,-0.3356933295726776,0.7324218153953552,80.0,1159766.0,1.0
1212954.3709955,289157.03125,296343.03125,314336.25,296057.4375,310532.71875,298907.3125,297368.78125,302966.375,-0.0380859375,0.993408203125,-0.0732421875,-0.0610351525247097,-0.3967284858226776,0.7324218153953552,80.0,1159767.0,1.0
1212954.3797566,289104.4375,297405.4375,314708.09375,296039.5625,310855.28125,300013.0,298080.1875,303629.40625,-0.03515625,0.991943359375,-0.073974609375,-0.03051757626235485,-0.4272460639476776,0.7934569716453552,80.0,1159768.0,1.0
1212954.3842134,289065.03125,299009.21875,315110.09375,296074.53125,312003.1875,302218.40625,299087.46875,305389.3125,-0.036865234375,0.9921875,-0.07177734375,-0.0915527269244194,-0.4577636420726776,0.8544921278953552,80.0,1159769.0,1.0
1212954.3842759,289100.78125,298948.6875,314999.40625,296113.25,312385.40625,302479.8125,299009.9375,305801.125,-0.035888671875,0.993408203125,-0.071044921875,-0.0610351525247097,-0.4272460639476776,0.8850097060203552,80.0,1159770.0,1.0
1212954.389724,289170.15625,297321.5,314535.8125,296145.96875,311502.5,300459.0625,297958.34375,304362.75,-0.0361328125,0.992431640625,-0.065185546875,-0.2136230319738388,-0.4882812201976776,0.9155272841453552,80.0,1159771.0,1.0
1212954.3966057,289156.21875,296343.46875,314337.15625,296058.96875,310531.1875,298907.03125,297363.34375,302971.46875,-0.03662109375,0.992919921875,-0.06884765625,-0.2136230319738388,-0.5493163466453552,0.9155272841453552,80.0,1159772.0,1.0
1212954.3966497,289106.0625,297403.5625,314712.21875,296041.1875,310850.71875,300008.625,298074.28125,303629.34375,-0.033447265625,0.991943359375,-0.069091796875,-0.1525878757238388,-0.4577636420726776,0.8850097060203552,80.0,1159773.0,1.0
1212954.3984651,289078.4375,299021.5625,315124.125,296086.0625,312009.1875,302224.125,299093.71875,305397.1875,-0.0341796875,0.991943359375,-0.069580078125,-0.0915527269244194,-0.4882812201976776,1.0070799589157104,80.0,1159774.0,1.0
1212954.4110757,289110.71875,298958.09375,315011.71875,296120.40625,312391.9375,302487.78125,299013.875,305804.96875,-0.031982421875,0.990478515625,-0.070556640625,-0.1831054538488388,-0.4272460639476776,1.0986326932907104,80.0,1159775.0,1.0
1212954.4141101,289175.34375,297324.34375,314547.71875,296145.25,311507.6875,300464.3125,297960.9375,304364.625,-0.036376953125,0.9912109375,-0.068359375,-0.3051757514476776,-0.4577636420726776,0.9460448622703552,80.0,1159776.0,1.0
1212954.4141529,289158.90625,296338.90625,314346.46875,296057.90625,310532.34375,298906.0625,297364.125,302969.875,-0.035400390625,0.9912109375,-0.070068359375,-0.3051757514476776,-0.5187987685203552,0.9460448622703552,80.0,1159777.0,1.0
1212954.4197667,289110.625,297405.875,314717.5,296040.65625,310850.90625,300007.0,298072.96875,303624.40625,-0.03564453125,0.990966796875,-0.07080078125,-0.3051757514476776,-0.5187987685203552,0.8544921278953552,80.0,1159778.0,1.0
1212954.4223167,289074.3125,299016.8125,315120.8125,296079.8125,312001.3125,302216.96875,299089.5,305388.84375,-0.03466796875,0.98974609375,-0.070556640625,-0.2441406100988388,-0.4577636420726776,0.7934569716453552,80.0,1159779.0,1.0
1212954.4248191,289105.25,298950.5625,315008.15625,296115.03125,312385.21875,302482.5,299016.375,305803.0,-0.034912109375,0.98974609375,-0.0712890625,-0.2136230319738388,-0.4577636420726776,0.7934569716453552,80.0,1159780.0,1.0
1212954.4285161,289175.15625,297322.28125,314546.8125,296146.875,311509.46875,300469.40625,297972.09375,304368.625,-0.0361328125,0.98779296875,-0.068603515625,-0.1525878757238388,-0.5187987685203552,0.7019042372703552,80.0,1159781.0,1.0
1212954.4323153,289156.125,296340.78125,314340.03125,296056.8125,310537.53125,298914.53125,297377.28125,302977.375,-0.0341796875,0.988037109375,-0.06884765625,-0.1525878757238388,-0.5187987685203552,0.5493163466453552,80.0,1159782.0,1.0
1212954.4516024,289101.84375,297400.15625,314707.125,296034.84375,310851.8125,300012.71875,298078.9375,303630.75,-0.033935546875,0.988525390625,-0.071044921875,-0.03051757626235485,-0.5798339247703552,0.5187987685203552,80.0,1159783.0,1.0
1212954.4516462,289067.53125,299010.28125,315115.28125,296073.625,311994.5,302217.3125,299088.875,305385.375,-0.03369140625,0.9912109375,-0.07080078125,-0.0610351525247097,-0.5187987685203552,0.5493163466453552,80.0,1159784.0,1.0
1212954.4535832,289097.5625,298943.15625,315002.875,296107.96875,312371.8125,302479.46875,299014.3125,305791.90625,-0.03515625,0.98974609375,-0.0712890625,-0.0610351525247097,-0.5493163466453552,0.5187987685203552,80.0,1159785.0,1.0
1212954.4560286,289167.40625,297315.3125,314539.21875,296139.875,311495.625,300462.09375,297965.5,304355.21875,-0.03369140625,0.98974609375,-0.072021484375,-0.1525878757238388,-0.6103515028953552,0.5187987685203552,80.0,1159786.0,1.0
1212954.4584637,289152.09375,296336.59375,314334.90625,296052.09375,310525.90625,298903.375,297361.625,302959.59375,-0.0341796875,0.992431640625,-0.073486328125,-0.1525878757238388,-0.6103515028953552,0.4882812201976776,80.0,1159787.0,1.0
1212954.46153,289101.59375,297398.28125,314708.8125,296033.5,310846.09375,300003.6875,298073.3125,303617.78125,-0.033203125,0.990234375,-0.0703125,-0.03051757626235485,-0.5798339247703552,0.4272460639476776,80.0,1159788.0,1.0
1212954.4615731,289068.5,299011.1875,315118.40625,296075.96875,312000.25,302217.5,299092.71875,305384.375,-0.03515625,0.990478515625,-0.06982421875,-0.0610351525247097,-0.5493163466453552,0.5187987685203552,80.0,1159789.0,1.0
1212954.4672694,289100.96875,298953.15625,315007.625,296114.84375,312384.6875,302483.75,299016.71875,305796.375,-0.034423828125,0.991943359375,-0.06982421875,-0.0610351525247097,-0.5493163466453552,0.3967284858226776,80.0,1159790.0,1.0
1212954.4716084,289174.53125,297334.4375,314551.28125,296152.9375,311512.625,300473.53125,297972.5625,304364.53125,-0.03662109375,0.99365234375,-0.068115234375,-0.03051757626235485,-0.5798339247703552,0.3662109076976776,80.0,1159791.0,1.0
1212954.4716521,289157.90625,296352.5,314344.5,296067.28125,310545.6875,298917.40625,297376.46875,302972.28125,-0.03564453125,0.993896484375,-0.071044921875,-0.2441406100988388,-0.5798339247703552,0.3967284858226776,80.0,1159792.0,1.0
1212954.4747852,289101.59375,297406.4375,314710.78125,296043.25,310856.53125,300009.40625,298080.90625,303620.3125,-0.03564453125,0.995849609375,-0.0703125,-0.2136230319738388,-0.6103515028953552,0.3662109076976776,80.0,1159793.0,1.0
1212954.489045,289062.25,299017.4375,315112.3125,296079.4375,312004.25,302218.21875,299093.96875,305381.15625,-0.037109375,0.996826171875,-0.071533203125,-0.3051757514476776,-0.6103515028953552,0.2746581733226776,80.0,1159794.0,1.0
1212954.4890856,289092.8125,298954.40625,314998.3125,296112.78125,312387.90625,302485.8125,299014.40625,305794.21875,-0.033935546875,0.997802734375,-0.07080078125,-0.3662109076976776,-0.6408690810203552,0.4577636420726776,80.0,1159795.0,1.0
1212954.490971,289162.03125,297320.40625,314532.34375,296141.21875,311508.59375,300470.3125,297963.96875,304358.90625,-0.03515625,0.998291015625,-0.067138671875,-0.4272460639476776,-0.6103515028953552,0.3662109076976776,80.0,1159796.0,1.0
1212954.4934624,289148.875,296338.28125,314326.6875,296049.21875,310535.9375,298910.59375,297366.46875,302960.65625,-0.035888671875,0.99755859375,-0.066650390625,-0.5187987685203552,-0.6103515028953552,0.3967284858226776,80.0,1159797.0,1.0
1212954.497227,289096.40625,297392.21875,314695.40625,296025.8125,310849.5625,300005.5,298069.375,303609.21875,-0.035888671875,0.9970703125,-0.068359375,-0.5493163466453552,-0.6103515028953552,0.3356933295726776,80.0,1159798.0,1.0
1212954.5113433,289068.6875,299009.5,315110.0,296071.03125,312006.84375,302222.6875,299088.78125,305377.9375,-0.0361328125,0.99462890625,-0.0673828125,-0.6713866591453552,-0.7629393935203552,0.3662109076976776,80.0,1159799.0,1.0
1212954.5113947,289107.59375,298958.4375,315009.0625,296116.46875,312405.78125,302501.46875,299023.875,305805.6875,-0.03466796875,0.9951171875,-0.069091796875,-0.7019042372703552,-0.9155272841453552,0.3662109076976776,80.0,1159800.0,1.0
1212954.5192104,289175.8125,297332.40625,314547.71875,296146.0625,311529.0625,300484.0,297973.34375,304371.0625,-0.033935546875,0.994140625,-0.0693359375,-0.7324218153953552,-0.8239745497703552,0.3662109076976776,80.0,1159801.0,1.0
1212954.5192557,289162.5625,296349.09375,314343.9375,296054.3125,310554.625,298920.09375,297371.5625,302971.46875,-0.03515625,0.992431640625,-0.06640625,-0.8544921278953552,-0.8239745497703552,0.3967284858226776,80.0,1159802.0,1.0
1212954.5210007,289111.15625,297394.09375,314710.34375,296029.03125,310858.78125,300004.5,298071.4375,303615.75,-0.03662109375,0.9921875,-0.06689453125,-0.8544921278953552,-0.7629393935203552,0.3967284858226776,80.0,1159803.0,1.0
1212954.5234707,289078.78125,299006.53125,315121.875,296073.71875,312012.125,302215.625,299092.65625,305386.71875,-0.037109375,0.99267578125,-0.069091796875,-0.8544921278953552,-0.6713866591453552,0.3967284858226776,80.0,1159804.0,1.0
1212954.525966,289114.5625,298952.90625,315016.5625,296112.71875,312399.96875,302486.09375,299020.125,305803.875,-0.035888671875,0.9931640625,-0.068603515625,-0.8544921278953552,-0.7019042372703552,0.4577636420726776,80.0,1159805.0,1.0
1212954.5298772,289186.34375,297327.9375,314555.75,296147.3125,311521.03125,300466.375,297966.75,304365.3125,-0.035888671875,0.99267578125,-0.064697265625,-0.8544921278953552,-0.7934569716453552,0.5187987685203552,80.0,1159806.0,1.0
1212954.5366049,289170.0,296339.96875,314349.6875,296063.09375,310550.78125,298905.78125,297367.53125,302969.25,-0.0361328125,0.993408203125,-0.069580078125,-0.8544921278953552,-0.8544921278953552,0.3967284858226776,80.0,1159807.0,1.0
1212954.536649,289112.9375,297391.40625,314714.46875,296040.90625,310859.03125,299999.125,298068.84375,303616.71875,-0.03564453125,0.993896484375,-0.071044921875,-0.7324218153953552,-0.7324218153953552,0.3967284858226776,80.0,1159808.0,1.0
1212954.5447151,289073.4375,299002.34375,315118.65625,296079.09375,312010.15625,302210.1875,299082.53125,305380.46875,-0.0341796875,0.99267578125,-0.068603515625,-0.7019042372703552,-0.8850097060203552,0.3356933295726776,80.0,1159809.0,1.0
1212954.5478235,289106.25,298949.5,315010.40625,296114.6875,312401.3125,302484.46875,299012.1875,305801.28125,-0.0341796875,0.993408203125,-0.068115234375,-0.7324218153953552,-0.8544921278953552,0.3967284858226776,80.0,1159810.0,1.0
1212954.547867,289171.6875,297316.125,314544.125,296139.53125,311515.375,300463.15625,297956.46875,304360.0625,-0.0341796875,0.991455078125,-0.067626953125,-0.7629393935203552,-0.8239745497703552,0.4272460639476776,80.0,1159811.0,1.0
1212954.5561228,289155.6875,296326.84375,314335.1875,296049.0625,310532.875,298897.375,297354.03125,302957.96875,-0.03369140625,0.98974609375,-0.066162109375,-0.6408690810203552,-0.8239745497703552,0.3967284858226776,80.0,1159812.0,1.0
1212954.5603344,289099.875,297380.9375,314700.3125,296029.46875,310844.03125,299988.78125,298059.09375,303608.3125,-0.033935546875,0.98974609375,-0.068603515625,-0.6103515028953552,-0.8850097060203552,0.4272460639476776,80.0,1159813.0,1.0
1212954.5603779,289066.625,298998.9375,315112.9375,296073.8125,311998.28125,302208.65625,299084.15625,305378.40625,-0.031982421875,0.990478515625,-0.068603515625,-0.5798339247703552,-0.7019042372703552,0.4272460639476776,80.0,1159814.0,1.0
1212954.5685374,289104.0,298957.375,315011.71875,296114.6875,312391.5625,302490.46875,299019.0625,305805.6875,-0.033935546875,0.9892578125,-0.068359375,-0.3967284858226776,-0.7934569716453552,0.4577636420726776,80.0,1159815.0,1.0
1212954.5752382,289168.8125,297322.5625,314544.21875,296143.5625,311513.59375,300472.1875,297966.375,304372.75,-0.034423828125,0.9892578125,-0.065673828125,-0.2136230319738388,-0.7629393935203552,0.4577636420726776,80.0,1159816.0,1.0
1212954.5752907,289157.75,296336.3125,314340.5625,296059.875,310541.125,298908.0,297366.8125,302978.1875,-0.033447265625,0.98876953125,-0.06640625,-0.2441406100988388,-0.7324218153953552,0.5798339247703552,80.0,1159817.0,1.0
1212954.5816911,289096.21875,297384.25,314700.0625,296030.1875,310847.15625,299992.25,298064.375,303621.46875,-0.033203125,0.989990234375,-0.0673828125,-0.2136230319738388,-0.7324218153953552,0.6103515028953552,80.0,1159818.0,1.0
1212954.5817354,289062.4375,299006.625,315108.65625,296066.46875,311998.09375,302206.875,299083.53125,305388.78125,-0.03173828125,0.992431640625,-0.068603515625,-0.2136230319738388,-0.7019042372703552,0.6713866591453552,80.0,1159819.0,1.0
1212954.5922808,289097.84375,298949.84375,315001.71875,296104.125,312392.375,302486.71875,299017.0,305813.53125,-0.031982421875,0.991455078125,-0.067138671875,-0.2136230319738388,-0.7629393935203552,0.7019042372703552,80.0,1159820.0,1.0
1212954.5996921,289167.40625,297317.46875,314537.96875,296135.6875,311517.71875,300470.75,297967.71875,304376.5,-0.031005859375,0.9921875,-0.06640625,-0.1220703050494194,-0.6103515028953552,0.7629393935203552,80.0,1159821.0,1.0
1212954.5997361,289158.53125,296335.15625,314335.625,296050.5625,310539.0625,298902.375,297365.9375,302972.8125,-0.033447265625,0.99169921875,-0.06494140625,-0.1220703050494194,-0.5187987685203552,0.7019042372703552,80.0,1159822.0,1.0
1212954.5997474,289105.625,297386.5,314703.1875,296028.21875,310842.96875,299986.34375,298063.03125,303614.5,-0.032470703125,0.98974609375,-0.066162109375,0.0610351525247097,-0.5493163466453552,0.8239745497703552,80.0,1159823.0,1.0
1212954.602815,289072.09375,299003.78125,315109.46875,296068.1875,311998.28125,302198.625,299077.4375,305380.90625,-0.03271484375,0.9912109375,-0.06689453125,0.0,-0.5187987685203552,0.7934569716453552,80.0,1159824.0,1.0
1212954.6028587,289112.75,298962.1875,315004.9375,296109.65625,312394.875,302481.25,299010.125,305806.5625,-0.03076171875,0.991943359375,-0.069091796875,-0.03051757626235485,-0.5798339247703552,0.7629393935203552,80.0,1159825.0,1.0
1212954.6159677,289180.90625,297331.875,314538.3125,296137.46875,311515.28125,300464.15625,297956.90625,304367.375,-0.031005859375,0.9931640625,-0.0673828125,0.1220703050494194,-0.5493163466453552,0.7629393935203552,80.0,1159826.0,1.0
1212954.6240707,289161.3125,296337.03125,314328.03125,296047.625,310533.96875,298893.71875,297355.03125,302964.40625,-0.03271484375,0.992919921875,-0.067138671875,0.1831054538488388,-0.4577636420726776,0.6408690810203552,80.0,1159827.0,1.0
1212954.6241122,289105.6875,297385.3125,314695.3125,296027.3125,310841.96875,299979.75,298061.40625,303612.625,-0.032470703125,0.992919921875,-0.0693359375,0.03051757626235485,-0.4577636420726776,0.5798339247703552,80.0,1159828.0,1.0
1212954.6303233,289072.96875,299007.875,315107.5625,296069.4375,311997.90625,302200.34375,299083.625,305382.875,-0.03173828125,0.994873046875,-0.068359375,0.1220703050494194,-0.3967284858226776,0.6713866591453552,80.0,1159829.0,1.0
1212954.6303666,289104.90625,298959.59375,314997.34375,296105.5625,312391.46875,302481.875,299011.90625,305806.125,-0.032470703125,0.993408203125,-0.06884765625,0.1831054538488388,-0.3967284858226776,0.6103515028953552,80.0,1159830.0,1.0
1212954.632833,289171.9375,297332.21875,314533.59375,296135.9375,311517.96875,300468.78125,297964.3125,304374.8125,-0.032470703125,0.994140625,-0.06689453125,0.1525878757238388,-0.4577636420726776,0.5493163466453552,80.0,1159831.0,1.0
1212954.6328693,289158.625,296344.90625,314330.90625,296049.40625,310543.25,298905.25,297366.1875,302977.375,-0.03369140625,0.99462890625,-0.06640625,0.2136230319738388,-0.4272460639476776,0.5187987685203552,80.0,1159832.0,1.0
1212954.6461705,289096.21875,297385.875,314691.03125,296021.96875,310848.9375,299986.71875,298062.84375,303617.71875,-0.0341796875,0.992431640625,-0.070068359375,0.2136230319738388,-0.3967284858226776,0.4882812201976776,80.0,1159833.0,1.0
1212954.6723008,289063.78125,299003.9375,315102.03125,296064.5,312008.28125,302205.78125,299083.625,305386.4375,-0.035400390625,0.992919921875,-0.06884765625,0.1831054538488388,-0.4577636420726776,0.3662109076976776,80.0,1159834.0,1.0
1212954.6723453,289101.15625,298961.03125,314999.65625,296104.40625,312404.90625,302489.65625,299018.53125,305813.0,-0.033447265625,0.9912109375,-0.068359375,0.0610351525247097,-0.2746581733226776,0.4272460639476776,80.0,1159835.0,1.0
1212954.6723575,289173.28125,297340.875,314539.84375,296137.75,311531.375,300482.125,297974.59375,304383.9375,-0.033203125,0.99267578125,-0.06591796875,0.1220703050494194,-0.3662109076976776,0.2441406100988388,80.0,1159836.0,1.0
1212954.6753028,289159.15625,296355.71875,314332.15625,296049.9375,310554.96875,298913.90625,297369.6875,302982.1875,-0.0341796875,0.9921875,-0.06787109375,0.0915527269244194,-0.4882812201976776,0.1525878757238388,80.0,1159837.0,1.0
1212954.6753395,289102.3125,297399.90625,314700.15625,296029.75,310862.96875,299998.0625,298068.125,303627.0,-0.03369140625,0.99267578125,-0.068603515625,0.0,-0.5493163466453552,0.1525878757238388,80.0,1159838.0,1.0
1212954.6771824,289066.28125,299014.9375,315110.25,296070.6875,312013.46875,302212.5,299091.03125,305393.34375,-0.032470703125,0.9951171875,-0.06591796875,0.03051757626235485,-0.5187987685203552,0.1525878757238388,80.0,1159839.0,1.0
1212954.679872,289096.5,298964.4375,314998.9375,296101.09375,312399.875,302489.65625,299017.8125,305813.375,-0.032958984375,0.993896484375,-0.06591796875,0.03051757626235485,-0.3356933295726776,0.0915527269244194,80.0,1159840.0,1.0
1212954.682301,289169.1875,297340.25,314538.84375,296135.6875,311525.75,300478.1875,297969.0625,304383.65625,-0.032470703125,0.9912109375,-0.067626953125,-0.03051757626235485,-0.4882812201976776,0.1525878757238388,80.0,1159841.0,1.0
1212954.6847899,289166.21875,296356.4375,314342.6875,296058.25,310549.6875,298910.96875,297370.46875,302984.96875,-0.03466796875,0.990234375,-0.0703125,-0.0915527269244194,-0.4272460639476776,0.1831054538488388,80.0,1159842.0,1.0
1212954.6873087,289104.8125,297393.46875,314702.125,296027.6875,310842.5,299982.6875,298061.78125,303614.5625,-0.035888671875,0.989501953125,-0.068115234375,0.0,-0.4272460639476776,0.0610351525247097,80.0,1159843.0,1.0
1212954.6898819,289070.5625,299010.21875,315110.78125,296070.40625,311993.4375,302196.84375,299078.78125,305379.46875,-0.033935546875,0.989990234375,-0.069580078125,0.1220703050494194,-0.4272460639476776,0.0915527269244194,80.0,1159844.0,1.0
1212954.6922979,289108.125,298961.46875,315004.3125,296109.3125,312390.59375,302481.53125,299009.9375,305805.5,-0.0341796875,0.990478515625,-0.0693359375,0.0915527269244194,-0.5798339247703552,0.1525878757238388,80.0,1159845.0,1.0
1212954.6947874,289175.96875,297333.03125,314541.1875,296139.0,311516.71875,300470.59375,297962.90625,304374.71875,-0.03564453125,0.991455078125,-0.0703125,0.1220703050494194,-0.5187987685203552,0.0915527269244194,80.0,1159846.0,1.0
1212954.6979448,289159.0625,296342.3125,314331.25,296051.28125,310538.0625,298900.25,297355.90625,302972.1875,-0.034912109375,0.99169921875,-0.071533203125,0.2136230319738388,-0.6408690810203552,0.0915527269244194,80.0,1159847.0,1.0
1212954.6979886,289106.59375,297392.375,314697.03125,296031.0625,310846.875,299984.21875,298059.90625,303618.4375,-0.03466796875,0.990478515625,-0.071044921875,0.2136230319738388,-0.6103515028953552,0.0,80.0,1159848.0,1.0
1212954.7116497,289071.90625,299010.9375,315107.40625,296070.3125,311999.15625,302203.90625,299085.5,305387.4375,-0.038330078125,0.989013671875,-0.0703125,0.1220703050494194,-0.6103515028953552,0.0915527269244194,80.0,1159849.0,1.0
1212954.7116939,289103.1875,298963.0,314999.3125,296103.3125,312390.15625,302486.53125,299015.65625,305810.15625,-0.037841796875,0.991943359375,-0.069580078125,0.1831054538488388,-0.5798339247703552,0.1525878757238388,80.0,1159850.0,1.0
1212954.7135399,289166.6875,297332.125,314531.875,296129.59375,311513.5,300473.625,297965.5625,304377.21875,-0.036376953125,0.99169921875,-0.068603515625,0.2136230319738388,-0.5187987685203552,0.1220703050494194,80.0,1159851.0,1.0
1212954.7160258,289150.125,296333.53125,314320.4375,296038.5,310527.53125,298897.90625,297359.5,302971.75,-0.037109375,0.9931640625,-0.070068359375,0.2136230319738388,-0.5493163466453552,0.0915527269244194,80.0,1159852.0,1.0
1212954.7185535,289098.375,297381.3125,314688.25,296019.0,310835.25,299980.0,298059.53125,303612.78125,-0.037841796875,0.99169921875,-0.067626953125,0.2746581733226776,-0.6408690810203552,0.0610351525247097,80.0,1159853.0,1.0
1212954.7317113,289061.90625,298996.09375,315097.65625,296060.125,311989.5,302198.71875,299081.65625,305377.9375,-0.037109375,0.9921875,-0.06884765625,0.2136230319738388,-0.7019042372703552,0.0610351525247097,80.0,1159854.0,1.0
1212954.7317563,289093.09375,298950.125,314991.34375,296094.375,312384.875,302484.75,299016.46875,305803.625,-0.03662109375,0.9912109375,-0.0693359375,0.2746581733226776,-0.7629393935203552,0.1220703050494194,80.0,1159855.0,1.0
1212954.7340952,289162.21875,297327.5625,314528.3125,296126.375,311515.125,300474.78125,297961.46875,304373.375,-0.03759765625,0.9921875,-0.069580078125,0.2746581733226776,-0.7629393935203552,0.03051757626235485,80.0,1159856.0,1.0
1212954.7341455,289149.0625,296332.375,314320.78125,296041.625,310540.65625,298901.75,297352.34375,302969.96875,-0.03515625,0.9921875,-0.07177734375,0.2441406100988388,-0.7629393935203552,0.1525878757238388,80.0,1159857.0,1.0
1212954.7360237,289106.96875,297388.09375,314697.28125,296027.5,310854.5625,299988.0625,298061.96875,303616.8125,-0.034423828125,0.991943359375,-0.06787109375,0.2441406100988388,-0.8239745497703552,0.2136230319738388,80.0,1159858.0,1.0
1212954.7503567,289074.6875,299006.90625,315110.53125,296068.1875,312007.375,302203.03125,299085.125,305384.5625,-0.03515625,0.991943359375,-0.068603515625,0.1525878757238388,-0.8544921278953552,0.2136230319738388,80.0,1159859.0,1.0
1212954.7504002,289100.6875,298957.71875,314999.84375,296101.34375,312399.15625,302486.4375,299011.1875,305809.875,-0.0341796875,0.99169921875,-0.071044921875,0.1220703050494194,-0.9155272841453552,0.2746581733226776,80.0,1159860.0,1.0
1212954.7524085,289167.3125,297327.84375,314535.8125,296129.59375,311521.375,300473.53125,297960.03125,304375.625,-0.034423828125,0.992919921875,-0.069091796875,0.1525878757238388,-0.9460448622703552,0.2441406100988388,80.0,1159861.0,1.0
1212954.7547215,289159.53125,296340.875,314331.96875,296044.9375,310547.65625,298902.125,297356.0,302973.1875,-0.035888671875,0.992919921875,-0.06982421875,0.0,-0.9460448622703552,0.2136230319738388,80.0,1159862.0,1.0
1212954.7584699,289113.21875,297400.25,314707.46875,296031.53125,310863.34375,299989.46875,298065.34375,303621.90625,-0.035888671875,0.99560546875,-0.071533203125,-0.03051757626235485,-0.8850097060203552,0.3356933295726776,80.0,1159863.0,1.0
1212954.7703212,289077.90625,299022.625,315119.65625,296072.46875,312021.15625,302208.5625,299086.84375,305390.65625,-0.037109375,0.994384765625,-0.072021484375,-0.03051757626235485,-0.9460448622703552,0.3356933295726776,80.0,1159864.0,1.0
1212954.7703647,289109.46875,298971.3125,315012.0,296106.8125,312416.25,302493.6875,299021.03125,305816.3125,-0.035888671875,0.993896484375,-0.07373046875,-0.03051757626235485,-0.8850097060203552,0.3051757514476776,80.0,1159865.0,1.0
1212954.7729579,289182.78125,297351.09375,314553.15625,296139.0,311544.25,300488.1875,297974.78125,304386.875,-0.037841796875,0.99267578125,-0.071533203125,0.0,-1.0070799589157104,0.3356933295726776,80.0,1159866.0,1.0
1212954.7730037,289168.5625,296357.21875,314346.625,296053.6875,310569.28125,298919.90625,297371.1875,302986.3125,-0.0361328125,0.993408203125,-0.07080078125,-0.0915527269244194,-0.9765624403953552,0.3356933295726776,80.0,1159867.0,1.0
1212954.774735,289116.25,297405.4375,314713.5625,296034.21875,310877.8125,300001.1875,298075.28125,303627.71875,-0.038330078125,0.992919921875,-0.07177734375,-0.2441406100988388,-0.9155272841453552,0.3662109076976776,80.0,1159868.0,1.0
1212954.7859554,289077.8125,299020.59375,315121.0625,296074.71875,312029.125,302216.15625,299101.125,305396.625,-0.036865234375,0.9931640625,-0.073974609375,-0.3967284858226776,-0.8850097060203552,0.3967284858226776,80.0,1159869.0,1.0
1212954.7889953,289114.09375,298979.8125,315015.21875,296115.375,312431.90625,302508.15625,299041.3125,305831.6875,-0.034912109375,0.99169921875,-0.072265625,-0.3967284858226776,-0.9155272841453552,0.3356933295726776,80.0,1159870.0,1.0
1212954.7890272,289181.34375,297352.96875,314548.4375,296141.9375,311557.125,300494.4375,297987.03125,304400.71875,-0.0341796875,0.99267578125,-0.072021484375,-0.4577636420726776,-0.8239745497703552,0.3356933295726776,80.0,1159871.0,1.0
1212954.7908556,289163.28125,296348.75,314334.375,296044.65625,310566.59375,298906.59375,297366.46875,302985.59375,-0.032958984375,0.994384765625,-0.072021484375,-0.4577636420726776,-0.8239745497703552,0.3662109076976776,80.0,1159872.0,1.0
1212954.8023087,289106.25,297384.6875,314694.59375,296015.625,310861.5625,299974.625,298057.5625,303614.40625,-0.0361328125,0.99462890625,-0.069580078125,-0.4272460639476776,-0.8850097060203552,0.3662109076976776,80.0,1159873.0,1.0
1212954.8054278,289071.46875,298999.125,315102.75,296055.5,312012.3125,302189.875,299080.75,305381.15625,-0.03759765625,0.993896484375,-0.0693359375,-0.4882812201976776,-0.8239745497703552,0.3662109076976776,80.0,1159874.0,1.0
1212954.8054719,289106.15625,298959.15625,314998.3125,296091.25,312404.28125,302478.125,299019.40625,305810.3125,-0.036865234375,0.99365234375,-0.072509765625,-0.5187987685203552,-0.7629393935203552,0.2746581733226776,80.0,1159875.0,1.0
1212954.8072865,289174.53125,297341.34375,314534.5625,296124.6875,311535.40625,300473.09375,297967.46875,304382.84375,-0.03662109375,0.993408203125,-0.071044921875,-0.5187987685203552,-0.7629393935203552,0.3051757514476776,80.0,1159876.0,1.0
1212954.8211123,289159.25,296342.84375,314324.8125,296037.59375,310556.59375,298897.65625,297353.9375,302974.25,-0.035888671875,0.99365234375,-0.072265625,-0.5493163466453552,-0.8239745497703552,0.3662109076976776,80.0,1159877.0,1.0
1212954.8259657,289105.875,297381.84375,314691.84375,296015.25,310856.1875,299971.59375,298051.84375,303606.25,-0.03466796875,0.99365234375,-0.071044921875,-0.6103515028953552,-0.7629393935203552,0.3356933295726776,80.0,1159878.0,1.0
1212954.8260094,289075.40625,299008.0625,315110.71875,296064.34375,312016.15625,302196.40625,299082.34375,305379.90625,-0.0341796875,0.99267578125,-0.06982421875,-0.7019042372703552,-0.7019042372703552,0.2746581733226776,80.0,1159879.0,1.0
1212954.8260212,289115.34375,298978.125,315012.4375,296107.53125,312422.40625,302496.09375,299026.46875,305817.75,-0.0341796875,0.9912109375,-0.06982421875,-0.7324218153953552,-0.6713866591453552,0.3967284858226776,80.0,1159880.0,1.0
1212954.8310802,289175.34375,297344.8125,314539.9375,296130.9375,311542.28125,300481.75,297973.71875,304381.5,-0.033447265625,0.99072265625,-0.0703125,-0.6408690810203552,-0.7019042372703552,0.3662109076976776,80.0,1159881.0,1.0
1212954.8335352,289160.6875,296345.34375,314328.40625,296042.53125,310562.46875,298905.96875,297363.34375,302975.3125,-0.034423828125,0.9912109375,-0.071044921875,-0.6408690810203552,-0.6103515028953552,0.3662109076976776,80.0,1159882.0,1.0
1212954.8373786,289110.96875,297387.1875,314698.09375,296021.0625,310863.25,299979.46875,298061.34375,303607.34375,-0.035400390625,0.991943359375,-0.0712890625,-0.5798339247703552,-0.5798339247703552,0.2441406100988388,80.0,1159883.0,1.0
1212954.8440572,289078.78125,299010.75,315113.84375,296069.0,312021.0625,302203.5625,299092.28125,305377.875,-0.0361328125,0.991943359375,-0.07275390625,-0.5187987685203552,-0.5187987685203552,0.2746581733226776,80.0,1159884.0,1.0
1212954.8441007,289109.71875,298970.15625,315007.25,296105.90625,312422.96875,302497.875,299029.15625,305813.8125,-0.035888671875,0.99267578125,-0.069580078125,-0.5798339247703552,-0.5187987685203552,0.2441406100988388,80.0,1159885.0,1.0
1212954.8572729,289176.15625,297342.59375,314541.1875,296137.75,311551.6875,300487.125,297977.375,304387.9375,-0.036865234375,0.99169921875,-0.0693359375,-0.5187987685203552,-0.5798339247703552,0.1220703050494194,80.0,1159886.0,1.0
1212954.8621222,289154.34375,296333.90625,314322.40625,296038.40625,310556.59375,298896.5625,297355.46875,302966.75,-0.0361328125,0.9912109375,-0.0703125,-0.5493163466453552,-0.4882812201976776,0.1525878757238388,80.0,1159887.0,1.0
