Time,FZ,C3,CZ,C4,PZ,PO7,OZ,PO8,AccX,AccY,AccZ,Gyro1,Gyro2,Gyro3,Battery,Counter,Validation
1136741.3235122,290506.09375,283689.875,320665.28125,291652.09375,296721.46875,277118.625,277254.71875,271788.90625,-0.078857421875,0.8515625,-0.452392578125,13.610838890075684,6.134032726287842,4.302978038787842,60.0,2977856.0,1.0
1136741.3279043,291018.21875,283709.46875,321301.15625,292709.875,297151.625,277149.9375,277417.09375,272175.6875,-0.077392578125,0.85888671875,-0.45361328125,13.580321311950684,6.164550304412842,4.394530773162842,60.0,2977857.0,1.0
1136741.3279223,290813.46875,283676.1875,321180.1875,292409.375,297107.90625,277124.625,277355.03125,272149.21875,-0.07666015625,0.864013671875,-0.4541015625,13.488768577575684,6.103515148162842,4.455565929412842,60.0,2977858.0,1.0
1136741.3410538,290193.34375,283641.40625,320508.03125,291224.90625,296690.8125,277092.875,277181.40625,271800.4375,-0.07763671875,0.872314453125,-0.45458984375,13.092040061950684,6.164550304412842,4.486083507537842,60.0,2977859.0,1.0
1136741.3441649,289979.375,283642.21875,320151.21875,290690.96875,296425.0,277079.75,277100.5,271531.0625,-0.07470703125,0.877685546875,-0.452392578125,12.603758811950684,6.072997570037842,4.608153820037842,60.0,2977860.0,1.0
1136741.3441946,290483.65625,283674.40625,320637.65625,291613.5625,296702.625,277102.0,277237.5625,271758.25,-0.072265625,0.880859375,-0.4501953125,11.840819358825684,6.072997570037842,4.730224132537842,60.0,2977861.0,1.0
1136741.3460508,290984.6875,283679.6875,321260.75,292660.25,297116.21875,277116.03125,277385.53125,272134.5625,-0.067626953125,0.882568359375,-0.451171875,11.138915061950684,6.134032726287842,4.882812023162842,60.0,2977862.0,1.0
1136741.3498337,290792.09375,283655.90625,321155.5,292380.84375,297084.28125,277102.28125,277338.21875,272123.125,-0.065673828125,0.885009765625,-0.4501953125,10.528563499450684,6.256103038787842,5.035399913787842,60.0,2977863.0,1.0
1136741.3641697,290163.125,283614.6875,320480.125,291199.53125,296665.0625,277069.28125,277163.34375,271780.3125,-0.06494140625,0.886962890625,-0.444091796875,9.857176780700684,6.286620616912842,4.913329601287842,60.0,2977864.0,1.0
1136741.3641972,289933.53125,283602.0,320108.03125,290644.84375,296384.15625,277043.4375,277063.75,271495.46875,-0.064697265625,0.8896484375,-0.442138671875,9.002684593200684,6.378173351287842,4.974364757537842,60.0,2977865.0,1.0
1136741.3660759,290452.8125,283652.6875,320609.78125,291576.03125,296672.9375,277077.4375,277209.125,271731.4375,-0.062744140625,0.894287109375,-0.443115234375,8.087157249450684,6.378173351287842,4.943847179412842,60.0,2977866.0,1.0
1136741.3685738,290977.71875,283677.53125,321253.5,292644.25,297106.28125,277110.25,277375.78125,272123.03125,-0.0634765625,0.893798828125,-0.44287109375,7.141112804412842,6.591796398162842,5.126952648162842,60.0,2977867.0,1.0
1136741.3823261,290801.21875,283660.90625,321161.78125,292389.09375,297092.96875,277108.0,277345.375,272130.1875,-0.060546875,0.892578125,-0.441650390625,6.378173351287842,6.713866710662842,5.035399913787842,60.0,2977868.0,1.0
1136741.3866463,290198.0,283639.4375,320508.03125,291230.375,296694.125,277091.46875,277188.28125,271806.0,-0.05810546875,0.89306640625,-0.443359375,5.798339366912842,6.744384288787842,5.035399913787842,60.0,2977869.0,1.0
1136741.3866932,289966.4375,283627.75,320132.875,290665.59375,296406.21875,277066.78125,277091.5625,271520.59375,-0.056884765625,0.89111328125,-0.439697265625,5.218505382537842,6.927489757537842,5.065917491912842,60.0,2977870.0,1.0
1136741.3867047,290470.59375,283670.03125,320622.46875,291590.9375,296686.4375,277098.53125,277236.375,271754.84375,-0.0576171875,0.88818359375,-0.43505859375,4.791259288787842,7.080077648162842,5.004882335662842,60.0,2977871.0,1.0
1136741.3867157,290969.125,283672.25,321246.53125,292638.71875,297102.875,277112.75,277385.6875,272124.09375,-0.062744140625,0.887451171875,-0.4345703125,4.180907726287842,7.141112804412842,4.882812023162842,60.0,2977872.0,1.0
1136741.3885614,290779.40625,283637.03125,321141.03125,292368.25,297070.875,277087.78125,277334.8125,272112.21875,-0.068115234375,0.887939453125,-0.43115234375,3.631591558456421,6.988524913787842,4.852294445037842,60.0,2977873.0,1.0
1136741.3999444,290174.75,283617.625,320487.1875,291209.625,296669.625,277068.21875,277171.03125,271777.8125,-0.07080078125,0.886474609375,-0.431640625,3.112792730331421,6.927489757537842,4.638671398162842,60.0,2977874.0,1.0
1136741.4030186,289936.21875,283606.90625,320110.875,290647.875,296385.84375,277044.0,277073.84375,271488.0625,-0.077880859375,0.884521484375,-0.4306640625,2.502441167831421,6.927489757537842,4.364013195037842,60.0,2977875.0,1.0
1136741.403062,290450.75,283655.28125,320604.59375,291571.0,296670.15625,277081.28125,277221.1875,271723.09375,-0.080078125,0.8857421875,-0.4296875,2.166747808456421,6.774901866912842,4.150390148162842,60.0,2977876.0,1.0
1136741.4111982,290958.5625,283664.03125,321236.25,292629.3125,297096.1875,277104.34375,277378.375,272114.53125,-0.081787109375,0.88525390625,-0.425537109375,1.6784666776657104,6.561278820037842,3.875732183456421,60.0,2977877.0,1.0
1136741.4143937,290786.71875,283653.65625,321152.21875,292388.1875,297087.34375,277100.3125,277343.9375,272124.09375,-0.0859375,0.8857421875,-0.42431640625,1.1291502714157104,6.256103038787842,3.540038824081421,60.0,2977878.0,1.0
1136741.4144504,290172.15625,283620.5,320490.40625,291221.6875,296677.40625,277071.6875,277172.90625,271785.96875,-0.09033203125,0.8837890625,-0.42236328125,0.6713866591453552,5.889892101287842,3.234863042831421,60.0,2977879.0,1.0
1136741.4160847,289932.1875,283600.75,320108.5625,290649.59375,296391.125,277045.59375,277073.84375,271500.3125,-0.09375,0.880859375,-0.42236328125,0.2136230319738388,5.432128429412842,2.960204839706421,60.0,2977880.0,1.0
1136741.4298481,290430.4375,283632.28125,320587.15625,291559.21875,296663.625,277073.65625,277214.21875,271725.6875,-0.100830078125,0.877685546875,-0.42041015625,-0.3967284858226776,4.913329601287842,2.624511480331421,60.0,2977881.0,1.0
1136741.4330981,290943.71875,283656.625,321231.15625,292630.125,297098.25,277110.40625,277386.875,272123.65625,-0.10400390625,0.87353515625,-0.422607421875,-0.6713866591453552,4.394530773162842,2.288818120956421,60.0,2977882.0,1.0
1136741.4331437,290779.75,283646.6875,321151.59375,292393.46875,297091.625,277108.28125,277358.59375,272134.65625,-0.110107421875,0.8681640625,-0.4189453125,-1.0375975370407104,3.631591558456421,1.8615721464157104,60.0,2977883.0,1.0
1136741.4350073,290176.71875,283622.28125,320495.78125,291234.65625,296689.5625,277083.5,277193.5625,271799.625,-0.11279296875,0.8623046875,-0.418701171875,-1.0375975370407104,2.960204839706421,1.4648436307907104,60.0,2977884.0,1.0
1136741.4386873,289935.84375,283601.09375,320105.4375,290656.375,296390.125,277047.90625,277079.75,271501.5625,-0.1142578125,0.85595703125,-0.415771484375,-1.2207030057907104,2.227782964706421,1.0986326932907104,60.0,2977885.0,1.0
1136741.4524366,290434.375,283641.5,320583.03125,291558.9375,296661.5,277077.875,277217.6875,271726.40625,-0.11181640625,0.850830078125,-0.417724609375,-1.3427733182907104,1.5563963651657104,0.7019042372703552,60.0,2977886.0,1.0
1136741.4555568,290948.375,283655.625,321221.9375,292622.25,297092.53125,277104.875,277380.96875,272120.0625,-0.1123046875,0.85107421875,-0.417724609375,-1.3122557401657104,0.7629393935203552,0.2136230319738388,60.0,2977887.0,1.0
1136741.4556029,290783.6875,283639.09375,321142.625,292385.15625,297078.9375,277092.0,277342.15625,272127.5,-0.110595703125,0.853759765625,-0.422607421875,-1.1596678495407104,0.0915527269244194,-0.3662109076976776,60.0,2977888.0,1.0
1136741.4575648,290182.78125,283615.40625,320493.0,291227.875,296680.1875,277072.15625,277177.375,271797.59375,-0.10888671875,0.85693359375,-0.421142578125,-1.0375975370407104,-0.6103515028953552,-0.7934569716453552,60.0,2977889.0,1.0
1136741.4611508,289932.0,283594.65625,320102.46875,290640.46875,296385.5,277040.0625,277070.0,271502.09375,-0.1064453125,0.857177734375,-0.41552734375,-1.0375975370407104,-1.2512205839157104,-1.0986326932907104,60.0,2977890.0,1.0
1136741.464957,290428.65625,283641.40625,320582.5,291542.65625,296663.4375,277072.59375,277213.6875,271730.09375,-0.10546875,0.859375,-0.412841796875,-1.1596678495407104,-1.8920897245407104,-1.4343260526657104,60.0,2977891.0,1.0
1136741.4742957,290951.34375,283652.9375,321229.53125,292626.1875,297101.28125,277101.125,277379.34375,272130.34375,-0.1015625,0.860595703125,-0.412109375,-1.3427733182907104,-2.410888433456421,-1.8005369901657104,60.0,2977892.0,1.0
1136741.4743391,290787.1875,283633.0,321151.59375,292400.25,297090.625,277088.875,277341.25,272140.90625,-0.097412109375,0.86279296875,-0.41357421875,-1.5869139432907104,-2.960204839706421,-1.8920897245407104,60.0,2977893.0,1.0
1136741.4768285,290188.78125,283613.15625,320501.40625,291244.6875,296690.71875,277064.90625,277173.96875,271807.59375,-0.09765625,0.864501953125,-0.41552734375,-1.8615721464157104,-3.448486089706421,-2.075195074081421,60.0,2977894.0,1.0
1136741.4768728,289941.375,283596.625,320107.75,290657.90625,296398.28125,277037.28125,277072.0625,271515.5,-0.09619140625,0.865234375,-0.414794921875,-2.014159917831421,-3.814697027206421,-2.227782964706421,60.0,2977895.0,1.0
1136741.4874716,290432.40625,283634.96875,320578.84375,291551.34375,296666.9375,277065.875,277208.84375,271736.53125,-0.094482421875,0.865234375,-0.4140625,-2.075195074081421,-4.180907726287842,-2.380370855331421,60.0,2977896.0,1.0
1136741.4905432,290950.96875,283647.9375,321225.4375,292628.96875,297098.40625,277091.90625,277371.75,272133.65625,-0.093994140625,0.86865234375,-0.4091796875,-2.380370855331421,-4.516601085662842,-2.593993902206421,60.0,2977897.0,1.0
1136741.490587,290793.34375,283636.125,321157.84375,292410.09375,297097.96875,277091.375,277347.25,272154.125,-0.0908203125,0.87060546875,-0.41259765625,-2.716064214706421,-4.791259288787842,-2.716064214706421,60.0,2977898.0,1.0
1136741.4924068,290209.34375,283635.5,320523.84375,291266.84375,296719.59375,277091.5625,277206.875,271845.6875,-0.090087890625,0.873779296875,-0.40869140625,-2.990722417831421,-5.004882335662842,-2.929687261581421,60.0,2977899.0,1.0
1136741.5062878,289938.4375,283599.75,320109.90625,290650.75,296405.34375,277044.625,277084.9375,271530.34375,-0.08837890625,0.871826171875,-0.41162109375,-3.387450933456421,-5.157470226287842,-3.051757574081421,60.0,2977900.0,1.0
1136741.50915,290429.28125,283636.3125,320577.5,291544.375,296668.28125,277072.6875,277220.21875,271745.46875,-0.086669921875,0.87158203125,-0.410888671875,-3.631591558456421,-5.401610851287842,-2.990722417831421,60.0,2977901.0,1.0
1136741.5091948,290956.25,283654.65625,321225.96875,292631.65625,297099.84375,277103.53125,277385.25,272139.46875,-0.0869140625,0.868408203125,-0.410888671875,-3.967284917831421,-5.554198741912842,-3.021239995956421,60.0,2977902.0,1.0
1136741.5162093,290792.71875,283636.59375,321152.375,292406.96875,297092.78125,277090.9375,277347.53125,272148.5,-0.086181640625,0.865478515625,-0.41015625,-4.241942882537842,-5.615233898162842,-3.173827886581421,60.0,2977903.0,1.0
1136741.5186424,290186.8125,283607.8125,320500.34375,291244.84375,296692.6875,277068.125,277182.5625,271818.3125,-0.086181640625,0.862060546875,-0.409423828125,-4.486083507537842,-5.645751476287842,-3.143310308456421,60.0,2977904.0,1.0
1136741.5212982,289931.1875,283592.59375,320098.53125,290639.9375,296388.53125,277037.0,277074.5625,271514.875,-0.08642578125,0.85546875,-0.408935546875,-4.394530773162842,-5.706786632537842,-3.112792730331421,60.0,2977905.0,1.0
1136741.5237144,290413.625,283622.5625,320558.375,291521.65625,296644.0625,277056.0625,277202.6875,271721.21875,-0.08349609375,0.848388671875,-0.40673828125,-4.394530773162842,-5.767821788787842,-3.051757574081421,60.0,2977906.0,1.0
1136741.526169,290944.53125,283637.9375,321209.59375,292612.5,297080.28125,277083.0625,277367.375,272117.9375,-0.083740234375,0.84228515625,-0.404296875,-4.394530773162842,-5.737304210662842,-2.960204839706421,60.0,2977907.0,1.0
1136741.5405447,290790.03125,283618.71875,321143.4375,292404.71875,297076.875,277072.40625,277332.78125,272131.53125,-0.08349609375,0.83544921875,-0.401123046875,-4.241942882537842,-5.737304210662842,-2.960204839706421,60.0,2977908.0,1.0
1136741.5405882,290176.625,283593.03125,320488.34375,291236.625,296674.1875,277052.46875,277170.6875,271801.0625,-0.0888671875,0.830322265625,-0.401123046875,-3.845214605331421,-5.767821788787842,-2.777099370956421,60.0,2977909.0,1.0
1136741.542517,289914.46875,283579.28125,320084.0625,290626.25,296370.1875,277024.0625,277066.875,271500.5625,-0.092529296875,0.82666015625,-0.402587890625,-3.326415777206421,-5.859374523162842,-2.746581792831421,60.0,2977910.0,1.0
1136741.5450365,290410.34375,283626.5,320555.78125,291522.46875,296635.03125,277054.4375,277202.9375,271713.71875,-0.09814453125,0.8271484375,-0.39990234375,-2.838134527206421,-5.981444835662842,-2.868652105331421,60.0,2977911.0,1.0
1136741.5486194,290951.15625,283645.25,321218.90625,292633.625,297077.84375,277085.90625,277369.15625,272118.71875,-0.103759765625,0.8359375,-0.39794921875,-2.288818120956421,-6.164550304412842,-2.960204839706421,60.0,2977912.0,1.0
1136741.5574501,290788.6875,283618.96875,321144.15625,292412.5,297067.9375,277066.0625,277328.21875,272127.40625,-0.110595703125,0.84765625,-0.3974609375,-2.044677495956421,-6.317138195037842,-3.112792730331421,60.0,2977913.0,1.0
1136741.5606642,290181.8125,283598.3125,320493.28125,291248.4375,296673.5625,277047.90625,277167.53125,271800.625,-0.112548828125,0.86083984375,-0.3974609375,-1.8615721464157104,-6.622313976287842,-3.204345464706421,60.0,2977914.0,1.0
1136741.5607094,289915.90625,283577.9375,320083.34375,290627.5,296365.90625,277016.71875,277056.6875,271496.90625,-0.116455078125,0.86962890625,-0.39404296875,-2.075195074081421,-6.988524913787842,-3.356933355331421,60.0,2977915.0,1.0
1136741.5637272,290406.3125,283620.5,320549.0625,291517.625,296625.0,277044.78125,277193.46875,271711.65625,-0.117919921875,0.875,-0.39306640625,-2.349853277206421,-7.385253429412842,-3.356933355331421,60.0,2977916.0,1.0
1136741.5730912,290956.34375,283649.8125,321219.625,292638.71875,297076.4375,277085.46875,277372.90625,272124.53125,-0.1220703125,0.873291015625,-0.396240234375,-2.685546636581421,-7.781981945037842,-3.356933355331421,60.0,2977917.0,1.0
1136741.5731343,290810.15625,283636.59375,321165.0,292444.875,297086.34375,277084.5625,277348.25,272151.375,-0.120361328125,0.8681640625,-0.39794921875,-3.082275152206421,-8.148192405700684,-3.204345464706421,60.0,2977918.0,1.0
1136741.5817885,290188.59375,283605.125,320500.59375,291269.625,296677.9375,277057.9375,277177.1875,271815.09375,-0.121826171875,0.86083984375,-0.399658203125,-3.356933355331421,-8.453368186950684,-3.112792730331421,60.0,2977919.0,1.0
1136741.5818317,289919.9375,283591.15625,320088.0,290644.125,296370.09375,277033.15625,277068.5625,271512.71875,-0.119384765625,0.85693359375,-0.399658203125,-3.417968511581421,-8.911131858825684,-3.112792730331421,60.0,2977920.0,1.0
1136741.5843689,290412.75,283637.5625,320554.34375,291528.71875,296633.40625,277066.78125,277203.3125,271726.25,-0.120361328125,0.85693359375,-0.3994140625,-3.509521245956421,-9.155272483825684,-3.112792730331421,60.0,2977921.0,1.0
1136741.5844148,290959.65625,283665.28125,321224.96875,292650.15625,297084.75,277102.90625,277373.0,272131.59375,-0.11962890625,0.86376953125,-0.40380859375,-3.356933355331421,-9.521483421325684,-3.173827886581421,60.0,2977922.0,1.0
1136741.5973703,290808.28125,283636.21875,321166.59375,292453.625,297087.59375,277088.6875,277338.5,272148.9375,-0.11962890625,0.870361328125,-0.4013671875,-3.479003667831421,-9.826659202575684,-3.021239995956421,60.0,2977923.0,1.0
1136741.600635,290178.5,283593.03125,320495.0625,291266.3125,296674.53125,277056.6875,277167.625,271809.21875,-0.11962890625,0.879150390625,-0.39990234375,-3.692626714706421,-10.040282249450684,-2.929687261581421,60.0,2977924.0,1.0
1136741.6006811,289898.65625,283573.71875,320071.0,290622.40625,296360.8125,277026.46875,277056.78125,271502.1875,-0.120361328125,0.8876953125,-0.3955078125,-4.028319835662842,-10.223387718200684,-2.716064214706421,60.0,2977925.0,1.0
1136741.6049111,290404.25,283630.96875,320545.40625,291517.375,296633.3125,277069.8125,277202.15625,271725.78125,-0.12255859375,0.891357421875,-0.394287109375,-4.577636241912842,-10.559081077575684,-2.532958745956421,60.0,2977926.0,1.0
1136741.6091831,290963.9375,283660.625,321224.1875,292654.90625,297086.0,277110.0625,277379.25,272142.6875,-0.12255859375,0.897705078125,-0.391845703125,-5.096435070037842,-10.772704124450684,-2.288818120956421,60.0,2977927.0,1.0
1136741.6092258,290791.5625,283617.8125,321149.0625,292444.59375,297072.21875,277078.3125,277329.0,272149.3125,-0.12158203125,0.9013671875,-0.397216796875,-5.859374523162842,-11.047362327575684,-2.014159917831421,60.0,2977928.0,1.0
1136741.6162372,290173.59375,283594.375,320492.5625,291270.0625,296677.59375,277057.40625,277169.25,271826.46875,-0.122802734375,0.903564453125,-0.396484375,-6.530761241912842,-11.199950218200684,-1.7395018339157104,60.0,2977929.0,1.0
1136741.6311003,289891.5,283572.21875,320062.875,290613.625,296354.90625,277023.15625,277055.875,271502.71875,-0.124755859375,0.902587890625,-0.397216796875,-7.293700695037842,-11.444090843200684,-1.4648436307907104,60.0,2977930.0,1.0
1136741.6311444,290390.84375,283624.78125,320531.09375,291498.9375,296619.03125,277062.21875,277195.25,271717.125,-0.125,0.90234375,-0.397216796875,-7.965087413787842,-11.718749046325684,-1.3122557401657104,60.0,2977931.0,1.0
1136741.6311569,290958.5625,283660.5625,321219.09375,292645.9375,297081.6875,277108.53125,277376.03125,272139.03125,-0.12548828125,0.90185546875,-0.3955078125,-8.575438499450684,-11.901854515075684,-1.1901854276657104,60.0,2977932.0,1.0
1136741.6342402,290804.15625,283624.15625,321159.53125,292451.75,297080.90625,277087.09375,277337.15625,272156.1875,-0.1240234375,0.904052734375,-0.39794921875,-9.094237327575684,-11.962889671325684,-0.9765624403953552,60.0,2977933.0,1.0
1136741.6342843,290179.125,283593.9375,320494.875,291267.90625,296674.0,277060.4375,277171.21875,271822.09375,-0.12353515625,0.901611328125,-0.39501953125,-9.704588890075684,-12.176512718200684,-0.8239745497703552,60.0,2977934.0,1.0
1136741.6400504,289900.53125,283580.0,320067.0625,290615.25,296356.0625,277030.03125,277060.4375,271509.875,-0.12109375,0.898681640625,-0.393310546875,-10.192870140075684,-12.237547874450684,-0.5798339247703552,60.0,2977935.0,1.0
1136741.6674129,290387.53125,283622.1875,320522.78125,291488.75,296608.90625,277053.90625,277188.09375,271714.4375,-0.12109375,0.897705078125,-0.388916015625,-10.833739280700684,-12.298583030700684,-0.4272460639476776,60.0,2977936.0,1.0
1136741.6674606,290954.8125,283651.59375,321211.46875,292637.1875,297071.15625,277095.75,277364.40625,272137.5,-0.12255859375,0.89794921875,-0.386962890625,-11.322020530700684,-12.329100608825684,-0.2441406100988388,60.0,2977937.0,1.0
1136741.6674745,290817.65625,283634.625,321171.4375,292460.53125,297087.15625,277087.34375,277336.34375,272167.0,-0.12109375,0.8955078125,-0.390625,-11.718749046325684,-12.359618186950684,-0.1220703050494194,60.0,2977938.0,1.0
1136741.6698209,290186.90625,283602.78125,320504.4375,291271.75,296677.65625,277061.96875,277171.125,271830.65625,-0.1220703125,0.89794921875,-0.392333984375,-12.329100608825684,-12.481688499450684,0.1220703050494194,60.0,2977939.0,1.0
1136741.6742257,289903.9375,283588.21875,320075.125,290615.78125,296360.28125,277035.21875,277065.71875,271522.9375,-0.123291015625,0.896240234375,-0.390380859375,-12.695311546325684,-12.603758811950684,0.3051757514476776,60.0,2977940.0,1.0
1136741.6742696,290423.75,283659.84375,320558.71875,291519.96875,296643.0625,277086.71875,277220.90625,271754.59375,-0.122314453125,0.891357421875,-0.392333984375,-13.214110374450684,-12.603758811950684,0.5798339247703552,60.0,2977941.0,1.0
1136741.6742809,290976.09375,283673.34375,321231.15625,292659.71875,297086.78125,277103.34375,277376.75,272155.75,-0.123779296875,0.8857421875,-0.394287109375,-13.641356468200684,-12.573241233825684,0.6713866591453552,60.0,2977942.0,1.0
1136741.6742917,290832.78125,283641.6875,321187.4375,292488.5,297098.96875,277085.90625,277343.84375,272183.28125,-0.12744140625,0.87890625,-0.397705078125,-13.916014671325684,-12.786864280700684,0.9765624403953552,60.0,2977943.0,1.0
1136741.6760462,290191.0,283597.6875,320513.5625,291293.21875,296688.5625,277056.0625,277175.3125,271846.03125,-0.128173828125,0.872802734375,-0.401611328125,-14.068602561950684,-12.878417015075684,1.0681151151657104,60.0,2977944.0,1.0
1136741.6786514,289897.5,283588.21875,320075.3125,290618.375,296369.84375,277032.1875,277067.40625,271531.34375,-0.1298828125,0.86474609375,-0.402587890625,-14.221190452575684,-12.908934593200684,1.2207030057907104,60.0,2977945.0,1.0
1136741.6824691,290384.59375,283626.03125,320526.53125,291489.46875,296620.71875,277055.78125,277192.3125,271734.28125,-0.131591796875,0.859375,-0.403076171875,-13.977049827575684,-13.061522483825684,1.2817381620407104,60.0,2977946.0,1.0
1136741.6967952,290965.53125,283653.65625,321222.125,292660.875,297081.78125,277091.09375,277363.625,272156.03125,-0.132568359375,0.855224609375,-0.40234375,-13.763426780700684,-13.000487327575684,1.4038084745407104,60.0,2977947.0,1.0
1136741.6968373,290823.5625,283625.40625,321178.03125,292487.6875,297092.875,277073.03125,277328.03125,272180.0625,-0.131103515625,0.8544921875,-0.403076171875,-13.336180686950684,-13.153075218200684,1.4648436307907104,60.0,2977948.0,1.0
1136741.6993982,290185.5625,283590.71875,320507.3125,291291.0,296685.96875,277047.90625,277162.90625,271845.6875,-0.134033203125,0.853759765625,-0.397705078125,-13.031004905700684,-13.305663108825684,1.5563963651657104,60.0,2977949.0,1.0
1136741.6994431,289901.4375,283587.9375,320078.15625,290623.21875,296371.53125,277033.0,277062.9375,271542.0625,-0.1328125,0.8564453125,-0.399658203125,-12.756346702575684,-13.427733421325684,1.6784666776657104,60.0,2977950.0,1.0
1136741.7010884,290399.34375,283638.375,320537.71875,291496.09375,296629.03125,277065.625,277194.625,271747.34375,-0.13330078125,0.857421875,-0.397705078125,-12.573241233825684,-13.580321311950684,1.6784666776657104,60.0,2977951.0,1.0
1136741.7049683,290979.40625,283665.65625,321236.59375,292667.6875,297098.15625,277104.6875,277373.09375,272169.53125,-0.135498046875,0.861328125,-0.39501953125,-12.237547874450684,-13.763426780700684,1.8615721464157104,60.0,2977952.0,1.0
1136741.7224705,290844.3125,283641.5,321205.125,292513.09375,297116.84375,277092.71875,277344.125,272202.78125,-0.136474609375,0.864013671875,-0.39111328125,-12.084959983825684,-13.946532249450684,1.8615721464157104,60.0,2977953.0,1.0
1136741.7256114,290208.53125,283612.28125,320539.59375,291323.71875,296711.46875,277069.90625,277183.5625,271876.0,-0.137939453125,0.868896484375,-0.389892578125,-11.932372093200684,-14.038084983825684,2.044677495956421,60.0,2977954.0,1.0
1136741.7256553,289913.75,283602.625,320096.9375,290642.78125,296387.90625,277043.625,277076.0,271561.625,-0.14013671875,0.875244140625,-0.388916015625,-11.901854515075684,-14.099120140075684,2.197265386581421,60.0,2977955.0,1.0
1136741.7274253,290413.0,283660.09375,320555.9375,291518.96875,296646.375,277082.875,277213.21875,271767.8125,-0.1396484375,0.8857421875,-0.3837890625,-12.084959983825684,-14.251708030700684,2.410888433456421,60.0,2977956.0,1.0
1136741.7300399,290983.4375,283672.875,321240.53125,292677.5,297098.875,277105.9375,277374.96875,272171.03125,-0.1396484375,0.895263671875,-0.384521484375,-12.268065452575684,-14.312743186950684,2.502441167831421,60.0,2977957.0,1.0
1136741.7324512,290839.46875,283630.96875,321194.3125,292510.78125,297109.0625,277081.8125,277333.5,272193.84375,-0.13623046875,0.900390625,-0.3828125,-12.512206077575684,-14.404295921325684,2.716064214706421,60.0,2977958.0,1.0
1136741.7363286,290197.90625,283592.78125,320524.375,291316.75,296705.375,277056.5,277174.15625,271872.6875,-0.133544921875,0.905029296875,-0.380126953125,-13.031004905700684,-14.617918968200684,2.960204839706421,60.0,2977959.0,1.0
1136741.740497,289894.90625,283580.53125,320077.25,290625.8125,296382.53125,277035.65625,277070.375,271561.71875,-0.132080078125,0.90869140625,-0.380859375,-13.427733421325684,-14.678954124450684,3.234863042831421,60.0,2977960.0,1.0
1136741.740542,290390.5625,283638.65625,320530.28125,291489.90625,296638.40625,277074.5625,277205.1875,271763.59375,-0.13232421875,0.910888671875,-0.380126953125,-13.946532249450684,-14.709471702575684,3.601073980331421,60.0,2977961.0,1.0
1136741.7487055,290976.28125,283659.125,321227.9375,292667.40625,297101.71875,277106.5625,277377.03125,272177.75,-0.129638671875,0.91357421875,-0.377197265625,-14.556883811950684,-14.770506858825684,3.875732183456421,60.0,2977962.0,1.0
1136741.7531021,290850.125,283633.0,321203.0,292524.28125,297129.0,277096.28125,277354.84375,272216.8125,-0.125732421875,0.912109375,-0.378662109375,-14.923094749450684,-14.678954124450684,4.180907726287842,60.0,2977963.0,1.0
1136741.7531445,290202.8125,283599.21875,320531.71875,291323.8125,296720.21875,277069.8125,277193.75,271892.71875,-0.121337890625,0.910888671875,-0.374755859375,-15.472411155700684,-14.648436546325684,4.333495616912842,60.0,2977964.0,1.0
1136741.7613081,289878.8125,283569.25,320064.21875,290606.3125,296373.5,277025.5625,277067.59375,271563.34375,-0.12060546875,0.906982421875,-0.377197265625,-15.960692405700684,-14.465331077575684,4.516601085662842,60.0,2977965.0,1.0
1136741.7642823,290368.3125,283616.65625,320509.09375,291462.90625,296619.03125,277053.5625,277192.125,271755.28125,-0.11962890625,0.904296875,-0.375,-16.357419967651367,-14.343260765075684,4.852294445037842,60.0,2977966.0,1.0
1136741.7643254,290971.28125,283657.25,321225.25,292661.78125,297096.90625,277097.53125,277373.09375,272179.96875,-0.114990234375,0.902099609375,-0.37353515625,-16.723630905151367,-14.221190452575684,5.065917491912842,60.0,2977967.0,1.0
1136741.7724601,290847.875,283630.34375,321202.375,292525.25,297125.6875,277084.75,277348.15625,272220.03125,-0.112060546875,0.902587890625,-0.373291015625,-17.211912155151367,-14.007567405700684,5.371093273162842,60.0,2977968.0,1.0
1136741.7749887,290199.0625,283592.6875,320530.1875,291324.5,296718.25,277058.1875,277186.9375,271896.03125,-0.11328125,0.900390625,-0.373291015625,-17.578123092651367,-13.610838890075684,5.584716320037842,60.0,2977969.0,1.0
1136741.7813268,289872.90625,283567.03125,320062.96875,290606.3125,296375.90625,277023.40625,277065.53125,271569.9375,-0.110595703125,0.8974609375,-0.374755859375,-17.974851608276367,-13.427733421325684,5.920409679412842,60.0,2977970.0,1.0
1136741.7842439,290358.75,283614.6875,320505.0625,291457.90625,296619.28125,277050.4375,277187.40625,271756.1875,-0.112548828125,0.8935546875,-0.37451171875,-18.310544967651367,-13.214110374450684,6.225585460662842,60.0,2977971.0,1.0
1136741.7842865,290961.0625,283649.8125,321219.96875,292656.3125,297093.21875,277090.3125,277365.40625,272175.78125,-0.10888671875,0.889404296875,-0.375244140625,-18.646238327026367,-12.908934593200684,6.439208507537842,60.0,2977972.0,1.0
1136741.7924417,290844.3125,283623.09375,321206.46875,292530.25,297126.59375,277077.0625,277342.78125,272220.21875,-0.109619140625,0.884033203125,-0.377685546875,-18.829343795776367,-12.664793968200684,6.713866710662842,60.0,2977973.0,1.0
1136741.7967816,290205.40625,283602.78125,320548.4375,291342.75,296736.78125,277065.34375,277193.65625,271912.84375,-0.108154296875,0.87939453125,-0.37939453125,-18.920896530151367,-12.390135765075684,7.049560070037842,60.0,2977974.0,1.0
1136741.7968305,289892.3125,283599.21875,320096.75,290631.625,296412.40625,277050.15625,277092.53125,271604.90625,-0.107177734375,0.8740234375,-0.378173828125,-18.768308639526367,-12.084959983825684,7.263183116912842,60.0,2977975.0,1.0
1136741.7988098,290387.875,283649.28125,320543.34375,291487.59375,296657.375,277078.84375,277217.34375,271790.4375,-0.10400390625,0.869384765625,-0.380859375,-18.524168014526367,-11.718749046325684,7.690429210662842,60.0,2977976.0,1.0
1136741.8100179,290993.71875,283678.6875,321254.125,292683.0625,297128.28125,277112.28125,277387.5,272200.71875,-0.1025390625,0.865234375,-0.382080078125,-18.280027389526367,-11.352538108825684,7.965087413787842,60.0,2977977.0,1.0
1136741.8130915,290878.28125,283656.0,321241.53125,292558.0625,297162.6875,277103.1875,277364.6875,272242.125,-0.10302734375,0.864501953125,-0.38134765625,-18.005369186401367,-11.108397483825684,8.148192405700684,60.0,2977978.0,1.0
1136741.8131341,290218.5625,283610.125,320564.96875,291355.28125,296749.90625,277070.0,277197.3125,271919.34375,-0.102294921875,0.863037109375,-0.378173828125,-17.700193405151367,-10.711668968200684,8.300780296325684,60.0,2977979.0,1.0
1136741.8187229,289887.5625,283589.28125,320093.0,290627.3125,296407.9375,277037.0,277080.375,271596.5,-0.102783203125,0.862060546875,-0.3779296875,-17.211912155151367,-10.406493186950684,8.544920921325684,60.0,2977980.0,1.0
1136741.822386,290377.0625,283637.75,320529.5625,291469.09375,296646.03125,277065.625,277201.25,271774.6875,-0.099853515625,0.86474609375,-0.37744140625,-16.845701217651367,-10.162352561950684,8.697508811950684,60.0,2977981.0,1.0
1136741.8299959,290987.375,283668.15625,321246.71875,292672.6875,297119.6875,277104.5,277375.875,272189.53125,-0.102294921875,0.8671875,-0.38037109375,-16.479490280151367,-9.857176780700684,8.880614280700684,60.0,2977982.0,1.0
1136741.8324507,290871.65625,283641.3125,321232.5,292551.1875,297150.4375,277088.875,277349.3125,272230.65625,-0.101806640625,0.86962890625,-0.375244140625,-15.960692405700684,-9.613036155700684,9.216307640075684,60.0,2977983.0,1.0
1136741.8361495,290216.6875,283606.09375,320560.59375,291355.0,296746.59375,277061.6875,277190.78125,271914.4375,-0.1005859375,0.87109375,-0.37451171875,-15.624999046325684,-9.338377952575684,9.399413108825684,60.0,2977984.0,1.0
1136741.840581,289880.3125,283584.03125,320084.40625,290620.625,296402.375,277027.625,277071.4375,271589.625,-0.097900390625,0.879638671875,-0.373779296875,-15.472411155700684,-9.002684593200684,9.552000999450684,60.0,2977985.0,1.0
1136741.8406205,290368.3125,283629.25,320517.6875,291455.84375,296636.4375,277052.5625,277190.34375,271765.84375,-0.10107421875,0.884765625,-0.371826171875,-15.319823265075684,-8.789061546325684,9.796141624450684,60.0,2977986.0,1.0
1136741.8511697,290988.78125,283665.65625,321241.6875,292671.4375,297115.59375,277091.5625,277369.15625,272181.5,-0.100830078125,0.890869140625,-0.372314453125,-15.350340843200684,-8.575438499450684,9.979247093200684,60.0,2977987.0,1.0
1136741.854243,290875.96875,283641.5,321234.5625,292551.96875,297153.59375,277083.9375,277351.28125,272226.90625,-0.102294921875,0.89697265625,-0.370361328125,-15.319823265075684,-8.300780296325684,10.192870140075684,60.0,2977988.0,1.0
1136741.854286,290207.5625,283595.90625,320553.4375,291337.46875,296740.6875,277053.1875,277185.34375,271897.1875,-0.10009765625,0.899658203125,-0.3671875,-15.441893577575684,-8.026122093200684,10.253905296325684,60.0,2977989.0,1.0
1136741.860045,289867.90625,283580.4375,320074.03125,290594.15625,296396.03125,277022.25,277066.5,271571.375,-0.1005859375,0.9052734375,-0.3662109375,-15.563963890075684,-7.843017101287842,10.314940452575684,60.0,2977990.0,1.0
1136741.8693959,290361.0625,283631.5,320509.8125,291437.625,296634.65625,277049.96875,277183.1875,271749.3125,-0.100830078125,0.909912109375,-0.3642578125,-15.686034202575684,-7.629394054412842,10.559081077575684,60.0,2977991.0,1.0
1136741.8694405,290989.25,283665.28125,321241.34375,292663.46875,297115.0625,277092.4375,277364.78125,272172.09375,-0.10107421875,0.91552734375,-0.359375,-15.838622093200684,-7.537841320037842,10.620116233825684,60.0,2977992.0,1.0
1136741.8711733,290884.1875,283642.5625,321242.9375,292557.34375,297157.4375,277086.28125,277348.875,272222.09375,-0.09912109375,0.920654296875,-0.3583984375,-16.021726608276367,-7.354735851287842,10.681151390075684,60.0,2977993.0,1.0
1136741.874954,290208.625,283587.40625,320553.4375,291337.21875,296741.15625,277046.75,277178.1875,271893.25,-0.099853515625,0.92724609375,-0.355224609375,-16.326902389526367,-7.110595226287842,10.894774436950684,60.0,2977994.0,1.0
1136741.8842615,289865.5625,283567.46875,320067.875,290587.09375,296394.25,277014.75,277060.625,271567.53125,-0.096435546875,0.933349609375,-0.35302734375,-16.784666061401367,-6.958007335662842,11.016844749450684,60.0,2977995.0,1.0
1136741.8843069,290361.59375,283625.84375,320506.59375,291425.1875,296633.59375,277047.375,277185.59375,271748.59375,-0.093994140625,0.936767578125,-0.35107421875,-17.364500045776367,-6.713866710662842,11.047362327575684,60.0,2977996.0,1.0
1136741.8863206,290989.40625,283661.34375,321237.6875,292653.09375,297112.53125,277086.09375,277363.25,272171.9375,-0.09033203125,0.939208984375,-0.35107421875,-17.913816452026367,-6.439208507537842,11.169432640075684,60.0,2977997.0,1.0
1136741.9150369,290880.25,283629.625,321237.59375,292553.40625,297151.0,277071.0,277338.75,272221.375,-0.087890625,0.939453125,-0.34912109375,-18.402097702026367,-6.103515148162842,11.291502952575684,60.0,2977998.0,1.0
1136741.9180758,290214.34375,283588.5,320560.78125,291345.78125,296744.90625,277042.5625,277179.15625,271901.84375,-0.0849609375,0.93701171875,-0.34619140625,-19.073484420776367,-5.889892101287842,11.474608421325684,60.0,2977999.0,1.0
1136741.918115,289875.40625,283579.8125,320080.03125,290593.34375,296400.15625,277020.1875,277069.1875,271578.96875,-0.08203125,0.9375,-0.345947265625,-19.622800827026367,-5.584716320037842,11.627196311950684,60.0,2978000.0,1.0
1136741.9198699,290371.34375,283641.59375,320514.03125,291421.625,296636.09375,277053.375,277187.84375,271751.625,-0.080078125,0.9345703125,-0.345947265625,-20.111082077026367,-5.249022960662842,11.627196311950684,60.0,2978001.0,1.0
1136741.9222934,291006.75,283676.71875,321253.6875,292664.28125,297127.46875,277096.65625,277368.4375,272177.84375,-0.0791015625,0.9326171875,-0.348876953125,-20.385740280151367,-4.943847179412842,11.627196311950684,60.0,2978002.0,1.0
1136741.924871,290885.875,283634.625,321246.34375,292555.8125,297162.96875,277078.40625,277341.1875,272222.90625,-0.080810546875,0.92822265625,-0.3466796875,-20.812986373901367,-4.608153820037842,11.779784202575684,60.0,2978003.0,1.0
1136741.930053,290208.625,283586.0625,320558.8125,291336.9375,296745.875,277045.5,277174.6875,271895.40625,-0.08154296875,0.9267578125,-0.345703125,-21.057126998901367,-4.272460460662842,11.810301780700684,60.0,2978004.0,1.0
1136741.9348495,289861.0,283571.3125,320070.1875,290579.3125,296399.15625,277020.46875,277064.90625,271565.46875,-0.080810546875,0.92578125,-0.344482421875,-21.240232467651367,-4.028319835662842,11.749266624450684,60.0,2978005.0,1.0
1136741.9372924,290350.15625,283625.6875,320498.0,291405.0625,296632.53125,277049.15625,277183.625,271735.71875,-0.080322265625,0.924560546875,-0.341552734375,-21.575925827026367,-3.753661870956421,11.596678733825684,60.0,2978006.0,1.0
1136741.939972,291000.875,283676.03125,321249.9375,292655.53125,297130.5,277100.5,277372.28125,272171.65625,-0.082275390625,0.925537109375,-0.343505859375,-21.606443405151367,-3.387450933456421,11.596678733825684,60.0,2978007.0,1.0
1136741.9430483,290909.21875,283655.8125,321268.0,292579.0625,297185.5,277097.53125,277358.6875,272231.84375,-0.085205078125,0.92333984375,-0.340576171875,-21.728513717651367,-3.173827886581421,11.322020530700684,60.0,2978008.0,1.0
1136741.9430999,290223.375,283602.875,320573.5625,291353.40625,296766.375,277056.0625,277180.59375,271893.96875,-0.08642578125,0.921630859375,-0.340576171875,-21.850584030151367,-2.960204839706421,11.260985374450684,60.0,2978009.0,1.0
1136741.9450125,289850.28125,283562.8125,320058.21875,290559.46875,296392.0,277007.96875,277043.28125,271541.4375,-0.0888671875,0.917236328125,-0.338623046875,-21.942136764526367,-2.807616949081421,11.016844749450684,60.0,2978010.0,1.0
1136741.9475767,290345.875,283622.1875,320487.375,291386.75,296619.46875,277040.21875,277164.25,271714.0625,-0.092041015625,0.912841796875,-0.333984375,-21.850584030151367,-2.716064214706421,10.742186546325684,60.0,2978011.0,1.0
1136741.9504943,291007.3125,283678.6875,321249.65625,292656.15625,297124.15625,277098.0625,277363.09375,272160.21875,-0.09619140625,0.91015625,-0.3330078125,-21.789548873901367,-2.685546636581421,10.437010765075684,60.0,2978012.0,1.0
1136741.9505498,290913.96875,283654.75,321269.59375,292587.75,297180.40625,277093.34375,277351.09375,272226.28125,-0.097412109375,0.906494140625,-0.33056640625,-21.606443405151367,-2.746581792831421,10.040282249450684,60.0,2978013.0,1.0
1136741.9586467,290228.28125,283599.125,320574.90625,291362.875,296760.46875,277052.46875,277177.8125,271892.25,-0.098876953125,0.903564453125,-0.333251953125,-21.392820358276367,-2.746581792831421,9.643553733825684,60.0,2978014.0,1.0
1136741.973013,289839.1875,283557.71875,320044.0,290548.09375,296375.90625,276999.1875,277033.625,271529.28125,-0.1005859375,0.900146484375,-0.330322265625,-21.026609420776367,-2.838134527206421,9.216307640075684,60.0,2978015.0,1.0
1136741.9730413,290328.4375,283614.3125,320468.15625,291368.0625,296604.90625,277029.21875,277154.5,271700.9375,-0.100341796875,0.900146484375,-0.326171875,-20.690916061401367,-2.960204839706421,8.789061546325684,60.0,2978016.0,1.0
1136741.9759839,290982.71875,283661.34375,321226.9375,292637.8125,297107.34375,277078.75,277346.71875,272142.96875,-0.101318359375,0.89892578125,-0.32470703125,-20.172117233276367,-3.021239995956421,8.331297874450684,60.0,2978017.0,1.0
1136741.976018,290887.3125,283631.5,321242.5,292561.8125,297159.84375,277065.53125,277331.4375,272203.40625,-0.10205078125,0.894287109375,-0.3203125,-19.836423873901367,-3.112792730331421,7.690429210662842,60.0,2978018.0,1.0
1136741.9760279,290213.0,283590.28125,320561.40625,291348.3125,296750.53125,277037.46875,277170.40625,271879.125,-0.09912109375,0.89208984375,-0.3173828125,-19.500730514526367,-3.204345464706421,7.232665538787842,60.0,2978019.0,1.0
1136741.9786404,289845.71875,283570.4375,320049.46875,290555.15625,296381.5625,277004.09375,277044.15625,271532.65625,-0.09765625,0.889404296875,-0.317138671875,-19.104001998901367,-3.295898199081421,6.652831554412842,60.0,2978020.0,1.0
1136741.9823476,290336.03125,283631.65625,320475.46875,291365.375,296612.21875,277041.3125,277168.0,271705.6875,-0.097412109375,0.88525390625,-0.31298828125,-18.554685592651367,-3.448486089706421,6.317138195037842,60.0,2978021.0,1.0
1136741.9966498,291005.34375,283684.15625,321245.625,292645.40625,297123.71875,277097.28125,277363.15625,272156.90625,-0.096923828125,0.882568359375,-0.309814453125,-18.035886764526367,-3.570556402206421,5.828856945037842,60.0,2978022.0,1.0
1136741.9966809,290915.46875,283651.59375,321264.21875,292579.6875,297177.46875,277083.59375,277342.0625,272219.59375,-0.0947265625,0.880859375,-0.3076171875,-17.486570358276367,-3.631591558456421,5.401610851287842,60.0,2978023.0,1.0
1136741.9992064,290231.34375,283603.875,320573.125,291346.25,296761.0,277052.9375,277177.125,271887.34375,-0.092041015625,0.8779296875,-0.3046875,-16.784666061401367,-3.631591558456421,5.065917491912842,60.0,2978024.0,1.0
1136741.9992406,289842.875,283571.40625,320041.9375,290525.21875,296373.5,277006.96875,277038.34375,271522.03125,-0.08740234375,0.87841796875,-0.3017578125,-16.357419967651367,-3.662109136581421,4.547118663787842,60.0,2978025.0,1.0
1136742.0104663,290324.84375,283621.03125,320453.9375,291335.6875,296585.40625,277024.5,277141.53125,271676.625,-0.08447265625,0.878173828125,-0.300048828125,-15.960692405700684,-3.662109136581421,4.150390148162842,60.0,2978026.0,1.0
1136742.0104947,290991.03125,283667.0,321222.9375,292621.375,297093.9375,277075.46875,277337.34375,272129.5625,-0.081298828125,0.878173828125,-0.29833984375,-15.380858421325684,-3.570556402206421,3.875732183456421,60.0,2978027.0,1.0
1136742.0241839,290908.78125,283641.0625,321255.28125,292574.15625,297163.0625,277073.5,277333.21875,272207.96875,-0.077880859375,0.881103515625,-0.2939453125,-15.075682640075684,-3.479003667831421,3.723144292831421,60.0,2978028.0,1.0
1136742.0242162,290208.0,283587.40625,320553.8125,291329.625,296740.53125,277035.5,277161.03125,271868.125,-0.07568359375,0.88134765625,-0.2919921875,-14.648436546325684,-3.356933355331421,3.540038824081421,60.0,2978029.0,1.0
1136742.0310545,289821.84375,283559.96875,320023.625,290508.0625,296360.8125,276995.625,277027.53125,271504.6875,-0.073486328125,0.88037109375,-0.29052734375,-14.282225608825684,-3.112792730331421,3.326415777206421,60.0,2978030.0,1.0
1136742.0310828,290322.96875,283631.84375,320458.125,291340.15625,296597.28125,277042.1875,277160.46875,271683.3125,-0.073974609375,0.87939453125,-0.289306640625,-13.885497093200684,-2.960204839706421,3.173827886581421,60.0,2978031.0,1.0
1136742.0310902,290995.75,283682.8125,321234.625,292638.0,297110.65625,277097.8125,277362.375,272142.15625,-0.072509765625,0.88037109375,-0.2861328125,-13.488768577575684,-2.838134527206421,3.051757574081421,60.0,2978032.0,1.0
1136742.0336954,290913.59375,283652.59375,321266.28125,292586.59375,297178.25,277088.15625,277348.3125,272212.78125,-0.07470703125,0.88232421875,-0.287841796875,-12.969969749450684,-2.624511480331421,2.807616949081421,60.0,2978033.0,1.0
1136742.0359312,290210.3125,283586.59375,320554.6875,291332.5625,296744.8125,277037.28125,277159.5,271858.03125,-0.075439453125,0.885009765625,-0.287353515625,-12.512206077575684,-2.441406011581421,2.746581792831421,60.0,2978034.0,1.0
1136742.0435695,289814.625,283554.4375,320011.28125,290491.40625,296353.84375,276987.84375,277010.46875,271479.375,-0.077880859375,0.88525390625,-0.2861328125,-12.329100608825684,-2.380370855331421,2.655029058456421,60.0,2978035.0,1.0
1136742.0461162,290313.40625,283626.125,320438.46875,291312.8125,296583.625,277026.71875,277134.71875,271650.5,-0.080078125,0.89208984375,-0.283447265625,-11.840819358825684,-2.258300542831421,2.502441167831421,60.0,2978036.0,1.0
1136742.0499392,291003.375,283687.90625,321233.03125,292639.34375,297113.15625,277090.84375,277344.65625,272128.3125,-0.0810546875,0.896728515625,-0.28125,-11.505125999450684,-2.197265386581421,2.227782964706421,60.0,2978037.0,1.0
1136742.0566713,290929.5,283659.5625,321274.96875,292601.0625,297188.28125,277086.1875,277339.375,272215.75,-0.08154296875,0.9013671875,-0.28173828125,-11.322020530700684,-2.166747808456421,2.136230230331421,60.0,2978038.0,1.0
1136742.0567024,290219.71875,283586.53125,320556.9375,291339.96875,296752.3125,277033.0,277154.75,271856.78125,-0.08349609375,0.90576171875,-0.279052734375,-11.047362327575684,-1.9531248807907104,1.8615721464157104,60.0,2978039.0,1.0
1136742.0704575,289809.0625,283544.9375,320002.25,290487.3125,296351.25,276980.5,277010.28125,271471.78125,-0.085693359375,0.9072265625,-0.28173828125,-10.864256858825684,-1.9226073026657104,1.8920897245407104,60.0,2978040.0,1.0
1136742.0704895,290308.5,283622.28125,320432.84375,291311.5625,296584.6875,277026.5625,277142.4375,271649.4375,-0.085205078125,0.908447265625,-0.282470703125,-10.681151390075684,-1.9226073026657104,1.7700194120407104,60.0,2978041.0,1.0
1136742.0730008,291004.875,283691.5625,321238.46875,292650.78125,297122.8125,277099.78125,277359.875,272137.6875,-0.083740234375,0.91015625,-0.283203125,-10.406493186950684,-1.8920897245407104,1.6479490995407104,60.0,2978042.0,1.0
1136742.0730584,290915.03125,283645.4375,321269.875,292600.96875,297187.375,277085.46875,277342.96875,272209.75,-0.08349609375,0.91259765625,-0.282958984375,-10.223387718200684,-1.8005369901657104,1.6174315214157104,60.0,2978043.0,1.0
1136742.0755002,290206.3125,283578.03125,320555.15625,291337.3125,296756.4375,277039.875,277162.0,271853.90625,-0.08447265625,0.916015625,-0.283447265625,-9.948729515075684,-1.7395018339157104,1.4953612089157104,60.0,2978044.0,1.0
1136742.0755299,289802.90625,283548.0625,320005.5625,290489.1875,296364.75,276997.03125,277022.71875,271480.53125,-0.08349609375,0.918701171875,-0.282470703125,-9.765624046325684,-1.8005369901657104,1.4648436307907104,60.0,2978045.0,1.0
1136742.0861219,290286.3125,283613.53125,320421.65625,291296.625,296588.25,277031.375,277146.1875,271648.90625,-0.08251953125,0.921630859375,-0.285888671875,-9.552000999450684,-1.6174315214157104,1.4038084745407104,60.0,2978046.0,1.0
1136742.0891686,290980.21875,283672.4375,321220.34375,292624.75,297117.0,277094.21875,277356.1875,272127.6875,-0.08056640625,0.92236328125,-0.2841796875,-9.277342796325684,-1.4953612089157104,1.3427733182907104,60.0,2978047.0,1.0
1136742.0892018,290916.71875,283645.625,321271.84375,292605.4375,297192.65625,277086.71875,277349.84375,272214.3125,-0.079345703125,0.92236328125,-0.285888671875,-9.002684593200684,-1.4038084745407104,1.3122557401657104,60.0,2978048.0,1.0
1136742.094887,290220.25,283586.6875,320565.875,291358.21875,296767.15625,277043.0,277172.71875,271868.40625,-0.076904296875,0.9228515625,-0.2861328125,-8.544920921325684,-1.0986326932907104,1.3732908964157104,60.0,2978049.0,1.0
1136742.0986161,289807.625,283548.78125,320004.5625,290486.5,296364.5625,276991.875,277025.65625,271484.9375,-0.07568359375,0.924072265625,-0.288818359375,-8.300780296325684,-0.9155272841453552,1.4648436307907104,60.0,2978050.0,1.0
1136742.1049037,290290.96875,283609.125,320414.34375,291284.625,296578.53125,277021.1875,277139.125,271645.0625,-0.077880859375,0.921875,-0.289306640625,-8.026122093200684,-0.6713866591453552,1.5258787870407104,60.0,2978051.0,1.0
1136742.1141854,290984.3125,283667.78125,321210.125,292616.90625,297103.34375,277078.3125,277340.5625,272117.46875,-0.076904296875,0.921630859375,-0.289306640625,-7.659911632537842,-0.3662109076976776,1.4953612089157104,60.0,2978052.0,1.0
1136742.1142174,290924.34375,283638.8125,321267.53125,292607.25,297187.03125,277073.5,277337.6875,272209.21875,-0.07861328125,0.921875,-0.288330078125,-7.293700695037842,-0.2136230319738388,1.4953612089157104,60.0,2978053.0,1.0
1136742.1166845,290229.0,283582.3125,320565.4375,291364.84375,296764.21875,277035.3125,277164.40625,271867.9375,-0.0830078125,0.919921875,-0.2900390625,-6.958007335662842,-0.0610351525247097,1.4648436307907104,60.0,2978054.0,1.0
1136742.1167168,289821.0625,283558.96875,320011.375,290499.1875,296368.5,276996.34375,277022.96875,271485.1875,-0.0830078125,0.9208984375,-0.287109375,-6.530761241912842,0.0915527269244194,1.3427733182907104,60.0,2978055.0,1.0
1136742.1248868,290307.25,283630.78125,320427.375,291300.71875,296589.96875,277034.15625,277146.09375,271644.4375,-0.0888671875,0.921630859375,-0.2861328125,-6.225585460662842,0.1525878757238388,1.2207030057907104,60.0,2978056.0,1.0
1136742.1367197,290985.03125,283669.9375,321211.65625,292623.34375,297100.21875,277073.40625,277335.90625,272101.03125,-0.09521484375,0.924072265625,-0.283935546875,-5.889892101287842,0.2441406100988388,1.0681151151657104,60.0,2978057.0,1.0
1136742.1367767,290917.71875,283630.15625,321261.5625,292613.6875,297174.78125,277058.75,277324.28125,272183.1875,-0.09765625,0.926513671875,-0.283203125,-5.706786632537842,0.2746581733226776,0.9765624403953552,60.0,2978058.0,1.0
1136742.1391058,290208.96875,283563.71875,320546.46875,291348.21875,296744.53125,277010.1875,277140.28125,271830.65625,-0.10205078125,0.926513671875,-0.28125,-5.523681163787842,0.0915527269244194,0.6103515028953552,60.0,2978059.0,1.0
1136742.1391562,289785.46875,283530.625,319976.3125,290462.8125,296337.28125,276961.46875,276988.46875,271438.71875,-0.1064453125,0.926025390625,-0.282470703125,-5.218505382537842,0.0,0.3967284858226776,60.0,2978060.0,1.0
1136742.1450446,290276.65625,283606.0,320392.59375,291265.96875,296559.84375,277006.0,277115.25,271604.46875,-0.107421875,0.92529296875,-0.28125,-5.035399913787842,-0.1831054538488388,0.1220703050494194,60.0,2978061.0,1.0
1136742.1476036,290994.4375,283679.25,321214.78125,292628.6875,297109.5,277085.03125,277342.34375,272101.125,-0.111083984375,0.926513671875,-0.27685546875,-4.974364757537842,-0.2746581733226776,-0.2441406100988388,60.0,2978062.0,1.0
1136742.1537389,290933.71875,283646.0625,321275.40625,292632.4375,297190.96875,277072.40625,277331.78125,272189.53125,-0.1171875,0.92578125,-0.273681640625,-4.852294445037842,-0.5798339247703552,-0.7019042372703552,60.0,2978063.0,1.0
1136742.1604159,290238.84375,283593.40625,320573.28125,291382.09375,296770.84375,277036.21875,277161.5625,271848.71875,-0.11865234375,0.92626953125,-0.2744140625,-4.821776866912842,-1.0070799589157104,-1.0375975370407104,60.0,2978064.0,1.0
1136742.1604645,289853.9375,283600.5625,320037.3125,290522.1875,296400.40625,277029.40625,277053.5625,271494.21875,-0.1220703125,0.927001953125,-0.271484375,-4.791259288787842,-1.2512205839157104,-1.6174315214157104,60.0,2978065.0,1.0
1136742.1693836,290331.65625,283662.875,320438.8125,291306.1875,296609.53125,277062.40625,277167.8125,271648.09375,-0.121826171875,0.928955078125,-0.271240234375,-4.669188976287842,-1.4648436307907104,-1.9531248807907104,60.0,2978066.0,1.0
1136742.1694283,291009.53125,283694.4375,321223.8125,292630.5625,297120.0625,277098.78125,277349.9375,272109.78125,-0.12060546875,0.92822265625,-0.268798828125,-4.730224132537842,-1.8310545682907104,-2.197265386581421,60.0,2978067.0,1.0
1136742.1711734,290958.75,283666.375,321294.28125,292639.0625,297212.6875,277094.15625,277351.8125,272212.4375,-0.12158203125,0.929443359375,-0.26708984375,-4.760741710662842,-2.136230230331421,-2.563476324081421,60.0,2978068.0,1.0
1136742.1750394,290254.125,283600.65625,320582.875,291378.78125,296784.59375,277046.65625,277173.53125,271859.28125,-0.118408203125,0.93017578125,-0.265625,-4.821776866912842,-2.471923589706421,-2.960204839706421,60.0,2978069.0,1.0
1136742.1842501,289838.46875,283573.28125,320010.9375,290488.28125,296376.625,277003.40625,277029.21875,271464.90625,-0.115234375,0.93017578125,-0.26416015625,-4.913329601287842,-2.685546636581421,-3.326415777206421,60.0,2978070.0,1.0
1136742.1842922,290301.15625,283623.8125,320397.15625,291258.1875,296572.0,277022.25,277130.71875,271607.875,-0.1142578125,0.9306640625,-0.265625,-4.974364757537842,-2.868652105331421,-3.540038824081421,60.0,2978071.0,1.0
1136742.1904555,291018.84375,283694.625,321222.21875,292629.9375,297120.6875,277091.0,277350.5625,272107.1875,-0.111328125,0.93115234375,-0.26708984375,-5.065917491912842,-3.021239995956421,-3.784179449081421,60.0,2978072.0,1.0
1136742.1905047,290978.0625,283669.125,321303.125,292653.625,297222.875,277092.96875,277357.1875,272218.6875,-0.1123046875,0.930908203125,-0.26416015625,-5.126952648162842,-3.112792730331421,-3.967284917831421,60.0,2978073.0,1.0
1136742.1951498,290283.5625,283608.4375,320600.125,291403.8125,296803.28125,277057.03125,277185.6875,271877.15625,-0.10986328125,0.9296875,-0.26025390625,-5.065917491912842,-3.326415777206421,-4.028319835662842,60.0,2978074.0,1.0
1136742.1986388,289837.125,283563.09375,320004.40625,290481.9375,296367.15625,276993.03125,277018.9375,271462.21875,-0.108642578125,0.929931640625,-0.2587890625,-4.943847179412842,-3.417968511581421,-4.119872570037842,60.0,2978075.0,1.0
1136742.2130446,290324.84375,283647.3125,320414.96875,291271.21875,296582.53125,277039.25,277145.8125,271625.03125,-0.108642578125,0.931640625,-0.26025390625,-4.943847179412842,-3.509521245956421,-4.028319835662842,60.0,2978076.0,1.0
1136742.2130882,291053.78125,283718.9375,321250.28125,292659.4375,297142.84375,277114.78125,277370.6875,272132.78125,-0.10791015625,0.93115234375,-0.260986328125,-4.943847179412842,-3.631591558456421,-4.058837413787842,60.0,2978077.0,1.0
1136742.2149793,291020.09375,283692.46875,321337.0,292696.5625,297247.71875,277111.84375,277372.8125,272243.1875,-0.110107421875,0.9296875,-0.25927734375,-4.974364757537842,-3.723144292831421,-3.997802495956421,60.0,2978078.0,1.0
1136742.2175261,290325.9375,283633.90625,320633.8125,291446.71875,296820.28125,277068.03125,277195.71875,271895.84375,-0.111328125,0.92626953125,-0.260498046875,-4.974364757537842,-3.814697027206421,-3.997802495956421,60.0,2978079.0,1.0
1136742.2200442,289869.15625,283573.46875,320026.21875,290512.4375,296379.125,276992.40625,277021.53125,271474.8125,-0.11572265625,0.922119140625,-0.260009765625,-4.882812023162842,-3.814697027206421,-3.814697027206421,60.0,2978080.0,1.0
1136742.2237272,290352.03125,283649.46875,320429.71875,291292.40625,296595.25,277037.09375,277148.59375,271636.65625,-0.11572265625,0.9189453125,-0.26123046875,-4.760741710662842,-3.875732183456421,-3.814697027206421,60.0,2978081.0,1.0
1136742.2331019,291068.8125,283709.1875,321248.125,292664.09375,297140.4375,277102.0,277364.40625,272131.15625,-0.114990234375,0.914306640625,-0.264404296875,-4.669188976287842,-3.936767339706421,-3.936767339706421,60.0,2978082.0,1.0
1136742.2331441,291019.375,283662.15625,321317.59375,292685.125,297233.25,277079.65625,277349.125,272223.59375,-0.114990234375,0.913330078125,-0.265625,-4.516601085662842,-3.997802495956421,-3.906249761581421,60.0,2978083.0,1.0
1136742.235643,290317.4375,283597.34375,320607.09375,291430.0,296803.375,277032.09375,277165.125,271870.375,-0.11767578125,0.914306640625,-0.267333984375,-4.119872570037842,-4.150390148162842,-3.936767339706421,60.0,2978084.0,1.0
1136742.2356868,289890.875,283578.75,320030.3125,290522.53125,296394.0625,276998.65625,277024.84375,271481.625,-0.117431640625,0.914794921875,-0.263427734375,-3.814697027206421,-4.364013195037842,-3.875732183456421,60.0,2978085.0,1.0
1136742.2460705,290369.125,283659.9375,320430.5,291291.78125,296607.21875,277046.65625,277151.28125,271642.8125,-0.117431640625,0.914794921875,-0.263916015625,-3.570556402206421,-4.516601085662842,-3.723144292831421,60.0,2978086.0,1.0
1136742.2543162,291069.71875,283706.59375,321240.4375,292655.78125,297133.1875,277095.3125,277352.875,272125.625,-0.114501953125,0.91455078125,-0.264404296875,-3.234863042831421,-4.516601085662842,-3.753661870956421,60.0,2978087.0,1.0
1136742.2543597,291002.125,283644.46875,321298.65625,292667.5,297205.875,277060.875,277322.9375,272203.84375,-0.111328125,0.9111328125,-0.262939453125,-3.112792730331421,-4.547118663787842,-3.540038824081421,60.0,2978088.0,1.0
1136742.2561337,290276.125,283563.09375,320571.0625,291389.34375,296760.0,276997.3125,277126.96875,271835.5,-0.109130859375,0.906494140625,-0.26708984375,-2.777099370956421,-4.699706554412842,-3.295898199081421,60.0,2978089.0,1.0
1136742.2588215,289838.3125,283539.65625,319985.34375,290468.96875,296342.125,276959.6875,276982.75,271439.59375,-0.111083984375,0.90283203125,-0.268310546875,-2.319335699081421,-4.608153820037842,-3.204345464706421,60.0,2978090.0,1.0
1136742.2612209,290345.25,283650.625,320414.5,291273.90625,296584.40625,277043.09375,277144.5625,271626.8125,-0.109619140625,0.901123046875,-0.265869140625,-1.7395018339157104,-4.547118663787842,-3.112792730331421,60.0,2978091.0,1.0
1136742.2700433,291090.90625,283737.4375,321268.6875,292695.21875,297163.25,277134.1875,277391.34375,272151.46875,-0.10986328125,0.89794921875,-0.26611328125,-1.2512205839157104,-4.486083507537842,-2.929687261581421,60.0,2978092.0,1.0
1136742.2743164,291024.09375,283676.8125,321331.03125,292714.71875,297239.59375,277097.4375,277362.90625,272233.09375,-0.11181640625,0.896240234375,-0.262939453125,-0.5798339247703552,-4.455565929412842,-2.777099370956421,60.0,2978093.0,1.0
1136742.2743593,290300.96875,283601.8125,320608.53125,291429.84375,296799.09375,277040.0625,277171.3125,271871.53125,-0.109619140625,0.894775390625,-0.2646484375,0.0,-4.302978038787842,-2.624511480331421,60.0,2978094.0,1.0
1136742.2830505,289850.375,283570.25,320013.4375,290491.59375,296374.21875,276995.0,277020.03125,271467.40625,-0.109130859375,0.896728515625,-0.263427734375,0.9765624403953552,-4.272460460662842,-2.410888433456421,60.0,2978095.0,1.0
1136742.2831032,290321.09375,283652.40625,320405.3125,291251.03125,296579.5,277041.5625,277141.71875,271618.5,-0.11083984375,0.897216796875,-0.26513671875,1.4648436307907104,-4.272460460662842,-2.105712652206421,60.0,2978096.0,1.0
1136742.2850006,291038.15625,283715.25,321230.0625,292637.46875,297123.28125,277102.375,277356.46875,272108.1875,-0.113037109375,0.899169921875,-0.266845703125,2.044677495956421,-4.333495616912842,-1.8920897245407104,60.0,2978097.0,1.0
1136742.2912391,291004.09375,283677.71875,321330.21875,292698.875,297242.09375,277097.8125,277364.875,272225.3125,-0.114501953125,0.904296875,-0.2626953125,2.441406011581421,-4.272460460662842,-1.7700194120407104,60.0,2978098.0,1.0
1136742.3006366,290300.625,283612.8125,320628.0,291451.5625,296819.1875,277054.4375,277185.6875,271881.96875,-0.1162109375,0.90966796875,-0.263916015625,2.807616949081421,-4.364013195037842,-1.6479490995407104,60.0,2978099.0,1.0
1136742.3006826,289835.0,283563.1875,320013.34375,290498.65625,296379.75,276992.125,277016.1875,271467.75,-0.11572265625,0.91259765625,-0.261962890625,3.173827886581421,-4.333495616912842,-1.5258787870407104,60.0,2978100.0,1.0
1136742.3023374,290291.78125,283625.15625,320388.21875,291237.78125,296571.375,277023.875,277125.0625,271605.8125,-0.116455078125,0.913330078125,-0.258544921875,3.448486089706421,-4.455565929412842,-1.2817381620407104,60.0,2978101.0,1.0
1136742.3062211,291016.5,283691.75,321217.90625,292623.34375,297119.6875,277093.15625,277345.28125,272098.71875,-0.1201171875,0.918212890625,-0.26171875,3.753661870956421,-4.486083507537842,-1.0986326932907104,60.0,2978102.0,1.0
1136742.3155651,291003.28125,283672.625,321331.46875,292702.28125,297241.125,277099.3125,277363.71875,272222.625,-0.119384765625,0.919677734375,-0.25927734375,3.875732183456421,-4.577636241912842,-0.8850097060203552,60.0,2978103.0,1.0
1136742.3156286,290288.46875,283596.1875,320622.1875,291451.75,296812.0625,277046.40625,277180.5,271875.71875,-0.119140625,0.92138671875,-0.25927734375,3.936767339706421,-4.608153820037842,-0.7629393935203552,60.0,2978104.0,1.0
1136742.3174348,289845.90625,283574.4375,320033.0,290520.3125,296396.9375,277007.3125,277036.28125,271484.3125,-0.118896484375,0.9228515625,-0.2568359375,3.906249761581421,-4.699706554412842,-0.5493163466453552,60.0,2978105.0,1.0
1136742.3268594,290310.8125,283645.53125,320412.09375,291261.9375,296594.875,277045.15625,277151.8125,271624.3125,-0.118896484375,0.924072265625,-0.256103515625,4.028319835662842,-4.760741710662842,-0.4882812201976776,60.0,2978106.0,1.0
1136742.3268986,291029.65625,283704.34375,321230.625,292636.75,297132.03125,277102.09375,277359.0625,272106.21875,-0.11865234375,0.926513671875,-0.25732421875,4.058837413787842,-4.882812023162842,-0.3967284858226776,60.0,2978107.0,1.0
1136742.328602,290998.1875,283668.9375,321324.9375,292692.4375,297237.34375,277091.5625,277356.375,272214.84375,-0.1162109375,0.9296875,-0.258544921875,3.967284917831421,-4.821776866912842,-0.2441406100988388,60.0,2978108.0,1.0
1136742.3474754,290301.25,283607.96875,320632.75,291460.59375,296825.1875,277051.0625,277184.96875,271886.09375,-0.114013671875,0.931396484375,-0.261474609375,3.936767339706421,-4.943847179412842,-0.2136230319738388,60.0,2978109.0,1.0
1136742.3511137,289853.5,283583.5625,320042.21875,290530.65625,296409.8125,277008.75,277035.5,271495.5625,-0.110595703125,0.932861328125,-0.260986328125,3.723144292831421,-4.913329601287842,-0.1220703050494194,60.0,2978110.0,1.0
1136742.351156,290282.65625,283631.40625,320392.15625,291234.21875,296583.25,277029.6875,277130.625,271610.1875,-0.1064453125,0.932373046875,-0.2607421875,3.662109136581421,-4.821776866912842,-0.0610351525247097,60.0,2978111.0,1.0
1136742.3511672,291001.75,283689.4375,321209.0625,292608.9375,297119.53125,277089.75,277345.5625,272087.71875,-0.102294921875,0.9326171875,-0.26123046875,3.662109136581421,-4.669188976287842,0.1220703050494194,60.0,2978112.0,1.0
1136742.3536824,290986.03125,283661.0,321317.4375,292690.65625,297233.25,277084.5,277351.0,272205.375,-0.097412109375,0.93408203125,-0.26123046875,3.387450933456421,-4.516601085662842,0.3051757514476776,60.0,2978113.0,1.0
1136742.3612361,290287.5625,283593.59375,320626.3125,291465.0625,296816.96875,277039.0625,277175.15625,271879.3125,-0.096435546875,0.934326171875,-0.265380859375,3.326415777206421,-4.302978038787842,0.5798339247703552,60.0,2978114.0,1.0
1136742.3637473,289833.46875,283560.78125,320028.8125,290524.6875,296394.59375,276995.0,277028.875,271492.15625,-0.094970703125,0.935302734375,-0.264892578125,3.326415777206421,-4.028319835662842,0.7934569716453552,60.0,2978115.0,1.0
1136742.3662199,290289.375,283635.0625,320396.34375,291245.3125,296583.0625,277033.25,277137.5,271618.0625,-0.093505859375,0.9375,-0.270263671875,3.204345464706421,-3.631591558456421,1.0070799589157104,60.0,2978116.0,1.0
1136742.3688376,291014.4375,283702.40625,321213.71875,292614.5625,297122.28125,277100.03125,277349.5,272089.40625,-0.09326171875,0.9384765625,-0.274658203125,3.173827886581421,-3.356933355331421,1.2512205839157104,60.0,2978117.0,1.0
1136742.3805689,291010.59375,283680.21875,321333.15625,292706.65625,297247.71875,277106.21875,277368.53125,272214.21875,-0.092041015625,0.939697265625,-0.273193359375,3.082275152206421,-2.960204839706421,1.4953612089157104,60.0,2978118.0,1.0
1136742.3806213,290323.78125,283624.53125,320659.40625,291498.21875,296851.125,277073.84375,277208.84375,271905.21875,-0.093505859375,0.94140625,-0.276123046875,3.051757574081421,-2.807616949081421,1.6479490995407104,60.0,2978119.0,1.0
1136742.3830459,289847.5,283572.75,320046.0625,290539.4375,296416.875,277012.78125,277042.71875,271504.34375,-0.09765625,0.942138671875,-0.276611328125,2.868652105331421,-2.380370855331421,1.9531248807907104,60.0,2978120.0,1.0
1136742.3830882,290290.15625,283634.53125,320399.21875,291240.375,296591.9375,277039.5,277141.4375,271619.65625,-0.099609375,0.94287109375,-0.27685546875,2.746581792831421,-2.197265386581421,1.9836424589157104,60.0,2978121.0,1.0
1136742.3849975,291020.53125,283703.90625,321220.0625,292616.96875,297126.59375,277102.1875,277352.78125,272086.28125,-0.101806640625,0.942138671875,-0.279052734375,2.746581792831421,-1.9531248807907104,2.105712652206421,60.0,2978122.0,1.0
1136742.3888289,291005.59375,283672.53125,321328.875,292698.875,297233.4375,277090.5625,277351.46875,272193.65625,-0.105712890625,0.942138671875,-0.27880859375,2.838134527206421,-1.7395018339157104,2.136230230331421,60.0,2978123.0,1.0
1136742.4000442,290313.3125,283608.875,320652.0625,291490.8125,296830.8125,277049.4375,277184.71875,271885.03125,-0.10693359375,0.942138671875,-0.279052734375,2.899169683456421,-1.6174315214157104,2.075195074081421,60.0,2978124.0,1.0
1136742.403086,289854.40625,283575.53125,320057.15625,290553.125,296417.9375,277008.125,277041.03125,271507.0,-0.107421875,0.941650390625,-0.279052734375,2.990722417831421,-1.5258787870407104,1.9226073026657104,60.0,2978125.0,1.0
1136742.4031289,290281.9375,283627.8125,320396.0,291231.4375,296587.0,277029.9375,277135.0,271614.03125,-0.1083984375,0.941650390625,-0.28369140625,3.173827886581421,-1.3732908964157104,1.8310545682907104,60.0,2978126.0,1.0
1136742.4049178,291019.375,283700.6875,321219.0,292608.21875,297125.59375,277095.84375,277348.9375,272085.65625,-0.10791015625,0.941162109375,-0.28466796875,3.234863042831421,-1.3122557401657104,1.7395018339157104,60.0,2978127.0,1.0
1136742.4138241,291022.78125,283680.5,321345.5,292718.28125,297250.3125,277093.96875,277360.03125,272211.8125,-0.108642578125,0.94384765625,-0.28564453125,3.295898199081421,-1.2817381620407104,1.6479490995407104,60.0,2978128.0,1.0
1136742.4180334,290331.5625,283618.0,320674.0625,291521.21875,296853.8125,277053.71875,277193.46875,271907.90625,-0.107177734375,0.943603515625,-0.2890625,3.570556402206421,-1.1901854276657104,1.4648436307907104,60.0,2978129.0,1.0
1136742.4180739,289865.125,283587.6875,320078.78125,290575.28125,296443.875,277017.625,277054.8125,271539.09375,-0.10693359375,0.94384765625,-0.288330078125,3.662109136581421,-1.1901854276657104,1.2817381620407104,60.0,2978130.0,1.0
1136742.4262215,290282.375,283629.96875,320407.625,291243.875,296602.9375,277034.5,277146.96875,271642.46875,-0.103271484375,0.94189453125,-0.289794921875,3.875732183456421,-0.9460448622703552,1.2512205839157104,60.0,2978131.0,1.0
1136742.4305737,290995.6875,283685.9375,321208.34375,292598.03125,297120.3125,277087.0,277348.3125,272089.6875,-0.099853515625,0.940673828125,-0.29345703125,4.028319835662842,-0.8850097060203552,1.0681151151657104,60.0,2978132.0,1.0
1136742.4306172,290996.125,283664.3125,321334.40625,292713.1875,297243.78125,277083.25,277356.375,272208.125,-0.098388671875,0.938232421875,-0.29248046875,4.302978038787842,-0.7324218153953552,1.0375975370407104,60.0,2978133.0,1.0
1136742.4325246,290325.3125,283614.5,320681.46875,291539.625,296866.59375,277056.5,277202.875,271922.3125,-0.09423828125,0.934814453125,-0.29345703125,4.486083507537842,-0.4577636420726776,1.0681151151657104,60.0,2978134.0,1.0
1136742.4436814,289858.34375,283579.1875,320084.875,290590.65625,296456.21875,277018.875,277060.96875,271553.6875,-0.089111328125,0.9296875,-0.293701171875,4.730224132537842,-0.1831054538488388,1.1291502714157104,60.0,2978135.0,1.0
1136742.4468548,290263.15625,283623.625,320401.09375,291234.65625,296603.5625,277034.96875,277145.71875,271644.25,-0.087646484375,0.926025390625,-0.296630859375,4.974364757537842,0.0915527269244194,1.2207030057907104,60.0,2978136.0,1.0
1136742.4468983,290984.78125,283688.8125,321206.125,292586.9375,297122.28125,277092.4375,277350.03125,272095.84375,-0.08447265625,0.9248046875,-0.298828125,5.462646007537842,0.3967284858226776,1.3427733182907104,60.0,2978137.0,1.0
1136742.4486842,290997.71875,283665.46875,321333.96875,292702.09375,297242.1875,277084.75,277355.65625,272212.625,-0.0830078125,0.923095703125,-0.302734375,5.950927257537842,0.8544921278953552,1.4648436307907104,60.0,2978138.0,1.0
1136742.4651662,290326.46875,283607.34375,320681.84375,291530.78125,296859.15625,277050.5,277198.21875,271925.0,-0.0830078125,0.93017578125,-0.306640625,6.408690929412842,1.3122557401657104,1.5869139432907104,60.0,2978139.0,1.0
1136742.4705038,289869.6875,283580.09375,320095.78125,290599.59375,296456.125,277016.625,277061.78125,271566.46875,-0.082275390625,0.93408203125,-0.306884765625,6.805419445037842,1.6784666776657104,1.7089842557907104,60.0,2978140.0,1.0
1136742.4705462,290284.8125,283635.59375,320418.09375,291248.53125,296610.25,277040.84375,277152.53125,271659.71875,-0.085205078125,0.93994140625,-0.305419921875,7.080077648162842,1.9531248807907104,1.9226073026657104,60.0,2978141.0,1.0
1136742.4724419,291007.3125,283701.3125,321217.5625,292595.625,297126.75,277098.0625,277356.1875,272102.71875,-0.085205078125,0.9423828125,-0.3076171875,7.263183116912842,2.258300542831421,2.227782964706421,60.0,2978142.0,1.0
1136742.475011,291018.21875,283677.625,321347.28125,292721.15625,297248.34375,277090.84375,277363.15625,272219.75,-0.0869140625,0.945068359375,-0.304931640625,7.385253429412842,2.532958745956421,2.319335699081421,60.0,2978143.0,1.0
1136742.4776149,290330.21875,283606.8125,320682.375,291536.84375,296856.9375,277047.84375,277198.5625,271924.53125,-0.08837890625,0.946533203125,-0.303955078125,7.446288585662842,2.899169683456421,2.532958745956421,60.0,2978144.0,1.0
1136742.4805801,289859.3125,283567.5625,320082.4375,290582.71875,296441.90625,277007.3125,277052.65625,271551.4375,-0.0908203125,0.947265625,-0.30517578125,7.385253429412842,3.173827886581421,2.746581792831421,60.0,2978145.0,1.0
1136742.4806245,290265.84375,283619.875,320398.5,291218.5625,296592.71875,277031.8125,277141.78125,271636.46875,-0.09326171875,0.946044921875,-0.306396484375,7.537841320037842,3.417968511581421,2.899169683456421,60.0,2978146.0,1.0
1136742.4887233,290965.90625,283673.25,321180.375,292545.09375,297094.84375,277077.5,277332.0625,272060.8125,-0.0947265625,0.94482421875,-0.3056640625,7.568358898162842,3.509521245956421,2.990722417831421,60.0,2978147.0,1.0
1136742.4918224,290965.46875,283642.3125,321299.46875,292656.0625,297208.3125,277064.09375,277332.0625,272164.5,-0.0966796875,0.944580078125,-0.306884765625,7.659911632537842,3.662109136581421,3.082275152206421,60.0,2978148.0,1.0
1136742.4918663,290304.84375,283591.96875,320659.03125,291503.0625,296833.78125,277037.71875,277184.4375,271882.15625,-0.098388671875,0.943603515625,-0.304931640625,7.751464366912842,3.662109136581421,3.234863042831421,60.0,2978149.0,1.0
1136742.5051709,289826.6875,283550.5,320049.8125,290549.4375,296408.46875,276986.5,277026.71875,271498.53125,-0.09814453125,0.94140625,-0.30615234375,7.812499523162842,3.662109136581421,3.234863042831421,60.0,2978150.0,1.0
1136742.5080893,290230.8125,283604.84375,320357.8125,291177.0,296554.46875,277007.5,277113.46875,271584.25,-0.10009765625,0.94189453125,-0.3076171875,7.904052257537842,3.662109136581421,3.204345464706421,60.0,2978151.0,1.0
1136742.5081328,290945.0625,283666.28125,321153.71875,292516.125,297069.375,277064.71875,277318.375,272030.3125,-0.103271484375,0.94140625,-0.3076171875,7.965087413787842,3.601073980331421,3.204345464706421,60.0,2978152.0,1.0
1136742.5100401,290968.59375,283647.0625,321296.59375,292658.125,297200.4375,277062.3125,277332.78125,272157.4375,-0.10595703125,0.938232421875,-0.3056640625,8.148192405700684,3.601073980331421,3.173827886581421,60.0,2978153.0,1.0
1136742.512406,290314.40625,283601.1875,320664.3125,291515.75,296832.4375,277038.34375,277185.25,271881.625,-0.106201171875,0.936279296875,-0.304443359375,8.178709983825684,3.387450933456421,3.112792730331421,60.0,2978154.0,1.0
1136742.521108,289856.8125,283583.46875,320078.59375,290572.0625,296433.6875,277017.53125,277055.53125,271523.0,-0.10693359375,0.9296875,-0.30810546875,8.300780296325684,3.204345464706421,2.990722417831421,60.0,2978155.0,1.0
1136742.5242396,290256.625,283634.1875,320382.5,291194.0625,296577.53125,277039.0625,277141.78125,271610.625,-0.10791015625,0.925537109375,-0.310302734375,8.575438499450684,3.051757574081421,2.868652105331421,60.0,2978156.0,1.0
1136742.5242842,290972.34375,283691.21875,321177.875,292542.5,297091.25,277091.5625,277343.0625,272059.0,-0.106689453125,0.923095703125,-0.310546875,8.941649436950684,2.899169683456421,2.716064214706421,60.0,2978157.0,1.0
1136742.526169,290999.96875,283671.71875,321324.03125,292691.71875,297222.4375,277086.53125,277357.53125,272189.8125,-0.10546875,0.920166015625,-0.308349609375,9.246825218200684,2.746581792831421,2.532958745956421,60.0,2978158.0,1.0
1136742.5550548,290343.09375,283621.375,320690.0625,291551.0625,296852.46875,277056.875,277205.09375,271911.03125,-0.101806640625,0.91650390625,-0.3115234375,9.521483421325684,2.624511480331421,2.380370855331421,60.0,2978159.0,1.0
1136742.5575435,289869.40625,283590.09375,320092.03125,290595.84375,296443.0625,277019.84375,277060.25,271541.0,-0.098388671875,0.91455078125,-0.310791015625,9.857176780700684,2.532958745956421,2.197265386581421,60.0,2978160.0,1.0
1136742.5598133,290259.59375,283636.6875,320391.96875,291209.34375,296584.40625,277041.21875,277143.40625,271629.9375,-0.0947265625,0.910400390625,-0.3115234375,10.223387718200684,2.441406011581421,2.014159917831421,60.0,2978161.0,1.0
1136742.5674549,290982.53125,283702.75,321198.96875,292568.625,297110.5,277105.84375,277357.1875,272090.46875,-0.0908203125,0.9091796875,-0.31591796875,10.467528343200684,2.502441167831421,1.8920897245407104,60.0,2978162.0,1.0
1136742.5700106,291007.46875,283680.21875,321348.09375,292719.875,297248.53125,277104.15625,277375.6875,272220.5625,-0.087646484375,0.908447265625,-0.31591796875,10.864256858825684,2.532958745956421,1.9531248807907104,60.0,2978163.0,1.0
1136742.5725329,290353.5625,283625.84375,320715.625,291583.71875,296879.71875,277072.25,277222.96875,271946.28125,-0.083984375,0.90869140625,-0.319091796875,11.260985374450684,2.655029058456421,1.9531248807907104,60.0,2978164.0,1.0
1136742.5749576,289869.9375,283582.59375,320104.34375,290616.5,296458.53125,277024.6875,277066.25,271571.5625,-0.083740234375,0.90869140625,-0.3232421875,11.749266624450684,2.899169683456421,2.014159917831421,60.0,2978165.0,1.0
1136742.5774884,290238.125,283614.3125,320377.9375,291195.3125,296579.15625,277029.5,277131.15625,271633.4375,-0.082275390625,0.91162109375,-0.323486328125,12.145995140075684,2.990722417831421,1.9226073026657104,60.0,2978166.0,1.0
1136742.579958,290945.6875,283667.625,321164.0,292529.0,297085.8125,277080.375,277329.09375,272068.65625,-0.080810546875,0.915283203125,-0.320556640625,12.420653343200684,3.295898199081421,1.9531248807907104,60.0,2978167.0,1.0
1136742.5825805,290977.0,283647.3125,321313.75,292687.0625,297218.3125,277076.96875,277344.65625,272194.28125,-0.079833984375,0.91455078125,-0.3212890625,12.695311546325684,3.570556402206421,1.9531248807907104,60.0,2978168.0,1.0
1136742.5849579,290328.25,283596.34375,320687.09375,291556.71875,296848.25,277046.5,277194.90625,271916.125,-0.07568359375,0.91259765625,-0.32275390625,12.756346702575684,3.692626714706421,1.9836424589157104,60.0,2978169.0,1.0
1136742.5879838,289856.09375,283566.21875,320085.65625,290591.125,296434.46875,277012.6875,277051.125,271545.8125,-0.0732421875,0.910888671875,-0.3251953125,12.847899436950684,4.028319835662842,2.105712652206421,60.0,2978170.0,1.0
1136742.588034,290237.9375,283617.8125,320369.625,291176.09375,296564.84375,277035.40625,277130.4375,271612.6875,-0.0712890625,0.906005859375,-0.323974609375,13.000487327575684,4.486083507537842,2.166747808456421,60.0,2978171.0,1.0
1136742.5900273,290935.9375,283667.6875,321140.9375,292490.375,297057.03125,277077.4375,277318.09375,272028.53125,-0.073974609375,0.903076171875,-0.32275390625,13.275145530700684,4.882812023162842,2.197265386581421,60.0,2978172.0,1.0
1136742.5944208,290981.09375,283658.03125,321299.28125,292658.65625,297197.84375,277079.75,277339.75,272156.5625,-0.0751953125,0.90087890625,-0.322021484375,13.641356468200684,5.096435070037842,2.319335699081421,60.0,2978173.0,1.0
1136742.5944661,290339.875,283611.65625,320673.875,291535.59375,296830.03125,277047.90625,277185.4375,271869.28125,-0.077880859375,0.89697265625,-0.32421875,13.977049827575684,5.218505382537842,2.349853277206421,60.0,2978174.0,1.0
1136742.610568,289862.25,283571.9375,320061.0,290560.09375,296402.28125,277001.875,277033.0,271480.1875,-0.080810546875,0.895751953125,-0.325439453125,14.129637718200684,5.432128429412842,2.410888433456421,60.0,2978175.0,1.0
1136742.6106115,290237.25,283616.75,320331.71875,291129.4375,296521.28125,277014.84375,277106.3125,271540.09375,-0.086669921875,0.89697265625,-0.326416015625,14.312743186950684,5.615233898162842,2.349853277206421,60.0,2978176.0,1.0
1136742.6418956,290968.3125,283698.28125,321137.09375,292484.5625,297048.09375,277084.65625,277326.6875,271997.125,-0.086669921875,0.895751953125,-0.326171875,14.465331077575684,5.798339366912842,2.288818120956421,60.0,2978177.0,1.0
1136742.6419393,291005.34375,283671.1875,321289.1875,292651.21875,297184.0625,277077.15625,277338.21875,272121.9375,-0.086669921875,0.8935546875,-0.32666015625,14.678954124450684,5.920409679412842,2.227782964706421,60.0,2978178.0,1.0
1136742.6419504,290373.21875,283623.53125,320673.25,291535.0625,296824.84375,277051.84375,277189.1875,271845.40625,-0.08984375,0.894775390625,-0.3232421875,14.862059593200684,5.950927257537842,2.136230230331421,60.0,2978179.0,1.0
1136742.6419599,289903.84375,283591.4375,320071.90625,290571.34375,296408.90625,277016.0,277043.53125,271469.90625,-0.095703125,0.8955078125,-0.32177734375,14.953612327575684,5.950927257537842,1.9836424589157104,60.0,2978180.0,1.0
1136742.641971,290286.0625,283648.75,320357.5625,291156.15625,296541.78125,277042.46875,277133.65625,271552.6875,-0.098388671875,0.89697265625,-0.321533203125,14.953612327575684,5.767821788787842,1.8005369901657104,60.0,2978181.0,1.0
1136742.6435807,290993.34375,283703.8125,321143.34375,292496.8125,297047.625,277092.0,277331.34375,271998.65625,-0.1044921875,0.89892578125,-0.3212890625,15.106200218200684,5.584716320037842,1.5869139432907104,60.0,2978182.0,1.0
1136742.6475159,291028.3125,283671.8125,321298.375,292670.09375,297180.9375,277075.90625,277337.78125,272130.8125,-0.106201171875,0.90576171875,-0.323486328125,15.136717796325684,5.432128429412842,1.3732908964157104,60.0,2978183.0,1.0
1136742.6475604,290390.9375,283615.65625,320682.09375,291561.875,296817.15625,277037.8125,277174.25,271852.21875,-0.10693359375,0.908447265625,-0.323974609375,15.045165061950684,5.340575695037842,1.0681151151657104,60.0,2978184.0,1.0
1136742.6475726,289917.78125,283587.6875,320084.15625,290601.75,296410.96875,277005.4375,277030.75,271485.03125,-0.10986328125,0.90966796875,-0.326416015625,14.953612327575684,5.187987804412842,0.8850097060203552,60.0,2978185.0,1.0
1136742.6505115,290290.6875,283645.09375,320371.21875,291179.125,296553.84375,277041.84375,277129.625,271577.8125,-0.10986328125,0.91259765625,-0.326416015625,14.831542015075684,5.004882335662842,0.6408690810203552,60.0,2978186.0,1.0
1136742.6505581,291005.5,283714.71875,321173.65625,292530.09375,297075.875,277111.21875,277351.46875,272044.78125,-0.108642578125,0.912353515625,-0.326171875,14.648436546325684,4.821776866912842,0.4882812201976776,60.0,2978187.0,1.0
1136742.6530569,291037.34375,283683.875,321332.0,292705.59375,297214.375,277097.625,277362.625,272180.6875,-0.107666015625,0.914306640625,-0.32763671875,14.434813499450684,4.547118663787842,0.2746581733226776,60.0,2978188.0,1.0
1136742.6531066,290396.03125,283628.0,320716.25,291596.3125,296854.78125,277062.75,277207.96875,271903.71875,-0.10888671875,0.914794921875,-0.328857421875,14.221190452575684,4.302978038787842,0.0915527269244194,60.0,2978189.0,1.0
1136742.6612201,289926.8125,283598.3125,320120.1875,290641.8125,296449.78125,277030.5625,277065.0,271540.71875,-0.109130859375,0.9140625,-0.328857421875,14.038084983825684,4.211425304412842,0.0610351525247097,60.0,2978190.0,1.0
1136742.6656666,290291.59375,283651.4375,320392.15625,291202.84375,296575.46875,277052.65625,277144.5625,271614.5625,-0.111328125,0.914306640625,-0.32861328125,13.793944358825684,3.967284917831421,-0.0610351525247097,60.0,2978191.0,1.0
1136742.6657104,290977.15625,283699.1875,321158.65625,292510.6875,297068.375,277092.875,277334.125,272045.15625,-0.109130859375,0.9169921875,-0.33154296875,13.580321311950684,3.814697027206421,-0.1220703050494194,60.0,2978192.0,1.0
1136742.6830521,291037.96875,283686.65625,321343.0,292719.4375,297229.3125,277101.5625,277367.28125,272197.0625,-0.107421875,0.9169921875,-0.33203125,13.336180686950684,3.662109136581421,-0.3356933295726776,60.0,2978193.0,1.0
1136742.6830945,290420.53125,283645.71875,320751.84375,291638.15625,296893.0625,277082.0625,277228.78125,271938.125,-0.105712890625,0.920166015625,-0.33349609375,13.061522483825684,3.387450933456421,-0.4577636420726776,60.0,2978194.0,1.0
1136742.685567,289937.46875,283605.375,320142.25,290663.625,296474.09375,277040.125,277076.34375,271562.96875,-0.10595703125,0.922607421875,-0.334716796875,12.664793968200684,3.265380620956421,-0.6713866591453552,60.0,2978195.0,1.0
1136742.6856102,290274.6875,283635.6875,320384.03125,291186.5625,296577.25,277042.8125,277139.46875,271609.84375,-0.10595703125,0.922607421875,-0.332763671875,12.359618186950684,3.051757574081421,-0.6408690810203552,60.0,2978196.0,1.0
1136742.6874713,290961.96875,283681.46875,321151.9375,292497.09375,297066.84375,277081.53125,277327.0625,272033.0,-0.105712890625,0.92041015625,-0.33203125,11.840819358825684,2.716064214706421,-0.7324218153953552,60.0,2978197.0,1.0
1136742.6913312,291017.59375,283660.90625,321325.65625,292702.1875,297213.125,277073.5,277346.09375,272173.28125,-0.1025390625,0.920166015625,-0.329833984375,11.474608421325684,2.563476324081421,-0.7629393935203552,60.0,2978198.0,1.0
1136742.7031541,290393.78125,283612.8125,320723.0625,291608.65625,296863.8125,277045.3125,277197.6875,271904.34375,-0.10107421875,0.91650390625,-0.332275390625,11.108397483825684,2.441406011581421,-0.5798339247703552,60.0,2978199.0,1.0
1136742.7032005,289921.375,283590.625,320127.875,290645.03125,296458.4375,277020.46875,277062.9375,271541.0625,-0.0986328125,0.9140625,-0.334716796875,10.803221702575684,2.288818120956421,-0.5187987685203552,60.0,2978200.0,1.0
1136742.7055677,290247.0625,283620.3125,320360.9375,291155.09375,296547.75,277022.78125,277121.5,271580.6875,-0.100830078125,0.91357421875,-0.333740234375,10.528563499450684,2.166747808456421,-0.4882812201976776,60.0,2978201.0,1.0
1136742.7056115,290928.0,283667.53125,321120.8125,292460.625,297033.34375,277064.09375,277310.78125,272002.3125,-0.098876953125,0.911865234375,-0.3369140625,10.314940452575684,2.075195074081421,-0.3356933295726776,60.0,2978202.0,1.0
1136742.7074135,290984.3125,283654.03125,321294.4375,292664.8125,297185.15625,277067.15625,277339.375,272147.0625,-0.096435546875,0.912109375,-0.33544921875,10.070799827575684,1.9531248807907104,-0.3051757514476776,60.0,2978203.0,1.0
1136742.7163266,290372.78125,283617.71875,320707.03125,291597.5625,296849.78125,277049.15625,277202.5,271893.4375,-0.09375,0.9140625,-0.338134765625,9.796141624450684,1.8005369901657104,-0.0915527269244194,60.0,2978204.0,1.0
1136742.720559,289899.53125,283594.375,320113.03125,290632.40625,296445.375,277023.34375,277063.65625,271531.34375,-0.094970703125,0.91357421875,-0.3359375,9.521483421325684,1.7700194120407104,0.03051757626235485,60.0,2978205.0,1.0
1136742.7206026,290232.59375,283626.03125,320351.03125,291144.53125,296541.78125,277032.4375,277125.25,271577.375,-0.093994140625,0.91650390625,-0.33740234375,9.155272483825684,1.7395018339157104,0.2746581733226776,60.0,2978206.0,1.0
1136742.7237316,290913.40625,283665.90625,321110.375,292444.0625,297023.5,277071.0625,277310.96875,271997.125,-0.09033203125,0.916259765625,-0.33544921875,8.850096702575684,1.7089842557907104,0.4882812201976776,60.0,2978207.0,1.0
1136742.7324719,290969.3125,283642.5625,321290.15625,292654.8125,297175.3125,277068.21875,277337.15625,272141.53125,-0.0888671875,0.9169921875,-0.332763671875,8.514403343200684,1.6784666776657104,0.7019042372703552,60.0,2978208.0,1.0
1136742.7369238,290352.65625,283598.40625,320703.03125,291584.25,296835.46875,277043.53125,277195.8125,271883.0625,-0.091796875,0.9150390625,-0.334716796875,7.995604991912842,1.7395018339157104,1.0070799589157104,60.0,2978209.0,1.0
1136742.7369682,289873.34375,283571.40625,320105.15625,290615.96875,296427.96875,277010.53125,277053.1875,271519.25,-0.090576171875,0.914306640625,-0.33349609375,7.598876476287842,1.7089842557907104,1.0986326932907104,60.0,2978210.0,1.0
1136742.7500449,290215.40625,283619.59375,320352.625,291134.78125,296537.125,277029.40625,277127.3125,271578.1875,-0.090576171875,0.91552734375,-0.334716796875,7.171630382537842,1.6784666776657104,1.3427733182907104,60.0,2978211.0,1.0
1136742.753091,290906.625,283667.6875,321115.90625,292442.28125,297029.9375,277075.0,277324.1875,272008.59375,-0.088134765625,0.917236328125,-0.333984375,6.683349132537842,1.5563963651657104,1.6174315214157104,60.0,2978212.0,1.0
1136742.7531346,290973.9375,283648.03125,321295.15625,292661.59375,297183.34375,277069.65625,277342.15625,272151.53125,-0.090087890625,0.919921875,-0.332763671875,6.286620616912842,1.5869139432907104,1.7089842557907104,60.0,2978213.0,1.0
1136742.7555863,290374.5625,283609.6875,320716.4375,291608.125,296849.15625,277048.375,277201.25,271896.75,-0.090087890625,0.921630859375,-0.3330078125,5.859374523162842,1.4648436307907104,1.9531248807907104,60.0,2978214.0,1.0
1136742.7556328,289900.4375,283580.25,320120.96875,290647.96875,296445.9375,277019.125,277059.1875,271534.625,-0.092041015625,0.92236328125,-0.33154296875,5.279540538787842,1.3427733182907104,2.014159917831421,60.0,2978215.0,1.0
1136742.7638244,290225.0,283610.125,320350.03125,291145.0,296540.59375,277025.21875,277120.875,271575.59375,-0.091552734375,0.920654296875,-0.328857421875,4.852294445037842,1.3427733182907104,2.319335699081421,60.0,2978216.0,1.0
1136742.7662046,290910.125,283658.3125,321109.46875,292444.15625,297024.5625,277065.625,277311.65625,271997.84375,-0.093017578125,0.9189453125,-0.330810546875,4.302978038787842,1.2207030057907104,2.441406011581421,60.0,2978217.0,1.0
1136742.7750267,290977.25,283638.8125,321294.0,292664.1875,297179.15625,277060.78125,277335.90625,272146.28125,-0.094482421875,0.917236328125,-0.333251953125,3.845214605331421,1.0986326932907104,2.563476324081421,60.0,2978218.0,1.0
1136742.7774208,290379.21875,283603.875,320722.96875,291614.1875,296854.59375,277043.71875,277201.78125,271903.96875,-0.092041015625,0.916015625,-0.33154296875,3.417968511581421,0.9765624403953552,2.532958745956421,60.0,2978219.0,1.0
1136742.781923,289905.28125,283577.75,320126.875,290644.40625,296452.625,277018.40625,277060.0,271548.75,-0.091552734375,0.909912109375,-0.333984375,3.082275152206421,0.7934569716453552,2.563476324081421,60.0,2978220.0,1.0
1136742.7819765,290231.25,283620.3125,320356.3125,291137.84375,296549.09375,277035.03125,277126.15625,271593.46875,-0.093505859375,0.908447265625,-0.334716796875,2.746581792831421,0.6103515028953552,2.502441167831421,60.0,2978221.0,1.0
1136742.7924713,290908.40625,283666.71875,321108.40625,292426.375,297029.84375,277077.5,277316.9375,272007.96875,-0.09375,0.907958984375,-0.33544921875,2.532958745956421,0.4882812201976776,2.441406011581421,60.0,2978222.0,1.0
1136742.7955309,290990.5,283658.84375,321307.9375,292668.46875,297195.15625,277086.09375,277356.71875,272164.40625,-0.09521484375,0.906982421875,-0.33544921875,2.288818120956421,0.4577636420726776,2.410888433456421,60.0,2978223.0,1.0
1136742.7955736,290387.96875,283615.65625,320733.34375,291627.15625,296865.5,277063.65625,277218.5,271918.8125,-0.09375,0.90625,-0.33740234375,2.075195074081421,0.3051757514476776,2.288818120956421,60.0,2978224.0,1.0
1136742.7974279,289895.78125,283579.375,320126.78125,290647.4375,296457.09375,277030.9375,277069.46875,271557.53125,-0.092041015625,0.903564453125,-0.3388671875,1.8005369901657104,0.1525878757238388,2.288818120956421,60.0,2978225.0,1.0
1136742.8062992,290221.78125,283624.96875,320357.90625,291137.5625,296555.90625,277049.78125,277137.3125,271606.0625,-0.0908203125,0.905517578125,-0.338134765625,1.6174315214157104,0.03051757626235485,2.136230230331421,60.0,2978226.0,1.0
1136742.8093186,290907.0,283672.15625,321115.375,292436.5625,297036.71875,277091.0,277326.59375,272021.5625,-0.0888671875,0.9033203125,-0.3359375,1.4038084745407104,-0.0610351525247097,2.044677495956421,60.0,2978227.0,1.0
1136742.8093619,290974.84375,283645.78125,321300.625,292669.1875,297186.21875,277080.1875,277347.53125,272160.84375,-0.08837890625,0.904052734375,-0.33740234375,1.1901854276657104,-0.0915527269244194,1.9836424589157104,60.0,2978228.0,1.0
1136742.8174419,290385.75,283615.40625,320736.0,291630.03125,296860.5,277063.21875,277214.5625,271919.625,-0.084716796875,0.904296875,-0.337158203125,1.0681151151657104,-0.2746581733226776,1.9531248807907104,60.0,2978229.0,1.0
1136742.8205896,289898.21875,283579.375,320128.3125,290645.46875,296450.125,277024.9375,277066.78125,271556.375,-0.08447265625,0.903564453125,-0.33935546875,0.9460448622703552,-0.3051757514476776,1.8920897245407104,60.0,2978230.0,1.0
1136742.8206343,290221.59375,283615.5625,320355.3125,291132.375,296548.5625,277042.09375,277137.40625,271602.59375,-0.085205078125,0.9033203125,-0.3359375,0.7019042372703552,-0.3662109076976776,1.9226073026657104,60.0,2978231.0,1.0
1136742.8263005,290908.40625,283664.125,321109.5625,292428.5,297030.90625,277085.28125,277330.09375,272017.4375,-0.08740234375,0.90380859375,-0.333984375,0.6408690810203552,-0.3662109076976776,1.7089842557907104,60.0,2978232.0,1.0
1136742.833091,290979.40625,283642.5625,321295.6875,292658.5625,297181.84375,277073.5,277351.71875,272159.9375,-0.0849609375,0.904052734375,-0.333984375,0.4272460639476776,-0.3356933295726776,1.6174315214157104,60.0,2978233.0,1.0
1136742.8331341,290389.5,283607.8125,320736.46875,291634.84375,296861.03125,277056.875,277219.03125,271923.75,-0.087158203125,0.902587890625,-0.333740234375,0.3051757514476776,-0.4272460639476776,1.4648436307907104,60.0,2978234.0,1.0
1136742.8412039,289903.40625,283578.03125,320133.0625,290656.375,296451.75,277027.1875,277073.84375,271561.8125,-0.086669921875,0.902099609375,-0.336181640625,0.0915527269244194,-0.4882812201976776,1.5258787870407104,60.0,2978235.0,1.0
1136742.8455494,290200.9375,283597.6875,320328.21875,291106.90625,296520.125,277023.15625,277117.75,271578.4375,-0.083984375,0.90234375,-0.336669921875,-0.2746581733226776,-0.4882812201976776,1.4343260526657104,60.0,2978236.0,1.0
1136742.8455943,290892.59375,283654.03125,321087.03125,292408.75,297007.3125,277073.9375,277314.71875,272000.8125,-0.084716796875,0.904296875,-0.337158203125,-0.4577636420726776,-0.5493163466453552,1.3732908964157104,60.0,2978237.0,1.0
1136742.8538979,290984.5,283647.40625,321295.53125,292669.375,297179.34375,277081.53125,277350.28125,272160.5625,-0.083740234375,0.90478515625,-0.33447265625,-0.7019042372703552,-0.5798339247703552,1.3122557401657104,60.0,2978238.0,1.0
1136742.8568313,290399.15625,283614.875,320739.84375,291649.0625,296862.65625,277064.5625,277222.0,271928.75,-0.0849609375,0.904296875,-0.33642578125,-1.0375975370407104,-0.5493163466453552,1.2817381620407104,60.0,2978239.0,1.0
1136742.8568757,289895.34375,283569.1875,320121.78125,290652.875,296439.9375,277017.625,277063.28125,271556.71875,-0.08544921875,0.904052734375,-0.333740234375,-1.2207030057907104,-0.5187987685203552,1.1291502714157104,60.0,2978240.0,1.0
1136742.8612546,290193.53125,283597.78125,320320.4375,291096.25,296511.28125,277019.03125,277110.5,271572.71875,-0.08544921875,0.904296875,-0.334716796875,-1.4038084745407104,-0.6408690810203552,1.0986326932907104,60.0,2978241.0,1.0
1136742.8679939,290881.875,283651.6875,321080.9375,292393.09375,296994.875,277067.84375,277307.03125,271990.0,-0.08740234375,0.90283203125,-0.333984375,-1.6479490995407104,-0.6713866591453552,0.9155272841453552,60.0,2978242.0,1.0
1136742.8680404,290971.09375,283640.875,321293.125,292662.65625,297169.0625,277072.15625,277344.3125,272154.6875,-0.0859375,0.9013671875,-0.333984375,-1.8005369901657104,-0.5493163466453552,0.8544921278953552,60.0,2978243.0,1.0
1136742.870154,290392.96875,283612.90625,320743.34375,291653.875,296860.15625,277060.875,277217.0625,271928.03125,-0.08740234375,0.8994140625,-0.33154296875,-1.9836424589157104,-0.6713866591453552,0.8239745497703552,60.0,2978244.0,1.0
1136742.8825375,289902.84375,283583.9375,320135.46875,290662.625,296451.8125,277031.75,277072.3125,271565.75,-0.0859375,0.899169921875,-0.3310546875,-2.136230230331421,-0.7629393935203552,0.6408690810203552,60.0,2978245.0,1.0
1136742.8855721,290197.625,283609.40625,320328.40625,291097.15625,296521.90625,277034.78125,277123.03125,271584.53125,-0.08642578125,0.89794921875,-0.329833984375,-2.380370855331421,-0.8239745497703552,0.5798339247703552,60.0,2978246.0,1.0
1136742.8856425,290873.375,283647.6875,321073.34375,292386.03125,296992.46875,277067.59375,277308.1875,271991.15625,-0.084716796875,0.89892578125,-0.32763671875,-2.563476324081421,-0.8544921278953552,0.5187987685203552,60.0,2978247.0,1.0
1136742.8937462,290975.375,283641.3125,321289.1875,292664.375,297166.375,277069.90625,277344.3125,272152.0,-0.087646484375,0.89892578125,-0.330810546875,-2.685546636581421,-0.8544921278953552,0.5187987685203552,60.0,2978248.0,1.0
1136742.8968809,290392.09375,283612.625,320737.0,291643.34375,296859.0,277057.125,277218.0625,271924.4375,-0.0869140625,0.898193359375,-0.329345703125,-2.777099370956421,-1.0070799589157104,0.4577636420726776,60.0,2978249.0,1.0
1136742.8969254,289901.15625,283583.84375,320130.0,290655.65625,296453.09375,277029.21875,277072.15625,271566.5625,-0.087158203125,0.895751953125,-0.328857421875,-3.021239995956421,-0.9765624403953552,0.4272460639476776,60.0,2978250.0,1.0
1136742.8987456,290199.34375,283614.5,320325.46875,291091.78125,296523.4375,277032.8125,277123.28125,271586.5,-0.087890625,0.8955078125,-0.32666015625,-3.082275152206421,-1.0070799589157104,0.5187987685203552,60.0,2978251.0,1.0
1136742.9074239,290891.6875,283669.9375,321088.28125,292393.03125,297008.28125,277078.40625,277321.6875,272003.9375,-0.083740234375,0.896728515625,-0.328125,-3.356933355331421,-1.0681151151657104,0.4577636420726776,60.0,2978252.0,1.0
1136742.9117751,290980.21875,283646.34375,321295.53125,292665.1875,297172.96875,277069.8125,277350.125,272159.59375,-0.08544921875,0.89794921875,-0.330078125,-3.387450933456421,-1.0681151151657104,0.4272460639476776,60.0,2978253.0,1.0
1136742.911818,290389.3125,283605.5625,320733.34375,291638.34375,296851.125,277044.78125,277212.6875,271921.15625,-0.0849609375,0.900390625,-0.332763671875,-3.356933355331421,-1.1291502714157104,0.4882812201976776,60.0,2978254.0,1.0
1136742.9201566,289902.3125,283582.125,320133.3125,290659.15625,296452.4375,277021.53125,277075.46875,271566.90625,-0.086181640625,0.90234375,-0.332275390625,-3.479003667831421,-1.1596678495407104,0.4882812201976776,60.0,2978255.0,1.0
1136742.9224444,290196.65625,283614.15625,320327.59375,291098.9375,296523.96875,277030.46875,277129.09375,271585.25,-0.0859375,0.904541015625,-0.325927734375,-3.692626714706421,-1.2512205839157104,0.4577636420726776,60.0,2978256.0,1.0
1136742.9261639,290874.53125,283652.9375,321073.34375,292388.1875,296995.5,277065.4375,277314.53125,271990.625,-0.08837890625,0.908447265625,-0.330078125,-3.875732183456421,-1.2817381620407104,0.5493163466453552,60.0,2978257.0,1.0
1136742.9354515,290975.46875,283638.8125,321290.78125,292663.75,297168.6875,277062.5,277349.9375,272148.9375,-0.089599609375,0.909423828125,-0.329345703125,-4.119872570037842,-1.3732908964157104,0.6408690810203552,60.0,2978258.0,1.0
1136742.9354982,290395.03125,283603.96875,320738.96875,291648.875,296854.0625,277043.4375,277215.8125,271917.375,-0.090087890625,0.908447265625,-0.331787109375,-4.364013195037842,-1.4953612089157104,0.7019042372703552,60.0,2978259.0,1.0
1136742.9379158,289894.0,283573.1875,320121.53125,290645.375,296440.125,277011.25,277062.65625,271555.375,-0.090087890625,0.906982421875,-0.330810546875,-4.547118663787842,-1.5563963651657104,0.7629393935203552,60.0,2978260.0,1.0
1136742.9379501,290192.09375,283611.28125,320319.03125,291083.84375,296516.375,277027.0,277126.25,271584.53125,-0.0927734375,0.905517578125,-0.333251953125,-4.699706554412842,-1.7089842557907104,0.7324218153953552,60.0,2978261.0,1.0
1136742.9485869,290891.96875,283670.125,321086.21875,292397.84375,297003.5625,277077.25,277325.4375,272005.46875,-0.09130859375,0.905517578125,-0.3330078125,-4.730224132537842,-1.6784666776657104,0.7324218153953552,60.0,2978262.0,1.0
1136742.9530912,290981.375,283641.6875,321294.53125,292672.9375,297164.125,277059.09375,277339.9375,272149.125,-0.0908203125,0.907470703125,-0.33349609375,-4.760741710662842,-1.8310545682907104,0.8544921278953552,60.0,2978263.0,1.0
1136742.9531351,290395.5625,283606.0,320741.90625,291658.375,296850.40625,277038.8125,277206.0,271915.875,-0.091064453125,0.906494140625,-0.331298828125,-4.821776866912842,-1.7700194120407104,0.8544921278953552,60.0,2978264.0,1.0
1136742.9587453,289900.0,283577.40625,320133.0625,290666.9375,296444.84375,277011.34375,277062.3125,271561.0,-0.088623046875,0.906005859375,-0.33056640625,-4.974364757537842,-1.9226073026657104,0.8544921278953552,60.0,2978265.0,1.0
1136742.9631997,290188.875,283612.0,320322.5,291087.6875,296515.75,277023.59375,277118.46875,271584.0,-0.08935546875,0.90478515625,-0.3291015625,-5.035399913787842,-1.9836424589157104,1.0070799589157104,60.0,2978266.0,1.0
1136742.9632447,290879.28125,283664.03125,321082.03125,292394.0,296998.5625,277073.59375,277316.9375,272001.625,-0.0849609375,0.90673828125,-0.32666015625,-5.065917491912842,-1.9226073026657104,1.0986326932907104,60.0,2978267.0,1.0
1136742.9737445,290992.0,283656.09375,321312.6875,292699.875,297183.53125,277078.6875,277358.59375,272170.9375,-0.086181640625,0.90576171875,-0.32958984375,-5.187987804412842,-1.8615721464157104,1.1901854276657104,60.0,2978268.0,1.0
1136742.9766658,290404.6875,283614.875,320759.96875,291676.78125,296875.34375,277062.125,277233.0,271945.46875,-0.08251953125,0.906005859375,-0.328857421875,-5.249022960662842,-1.9226073026657104,1.3427733182907104,60.0,2978269.0,1.0
1136742.97671,289893.5625,283573.71875,320134.03125,290663.09375,296453.34375,277021.90625,277076.8125,271581.65625,-0.081787109375,0.90283203125,-0.3310546875,-5.249022960662842,-1.9531248807907104,1.4038084745407104,60.0,2978270.0,1.0
1136742.9837349,290173.03125,283598.78125,320308.28125,291071.03125,296506.28125,277018.5,277110.0625,271584.71875,-0.0810546875,0.903076171875,-0.33154296875,-5.218505382537842,-1.7700194120407104,1.5258787870407104,60.0,2978271.0,1.0
1136742.9863483,290872.375,283658.21875,321071.75,292379.25,296992.46875,277069.65625,277308.625,272003.65625,-0.080322265625,0.90380859375,-0.330810546875,-5.035399913787842,-1.5869139432907104,1.6174315214157104,60.0,2978272.0,1.0
1136742.9886701,290995.59375,283656.34375,321312.6875,292697.09375,297184.6875,277080.65625,277358.4375,272180.6875,-0.078125,0.906005859375,-0.330078125,-4.882812023162842,-1.5869139432907104,1.7089842557907104,60.0,2978273.0,1.0
1136742.9924784,290413.90625,283618.96875,320766.59375,291691.1875,296875.4375,277061.78125,277228.78125,271951.28125,-0.077880859375,0.905517578125,-0.325927734375,-4.852294445037842,-1.6174315214157104,1.7089842557907104,60.0,2978274.0,1.0
1136743.0017806,289906.4375,283580.71875,320148.0,290687.5,296462.46875,277028.25,277082.59375,271591.78125,-0.077392578125,0.90673828125,-0.328125,-4.852294445037842,-1.3427733182907104,1.7089842557907104,60.0,2978275.0,1.0
1136743.0018219,290170.625,283595.375,320309.53125,291075.0625,296510.03125,277023.34375,277120.34375,271594.1875,-0.076904296875,0.90673828125,-0.328369140625,-4.943847179412842,-1.2207030057907104,1.8920897245407104,60.0,2978276.0,1.0
1136743.0076018,290861.75,283647.0625,321065.03125,292372.8125,296987.71875,277066.5,277312.65625,272002.875,-0.079345703125,0.90673828125,-0.330322265625,-4.852294445037842,-1.0681151151657104,2.044677495956421,60.0,2978277.0,1.0
1136743.0118111,290975.125,283631.84375,321296.15625,292679.21875,297169.3125,277060.15625,277343.5,272162.53125,-0.079345703125,0.906005859375,-0.327880859375,-4.730224132537842,-0.9765624403953552,2.044677495956421,60.0,2978278.0,1.0
1136743.0118546,290395.03125,283592.40625,320752.09375,291681.25,296859.25,277036.5625,277209.3125,271937.0625,-0.080810546875,0.904541015625,-0.326904296875,-4.669188976287842,-0.7629393935203552,2.075195074081421,60.0,2978279.0,1.0
1136743.0150449,289883.53125,283560.3125,320133.15625,290676.3125,296446.375,277004.375,277064.375,271581.65625,-0.0830078125,0.905517578125,-0.323974609375,-4.516601085662842,-0.5187987685203552,2.105712652206421,60.0,2978280.0,1.0
1136743.0237372,290157.5,283591.625,320304.625,291070.25,296504.125,277013.3125,277114.34375,271590.34375,-0.08154296875,0.90869140625,-0.323974609375,-4.455565929412842,-0.5187987685203552,1.9836424589157104,60.0,2978281.0,1.0
1136743.0281181,290853.78125,283644.625,321059.84375,292366.5625,296984.5,277058.5625,277305.3125,271997.3125,-0.078125,0.90966796875,-0.32861328125,-4.364013195037842,-0.4882812201976776,1.9836424589157104,60.0,2978282.0,1.0
1136743.0281625,290992.71875,283648.84375,321313.75,292697.09375,297187.46875,277072.78125,277353.875,272181.0625,-0.077392578125,0.904541015625,-0.3271484375,-4.302978038787842,-0.3662109076976776,2.105712652206421,60.0,2978283.0,1.0
1136743.0387473,290425.875,283623.1875,320782.5,291712.09375,296885.1875,277058.75,277228.4375,271962.90625,-0.078125,0.90380859375,-0.326904296875,-4.180907726287842,-0.2746581733226776,2.197265386581421,60.0,2978284.0,1.0
1136743.041772,289918.59375,283599.03125,320168.71875,290700.1875,296476.0625,277033.4375,277087.34375,271608.40625,-0.077392578125,0.905517578125,-0.327392578125,-3.936767339706421,-0.1220703050494194,2.136230230331421,60.0,2978285.0,1.0
1136743.0418148,290186.09375,283620.0625,320330.375,291083.03125,296527.09375,277037.46875,277132.84375,271609.84375,-0.079345703125,0.907958984375,-0.328369140625,-3.784179449081421,-0.0915527269244194,2.166747808456421,60.0,2978286.0,1.0
1136743.0474949,290868.1875,283658.3125,321069.78125,292367.625,296989.15625,277068.03125,277312.5625,272000.28125,-0.078369140625,0.91015625,-0.330078125,-3.631591558456421,0.1220703050494194,2.227782964706421,60.0,2978287.0,1.0
1136743.0568799,290989.6875,283642.65625,321308.75,292690.46875,297171.5625,277061.6875,277344.03125,272159.78125,-0.080322265625,0.911376953125,-0.33056640625,-3.448486089706421,0.2136230319738388,2.227782964706421,60.0,2978288.0,1.0
1136743.0569236,290414.8125,283605.5625,320773.3125,291700.84375,296873.28125,277047.75,277218.6875,271941.09375,-0.083251953125,0.913818359375,-0.330322265625,-3.295898199081421,0.3051757514476776,2.227782964706421,60.0,2978289.0,1.0
1136743.0593325,289900.8125,283574.375,320151.75,290686.5,296461.5625,277020.1875,277071.0,271585.25,-0.083740234375,0.915283203125,-0.327880859375,-3.295898199081421,0.3662109076976776,2.166747808456421,60.0,2978290.0,1.0
1136743.0593756,290168.03125,283606.625,320312.5,291065.78125,296511.71875,277025.5625,277117.03125,271587.84375,-0.083251953125,0.918212890625,-0.32861328125,-3.326415777206421,0.4272460639476776,2.075195074081421,60.0,2978291.0,1.0
1136743.0674481,290860.84375,283661.53125,321065.46875,292364.6875,296990.25,277072.78125,277315.15625,271993.46875,-0.083740234375,0.914794921875,-0.3271484375,-3.326415777206421,0.5187987685203552,1.9836424589157104,60.0,2978292.0,1.0
1136743.0768262,290995.6875,283653.21875,321316.28125,292704.34375,297183.90625,277078.125,277359.21875,272166.65625,-0.083984375,0.91064453125,-0.328125,-3.295898199081421,0.3967284858226776,2.044677495956421,60.0,2978293.0,1.0
1136743.0768687,290427.6875,283624.53125,320786.25,291718.625,296888.125,277068.5625,277239.34375,271953.34375,-0.08447265625,0.908447265625,-0.3291015625,-3.082275152206421,0.3662109076976776,2.014159917831421,60.0,2978294.0,1.0
1136743.0853404,289916.8125,283593.59375,320165.34375,290705.09375,296475.25,277038.875,277094.21875,271599.53125,-0.080810546875,0.90869140625,-0.33349609375,-2.899169683456421,0.3662109076976776,1.8920897245407104,60.0,2978295.0,1.0
1136743.0853945,290161.6875,283604.65625,320306.15625,291055.75,296510.5625,277026.46875,277118.375,271583.1875,-0.0810546875,0.9072265625,-0.334228515625,-2.624511480331421,0.3967284858226776,1.8310545682907104,60.0,2978296.0,1.0
1136743.1312194,290842.53125,283643.46875,321046.53125,292337.21875,296972.8125,277059.71875,277297.625,271974.96875,-0.080322265625,0.907958984375,-0.33447265625,-2.410888433456421,0.4272460639476776,1.8310545682907104,60.0,2978297.0,1.0
1136743.1312621,290977.34375,283634.53125,321296.875,292680.71875,297164.3125,277060.25,277340.375,272150.90625,-0.07861328125,0.909912109375,-0.334716796875,-2.105712652206421,0.4272460639476776,1.8310545682907104,60.0,2978298.0,1.0
1136743.1312733,290419.28125,283611.46875,320776.96875,291712.625,296877.5,277053.8125,277226.375,271945.90625,-0.079345703125,0.911376953125,-0.332763671875,-2.075195074081421,0.4882812201976776,2.044677495956421,60.0,2978299.0,1.0
1136743.1312828,289905.96875,283584.5625,320156.9375,290698.65625,296468.46875,277030.125,277085.8125,271593.46875,-0.078369140625,0.91064453125,-0.332275390625,-2.014159917831421,0.5187987685203552,1.9226073026657104,60.0,2978300.0,1.0
1136743.1312923,290162.59375,283608.5,320303.5625,291058.96875,296508.875,277032.28125,277127.5,271589.1875,-0.08203125,0.91064453125,-0.3330078125,-1.7700194120407104,0.5187987685203552,2.044677495956421,60.0,2978301.0,1.0
1136743.1313034,290853.53125,283654.75,321048.65625,292344.65625,296974.6875,277067.84375,277311.03125,271982.84375,-0.0810546875,0.907958984375,-0.33251953125,-1.6479490995407104,0.5493163466453552,2.044677495956421,60.0,2978302.0,1.0
1136743.1342176,290986.90625,283634.1875,321297.65625,292689.03125,297162.78125,277059.625,277346.8125,272152.71875,-0.080322265625,0.90576171875,-0.3369140625,-1.4648436307907104,0.5798339247703552,2.105712652206421,60.0,2978303.0,1.0
1136743.1342583,290426.78125,283608.4375,320775.4375,291718.34375,296872.65625,277050.4375,277231.46875,271946.90625,-0.080322265625,0.90771484375,-0.336181640625,-1.1596678495407104,0.6408690810203552,2.197265386581421,60.0,2978304.0,1.0
1136743.1374172,289912.25,283583.125,320157.0,290707.34375,296462.46875,277024.3125,277083.9375,271596.78125,-0.078857421875,0.906494140625,-0.333740234375,-0.9765624403953552,0.7629393935203552,2.166747808456421,60.0,2978305.0,1.0
1136743.1374623,290168.5625,283612.8125,320305.34375,291058.53125,296502.53125,277028.0625,277123.5625,271587.75,-0.08203125,0.9072265625,-0.3349609375,-0.6103515028953552,0.7019042372703552,2.227782964706421,60.0,2978306.0,1.0
1136743.1374747,290857.28125,283659.125,321047.34375,292341.53125,296966.375,277064.46875,277308.625,271977.03125,-0.082275390625,0.908203125,-0.3359375,-0.3356933295726776,0.5798339247703552,2.136230230331421,60.0,2978307.0,1.0
1136743.1401511,290985.5625,283636.40625,321290.6875,292678.0625,297151.09375,277052.65625,277338.3125,272136.96875,-0.082763671875,0.907470703125,-0.332275390625,-0.0915527269244194,0.4882812201976776,2.136230230331421,60.0,2978308.0,1.0
1136743.1425129,290425.96875,283610.46875,320772.84375,291715.21875,296864.625,277043.0,277217.53125,271928.46875,-0.081298828125,0.90576171875,-0.334228515625,0.0610351525247097,0.4882812201976776,2.166747808456421,60.0,2978309.0,1.0
1136743.1450378,289904.90625,283579.1875,320148.34375,290694.28125,296451.90625,277015.90625,277072.0625,271577.1875,-0.083740234375,0.90380859375,-0.3359375,0.2746581733226776,0.4882812201976776,2.166747808456421,60.0,2978310.0,1.0
1136743.1474976,290150.15625,283606.46875,320286.5625,291034.03125,296487.21875,277016.4375,277106.46875,271563.5,-0.080322265625,0.904296875,-0.336181640625,0.5798339247703552,0.3967284858226776,2.075195074081421,60.0,2978311.0,1.0
1136743.1502403,290839.21875,283651.78125,321027.75,292318.71875,296951.0625,277054.53125,277292.53125,271957.34375,-0.078857421875,0.904052734375,-0.336669921875,0.7629393935203552,0.3967284858226776,2.044677495956421,60.0,2978312.0,1.0
1136743.1524975,290995.5,283642.5625,321298.21875,292698.53125,297157.34375,277060.15625,277342.34375,272144.5625,-0.079833984375,0.90478515625,-0.3388671875,1.0986326932907104,0.3967284858226776,1.9531248807907104,60.0,2978313.0,1.0
1136743.1550369,290436.34375,283614.6875,320779.1875,291732.84375,296873.90625,277052.375,277226.28125,271936.4375,-0.079833984375,0.906005859375,-0.33544921875,1.3732908964157104,0.3051757514476776,1.8005369901657104,60.0,2978314.0,1.0
1136743.1593599,289921.71875,283596.09375,320157.0,290704.46875,296469.625,277035.125,277085.8125,271586.3125,-0.0830078125,0.90771484375,-0.3369140625,1.6174315214157104,0.3662109076976776,1.8005369901657104,60.0,2978315.0,1.0
1136743.1594054,290165.71875,283617.28125,320289.59375,291041.90625,296499.9375,277035.21875,277118.90625,271569.78125,-0.081298828125,0.907470703125,-0.33837890625,1.8005369901657104,0.3662109076976776,1.6784666776657104,60.0,2978316.0,1.0
1136743.1675947,290861.5625,283669.84375,321039.375,292339.03125,296968.5,277077.5,277309.875,271966.375,-0.078857421875,0.906005859375,-0.338134765625,1.9226073026657104,0.3051757514476776,1.6174315214157104,60.0,2978317.0,1.0
1136743.1931118,291003.90625,283655.1875,321300.1875,292693.4375,297164.9375,277073.9375,277349.9375,272140.8125,-0.080078125,0.905029296875,-0.338134765625,2.075195074081421,0.2441406100988388,1.4953612089157104,60.0,2978318.0,1.0
1136743.1931542,290434.5625,283612.8125,320775.0,291718.53125,296866.125,277048.625,277218.34375,271924.625,-0.07958984375,0.90625,-0.33837890625,2.349853277206421,0.2441406100988388,1.3732908964157104,60.0,2978319.0,1.0
1136743.1974612,289915.625,283591.25,320156.375,290697.15625,296459.53125,277029.3125,277078.6875,271578.90625,-0.0791015625,0.90625,-0.338134765625,2.502441167831421,0.2441406100988388,1.1901854276657104,60.0,2978320.0,1.0
1136743.2001252,290159.625,283616.375,320291.40625,291032.5,296493.3125,277035.03125,277117.75,271568.34375,-0.081298828125,0.90869140625,-0.338134765625,2.929687261581421,0.2441406100988388,1.1291502714157104,60.0,2978321.0,1.0
1136743.202605,290844.75,283658.59375,321028.65625,292315.3125,296953.65625,277068.84375,277300.3125,271955.65625,-0.0810546875,0.909912109375,-0.337646484375,3.082275152206421,0.1525878757238388,0.9460448622703552,60.0,2978322.0,1.0
1136743.2050079,291009.625,283659.03125,321309.28125,292700.5,297169.6875,277079.03125,277357.4375,272147.0625,-0.080322265625,0.909423828125,-0.339111328125,3.265380620956421,0.03051757626235485,0.8544921278953552,60.0,2978323.0,1.0
1136743.2074905,290438.75,283612.0,320783.21875,291737.65625,296871.40625,277049.25,277223.96875,271930.8125,-0.0810546875,0.908447265625,-0.338623046875,3.417968511581421,0.03051757626235485,0.5493163466453552,60.0,2978324.0,1.0
1136743.2100149,289905.09375,283576.25,320146.71875,290697.875,296454.0625,277018.40625,277070.8125,271575.40625,-0.082275390625,0.90625,-0.340576171875,3.479003667831421,0.03051757626235485,0.4272460639476776,60.0,2978325.0,1.0
1136743.2126054,290139.59375,283597.4375,320268.40625,291015.15625,296478.75,277018.3125,277102.1875,271556.09375,-0.0791015625,0.905029296875,-0.341064453125,3.692626714706421,-0.0915527269244194,0.3356933295726776,60.0,2978326.0,1.0
1136743.2149694,290821.59375,283639.4375,320999.3125,292290.8125,296935.15625,277050.875,277283.96875,271937.875,-0.0791015625,0.90625,-0.34130859375,3.875732183456421,-0.0915527269244194,0.2746581733226776,60.0,2978327.0,1.0
1136743.2180034,290979.9375,283628.28125,321270.59375,292671.875,297139.8125,277050.0625,277331.34375,272117.65625,-0.078369140625,0.90869140625,-0.338134765625,4.211425304412842,-0.0915527269244194,0.1220703050494194,60.0,2978328.0,1.0
1136743.2180439,290434.03125,283602.34375,320767.3125,291731.6875,296856.5625,277037.1875,277212.25,271917.46875,-0.075927734375,0.90869140625,-0.337646484375,4.241942882537842,-0.1525878757238388,-0.03051757626235485,60.0,2978329.0,1.0
1136743.2198921,289911.34375,283576.0625,320140.75,290694.8125,296443.875,277014.40625,277067.0625,271566.8125,-0.07666015625,0.906982421875,-0.339599609375,4.394530773162842,-0.0915527269244194,-0.03051757626235485,60.0,2978330.0,1.0
1136743.2222979,290142.03125,283602.875,320264.84375,291007.5625,296470.6875,277019.21875,277103.875,271546.96875,-0.076416015625,0.906494140625,-0.33740234375,4.608153820037842,-0.0610351525247097,-0.1220703050494194,60.0,2978331.0,1.0
1136743.2341751,290833.125,283651.0625,321007.53125,292295.03125,296935.34375,277058.75,277292.0,271936.34375,-0.075927734375,0.904296875,-0.34130859375,4.638671398162842,-0.0610351525247097,-0.0915527269244194,60.0,2978332.0,1.0
1136743.2342113,290993.71875,283640.0,321284.53125,292683.84375,297140.25,277056.5,277337.875,272117.65625,-0.07568359375,0.90283203125,-0.341064453125,4.852294445037842,-0.0610351525247097,-0.1220703050494194,60.0,2978333.0,1.0
1136743.2366459,290445.09375,283607.53125,320780.8125,291741.15625,296861.03125,277043.28125,277217.4375,271915.78125,-0.07470703125,0.9013671875,-0.34228515625,5.035399913787842,0.0915527269244194,-0.0915527269244194,60.0,2978334.0,1.0
1136743.2366806,289917.875,283581.875,320155.125,290702.96875,296451.28125,277021.625,277077.0625,271569.25,-0.0751953125,0.9013671875,-0.344482421875,5.035399913787842,-0.0610351525247097,-0.1220703050494194,60.0,2978335.0,1.0
1136743.2385883,290149.0,283610.40625,320274.21875,291010.4375,296471.84375,277024.6875,277110.15625,271545.8125,-0.07763671875,0.903076171875,-0.344970703125,5.187987804412842,0.0915527269244194,-0.1220703050494194,60.0,2978336.0,1.0
1136743.2472979,290834.21875,283658.03125,321008.4375,292289.125,296929.78125,277063.125,277294.875,271933.03125,-0.07861328125,0.90380859375,-0.343994140625,5.249022960662842,0.1220703050494194,-0.0610351525247097,60.0,2978337.0,1.0
1136743.2503861,290995.125,283641.5,321284.71875,292683.9375,297136.5,277057.84375,277337.6875,272117.75,-0.0810546875,0.904296875,-0.34375,5.249022960662842,-0.0610351525247097,-0.1220703050494194,60.0,2978338.0,1.0
1136743.2504056,290442.78125,283599.3125,320775.0,291745.625,296850.03125,277034.6875,277212.4375,271915.25,-0.080322265625,0.903564453125,-0.34228515625,5.310058116912842,-0.0610351525247097,-0.1525878757238388,60.0,2978339.0,1.0
1136743.258555,289912.59375,283568.5625,320142.875,290710.1875,296436.71875,277009.75,277067.3125,271565.03125,-0.083740234375,0.901123046875,-0.342529296875,5.371093273162842,-0.1525878757238388,-0.1525878757238388,60.0,2978340.0,1.0
1136743.2628953,290137.375,283593.9375,320256.15625,291008.1875,296457.90625,277011.625,277100.9375,271538.65625,-0.08349609375,0.90234375,-0.343994140625,5.371093273162842,-0.1525878757238388,-0.2136230319738388,60.0,2978341.0,1.0
1136743.2629176,290831.15625,283650.96875,321004.0625,292301.65625,296926.9375,277056.15625,277294.59375,271933.46875,-0.08251953125,0.904052734375,-0.3466796875,5.371093273162842,-0.2441406100988388,-0.3356933295726776,60.0,2978342.0,1.0
1136743.2710604,290996.125,283643.84375,321283.8125,292692.4375,297138.75,277057.40625,277342.15625,272119.53125,-0.084228515625,0.904052734375,-0.346435546875,5.432128429412842,-0.4272460639476776,-0.3967284858226776,60.0,2978343.0,1.0
1136743.2735484,290454.6875,283614.6875,320784.5625,291759.65625,296862.03125,277044.875,277225.03125,271924.4375,-0.086181640625,0.90283203125,-0.345703125,5.340575695037842,-0.5798339247703552,-0.3662109076976776,60.0,2978344.0,1.0
1136743.2798495,289920.75,283582.125,320150.3125,290719.40625,296446.71875,277016.625,277075.625,271573.15625,-0.085205078125,0.904296875,-0.344970703125,5.218505382537842,-0.7324218153953552,-0.4272460639476776,60.0,2978345.0,1.0
1136743.2890997,290145.15625,283610.40625,320260.0,291008.625,296465.25,277022.71875,277111.03125,271547.0625,-0.087646484375,0.90380859375,-0.344970703125,5.187987804412842,-0.7934569716453552,-0.4272460639476776,60.0,2978346.0,1.0
1136743.2891206,290828.65625,283656.71875,320994.40625,292284.3125,296920.3125,277058.65625,277294.78125,271932.40625,-0.0859375,0.90576171875,-0.345703125,5.004882335662842,-0.8850097060203552,-0.5187987685203552,60.0,2978347.0,1.0
1136743.2914916,290985.84375,283632.21875,321270.75,292679.65625,297127.21875,277051.59375,277341.09375,272115.875,-0.087890625,0.90576171875,-0.349609375,4.913329601287842,-0.9765624403953552,-0.6713866591453552,60.0,2978348.0,1.0
1136743.2915117,290451.1875,283605.75,320780.71875,291759.375,296859.15625,277038.71875,277225.65625,271923.65625,-0.086669921875,0.906494140625,-0.345458984375,4.730224132537842,-1.0681151151657104,-0.6713866591453552,60.0,2978349.0,1.0
1136743.2985584,289919.75,283577.75,320150.65625,290719.6875,296443.78125,277010.09375,277074.21875,271572.28125,-0.08837890625,0.9091796875,-0.34326171875,4.547118663787842,-1.2817381620407104,-0.7934569716453552,60.0,2978350.0,1.0
1136743.3022987,290135.21875,283600.125,320254.8125,291002.65625,296454.5,277010.0,277101.65625,271540.09375,-0.09130859375,0.911865234375,-0.34326171875,4.394530773162842,-1.4648436307907104,-0.8239745497703552,60.0,2978351.0,1.0
1136743.3116506,290810.78125,283637.65625,320983.75,292271.25,296911.125,277041.46875,277282.625,271921.9375,-0.087890625,0.91357421875,-0.344970703125,4.119872570037842,-1.6174315214157104,-0.9155272841453552,60.0,2978352.0,1.0
1136743.3116711,290988.4375,283631.03125,321276.375,292685.65625,297132.40625,277045.5,277336.875,272115.875,-0.088623046875,0.90966796875,-0.34228515625,3.662109136581421,-1.6784666776657104,-0.8544921278953552,60.0,2978353.0,1.0
1136743.3141389,290451.09375,283598.84375,320784.03125,291769.03125,296859.625,277031.28125,277220.03125,271918.0,-0.090087890625,0.906005859375,-0.34423828125,3.356933355331421,-1.7700194120407104,-0.8239745497703552,60.0,2978354.0,1.0
1136743.3141587,289911.15625,283565.96875,320143.5,290712.0625,296442.71875,277003.65625,277067.84375,271563.6875,-0.08935546875,0.90478515625,-0.3408203125,3.143310308456421,-1.9836424589157104,-0.9765624403953552,60.0,2978355.0,1.0
1136743.3198982,290120.375,283589.46875,320241.3125,290984.21875,296453.34375,277004.375,277093.6875,271531.15625,-0.090576171875,0.906982421875,-0.342041015625,2.990722417831421,-2.075195074081421,-1.0986326932907104,60.0,2978356.0,1.0
1136743.3285747,290806.65625,283642.75,320979.1875,292260.53125,296913.96875,277048.625,277285.125,271919.625,-0.087890625,0.9091796875,-0.3427734375,2.868652105331421,-2.227782964706421,-1.0681151151657104,60.0,2978357.0,1.0
1136743.3329419,290995.21875,283646.34375,321288.375,292694.84375,297144.8125,277060.53125,277346.09375,272125.15625,-0.087158203125,0.912109375,-0.341552734375,2.655029058456421,-2.319335699081421,-1.0375975370407104,60.0,2978358.0,1.0
1136743.3329618,290454.9375,283606.375,320794.65625,291775.9375,296868.28125,277037.46875,277220.5625,271926.40625,-0.08642578125,0.913818359375,-0.342041015625,2.349853277206421,-2.380370855331421,-1.0375975370407104,60.0,2978359.0,1.0
1136743.334845,289923.96875,283582.0625,320167.125,290729.6875,296459.875,277016.90625,277078.40625,271580.3125,-0.08447265625,0.9150390625,-0.34375,1.9531248807907104,-2.532958745956421,-1.0375975370407104,60.0,2978360.0,1.0
1136743.3460669,290130.65625,283605.28125,320261.96875,290989.59375,296466.03125,277015.90625,277105.6875,271543.125,-0.0849609375,0.916259765625,-0.345458984375,1.5869139432907104,-2.563476324081421,-1.0375975370407104,60.0,2978361.0,1.0
1136743.3491426,290812.40625,283647.0625,320990.09375,292262.65625,296916.375,277047.90625,277284.75,271920.875,-0.083251953125,0.912353515625,-0.34375,1.1901854276657104,-2.563476324081421,-0.8850097060203552,60.0,2978362.0,1.0
1136743.3491584,290999.0625,283638.8125,321289.71875,292692.8125,297138.65625,277051.125,277336.25,272116.3125,-0.08642578125,0.90869140625,-0.342529296875,0.7934569716453552,-2.624511480331421,-0.8850097060203552,60.0,2978363.0,1.0
1136743.3573957,290477.125,283619.96875,320813.8125,291792.28125,296881.875,277045.6875,277231.84375,271933.21875,-0.0869140625,0.90966796875,-0.343994140625,0.5798339247703552,-2.716064214706421,-0.7934569716453552,60.0,2978364.0,1.0
1136743.361735,289933.875,283586.78125,320176.15625,290735.59375,296467.375,277019.21875,277085.75,271584.25,-0.086181640625,0.90869140625,-0.344482421875,0.4882812201976776,-2.685546636581421,-0.9155272841453552,60.0,2978365.0,1.0
1136743.3617754,290128.25,283599.21875,320257.0625,290983.78125,296465.875,277013.40625,277103.34375,271542.6875,-0.08642578125,0.906982421875,-0.34619140625,0.3051757514476776,-2.716064214706421,-0.8544921278953552,60.0,2978366.0,1.0
1136743.3673003,290806.75,283641.40625,320980.8125,292255.25,296915.59375,277046.21875,277282.15625,271920.53125,-0.0869140625,0.908203125,-0.343017578125,0.1220703050494194,-2.807616949081421,-0.7324218153953552,60.0,2978367.0,1.0
1136743.3767326,290994.0625,283638.09375,321283.90625,292693.15625,297140.4375,277048.90625,277335.375,272116.6875,-0.088134765625,0.908203125,-0.343994140625,-0.03051757626235485,-2.838134527206421,-0.7629393935203552,60.0,2978368.0,1.0
1136743.376765,290471.3125,283614.6875,320807.375,291801.0625,296880.34375,277043.4375,277227.28125,271935.09375,-0.0859375,0.90966796875,-0.3408203125,-0.2441406100988388,-2.807616949081421,-0.6408690810203552,60.0,2978369.0,1.0
1136743.379234,289934.59375,283585.8125,320169.34375,290748.65625,296464.53125,277019.84375,277081.0,271585.875,-0.0869140625,0.906982421875,-0.34130859375,-0.3967284858226776,-2.960204839706421,-0.7019042372703552,60.0,2978370.0,1.0
1136743.3792665,290116.625,283590.09375,320237.5625,290973.15625,296449.21875,277002.59375,277087.96875,271527.9375,-0.087158203125,0.90771484375,-0.343505859375,-0.6103515028953552,-2.960204839706421,-0.7019042372703552,60.0,2978371.0,1.0
