Time,FZ,C3,CZ,C4,PZ,PO7,OZ,PO8,AccX,AccY,AccZ,Gyro1,Gyro2,Gyro3,Battery,Counter,Validation
510515.2381914,259814.90625,289299.96875,303348.78125,280225.25,288386.5,277700.21875,253811.140625,263644.03125,-0.0302734375,0.895751953125,-0.45166015625,0.0,1.5869139432907104,0.2746581733226776,100.0,153698.0,1.0
510515.2382038,259972.609375,289579.65625,303893.15625,280973.40625,291065.9375,278025.21875,254292.5,264281.0625,-0.03076171875,0.895751953125,-0.4482421875,0.0610351525247097,1.5563963651657104,0.3662109076976776,100.0,153699.0,1.0
510515.2408662,260572.71875,289696.40625,303791.78125,280525.5,289972.40625,277539.03125,254034.296875,263911.71875,-0.0302734375,0.894287109375,-0.44775390625,0.1831054538488388,1.6174315214157104,0.4882812201976776,100.0,153700.0,1.0
510515.2408795,260736.234375,289478.71875,303202.0625,279554.71875,286757.34375,276951.09375,253423.46875,263090.3125,-0.02880859375,0.892578125,-0.451171875,0.3662109076976776,1.5869139432907104,0.5798339247703552,100.0,153701.0,1.0
510515.2433805,260248.890625,289207.09375,302899.6875,279337.625,285743.46875,277034.5,253274.421875,262907.21875,-0.030517578125,0.893798828125,-0.45361328125,0.4882812201976776,1.6479490995407104,0.7019042372703552,100.0,153702.0,1.0
510515.2433935,259789.875,289273.6875,303316.40625,280187.96875,288294.15625,277685.03125,253784.765625,263608.71875,-0.031005859375,0.89501953125,-0.4521484375,0.6103515028953552,1.5869139432907104,0.6103515028953552,100.0,153703.0,1.0
510515.2458694,259952.59375,289562.84375,303868.40625,280946.96875,290975.03125,278020.125,254274.984375,264254.0625,-0.033203125,0.8955078125,-0.452392578125,0.7019042372703552,1.4953612089157104,0.6713866591453552,100.0,153704.0,1.0
510515.2483438,260572.359375,289702.03125,303791.875,280530.15625,289949.25,277550.375,254042.421875,263915.65625,-0.03271484375,0.898193359375,-0.453125,0.8544921278953552,1.5258787870407104,0.7019042372703552,100.0,153705.0,1.0
510515.2507162,260735.96875,289476.375,303197.3125,279551.3125,286751.25,276945.625,253421.765625,263080.84375,-0.03515625,0.89697265625,-0.453369140625,0.9460448622703552,1.4343260526657104,0.7324218153953552,100.0,153706.0,1.0
510515.2581543,260235.46875,289181.6875,302871.875,279305.09375,285688.3125,277000.96875,253246.4375,262868.15625,-0.032958984375,0.8974609375,-0.45361328125,0.9155272841453552,1.3732908964157104,0.6713866591453552,100.0,153707.0,1.0
510515.263338,259782.359375,289251.875,303291.1875,280155.25,288211.46875,277652.9375,253763.75,263580.46875,-0.03271484375,0.894287109375,-0.44775390625,0.9765624403953552,1.3122557401657104,0.6713866591453552,100.0,153708.0,1.0
510515.2656683,259935.6875,289533.15625,303839.0,280912.1875,290888.75,277987.84375,254248.953125,264227.75,-0.030029296875,0.8955078125,-0.44775390625,0.9460448622703552,1.2207030057907104,0.8239745497703552,100.0,153709.0,1.0
510515.2682395,260549.375,289674.96875,303766.125,280500.46875,289895.78125,277525.09375,254010.421875,263881.3125,-0.0283203125,0.8974609375,-0.44921875,1.0375975370407104,1.2512205839157104,0.8850097060203552,100.0,153710.0,1.0
510515.2682535,260735.53125,289479.875,303197.21875,279548.0,286740.1875,276941.0625,253406.390625,263065.84375,-0.02880859375,0.902099609375,-0.4501953125,1.1596678495407104,1.2512205839157104,1.0375975370407104,100.0,153711.0,1.0
510515.2770826,260271.953125,289218.96875,302901.28125,279327.25,285691.34375,277023.0625,253261.015625,262885.125,-0.028076171875,0.907958984375,-0.45556640625,1.0986326932907104,1.3122557401657104,1.0681151151657104,100.0,153712.0,1.0
510515.2796093,259805.25,289267.4375,303299.40625,280153.5625,288162.1875,277661.875,253758.828125,263573.125,-0.03173828125,0.908447265625,-0.455322265625,1.0070799589157104,1.2512205839157104,1.1291502714157104,100.0,153713.0,1.0
510515.2820527,259937.296875,289531.0,303832.1875,280899.21875,290828.03125,277986.4375,254232.859375,264207.1875,-0.02978515625,0.904052734375,-0.455810546875,0.9460448622703552,1.3427733182907104,1.2207030057907104,100.0,153714.0,1.0
510515.2845738,260555.734375,289689.875,303775.34375,280506.1875,289896.875,277540.09375,254015.609375,263887.9375,-0.029296875,0.89990234375,-0.45068359375,0.9155272841453552,1.4648436307907104,1.2207030057907104,100.0,153715.0,1.0
510515.2871049,260747.140625,289500.15625,303210.28125,279556.6875,286772.8125,276958.34375,253418.90625,263084.59375,-0.029541015625,0.89697265625,-0.449462890625,0.9460448622703552,1.5869139432907104,1.3427733182907104,100.0,153716.0,1.0
510515.2871262,260270.34375,289216.125,302887.6875,279306.875,285672.21875,277017.78125,253246.703125,262876.03125,-0.0302734375,0.895751953125,-0.448486328125,1.0375975370407104,1.5563963651657104,1.3427733182907104,100.0,153717.0,1.0
510515.2895892,259791.5625,289249.5625,303267.6875,280112.78125,288087.0,277645.5,253733.078125,263546.21875,-0.03369140625,0.894287109375,-0.451171875,1.1291502714157104,1.4648436307907104,1.3122557401657104,100.0,153718.0,1.0
510515.2919348,259927.640625,289524.3125,303815.21875,280876.15625,290763.5625,277993.40625,254223.03125,264194.6875,-0.033935546875,0.894775390625,-0.454345703125,1.2817381620407104,1.3122557401657104,1.3122557401657104,100.0,153719.0,1.0
510515.2969474,260557.34375,289695.875,303779.96875,280511.46875,289882.28125,277561.5625,254014.71875,263887.46875,-0.0341796875,0.891845703125,-0.45703125,1.3122557401657104,1.2207030057907104,1.2512205839157104,100.0,153720.0,1.0
510515.3007808,260760.5625,289520.28125,303228.53125,279571.53125,286787.375,276980.9375,253421.671875,263087.71875,-0.035400390625,0.890380859375,-0.45361328125,1.3732908964157104,1.1291502714157104,1.1291502714157104,100.0,153721.0,1.0
510515.3008068,260284.640625,289234.34375,302907.09375,279314.03125,285665.0625,277031.46875,253249.5625,262874.5,-0.03173828125,0.88916015625,-0.453857421875,1.5563963651657104,1.0681151151657104,1.0070799589157104,100.0,153722.0,1.0
510515.3530524,259782.71875,289237.21875,303260.78125,280087.75,288008.21875,277630.5,253713.59375,263524.9375,-0.028564453125,0.88720703125,-0.45947265625,1.6174315214157104,0.9765624403953552,1.0070799589157104,100.0,153723.0,1.0
510515.3530924,259912.171875,289501.875,303800.0,280850.5625,290664.4375,277971.9375,254193.078125,264169.1875,-0.025146484375,0.8857421875,-0.462646484375,1.9531248807907104,1.0681151151657104,0.8544921278953552,100.0,153724.0,1.0
510515.3673128,260551.96875,289695.34375,303780.96875,280509.03125,289841.25,277555.84375,253996.109375,263878.625,-0.023193359375,0.88525390625,-0.464111328125,2.349853277206421,1.0986326932907104,0.7629393935203552,100.0,153725.0,1.0
510515.3673535,260763.875,289531.375,303236.84375,279575.53125,286786.40625,276981.40625,253412.828125,263083.875,-0.019775390625,0.8837890625,-0.465087890625,2.563476324081421,1.2207030057907104,0.6713866591453552,100.0,153726.0,1.0
510515.3673639,260292.6875,289246.4375,302908.09375,279306.59375,285642.0,277032.90625,253247.25,262871.375,-0.02001953125,0.8818359375,-0.4609375,2.655029058456421,1.5563963651657104,0.7324218153953552,100.0,153727.0,1.0
510515.3746315,259778.953125,289230.875,303242.28125,280057.8125,287921.6875,277625.3125,253703.84375,263508.5625,-0.01708984375,0.8818359375,-0.461181640625,2.899169683456421,1.6784666776657104,0.7324218153953552,100.0,153728.0,1.0
510515.3746714,259890.1875,289479.34375,303770.59375,280807.03125,290553.8125,277960.40625,254171.796875,264142.125,-0.01513671875,0.882568359375,-0.463134765625,3.265380620956421,2.014159917831421,0.5798339247703552,100.0,153729.0,1.0
510515.3746807,260538.46875,289690.0625,303771.75,280487.75,289789.40625,277566.9375,253986.8125,263869.5,-0.015380859375,0.887939453125,-0.4609375,3.295898199081421,2.380370855331421,0.5798339247703552,100.0,153730.0,1.0
510515.3746888,260767.0,289548.71875,303247.375,279570.34375,286790.875,277006.34375,253420.515625,263096.9375,-0.01806640625,0.8935546875,-0.4599609375,3.448486089706421,2.593993902206421,0.6408690810203552,100.0,153731.0,1.0
510515.3746979,260274.625,289230.15625,302886.28125,279266.71875,285590.84375,277020.46875,253219.078125,262851.25,-0.02197265625,0.89599609375,-0.4609375,3.387450933456421,2.868652105331421,0.7019042372703552,100.0,153732.0,1.0
510515.37708,259764.296875,289201.90625,303208.84375,280005.78125,287810.8125,277599.5625,253666.921875,263470.65625,-0.023193359375,0.90283203125,-0.462646484375,3.265380620956421,3.051757574081421,0.6103515028953552,100.0,153733.0,1.0
510515.3771211,259889.921875,289461.71875,303753.0625,280776.8125,290453.25,277953.4375,254158.03125,264121.53125,-0.0244140625,0.906494140625,-0.462890625,3.082275152206421,3.143310308456421,0.6408690810203552,100.0,153734.0,1.0
510515.3785471,260536.234375,289680.5,303761.84375,280476.59375,289750.59375,277567.71875,253984.3125,263861.09375,-0.02734375,0.90869140625,-0.462646484375,3.051757574081421,3.295898199081421,0.5493163466453552,100.0,153735.0,1.0
510515.3859044,260771.921875,289550.3125,303245.5,279570.625,286794.96875,277009.03125,253421.5,263090.40625,-0.029296875,0.91064453125,-0.4599609375,2.807616949081421,3.265380620956421,0.5187987685203552,100.0,153736.0,1.0
510515.388261,260282.59375,289225.6875,302879.21875,279252.34375,285570.1875,277014.40625,253221.21875,262838.03125,-0.03076171875,0.910888671875,-0.456787109375,2.502441167831421,3.295898199081421,0.4272460639476776,100.0,153737.0,1.0
510515.3908789,259753.75,289173.84375,303181.21875,279966.875,287720.25,277574.78125,253653.78125,263449.75,-0.033447265625,0.908203125,-0.455810546875,2.349853277206421,3.265380620956421,0.3356933295726776,100.0,153738.0,1.0
510515.3932635,259857.015625,289416.5625,303710.5,280732.1875,290344.0625,277922.84375,254131.125,264096.4375,-0.033447265625,0.9072265625,-0.45751953125,2.166747808456421,3.295898199081421,0.3967284858226776,100.0,153739.0,1.0
510515.3958753,260513.890625,289661.0,303746.28125,280462.28125,289714.46875,277564.0625,253979.21875,263857.09375,-0.033447265625,0.903564453125,-0.457275390625,1.9836424589157104,3.295898199081421,0.3356933295726776,100.0,153740.0,1.0
510515.3984142,260770.3125,289551.5,303251.5,279575.625,286812.5,277023.78125,253432.859375,263101.78125,-0.031982421875,0.89892578125,-0.45947265625,1.9531248807907104,3.204345464706421,0.2136230319738388,100.0,153741.0,1.0
510515.4008378,260286.34375,289227.125,302882.5,279251.25,285565.53125,277025.3125,253231.78125,262844.71875,-0.031494140625,0.896240234375,-0.46044921875,1.8920897245407104,3.204345464706421,0.1525878757238388,100.0,153742.0,1.0
510515.4084152,259762.859375,289176.4375,303183.375,279962.59375,287675.5625,277593.03125,253673.09375,263454.3125,-0.02783203125,0.894287109375,-0.46142578125,1.8615721464157104,3.204345464706421,0.3051757514476776,100.0,153743.0,1.0
510515.4134011,259858.171875,289410.5,303709.4375,280728.90625,290282.84375,277934.65625,254141.9375,264091.6875,-0.026123046875,0.892578125,-0.4609375,1.8310545682907104,3.204345464706421,0.3356933295726776,100.0,153744.0,1.0
510515.4231823,260522.015625,289667.53125,303762.53125,280486.34375,289707.40625,277581.6875,253992.890625,263867.71875,-0.026123046875,0.886962890625,-0.46240234375,1.9226073026657104,3.234863042831421,0.4577636420726776,100.0,153745.0,1.0
510515.4231939,260799.984375,289586.4375,303291.1875,279622.21875,286855.40625,277049.25,253461.546875,263132.4375,-0.025390625,0.8837890625,-0.459228515625,2.166747808456421,3.356933355331421,0.4882812201976776,100.0,153746.0,1.0
510515.428126,260301.640625,289242.21875,302896.0,279261.625,285557.5,277017.53125,253232.84375,262848.75,-0.027099609375,0.88037109375,-0.462646484375,2.349853277206421,3.448486089706421,0.6408690810203552,100.0,153747.0,1.0
510515.4331835,259760.8125,289163.71875,303162.71875,279933.09375,287585.96875,277558.6875,253637.421875,263425.78125,-0.02734375,0.876220703125,-0.466064453125,2.563476324081421,3.601073980331421,0.6408690810203552,100.0,153748.0,1.0
510515.4331962,259853.25,289401.71875,303688.78125,280700.8125,290191.0,277915.53125,254111.359375,264068.71875,-0.0283203125,0.874755859375,-0.465576171875,2.929687261581421,3.570556402206421,0.8239745497703552,100.0,153749.0,1.0
510515.4356022,260525.953125,289675.5,303762.46875,280481.40625,289673.34375,277585.0625,253981.359375,263868.53125,-0.02734375,0.872802734375,-0.46630859375,3.234863042831421,3.509521245956421,0.9460448622703552,100.0,153750.0,1.0
510515.4381239,260806.6875,289601.5625,303296.90625,279619.34375,286856.75,277057.40625,253454.75,263131.71875,-0.029541015625,0.87353515625,-0.466796875,3.601073980331421,3.601073980331421,1.0681151151657104,100.0,153751.0,1.0
510515.4406367,260317.90625,289261.71875,302903.25,279253.15625,285543.71875,277028.53125,253236.515625,262849.03125,-0.029052734375,0.873291015625,-0.46630859375,3.845214605331421,3.479003667831421,1.2817381620407104,100.0,153752.0,1.0
510515.4431273,259764.921875,289158.8125,303148.59375,279901.15625,287508.34375,277550.125,253627.578125,263403.78125,-0.029296875,0.8740234375,-0.467041015625,4.150390148162842,3.448486089706421,1.3732908964157104,100.0,153753.0,1.0
510515.4483456,259847.625,289382.15625,303665.375,280664.78125,290087.3125,277898.4375,254089.28125,264035.71875,-0.032958984375,0.878173828125,-0.4658203125,4.394530773162842,3.540038824081421,1.5258787870407104,100.0,153754.0,1.0
510515.4508383,260537.84375,289680.3125,303764.96875,280478.09375,289629.34375,277594.71875,253977.15625,263859.0625,-0.032958984375,0.87939453125,-0.468017578125,4.577636241912842,3.479003667831421,1.7700194120407104,100.0,153755.0,1.0
510515.4533289,260826.1875,289614.78125,303304.4375,279624.1875,286841.375,277068.3125,253451.265625,263130.03125,-0.03173828125,0.881103515625,-0.4677734375,4.730224132537842,3.265380620956421,1.8615721464157104,100.0,153756.0,1.0
510515.4533434,260338.921875,289266.71875,302897.90625,279244.28125,285488.46875,277023.59375,253216.9375,262831.125,-0.031982421875,0.881103515625,-0.468017578125,4.882812023162842,3.112792730331421,1.8615721464157104,100.0,153757.0,1.0
510515.4556558,259780.5625,289154.78125,303134.0,279878.71875,287395.0,277534.75,253599.59375,263376.0625,-0.03271484375,0.883056640625,-0.46630859375,4.974364757537842,3.051757574081421,1.8920897245407104,100.0,153758.0,1.0
510515.4583589,259855.140625,289373.125,303653.90625,280643.96875,289964.8125,277885.9375,254059.953125,264008.4375,-0.033447265625,0.885009765625,-0.465087890625,4.974364757537842,3.021239995956421,1.9836424589157104,100.0,153759.0,1.0
510515.4583738,260544.28125,289685.3125,303767.65625,280472.84375,289562.46875,277594.46875,253964.5625,263847.59375,-0.035888671875,0.88623046875,-0.464599609375,4.852294445037842,2.838134527206421,2.136230230331421,100.0,153760.0,1.0
510515.4608646,260847.109375,289634.0,303324.625,279634.46875,286824.84375,277078.84375,253451.71875,263135.46875,-0.03466796875,0.889892578125,-0.465087890625,4.760741710662842,2.624511480331421,2.288818120956421,100.0,153761.0,1.0
510515.4633354,260364.84375,289284.53125,302919.25,279250.1875,285458.96875,277034.25,253217.203125,262842.3125,-0.035400390625,0.890869140625,-0.462158203125,4.730224132537842,2.563476324081421,2.380370855331421,100.0,153762.0,1.0
510515.467079,259789.328125,289146.46875,303130.875,279855.375,287304.6875,277530.09375,253580.109375,263368.84375,-0.037841796875,0.88916015625,-0.4619140625,4.547118663787842,2.410888433456421,2.288818120956421,100.0,153763.0,1.0
510515.4970162,259855.9375,289356.65625,303641.3125,280622.0625,289861.5625,277881.1875,254037.328125,264002.625,-0.0380859375,0.891845703125,-0.46533203125,4.486083507537842,2.258300542831421,2.349853277206421,100.0,153764.0,1.0
510515.4970519,260542.3125,289674.40625,303759.5,280465.15625,289508.03125,277596.6875,253948.734375,263846.875,-0.036376953125,0.89111328125,-0.46484375,4.364013195037842,2.075195074081421,2.441406011581421,100.0,153765.0,1.0
510515.4995385,260855.421875,289639.09375,303325.625,279636.34375,286806.25,277085.03125,253442.78125,263132.09375,-0.03515625,0.890380859375,-0.464599609375,4.211425304412842,1.7395018339157104,2.532958745956421,100.0,153766.0,1.0
510515.4995627,260389.515625,289304.625,302926.6875,279251.4375,285431.625,277045.0625,253221.5,262842.65625,-0.032958984375,0.889404296875,-0.465576171875,4.089354991912842,1.5258787870407104,2.624511480331421,100.0,153767.0,1.0
510515.5019368,259794.703125,289143.0,303116.84375,279826.78125,287213.75,277517.40625,253567.40625,263346.75,-0.0322265625,0.889892578125,-0.46484375,4.058837413787842,1.3427733182907104,2.868652105331421,100.0,153768.0,1.0
510515.5043734,259853.703125,289347.28125,303628.71875,280593.25,289764.8125,277870.09375,254025.984375,263981.53125,-0.027587890625,0.887939453125,-0.465576171875,3.906249761581421,1.2512205839157104,2.960204839706421,100.0,153769.0,1.0
510515.5068882,260536.953125,289666.375,303751.71875,280451.1875,289450.53125,277590.4375,253936.921875,263835.71875,-0.027099609375,0.88720703125,-0.465576171875,3.875732183456421,1.2207030057907104,2.929687261581421,100.0,153770.0,1.0
510515.5094058,260862.84375,289653.5,303336.4375,279639.8125,286804.09375,277098.625,253450.5625,263146.65625,-0.026123046875,0.885986328125,-0.463134765625,3.753661870956421,1.2512205839157104,3.051757574081421,100.0,153771.0,1.0
510515.5118729,260385.671875,289305.625,302920.25,279228.8125,285399.96875,277043.4375,253214.515625,262836.59375,-0.025390625,0.880859375,-0.46484375,3.692626714706421,1.2207030057907104,3.234863042831421,100.0,153772.0,1.0
510515.514373,259786.46875,289129.03125,303093.15625,279789.5,287124.8125,277508.1875,253547.390625,263321.96875,-0.025146484375,0.8818359375,-0.469482421875,3.570556402206421,1.1596678495407104,3.326415777206421,100.0,153773.0,1.0
510515.5194168,259836.453125,289332.15625,303603.59375,280562.78125,289672.4375,277870.46875,254009.4375,263960.625,-0.026123046875,0.8828125,-0.466552734375,3.509521245956421,1.1291502714157104,3.479003667831421,100.0,153774.0,1.0
510515.5194226,260531.765625,289678.0,303756.46875,280456.28125,289434.625,277620.40625,253948.28125,263844.03125,-0.02587890625,0.8818359375,-0.465087890625,3.570556402206421,0.9765624403953552,3.570556402206421,100.0,153775.0,1.0
510515.521957,260866.78125,289671.65625,303347.875,279653.3125,286825.90625,277122.46875,253456.8125,263154.0625,-0.025390625,0.883544921875,-0.46533203125,3.387450933456421,0.8850097060203552,3.570556402206421,100.0,153776.0,1.0
510515.5269208,260391.21875,289316.15625,302923.71875,279229.0,285398.53125,277053.28125,253206.921875,262828.53125,-0.024658203125,0.883544921875,-0.4638671875,3.265380620956421,0.8544921278953552,3.692626714706421,100.0,153777.0,1.0
510515.5269267,259787.546875,289133.78125,303090.90625,279779.5625,287084.75,277515.96875,253541.03125,263311.34375,-0.022705078125,0.882080078125,-0.46923828125,3.082275152206421,0.8544921278953552,3.753661870956421,100.0,153778.0,1.0
510515.5293742,259830.640625,289327.875,303601.875,280559.90625,289629.1875,277876.90625,254004.78125,263957.21875,-0.021484375,0.88427734375,-0.4716796875,3.021239995956421,0.9155272841453552,3.784179449081421,100.0,153779.0,1.0
510515.5318726,260525.15625,289669.59375,303761.375,280470.0625,289431.21875,277628.625,253938.0,263847.0625,-0.021728515625,0.883544921875,-0.46826171875,2.746581792831421,0.9155272841453552,3.723144292831421,100.0,153780.0,1.0
510515.5708086,260877.59375,289688.375,303372.5625,279686.84375,286880.53125,277148.9375,253470.84375,263178.40625,-0.02099609375,0.885498046875,-0.465087890625,2.655029058456421,1.0070799589157104,3.784179449081421,100.0,153781.0,1.0
510515.5708216,260399.984375,289326.4375,302941.34375,279254.21875,285439.5625,277067.3125,253219.53125,262851.96875,-0.02001953125,0.8857421875,-0.463134765625,2.471923589706421,1.0986326932907104,3.723144292831421,100.0,153782.0,1.0
510515.5758039,259779.5,289120.625,303083.3125,279778.6875,287058.8125,277504.15625,253534.0625,263322.25,-0.019287109375,0.886474609375,-0.464111328125,2.502441167831421,1.0375975370407104,3.631591558456421,100.0,153783.0,1.0
510515.575818,259813.203125,289305.4375,303585.53125,280552.5,289580.4375,277858.75,253991.828125,263959.28125,-0.0146484375,0.88525390625,-0.465576171875,2.258300542831421,1.1596678495407104,3.479003667831421,100.0,153784.0,1.0
510515.5807774,260506.734375,289660.84375,303754.84375,280475.875,289431.59375,277617.25,253931.390625,263841.625,-0.0126953125,0.884033203125,-0.467529296875,2.044677495956421,1.1901854276657104,3.234863042831421,100.0,153785.0,1.0
510515.5832797,260871.515625,289696.15625,303383.1875,279707.34375,286922.84375,277142.96875,253464.0625,263174.0,-0.009033203125,0.883544921875,-0.467529296875,1.7700194120407104,1.4038084745407104,3.326415777206421,100.0,153786.0,1.0
510515.5906612,260402.3125,289351.75,302959.40625,279268.15625,285474.78125,277067.15625,253223.734375,262847.5,-0.008056640625,0.884765625,-0.466552734375,1.5869139432907104,1.5869139432907104,3.265380620956421,100.0,153787.0,1.0
510515.5931506,259764.46875,289124.65625,303082.34375,279765.625,287048.90625,277488.0625,253528.609375,263293.8125,-0.008056640625,0.885009765625,-0.466064453125,1.3732908964157104,1.8310545682907104,2.990722417831421,100.0,153788.0,1.0
510515.594886,259778.953125,289283.875,303568.1875,280530.59375,289543.4375,277826.84375,253963.75,263915.90625,-0.008056640625,0.8837890625,-0.466796875,1.1901854276657104,2.075195074081421,2.990722417831421,100.0,153789.0,1.0
510515.6020711,260491.4375,289667.34375,303766.125,280489.8125,289458.3125,277609.03125,253927.546875,263841.625,-0.009765625,0.883056640625,-0.46728515625,1.0070799589157104,2.441406011581421,2.746581792831421,100.0,153790.0,1.0
510515.6045914,260876.875,289729.125,303417.625,279741.9375,287014.46875,277152.625,253487.390625,263195.375,-0.00830078125,0.8798828125,-0.463134765625,0.8544921278953552,2.685546636581421,2.349853277206421,100.0,153791.0,1.0
510515.6070547,260392.921875,289350.21875,302965.03125,279274.40625,285531.5625,277050.78125,253220.0625,262838.125,-0.00927734375,0.879638671875,-0.4638671875,0.8239745497703552,2.929687261581421,2.075195074081421,100.0,153792.0,1.0
510515.6094745,259746.421875,289104.28125,303065.875,279748.71875,287041.21875,277459.71875,253512.515625,263272.71875,-0.00927734375,0.880126953125,-0.46337890625,0.7934569716453552,3.112792730331421,1.7089842557907104,100.0,153793.0,1.0
510515.6120675,259759.5625,289268.15625,303554.0625,280518.0625,289530.375,277816.28125,253968.40625,263913.59375,-0.010498046875,0.8798828125,-0.46533203125,0.6408690810203552,3.173827886581421,1.4343260526657104,100.0,153794.0,1.0
510515.6146156,260482.953125,289667.53125,303769.0625,280502.5,289497.65625,277625.03125,253951.5,263860.84375,-0.01123046875,0.8837890625,-0.46435546875,0.4272460639476776,3.356933355331421,1.0070799589157104,100.0,153795.0,1.0
510515.6169379,260870.0,289732.625,303418.875,279752.21875,287084.75,277164.875,253507.6875,263220.15625,-0.012451171875,0.886962890625,-0.4619140625,0.2746581733226776,3.509521245956421,0.6408690810203552,100.0,153796.0,1.0
510515.619591,260389.96875,289354.34375,302961.09375,279272.8125,285588.53125,277058.125,253242.234375,262867.0625,-0.012451171875,0.891357421875,-0.46142578125,0.2441406100988388,3.631591558456421,0.2136230319738388,100.0,153797.0,1.0
510515.6219545,259742.484375,289094.78125,303049.78125,279736.84375,287042.375,277463.65625,253527.0,263291.75,-0.014404296875,0.8935546875,-0.462646484375,-0.0915527269244194,3.814697027206421,-0.0610351525247097,100.0,153798.0,1.0
510515.6246688,259743.46875,289245.90625,303527.21875,280500.0,289496.78125,277817.53125,253969.109375,263918.6875,-0.0146484375,0.896728515625,-0.461181640625,-0.3356933295726776,3.967284917831421,-0.4272460639476776,100.0,153799.0,1.0
510515.6269368,260477.5,289664.40625,303763.0,280508.875,289519.75,277643.1875,253966.609375,263883.46875,-0.014892578125,0.89990234375,-0.461669921875,-0.6103515028953552,4.119872570037842,-0.6408690810203552,100.0,153800.0,1.0
510515.6321773,260888.765625,289747.09375,303440.3125,279785.84375,287158.25,277196.6875,253529.40625,263251.4375,-0.017578125,0.90234375,-0.45751953125,-0.9765624403953552,4.272460460662842,-1.0375975370407104,100.0,153801.0,1.0
510515.6322195,260417.328125,289373.125,302985.6875,279302.125,285636.875,277081.09375,253251.171875,262882.09375,-0.017578125,0.903564453125,-0.457763671875,-1.3122557401657104,4.272460460662842,-1.3732908964157104,100.0,153802.0,1.0
510515.6346344,259758.84375,289104.28125,303058.90625,279739.34375,287032.53125,277464.8125,253525.390625,263286.9375,-0.018798828125,0.9052734375,-0.4560546875,-1.4343260526657104,4.333495616912842,-1.6174315214157104,100.0,153803.0,1.0
510515.6371131,259750.171875,289249.125,303531.6875,280504.03125,289483.34375,277812.625,253968.84375,263912.78125,-0.021484375,0.906005859375,-0.45654296875,-1.8310545682907104,4.394530773162842,-1.8615721464157104,100.0,153804.0,1.0
510515.6371539,260483.484375,289670.84375,303777.03125,280530.59375,289548.96875,277641.59375,253967.0625,263879.875,-0.024658203125,0.906494140625,-0.4541015625,-2.044677495956421,4.577636241912842,-2.136230230331421,100.0,153805.0,1.0
510515.639495,260912.015625,289779.125,303470.8125,279820.6875,287231.5625,277197.75,253538.0,263255.1875,-0.02783203125,0.903564453125,-0.455810546875,-2.349853277206421,4.547118663787842,-2.410888433456421,100.0,153806.0,1.0
510515.6445883,260456.484375,289419.15625,303022.25,279334.0625,285710.21875,277084.125,253267.453125,262892.03125,-0.02783203125,0.906494140625,-0.456787109375,-2.685546636581421,4.455565929412842,-2.655029058456421,100.0,153807.0,1.0
510515.6521986,259786.015625,289124.46875,303073.125,279749.09375,287043.25,277450.6875,253518.765625,263277.90625,-0.03125,0.904541015625,-0.457275390625,-2.807616949081421,4.425048351287842,-2.838134527206421,100.0,153808.0,1.0
510515.6522428,259763.765625,289255.625,303537.6875,280504.40625,289469.21875,277795.625,253957.40625,263899.375,-0.0322265625,0.9013671875,-0.457275390625,-2.990722417831421,4.119872570037842,-3.051757574081421,100.0,153809.0,1.0
510515.6546073,260494.75,289681.125,303790.4375,280540.6875,289573.3125,277627.90625,253962.140625,263872.90625,-0.03369140625,0.898681640625,-0.45458984375,-3.173827886581421,3.967284917831421,-3.112792730331421,100.0,153810.0,1.0
510515.6570988,260946.703125,289815.6875,303507.8125,279857.90625,287308.34375,277201.0625,253558.109375,263270.03125,-0.0322265625,0.89599609375,-0.453125,-3.143310308456421,3.875732183456421,-3.234863042831421,100.0,153811.0,1.0
510515.660909,260485.546875,289448.9375,303050.6875,279356.9375,285769.3125,277077.6875,253291.59375,262903.28125,-0.033935546875,0.893798828125,-0.452880859375,-3.356933355331421,3.845214605331421,-3.112792730331421,100.0,153812.0,1.0
510515.6898117,259780.921875,289121.34375,303065.71875,279730.5625,287042.0,277428.0,253525.203125,263264.9375,-0.03466796875,0.89306640625,-0.45361328125,-3.356933355331421,3.723144292831421,-3.143310308456421,100.0,153813.0,1.0
510515.7341824,259735.515625,289231.6875,303509.78125,280473.5625,289439.625,277779.53125,253952.84375,263875.6875,-0.0341796875,0.89111328125,-0.452880859375,-3.295898199081421,3.570556402206421,-3.173827886581421,100.0,153814.0,1.0
510515.7342219,260477.40625,289673.09375,303781.78125,280538.625,289589.9375,277636.21875,253971.34375,263867.375,-0.03466796875,0.892578125,-0.451171875,-3.295898199081421,3.540038824081421,-2.929687261581421,100.0,153815.0,1.0
510515.7395264,260930.875,289813.28125,303507.28125,279858.4375,287368.15625,277214.125,253569.90625,263273.6875,-0.0361328125,0.8935546875,-0.450927734375,-3.356933355331421,3.387450933456421,-2.777099370956421,100.0,153816.0,1.0
510515.7421726,260470.96875,289440.34375,303040.6875,279346.9375,285812.5,277085.46875,253295.4375,262899.8125,-0.039306640625,0.891845703125,-0.4482421875,-3.295898199081421,3.234863042831421,-2.532958745956421,100.0,153817.0,1.0
510515.7422113,259771.625,289112.3125,303049.96875,279719.21875,287037.71875,277437.65625,253530.3125,263260.75,-0.03955078125,0.89306640625,-0.447265625,-3.295898199081421,3.173827886581421,-2.532958745956421,100.0,153818.0,1.0
510515.7496351,259725.671875,289224.4375,303498.4375,280467.65625,289424.53125,277793.84375,253960.625,263881.03125,-0.040771484375,0.894775390625,-0.44677734375,-3.234863042831421,2.960204839706421,-2.410888433456421,100.0,153819.0,1.0
510515.7496752,260478.390625,289681.40625,303793.40625,280558.125,289628.65625,277669.21875,253999.328125,263899.8125,-0.043212890625,0.89453125,-0.443115234375,-3.295898199081421,2.838134527206421,-2.410888433456421,100.0,153820.0,1.0
510515.7496858,260950.8125,289839.28125,303536.96875,279895.8125,287445.9375,277252.03125,253606.84375,263318.03125,-0.044189453125,0.892578125,-0.44384765625,-3.295898199081421,2.807616949081421,-2.380370855331421,100.0,153821.0,1.0
510515.7559968,260484.65625,289459.21875,303059.28125,279368.21875,285863.8125,277106.3125,253319.125,262926.53125,-0.048583984375,0.889892578125,-0.444580078125,-3.417968511581421,2.593993902206421,-2.380370855331421,100.0,153822.0,1.0
510515.7560368,259773.234375,289114.8125,303053.375,279717.875,287038.625,277442.46875,253542.203125,263271.375,-0.0498046875,0.891845703125,-0.4453125,-3.204345464706421,2.410888433456421,-2.471923589706421,100.0,153823.0,1.0
510515.7560462,259708.234375,289206.5625,303483.34375,280450.40625,289397.15625,277781.15625,253958.203125,263874.15625,-0.0498046875,0.89208984375,-0.448974609375,-2.990722417831421,2.105712652206421,-2.685546636581421,100.0,153824.0,1.0
510515.7560541,260456.9375,289663.34375,303780.53125,280545.6875,289630.78125,277652.84375,253992.09375,263894.28125,-0.049560546875,0.892578125,-0.447998046875,-2.929687261581421,1.8005369901657104,-2.746581792831421,100.0,153825.0,1.0
510515.7560618,260949.203125,289847.5,303545.46875,279904.75,287497.0,277246.03125,253615.78125,263330.21875,-0.04833984375,0.8916015625,-0.44677734375,-2.807616949081421,1.4953612089157104,-2.929687261581421,100.0,153826.0,1.0
510515.7560709,260496.265625,289473.96875,303070.09375,279372.59375,285900.8125,277099.875,253324.671875,262930.65625,-0.04736328125,0.8916015625,-0.4453125,-2.716064214706421,1.3122557401657104,-2.960204839706421,100.0,153827.0,1.0
510515.7584163,259775.734375,289114.09375,303047.65625,279703.5625,287024.75,277428.96875,253536.390625,263259.40625,-0.048828125,0.8916015625,-0.44482421875,-2.532958745956421,1.1291502714157104,-3.082275152206421,100.0,153828.0,1.0
510515.7584578,259692.140625,289187.34375,303465.53125,280427.15625,289358.71875,277765.21875,253944.171875,263858.25,-0.0478515625,0.8876953125,-0.44482421875,-2.319335699081421,0.9460448622703552,-3.173827886581421,100.0,153829.0,1.0
510515.7607579,260454.875,289670.40625,303790.09375,280551.59375,289651.875,277670.625,254008.984375,263908.75,-0.04248046875,0.88623046875,-0.44189453125,-2.044677495956421,0.9155272841453552,-3.234863042831421,100.0,153830.0,1.0
510515.7633793,260958.953125,289864.0625,303566.84375,279920.84375,287549.5625,277272.78125,253633.578125,263345.6875,-0.042724609375,0.883056640625,-0.44384765625,-1.8920897245407104,0.8544921278953552,-3.204345464706421,100.0,153831.0,1.0
510515.7657595,260508.34375,289491.3125,303091.71875,279388.15625,285938.28125,277123.28125,253342.46875,262950.6875,-0.0419921875,0.884521484375,-0.446533203125,-1.5869139432907104,0.9765624403953552,-3.204345464706421,100.0,153832.0,1.0
510515.7682213,259768.59375,289113.5625,303045.3125,279695.625,287011.0625,277434.875,253536.5625,263262.34375,-0.040283203125,0.884521484375,-0.44677734375,-1.3122557401657104,1.0986326932907104,-3.326415777206421,100.0,153833.0,1.0
510515.7732577,259688.921875,289189.84375,303463.75,280423.9375,289346.5625,277781.40625,253952.390625,263864.84375,-0.041259765625,0.88623046875,-0.448974609375,-1.0375975370407104,1.2207030057907104,-3.448486089706421,100.0,153834.0,1.0
510515.7757783,260444.234375,289660.84375,303779.625,280547.21875,289654.40625,277671.09375,253999.0625,263901.15625,-0.041259765625,0.88671875,-0.44970703125,-0.7629393935203552,1.3427733182907104,-3.540038824081421,100.0,153835.0,1.0
510515.7784142,260959.84375,289863.96875,303566.75,279924.15625,287582.28125,277269.46875,253624.71875,263339.40625,-0.0400390625,0.886474609375,-0.44970703125,-0.7019042372703552,1.4343260526657104,-3.692626714706421,100.0,153836.0,1.0
510515.7833771,260518.625,289495.15625,303087.875,279383.21875,285963.6875,277112.125,253331.90625,262936.46875,-0.036376953125,0.885986328125,-0.44873046875,-0.7019042372703552,1.4953612089157104,-3.814697027206421,100.0,153837.0,1.0
510515.7857297,259777.890625,289107.59375,303031.03125,279674.78125,286993.375,277416.46875,253522.078125,263237.65625,-0.035888671875,0.885498046875,-0.447998046875,-0.3662109076976776,1.7089842557907104,-3.906249761581421,100.0,153838.0,1.0
510515.7883993,259686.15625,289175.96875,303447.9375,280398.625,289309.0,277765.40625,253936.296875,263842.0625,-0.033203125,0.884765625,-0.449462890625,-0.1220703050494194,2.014159917831421,-4.089354991912842,100.0,153839.0,1.0
510515.7907606,260443.703125,289651.71875,303773.53125,280537.46875,289640.90625,277665.375,253987.71875,263888.1875,-0.032958984375,0.883056640625,-0.448486328125,0.0915527269244194,2.197265386581421,-4.211425304412842,100.0,153840.0,1.0
510515.7933996,260972.1875,289876.03125,303576.65625,279934.59375,287606.25,277272.40625,253629.8125,263345.59375,-0.03076171875,0.8828125,-0.44873046875,0.2441406100988388,2.593993902206421,-4.272460460662842,100.0,153841.0,1.0
510515.7934407,260519.515625,289495.25,303087.34375,279378.65625,285967.25,277100.3125,253330.84375,262936.90625,-0.025634765625,0.884033203125,-0.44921875,0.4577636420726776,2.777099370956421,-4.455565929412842,100.0,153842.0,1.0
510515.7959081,259753.75,289082.625,303004.8125,279642.34375,286943.21875,277387.75,253501.609375,263218.71875,-0.020751953125,0.88134765625,-0.455810546875,0.7019042372703552,3.143310308456421,-4.425048351287842,100.0,153843.0,1.0
510515.798419,259652.984375,289148.09375,303417.71875,280372.4375,289257.25,277743.3125,253926.734375,263829.46875,-0.014892578125,0.883544921875,-0.45849609375,1.0070799589157104,3.692626714706421,-4.394530773162842,100.0,153844.0,1.0
510515.8008738,260410.984375,289632.03125,303757.0,280535.78125,289635.78125,277656.78125,253994.328125,263894.0,-0.01318359375,0.884033203125,-0.46142578125,1.3732908964157104,4.241942882537842,-4.150390148162842,100.0,153845.0,1.0
510515.8009125,260945.546875,289855.46875,303563.4375,279938.09375,287615.65625,277267.21875,253625.171875,263343.4375,-0.012939453125,0.8857421875,-0.4638671875,1.4953612089157104,4.852294445037842,-4.058837413787842,100.0,153846.0,1.0
510515.8024765,260514.328125,289489.34375,303081.96875,279385.09375,285963.21875,277103.8125,253327.171875,262933.3125,-0.01318359375,0.88623046875,-0.462646484375,1.6174315214157104,5.615233898162842,-3.936767339706421,100.0,153847.0,1.0
510515.8096283,259753.921875,289081.46875,302995.78125,279638.5625,286902.0,277392.125,253494.09375,263210.65625,-0.014404296875,0.887451171875,-0.463134765625,1.8005369901657104,6.164550304412842,-3.875732183456421,100.0,153848.0,1.0
510515.8146831,259643.953125,289145.21875,303405.375,280358.03125,289207.34375,277749.9375,253916.8125,263821.0625,-0.0185546875,0.8896484375,-0.4619140625,2.044677495956421,6.927489757537842,-3.784179449081421,100.0,153849.0,1.0
510515.8147259,260405.25,289632.75,303754.3125,280527.8125,289614.96875,277669.84375,253990.75,263894.4375,-0.021240234375,0.891357421875,-0.46337890625,2.105712652206421,7.293700695037842,-3.631591558456421,100.0,153850.0,1.0
510515.8171924,260963.953125,289873.34375,303579.4375,279947.21875,287623.0625,277286.0,253633.125,263357.46875,-0.022705078125,0.89111328125,-0.463623046875,2.288818120956421,7.659911632537842,-3.479003667831421,100.0,153851.0,1.0
510515.8207758,260531.046875,289505.25,303091.1875,279383.59375,285957.59375,277111.65625,253329.40625,262937.71875,-0.026611328125,0.89013671875,-0.465576171875,2.319335699081421,8.026122093200684,-3.448486089706421,100.0,153852.0,1.0
510515.8408259,259762.6875,289086.3125,302996.59375,279624.28125,286864.8125,277389.46875,253491.953125,263206.1875,-0.0283203125,0.8896484375,-0.46826171875,2.380370855331421,8.300780296325684,-3.601073980331421,100.0,153853.0,1.0
510515.8408644,259642.4375,289137.09375,303399.09375,280343.1875,289151.46875,277739.3125,253904.828125,263810.6875,-0.0302734375,0.89208984375,-0.467041015625,2.410888433456421,8.483885765075684,-3.509521245956421,100.0,153854.0,1.0
510515.843126,260396.859375,289622.5625,303750.21875,280527.28125,289589.75,277658.375,253978.5,263891.21875,-0.03076171875,0.891357421875,-0.464111328125,2.502441167831421,8.697508811950684,-3.509521245956421,100.0,153855.0,1.0
510515.8481134,260957.34375,289865.65625,303583.46875,279957.21875,287631.65625,277271.09375,253626.6875,263361.0625,-0.02978515625,0.888671875,-0.466064453125,2.532958745956421,8.880614280700684,-3.387450933456421,100.0,153856.0,1.0
510515.8506653,260533.5625,289499.4375,303096.65625,279391.8125,285949.0,277091.09375,253316.359375,262936.09375,-0.029052734375,0.889404296875,-0.467041015625,2.624511480331421,9.124754905700684,-3.387450933456421,100.0,153857.0,1.0
510515.850671,259769.578125,289088.1875,302998.28125,279620.4375,286833.34375,277374.78125,253481.9375,263200.21875,-0.02734375,0.891357421875,-0.46826171875,2.624511480331421,9.155272483825684,-3.326415777206421,100.0,153858.0,1.0
510515.8525848,259638.59375,289134.21875,303392.84375,280330.6875,289112.9375,277727.84375,253891.953125,263798.4375,-0.025146484375,0.892578125,-0.4697265625,2.746581792831421,9.307860374450684,-3.173827886581421,100.0,153859.0,1.0
510515.8783268,260394.171875,289619.0625,303754.0625,280533.0,289585.1875,277658.65625,253976.796875,263891.9375,-0.024169921875,0.889892578125,-0.469482421875,2.777099370956421,9.521483421325684,-3.082275152206421,100.0,153860.0,1.0
510515.8807119,260963.609375,289867.09375,303593.84375,279979.5625,287652.46875,277274.84375,253627.765625,263373.21875,-0.02392578125,0.8896484375,-0.47021484375,2.746581792831421,9.704588890075684,-3.143310308456421,100.0,153861.0,1.0
510515.8858998,260548.3125,289508.21875,303107.90625,279412.71875,285960.71875,277095.84375,253319.65625,262953.625,-0.022705078125,0.88818359375,-0.473876953125,2.990722417831421,9.826659202575684,-3.112792730331421,100.0,153862.0,1.0
510515.8859138,259766.4375,289083.96875,302990.34375,279614.875,286799.28125,277369.15625,253468.4375,263199.125,-0.0185546875,0.8876953125,-0.4755859375,3.112792730331421,10.070799827575684,-3.021239995956421,100.0,153863.0,1.0
510515.8908066,259628.9375,289128.6875,303384.1875,280322.90625,289074.78125,277731.875,253879.984375,263794.5,-0.015380859375,0.885986328125,-0.47802734375,3.173827886581421,10.467528343200684,-2.899169683456421,100.0,153864.0,1.0
510515.8958417,260386.5625,289622.65625,303756.65625,280539.09375,289587.25,277675.1875,253978.765625,263902.21875,-0.014404296875,0.88525390625,-0.47998046875,3.173827886581421,10.803221702575684,-2.685546636581421,100.0,153865.0,1.0
510515.8981976,260965.390625,289876.3125,303603.21875,279992.28125,287681.34375,277294.9375,253639.375,263390.1875,-0.013671875,0.884765625,-0.477783203125,3.204345464706421,11.077879905700684,-2.685546636581421,100.0,153866.0,1.0
510515.900658,260549.921875,289510.4375,303108.4375,279410.21875,285964.21875,277100.75,253316.625,262950.21875,-0.015380859375,0.883544921875,-0.478271484375,3.326415777206421,11.383055686950684,-2.532958745956421,100.0,153867.0,1.0
510515.9033217,259776.640625,289094.4375,302990.53125,279608.1875,286784.875,277378.71875,253468.171875,263195.46875,-0.013671875,0.8837890625,-0.475830078125,3.540038824081421,11.566161155700684,-2.563476324081421,100.0,153868.0,1.0
510515.90491,259627.140625,289129.75,303373.1875,280309.5625,289058.9375,277740.46875,253882.5625,263791.46875,-0.012451171875,0.88232421875,-0.4775390625,3.662109136581421,11.749266624450684,-2.502441167831421,100.0,153869.0,1.0
510515.9119574,260369.21875,289605.125,303734.375,280525.75,289582.96875,277669.5625,253968.21875,263889.28125,-0.013916015625,0.8798828125,-0.480224609375,3.814697027206421,12.084959983825684,-2.380370855331421,100.0,153870.0,1.0
510515.9171064,260961.71875,289869.5,303594.5625,279994.78125,287702.5625,277291.5625,253630.53125,263383.9375,-0.01171875,0.880126953125,-0.47705078125,3.753661870956421,12.176512718200684,-2.319335699081421,100.0,153871.0,1.0
510515.9196188,260553.578125,289512.6875,303102.8125,279408.96875,285986.28125,277101.65625,253311.703125,262947.09375,-0.01025390625,0.880615234375,-0.47998046875,3.845214605331421,12.390135765075684,-2.105712652206421,100.0,153872.0,1.0
510515.9220912,259773.234375,289092.03125,302972.1875,279587.34375,286764.9375,277371.40625,253453.328125,263176.6875,-0.010498046875,0.880859375,-0.48095703125,3.906249761581421,12.481688499450684,-2.044677495956421,100.0,153873.0,1.0
510515.9221212,259622.40625,289129.46875,303359.6875,280290.1875,289032.03125,277735.90625,253870.328125,263776.875,-0.01123046875,0.882080078125,-0.48193359375,3.936767339706421,12.695311546325684,-2.136230230331421,100.0,153874.0,1.0
510515.9270648,260364.3125,289605.5625,303732.40625,280526.375,289596.46875,277677.34375,253971.984375,263898.03125,-0.010009765625,0.884033203125,-0.48193359375,3.845214605331421,12.908934593200684,-2.075195074081421,100.0,153875.0,1.0
510515.9295469,260960.65625,289864.5,303597.15625,280009.34375,287734.8125,277294.5,253635.890625,263400.3125,-0.010009765625,0.885498046875,-0.478515625,3.692626714706421,13.183592796325684,-2.044677495956421,100.0,153876.0,1.0
510515.9295809,260556.359375,289505.53125,303098.78125,279415.59375,285992.71875,277093.59375,253308.84375,262955.6875,-0.0126953125,0.88671875,-0.48046875,3.631591558456421,13.244627952575684,-2.075195074081421,100.0,153877.0,1.0
510515.9320172,259772.703125,289081.75,302961.90625,279579.75,286741.875,277359.875,253448.40625,263181.625,-0.013427734375,0.885498046875,-0.4794921875,3.479003667831421,13.244627952575684,-2.166747808456421,100.0,153878.0,1.0
510515.9346267,259603.546875,289108.90625,303340.28125,280278.46875,289003.6875,277725.625,253860.21875,263777.34375,-0.015869140625,0.88818359375,-0.48046875,3.417968511581421,13.275145530700684,-2.197265386581421,100.0,153879.0,1.0
510515.937161,260341.59375,289589.3125,303723.75,280531.03125,289603.15625,277682.0,253968.21875,263908.3125,-0.01708984375,0.890869140625,-0.480224609375,3.204345464706421,13.214110374450684,-2.288818120956421,100.0,153880.0,1.0
510515.9409178,260946.34375,289855.28125,303600.09375,280027.40625,287769.5,277302.71875,253640.1875,263421.5,-0.018310546875,0.89111328125,-0.47802734375,2.960204839706421,13.244627952575684,-2.319335699081421,100.0,153881.0,1.0
510515.9409594,260557.96875,289507.0625,303111.21875,279436.25,286022.6875,277101.125,253318.59375,262979.8125,-0.021484375,0.890625,-0.47607421875,2.624511480331421,13.183592796325684,-2.471923589706421,100.0,153882.0,1.0
510515.9710096,259773.0625,289080.84375,302963.53125,279584.75,286744.09375,277362.8125,253451.265625,263192.78125,-0.022216796875,0.888671875,-0.4736328125,2.258300542831421,13.122557640075684,-2.593993902206421,100.0,153883.0,1.0
510515.9710498,259594.15625,289100.6875,303331.15625,280266.40625,288990.0,277723.75,253855.75,263771.0625,-0.02392578125,0.89111328125,-0.474609375,2.014159917831421,13.061522483825684,-2.777099370956421,100.0,153884.0,1.0
510515.9710603,260337.9375,289585.375,303723.75,280534.625,289614.78125,277686.90625,253974.75,263910.0,-0.0263671875,0.8935546875,-0.4765625,1.5869139432907104,12.847899436950684,-2.990722417831421,100.0,153885.0,1.0
510515.9732782,260948.40625,289857.34375,303603.3125,280040.375,287798.9375,277307.75,253647.515625,263424.09375,-0.025634765625,0.89111328125,-0.477783203125,1.3122557401657104,12.695311546325684,-3.082275152206421,100.0,153886.0,1.0
510515.9757891,260572.265625,289526.0,303122.40625,279449.03125,286057.09375,277114.34375,253337.90625,262991.625,-0.027587890625,0.892822265625,-0.471923828125,1.0070799589157104,12.359618186950684,-3.387450933456421,100.0,153887.0,1.0
510515.9782109,259782.984375,289099.0,302967.8125,279577.0625,286740.8125,277373.09375,253458.609375,263188.5,-0.027099609375,0.893310546875,-0.474365234375,0.6103515028953552,12.054442405700684,-3.509521245956421,100.0,153888.0,1.0
510515.9806446,259591.46875,289115.28125,303330.875,280253.25,288974.375,277736.71875,253860.9375,263765.25,-0.026611328125,0.892333984375,-0.47314453125,0.3662109076976776,11.962889671325684,-3.631591558456421,100.0,153889.0,1.0
510515.9858861,260331.765625,289595.75,303729.1875,280532.8125,289632.21875,277701.125,253988.34375,263915.28125,-0.028564453125,0.891845703125,-0.47265625,0.0610351525247097,11.779784202575684,-3.784179449081421,100.0,153890.0,1.0
510515.9883461,260956.71875,289870.5,303620.5625,280055.21875,287841.9375,277321.0625,253667.28125,263437.3125,-0.028076171875,0.8935546875,-0.47509765625,-0.3051757514476776,11.444090843200684,-3.997802495956421,100.0,153891.0,1.0
510515.990737,260589.078125,289536.71875,303137.3125,279461.8125,286078.1875,277118.1875,253347.109375,262994.75,-0.027587890625,0.897216796875,-0.472412109375,-0.6713866591453552,11.291502952575684,-4.211425304412842,100.0,153892.0,1.0
510515.9933657,259802.921875,289113.3125,302977.71875,279579.3125,286735.4375,277374.875,253469.859375,263190.1875,-0.027587890625,0.8984375,-0.473876953125,-0.8544921278953552,10.925292015075684,-4.394530773162842,100.0,153893.0,1.0
510515.9958919,259593.078125,289113.40625,303322.65625,280234.90625,288950.84375,277722.40625,253855.125,263754.09375,-0.0302734375,0.8984375,-0.474365234375,-1.2512205839157104,10.681151390075684,-4.547118663787842,100.0,153894.0,1.0
510515.9959064,260331.40625,289592.875,303727.59375,280530.21875,289635.53125,277690.9375,253984.5,263914.46875,-0.032470703125,0.899658203125,-0.472412109375,-1.6784666776657104,10.498045921325684,-4.791259288787842,100.0,153895.0,1.0
510515.9981662,260977.1875,289887.9375,303641.59375,280076.84375,287881.625,277325.96875,253681.5,263459.5,-0.03369140625,0.897705078125,-0.4716796875,-2.044677495956421,10.345458030700684,-5.096435070037842,100.0,153896.0,1.0
510516.0020956,260597.296875,289535.84375,303134.375,279458.78125,286077.5,277097.28125,253334.140625,262988.84375,-0.037841796875,0.898681640625,-0.47314453125,-2.319335699081421,10.009764671325684,-5.340575695037842,100.0,153897.0,1.0
510516.0196148,259801.3125,289101.78125,302957.78125,279554.96875,286695.03125,277348.3125,253436.15625,263165.53125,-0.03955078125,0.897216796875,-0.4716796875,-2.563476324081421,9.613036155700684,-5.584716320037842,100.0,153898.0,1.0
510516.0196294,259597.828125,289116.34375,303317.65625,280225.71875,288927.875,277725.34375,253844.125,263749.625,-0.039306640625,0.896484375,-0.474853515625,-2.899169683456421,9.185790061950684,-5.737304210662842,100.0,153899.0,1.0
510516.0246009,260321.390625,289586.875,303719.90625,280524.34375,289636.34375,277695.40625,253977.4375,263908.59375,-0.042724609375,0.891845703125,-0.47705078125,-3.082275152206421,8.758543968200684,-5.889892101287842,100.0,153900.0,1.0
510516.0246177,260962.625,289871.65625,303631.375,280073.1875,287893.6875,277322.65625,253672.109375,263449.84375,-0.047119140625,0.888671875,-0.476806640625,-3.173827886581421,8.392333030700684,-6.256103038787842,100.0,153901.0,1.0
510516.027121,260607.40625,289540.75,303146.34375,279468.15625,286105.21875,277112.28125,253351.9375,262996.0,-0.04736328125,0.883544921875,-0.4775390625,-3.265380620956421,7.995604991912842,-6.622313976287842,100.0,153902.0,1.0
510516.0296123,259815.265625,289112.6875,302969.96875,279558.09375,286699.21875,277361.8125,253462.09375,263163.625,-0.042236328125,0.878173828125,-0.477294921875,-3.265380620956421,7.537841320037842,-6.866454601287842,100.0,153903.0,1.0
510516.0319885,259603.984375,289130.46875,303331.875,280232.5,288937.875,277747.09375,253877.65625,263747.1875,-0.03662109375,0.873779296875,-0.4755859375,-3.204345464706421,7.080077648162842,-7.049560070037842,100.0,153904.0,1.0
510516.0345032,260322.203125,289595.28125,303737.34375,280538.53125,289674.5,277721.0625,254013.375,263915.1875,-0.030517578125,0.870361328125,-0.47802734375,-3.051757574081421,6.835937023162842,-7.049560070037842,100.0,153905.0,1.0
510516.0407669,260967.265625,289872.90625,303647.21875,280088.28125,287941.625,277338.75,253700.0,263455.03125,-0.025390625,0.86767578125,-0.479248046875,-2.929687261581421,6.744384288787842,-7.202147960662842,100.0,153906.0,1.0
510516.0407902,260617.234375,289543.625,303153.0625,279476.65625,286124.25,277117.75,253358.640625,262988.75,-0.022216796875,0.867919921875,-0.481201171875,-2.746581792831421,6.713866710662842,-7.202147960662842,100.0,153907.0,1.0
510516.1009218,259819.90625,289117.875,302967.90625,279554.4375,286697.96875,277366.3125,253465.484375,263159.96875,-0.02197265625,0.87060546875,-0.48583984375,-2.441406011581421,6.713866710662842,-7.171630382537842,100.0,153908.0,1.0
510516.1009624,259590.046875,289114.71875,303311.84375,280211.84375,288919.5625,277732.25,253862.359375,263734.9375,-0.0185546875,0.871826171875,-0.4853515625,-2.288818120956421,6.958007335662842,-7.080077648162842,100.0,153909.0,1.0
510516.1032724,260315.3125,289593.875,303732.40625,280541.84375,289697.75,277717.84375,254013.46875,263925.46875,-0.01708984375,0.868408203125,-0.48388671875,-2.166747808456421,7.080077648162842,-6.988524913787842,100.0,153910.0,1.0
510516.1033134,260968.25,289882.8125,303655.875,280109.3125,287998.03125,277340.1875,253715.828125,263481.46875,-0.017578125,0.8662109375,-0.48291015625,-1.9531248807907104,7.202147960662842,-7.049560070037842,100.0,153911.0,1.0
510516.1058271,260613.578125,289541.125,303152.15625,279488.90625,286161.71875,277098.53125,253364.28125,263004.21875,-0.018310546875,0.86474609375,-0.481689453125,-1.7700194120407104,7.476806163787842,-6.958007335662842,100.0,153912.0,1.0
510516.1097906,259819.109375,289116.78125,302965.3125,279564.71875,286712.46875,277349.65625,253468.53125,263170.625,-0.020263671875,0.86669921875,-0.48193359375,-1.4953612089157104,7.690429210662842,-6.835937023162842,100.0,153913.0,1.0
510516.1098286,259584.046875,289112.59375,303307.46875,280218.28125,288926.875,277727.15625,253870.046875,263748.0,-0.0234375,0.871337890625,-0.482177734375,-1.1901854276657104,7.812499523162842,-6.835937023162842,100.0,153914.0,1.0
510516.1098393,260302.265625,289579.375,303724.71875,280548.75,289719.75,277717.5625,254021.15625,263937.71875,-0.023193359375,0.873291015625,-0.485107421875,-1.0070799589157104,7.904052257537842,-6.744384288787842,100.0,153915.0,1.0
510516.1135158,260968.78125,289873.09375,303654.09375,280120.65625,288030.21875,277343.84375,253715.5625,263488.09375,-0.024658203125,0.87548828125,-0.4833984375,-0.8239745497703552,8.026122093200684,-6.622313976287842,100.0,153916.0,1.0
510516.1135568,260626.53125,289541.125,303152.53125,279494.09375,286180.46875,277107.5625,253365.0,263008.59375,-0.0205078125,0.878173828125,-0.483642578125,-0.7934569716453552,8.056639671325684,-6.530761241912842,100.0,153917.0,1.0
510516.1135655,259823.21875,289107.125,302948.75,279543.09375,286689.3125,277348.40625,253461.109375,263159.25,-0.01806640625,0.88134765625,-0.484375,-0.8544921278953552,8.148192405700684,-6.378173351287842,100.0,153918.0,1.0
510516.1135745,259581.28125,289107.21875,303291.1875,280195.03125,288904.0,277733.59375,253866.03125,263734.875,-0.016845703125,0.8818359375,-0.485107421875,-0.7324218153953552,8.453368186950684,-6.225585460662842,100.0,153919.0,1.0
510516.1157487,260292.0625,289575.90625,303714.96875,280535.875,289720.5625,277729.375,254021.6875,263932.625,-0.018798828125,0.884521484375,-0.48486328125,-0.7019042372703552,8.605956077575684,-6.042479991912842,100.0,153920.0,1.0
510516.1157829,260956.71875,289867.375,303646.59375,280119.125,288041.40625,277347.0625,253713.140625,263492.84375,-0.0205078125,0.887939453125,-0.488525390625,-0.4882812201976776,8.789061546325684,-5.828856945037842,100.0,153921.0,1.0
510516.1174643,260626.984375,289542.375,303152.6875,279501.4375,286181.1875,277109.96875,253364.359375,263019.34375,-0.020751953125,0.892333984375,-0.491943359375,-0.2746581733226776,9.033202171325684,-5.737304210662842,100.0,153922.0,1.0
510516.1271048,259828.765625,289110.1875,302946.0,279543.34375,286656.21875,277341.34375,253445.1875,263153.0,-0.021728515625,0.89453125,-0.48828125,-0.1220703050494194,9.155272483825684,-5.798339366912842,100.0,153923.0,1.0
510516.1294538,259580.484375,289115.09375,303288.25,280193.53125,288886.21875,277728.5,253863.96875,263739.0625,-0.0224609375,0.89208984375,-0.482421875,-0.5187987685203552,9.277342796325684,-5.523681163787842,100.0,153924.0,1.0
510516.1319426,260285.546875,289573.65625,303714.71875,280542.03125,289735.75,277726.78125,254025.703125,263948.46875,-0.025390625,0.888671875,-0.47900390625,-0.7629393935203552,9.429930686950684,-5.401610851287842,100.0,153925.0,1.0
510516.1346155,260962.625,289869.15625,303660.71875,280134.4375,288082.96875,277353.15625,253729.953125,263509.75,-0.029296875,0.887939453125,-0.478759765625,-0.7934569716453552,9.490965843200684,-5.401610851287842,100.0,153926.0,1.0
510516.1371798,260635.75,289541.65625,303162.1875,279503.40625,286200.25,277104.15625,253368.75,263020.9375,-0.03271484375,0.883544921875,-0.479248046875,-0.7019042372703552,9.460448265075684,-5.371093273162842,100.0,153927.0,1.0
510516.1396354,259837.703125,289111.875,302953.0625,279537.46875,286651.125,277342.4375,253449.65625,263148.09375,-0.03466796875,0.880615234375,-0.481201171875,-0.2746581733226776,9.429930686950684,-5.218505382537842,100.0,153928.0,1.0
510516.141946,259586.015625,289109.8125,303291.1875,280183.34375,288865.28125,277731.96875,253854.234375,263715.28125,-0.037109375,0.88330078125,-0.484130859375,-0.03051757626235485,9.063719749450684,-5.187987804412842,100.0,153929.0,1.0
510516.1446209,260282.671875,289569.0,303716.3125,280534.96875,289734.15625,277724.90625,254009.796875,263916.8125,-0.0380859375,0.883544921875,-0.487548828125,0.1220703050494194,8.850096702575684,-4.913329601287842,100.0,153930.0,1.0
510516.1470963,260969.59375,289876.03125,303672.96875,280144.34375,288108.09375,277356.90625,253725.03125,263496.3125,-0.0380859375,0.885009765625,-0.48779296875,0.2136230319738388,8.728026390075684,-4.852294445037842,100.0,153931.0,1.0
510516.147136,260657.390625,289558.0,303183.625,279523.0625,286222.40625,277119.25,253382.875,263022.03125,-0.03857421875,0.881591796875,-0.4912109375,0.2136230319738388,8.636473655700684,-4.669188976287842,100.0,153932.0,1.0
510516.1494585,259850.03125,289123.21875,302959.75,279535.75,286646.65625,277349.84375,253456.28125,263141.375,-0.0419921875,0.879638671875,-0.490478515625,0.3662109076976776,8.575438499450684,-4.730224132537842,100.0,153933.0,1.0
510516.152081,259589.6875,289123.9375,303293.59375,280178.15625,288864.84375,277745.125,253866.03125,263714.9375,-0.042724609375,0.877197265625,-0.491455078125,0.5493163466453552,8.544920921325684,-4.638671398162842,100.0,153934.0,1.0
510516.157118,260280.53125,289580.4375,303725.0,280540.25,289764.1875,277748.5,254040.015625,263936.375,-0.046142578125,0.873291015625,-0.490478515625,0.7934569716453552,8.392333030700684,-4.486083507537842,100.0,153935.0,1.0
510516.1597012,260953.59375,289863.15625,303664.375,280137.65625,288125.25,277350.375,253734.15625,263502.40625,-0.047119140625,0.869873046875,-0.491943359375,1.3122557401657104,8.056639671325684,-4.547118663787842,100.0,153936.0,1.0
510516.1597412,260653.453125,289553.375,303176.46875,279514.03125,286223.125,277104.25,253380.734375,263023.53125,-0.046630859375,0.869140625,-0.49072265625,1.4648436307907104,7.781981945037842,-4.455565929412842,100.0,153937.0,1.0
510516.1683084,259846.109375,289118.3125,302947.34375,279515.65625,286616.0,277329.71875,253448.671875,263136.0,-0.050048828125,0.8681640625,-0.49072265625,1.7395018339157104,7.415771007537842,-4.180907726287842,100.0,153938.0,1.0
510516.190796,259575.828125,289110.09375,303276.0,280154.0,288820.21875,277720.15625,253849.75,263703.84375,-0.0537109375,0.8662109375,-0.48876953125,1.8615721464157104,7.019042491912842,-4.119872570037842,100.0,153939.0,1.0
510516.1908352,260262.03125,289558.625,303709.78125,280523.25,289736.46875,277723.75,254019.625,263924.75,-0.05419921875,0.864501953125,-0.48681640625,1.9226073026657104,6.713866710662842,-4.150390148162842,100.0,153940.0,1.0
510516.1935193,260953.328125,289851.4375,303664.5625,280138.09375,288120.4375,277339.28125,253727.265625,263502.40625,-0.0576171875,0.859130859375,-0.485595703125,2.075195074081421,6.469726085662842,-3.967284917831421,100.0,153941.0,1.0
510516.1935605,260656.765625,289540.21875,303173.34375,279507.78125,286204.8125,277088.0625,253373.21875,263019.6875,-0.057861328125,0.859375,-0.487548828125,2.319335699081421,6.225585460662842,-3.845214605331421,100.0,153942.0,1.0
510516.1958244,259857.1875,289111.6875,302944.03125,279509.28125,286576.1875,277316.84375,253434.28125,263124.65625,-0.057861328125,0.857421875,-0.489990234375,2.685546636581421,5.676269054412842,-3.753661870956421,100.0,153943.0,1.0
510516.1983778,259583.78125,289112.40625,303275.8125,280150.15625,288790.625,277723.75,253843.5,263699.90625,-0.056396484375,0.8583984375,-0.48779296875,3.021239995956421,5.249022960662842,-3.662109136581421,100.0,153944.0,1.0
510516.2008557,260261.765625,289560.0625,303708.0,280528.625,289738.0625,277735.90625,254023.5625,263934.59375,-0.056884765625,0.86376953125,-0.48876953125,3.265380620956421,4.943847179412842,-3.631591558456421,100.0,153945.0,1.0
510516.2058852,260959.578125,289859.75,303668.5,280154.09375,288142.15625,277353.78125,253734.6875,263514.28125,-0.060302734375,0.86669921875,-0.490966796875,3.540038824081421,4.638671398162842,-3.784179449081421,100.0,153946.0,1.0
510516.2059277,260670.796875,289551.9375,303177.1875,279522.53125,286215.4375,277094.40625,253377.875,263026.75,-0.05810546875,0.873291015625,-0.4892578125,3.723144292831421,4.241942882537842,-3.967284917831421,100.0,153947.0,1.0
510516.2084467,259877.484375,289126.1875,302949.9375,279522.53125,286569.40625,277322.3125,253445.1875,263134.6875,-0.053955078125,0.8798828125,-0.48974609375,3.814697027206421,3.936767339706421,-3.906249761581421,100.0,153948.0,1.0
510516.2084872,259592.546875,289117.9375,303277.25,280158.46875,288772.3125,277724.0,253846.09375,263701.25,-0.053466796875,0.8798828125,-0.491455078125,3.784179449081421,3.631591558456421,-3.906249761581421,100.0,153949.0,1.0
510516.2107422,260258.890625,289563.1875,303712.21875,280539.34375,289738.4375,277739.84375,254023.75,263934.0625,-0.054443359375,0.878662109375,-0.487548828125,3.845214605331421,3.509521245956421,-3.967284917831421,100.0,153950.0,1.0
510516.2458112,260943.3125,289851.90625,303663.125,280156.5,288150.03125,277350.375,253729.765625,263513.84375,-0.048583984375,0.8818359375,-0.482666015625,3.936767339706421,3.234863042831421,-4.119872570037842,100.0,153951.0,1.0
510516.2458499,260661.046875,289542.1875,303169.6875,279525.46875,286206.3125,277088.59375,253366.953125,263026.03125,-0.04345703125,0.887451171875,-0.483642578125,3.723144292831421,3.173827886581421,-3.845214605331421,100.0,153952.0,1.0
510516.248348,259868.90625,289111.78125,302935.34375,279514.21875,286533.8125,277308.375,253429.640625,263130.46875,-0.04150390625,0.89111328125,-0.482177734375,3.326415777206421,3.143310308456421,-3.662109136581421,100.0,153953.0,1.0
510516.2509114,259573.140625,289093.09375,303251.3125,280138.28125,288730.8125,277702.375,253827.9375,263690.15625,-0.039306640625,0.891845703125,-0.487060546875,2.838134527206421,3.173827886581421,-3.509521245956421,100.0,153954.0,1.0
510516.2533229,260235.109375,289534.3125,303689.6875,280530.3125,289722.6875,277726.53125,254013.1875,263929.5,-0.044677734375,0.885009765625,-0.492919921875,2.685546636581421,3.112792730331421,-3.448486089706421,100.0,153955.0,1.0
510516.255735,260942.859375,289844.375,303664.03125,280172.78125,288173.1875,277356.09375,253739.96875,263532.25,-0.049560546875,0.876953125,-0.494140625,2.868652105331421,3.051757574081421,-3.692626714706421,100.0,153956.0,1.0
510516.2582801,260676.875,289546.3125,303176.9375,279539.96875,286222.78125,277092.8125,253379.484375,263039.71875,-0.046142578125,0.875,-0.49365234375,3.356933355331421,2.838134527206421,-3.814697027206421,100.0,153957.0,1.0
510516.2609269,259881.0625,289115.90625,302935.4375,279512.25,286518.96875,277305.6875,253433.5625,263133.0625,-0.04541015625,0.880859375,-0.493408203125,3.448486089706421,2.746581792831421,-3.417968511581421,100.0,153958.0,1.0
510516.2658625,259581.109375,289100.0625,303254.28125,280133.625,288723.21875,277709.71875,253844.578125,263694.8125,-0.045166015625,0.88134765625,-0.494140625,3.295898199081421,2.777099370956421,-3.143310308456421,100.0,153959.0,1.0
510516.26822,260236.1875,289539.25,303692.90625,280520.84375,289738.15625,277739.40625,254037.0625,263932.1875,-0.0478515625,0.883544921875,-0.492431640625,3.082275152206421,2.777099370956421,-3.265380620956421,100.0,153960.0,1.0
510516.2707388,260941.078125,289839.65625,303663.125,280158.84375,288188.5625,277353.59375,253745.15625,263528.96875,-0.05322265625,0.878662109375,-0.490478515625,2.868652105331421,2.777099370956421,-3.204345464706421,100.0,153961.0,1.0
510516.2734515,260678.484375,289543.78125,303176.40625,279526.5625,286230.28125,277088.40625,253382.15625,263035.875,-0.056640625,0.876708984375,-0.49169921875,2.593993902206421,2.807616949081421,-3.112792730331421,100.0,153962.0,1.0
510516.2734929,259888.21875,289118.84375,302936.15625,279500.625,286511.90625,277305.3125,253438.578125,263127.59375,-0.05810546875,0.870849609375,-0.492919921875,2.685546636581421,2.716064214706421,-3.204345464706421,100.0,153963.0,1.0
510516.2758633,259578.421875,289096.5,303251.59375,280121.1875,288702.03125,277701.125,253832.6875,263687.03125,-0.05859375,0.86865234375,-0.490478515625,2.532958745956421,2.441406011581421,-3.143310308456421,100.0,153964.0,1.0
510516.2782896,260223.40625,289532.8125,303694.0625,280524.40625,289739.5,277735.5625,254024.546875,263942.65625,-0.05810546875,0.87060546875,-0.4912109375,2.410888433456421,2.136230230331421,-2.960204839706421,100.0,153965.0,1.0
510516.2808929,260928.734375,289834.46875,303665.71875,280174.84375,288210.28125,277359.3125,253745.421875,263538.78125,-0.060546875,0.87060546875,-0.492431640625,2.197265386581421,1.8615721464157104,-2.960204839706421,100.0,153966.0,1.0
510516.280935,260676.34375,289537.71875,303178.53125,279543.71875,286231.4375,277086.28125,253377.234375,263036.875,-0.065673828125,0.866943359375,-0.49658203125,2.197265386581421,1.6479490995407104,-2.899169683456421,100.0,153967.0,1.0
510516.2834384,259908.78125,289136.46875,302958.59375,279530.21875,286508.15625,277316.125,253448.40625,263143.875,-0.0673828125,0.864013671875,-0.499267578125,2.319335699081421,1.2207030057907104,-2.990722417831421,100.0,153968.0,1.0
510516.32086,259601.578125,289123.125,303282.4375,280155.71875,288707.9375,277728.75,253860.484375,263706.875,-0.065673828125,0.86376953125,-0.498779296875,2.746581792831421,0.9460448622703552,-3.112792730331421,100.0,153969.0,1.0
510516.3208719,260218.21875,289533.59375,303701.5625,280531.75,289739.78125,277730.90625,254024.734375,263929.0625,-0.06201171875,0.87255859375,-0.494873046875,2.929687261581421,0.6103515028953552,-3.112792730331421,100.0,153970.0,1.0
510516.3232158,260932.40625,289841.96875,303682.09375,280186.8125,288229.6875,277349.9375,253747.5625,263531.8125,-0.0576171875,0.880615234375,-0.492919921875,2.685546636581421,0.3051757514476776,-2.899169683456421,100.0,153971.0,1.0
510516.3232287,260688.59375,289558.0,303197.75,279554.625,286251.75,277078.9375,253385.90625,263035.15625,-0.052978515625,0.8818359375,-0.4931640625,2.197265386581421,0.2441406100988388,-2.960204839706421,100.0,153972.0,1.0
510516.3249255,259898.59375,289127.78125,302947.25,279509.46875,286481.0625,277285.5625,253428.203125,263107.75,-0.05029296875,0.88525390625,-0.491455078125,1.6479490995407104,0.3051757514476776,-3.021239995956421,100.0,153973.0,1.0
510516.3345672,259578.234375,289102.46875,303257.75,280124.0625,288668.40625,277692.53125,253826.6875,263666.03125,-0.052978515625,0.881591796875,-0.49267578125,1.2512205839157104,0.4272460639476776,-2.899169683456421,100.0,153974.0,1.0
510516.3369612,260213.203125,289538.53125,303706.3125,280534.625,289765.09375,277737.875,254035.546875,263936.21875,-0.050048828125,0.884033203125,-0.489990234375,1.1901854276657104,0.4272460639476776,-3.051757574081421,100.0,153975.0,1.0
510516.3395387,260931.234375,289848.0625,303689.78125,280194.15625,288271.90625,277363.78125,253764.1875,263546.40625,-0.04833984375,0.878173828125,-0.494873046875,1.1596678495407104,0.3356933295726776,-3.021239995956421,100.0,153976.0,1.0
510516.3420795,260696.8125,289564.71875,303205.90625,279560.34375,286287.3125,277089.59375,253398.515625,263045.0,-0.046875,0.886474609375,-0.49169921875,1.2512205839157104,0.3662109076976776,-2.777099370956421,100.0,153977.0,1.0
510516.3446289,259909.21875,289135.21875,302951.1875,279510.625,286492.96875,277289.5,253436.34375,263115.28125,-0.046142578125,0.88671875,-0.494140625,0.9155272841453552,0.3356933295726776,-2.655029058456421,100.0,153978.0,1.0
510516.3469131,259576.984375,289100.4375,303257.3125,280119.0625,288668.9375,277692.90625,253829.90625,263673.53125,-0.044189453125,0.88623046875,-0.48876953125,0.6408690810203552,0.5187987685203552,-2.563476324081421,100.0,153979.0,1.0
510516.3495659,260200.421875,289528.78125,303700.59375,280529.4375,289773.65625,277736.1875,254034.375,263942.46875,-0.04345703125,0.89306640625,-0.48681640625,0.1220703050494194,0.6713866591453552,-2.441406011581421,100.0,153980.0,1.0
510516.3520881,260923.375,289849.65625,303688.78125,280197.46875,288303.53125,277367.625,253771.4375,263560.0625,-0.047119140625,0.88818359375,-0.48681640625,-0.2746581733226776,0.9155272841453552,-2.319335699081421,100.0,153981.0,1.0
510516.3546223,260698.15625,289569.71875,303204.65625,279563.5625,286302.71875,277086.53125,253398.609375,263056.4375,-0.048828125,0.882080078125,-0.485107421875,-0.5493163466453552,1.1596678495407104,-2.593993902206421,100.0,153982.0,1.0
510516.3570211,259907.078125,289137.53125,302942.875,279502.125,286484.8125,277282.15625,253431.953125,263117.40625,-0.05078125,0.8818359375,-0.4873046875,-0.7019042372703552,1.2512205839157104,-2.593993902206421,100.0,153983.0,1.0
510516.3570471,259560.453125,289090.3125,303234.875,280095.8125,288645.78125,277675.65625,253817.484375,263659.84375,-0.052978515625,0.88330078125,-0.486328125,-0.7629393935203552,1.3732908964157104,-2.502441167831421,100.0,153984.0,1.0
510516.3646059,260182.453125,289516.71875,303682.0,280514.3125,289765.875,277725.1875,254021.953125,263925.03125,-0.057861328125,0.879150390625,-0.489990234375,-1.0681151151657104,1.4343260526657104,-2.471923589706421,100.0,153985.0,1.0
510516.3694744,260918.0,289842.78125,303682.78125,280195.125,288321.25,277367.375,253770.90625,263551.3125,-0.058837890625,0.873779296875,-0.485595703125,-1.0375975370407104,1.4648436307907104,-2.624511480331421,100.0,153986.0,1.0
510516.3721333,260696.28125,289562.40625,303197.75,279557.84375,286313.4375,277085.8125,253402.984375,263045.96875,-0.06005859375,0.870361328125,-0.4873046875,-1.0986326932907104,1.4648436307907104,-2.655029058456421,100.0,153987.0,1.0
510516.3745507,259905.46875,289126.34375,302930.4375,279485.59375,286454.875,277271.4375,253427.671875,263094.71875,-0.063232421875,0.87451171875,-0.482666015625,-1.0986326932907104,1.5258787870407104,-2.624511480331421,100.0,153988.0,1.0
510516.3745875,259566.34375,289091.9375,303234.15625,280088.125,288612.09375,277679.21875,253824.640625,263647.78125,-0.06494140625,0.872314453125,-0.48046875,-1.2817381620407104,1.6479490995407104,-2.441406011581421,100.0,153989.0,1.0
510516.3796355,260182.453125,289516.4375,303685.46875,280510.65625,289753.09375,277736.09375,254037.59375,263926.375,-0.070556640625,0.870361328125,-0.48095703125,-1.3732908964157104,1.6174315214157104,-2.471923589706421,100.0,153990.0,1.0
510516.3821491,260920.6875,289845.1875,303687.0,280192.71875,288314.1875,277374.78125,253781.625,263553.8125,-0.0693359375,0.87744140625,-0.481201171875,-1.4953612089157104,1.5258787870407104,-2.319335699081421,100.0,153991.0,1.0
510516.3883623,260717.546875,289575.09375,303209.375,279563.125,286299.75,277091.5625,253415.6875,263058.40625,-0.06787109375,0.880126953125,-0.486328125,-1.9226073026657104,1.5258787870407104,-2.136230230331421,100.0,153992.0,1.0
510516.4785171,259926.390625,289128.6875,302933.5625,279486.84375,286416.4375,277268.5625,253434.90625,263108.375,-0.070556640625,0.875,-0.4873046875,-1.9226073026657104,1.6174315214157104,-2.197265386581421,100.0,153993.0,1.0
510516.4785577,259569.65625,289070.5625,303221.0,280080.4375,288551.8125,277664.8125,253813.8125,263647.6875,-0.06787109375,0.87548828125,-0.491943359375,-1.8920897245407104,1.7089842557907104,-2.197265386581421,100.0,153994.0,1.0
510516.4785664,260181.296875,289500.0625,303676.53125,280514.3125,289717.15625,277725.71875,254026.609375,263929.3125,-0.06689453125,0.875244140625,-0.495849609375,-1.7089842557907104,1.6479490995407104,-2.075195074081421,100.0,153995.0,1.0
510516.4785754,260921.671875,289837.0625,303685.375,280206.5,288305.6875,277367.1875,253771.96875,263560.0625,-0.06396484375,0.874755859375,-0.493896484375,-1.6479490995407104,1.8615721464157104,-2.105712652206421,100.0,153996.0,1.0
510516.480836,260713.625,289569.625,303204.46875,279570.09375,286291.78125,277079.84375,253407.015625,263065.65625,-0.06640625,0.87255859375,-0.492919921875,-1.5563963651657104,2.075195074081421,-2.075195074081421,100.0,153997.0,1.0
510516.4834076,259915.3125,289115.8125,302918.625,279479.6875,286383.34375,277249.625,253419.0,263095.875,-0.066162109375,0.870361328125,-0.491943359375,-1.2817381620407104,2.258300542831421,-2.197265386581421,100.0,153998.0,1.0
510516.4834484,259558.21875,289064.9375,303213.84375,280078.46875,288529.65625,277655.15625,253809.875,263640.96875,-0.058837890625,0.88623046875,-0.488525390625,-1.1901854276657104,2.441406011581421,-2.197265386581421,100.0,153999.0,1.0
510516.4858654,260165.734375,289495.15625,303671.09375,280515.65625,289724.75,277724.46875,254033.046875,263928.78125,-0.0556640625,0.8896484375,-0.488525390625,-1.5258787870407104,2.777099370956421,-1.9836424589157104,100.0,154000.0,1.0
510516.4883634,260914.703125,289834.8125,303686.28125,280215.4375,288335.8125,277368.8125,253782.515625,263561.84375,-0.053466796875,0.88330078125,-0.488525390625,-1.7700194120407104,3.265380620956421,-1.7395018339157104,100.0,154001.0,1.0
510516.4909839,260718.1875,289566.6875,303207.78125,279578.125,286315.03125,277076.15625,253413.1875,263053.84375,-0.05224609375,0.87939453125,-0.48779296875,-2.136230230331421,3.784179449081421,-1.5869139432907104,100.0,154002.0,1.0
510516.5182025,259922.71875,289113.5625,302919.625,279482.90625,286387.375,277247.03125,253423.28125,263086.65625,-0.05126953125,0.8828125,-0.490234375,-2.258300542831421,4.302978038787842,-1.2512205839157104,100.0,154003.0,1.0
510516.520896,259556.96875,289056.78125,303206.6875,280072.75,288522.5,277651.6875,253803.4375,263626.6875,-0.048583984375,0.8876953125,-0.4873046875,-2.593993902206421,4.852294445037842,-0.8850097060203552,100.0,154004.0,1.0
510516.5257141,260151.78125,289474.875,303660.53125,280507.4375,289725.84375,277712.9375,254012.296875,263908.75,-0.051513671875,0.887939453125,-0.4912109375,-3.021239995956421,5.371093273162842,-0.4577636420726776,100.0,154005.0,1.0
510516.5282357,260915.40625,289831.25,303691.75,280220.96875,288367.375,277362.53125,253772.6875,263560.34375,-0.05419921875,0.880859375,-0.491455078125,-3.204345464706421,5.920409679412842,-0.1831054538488388,100.0,154006.0,1.0
510516.5308371,260733.828125,289575.8125,303220.5625,279593.78125,286342.5,277069.71875,253399.59375,263060.71875,-0.05908203125,0.876220703125,-0.4921875,-3.082275152206421,6.347655773162842,-0.1831054538488388,100.0,154007.0,1.0
510516.5357543,259938.734375,289119.03125,302927.3125,279493.65625,286383.4375,277232.625,253395.125,263086.40625,-0.06396484375,0.875732421875,-0.492431640625,-2.899169683456421,6.744384288787842,-0.2441406100988388,100.0,154008.0,1.0
510516.5446449,259566.0,289064.03125,303213.84375,280082.65625,288521.53125,277648.09375,253792.53125,263638.65625,-0.06298828125,0.878173828125,-0.490478515625,-2.655029058456421,6.958007335662842,-0.3662109076976776,100.0,154009.0,1.0
510516.5469407,260154.296875,289482.1875,303670.90625,280523.625,289759.09375,277718.46875,254020.796875,263938.1875,-0.06005859375,0.88427734375,-0.48828125,-2.563476324081421,7.110595226287842,-0.2746581733226776,100.0,154010.0,1.0
510516.5496351,260914.875,289829.8125,303699.25,280236.25,288411.71875,277361.28125,253773.578125,263583.5,-0.055419921875,0.889892578125,-0.487060546875,-2.624511480331421,7.476806163787842,-0.03051757626235485,100.0,154011.0,1.0
510516.5520685,260740.171875,289574.71875,303227.34375,279606.3125,286375.75,277059.4375,253398.515625,263075.65625,-0.0546875,0.888916015625,-0.490478515625,-2.838134527206421,7.812499523162842,0.03051757626235485,100.0,154012.0,1.0
510516.557128,259947.140625,289123.0625,302933.5625,279499.90625,286397.65625,277217.15625,253401.375,263102.5,-0.054931640625,0.886962890625,-0.49072265625,-2.746581792831421,8.270262718200684,0.03051757626235485,100.0,154013.0,1.0
510516.559655,259561.515625,289058.40625,303211.1875,280076.3125,288516.5,277627.28125,253788.953125,263646.09375,-0.056640625,0.88623046875,-0.489501953125,-2.868652105331421,8.789061546325684,0.1220703050494194,100.0,154014.0,1.0
510516.5646301,260151.34375,289484.25,303678.9375,280531.75,289775.4375,277717.21875,254022.140625,263952.3125,-0.0556640625,0.8916015625,-0.489013671875,-3.112792730331421,9.094237327575684,0.3967284858226776,100.0,154015.0,1.0
510516.5696447,260916.84375,289839.375,303714.53125,280256.5625,288451.40625,277368.96875,253784.484375,263604.875,-0.056396484375,0.88818359375,-0.48828125,-3.387450933456421,9.643553733825684,0.8850097060203552,100.0,154016.0,1.0
510516.5719904,260752.6875,289587.34375,303248.1875,279628.21875,286412.84375,277073.59375,253413.984375,263089.0,-0.062744140625,0.877685546875,-0.4892578125,-3.601073980331421,10.131834983825684,1.1901854276657104,100.0,154017.0,1.0
510516.5746494,259955.0,289130.375,302945.625,279508.65625,286406.0625,277236.21875,253410.859375,263103.5625,-0.068359375,0.865478515625,-0.489013671875,-3.601073980331421,10.284422874450684,1.1291502714157104,100.0,154018.0,1.0
510516.5821115,259557.140625,289065.125,303215.5625,280079.71875,288521.59375,277653.03125,253802.1875,263650.375,-0.067138671875,0.867431640625,-0.482421875,-3.540038824081421,10.314940452575684,1.3427733182907104,100.0,154019.0,1.0
510516.5846825,260134.984375,289481.375,303680.03125,280536.125,289804.0625,277747.15625,254039.65625,263958.125,-0.06689453125,0.862548828125,-0.479248046875,-3.387450933456421,10.314940452575684,1.6479490995407104,100.0,154020.0,1.0
510516.5847242,260919.171875,289846.96875,303732.59375,280279.09375,288517.59375,277406.34375,253814.171875,263618.8125,-0.059814453125,0.87060546875,-0.476806640625,-3.479003667831421,10.314940452575684,1.7700194120407104,100.0,154021.0,1.0
510516.5896384,260768.875,289599.59375,303268.9375,279657.71875,286479.46875,277101.65625,253441.34375,263113.21875,-0.05615234375,0.87451171875,-0.48095703125,-3.753661870956421,10.437010765075684,2.105712652206421,100.0,154022.0,1.0
510516.5896792,259975.65625,289145.65625,302961.46875,279535.75,286463.28125,277260.96875,253439.203125,263126.0,-0.0537109375,0.87109375,-0.478515625,-3.875732183456421,10.498045921325684,2.349853277206421,100.0,154023.0,1.0
510516.5919976,259565.359375,289066.53125,303215.90625,280099.28125,288568.46875,277667.96875,253819.265625,263663.34375,-0.050537109375,0.869384765625,-0.48291015625,-3.753661870956421,10.681151390075684,2.227782964706421,100.0,154024.0,1.0
510516.5946354,260131.140625,289475.9375,303671.34375,280553.125,289866.90625,277746.28125,254043.953125,263966.6875,-0.0498046875,0.87158203125,-0.484619140625,-3.692626714706421,10.894774436950684,2.380370855331421,100.0,154025.0,1.0
510516.5971272,260928.203125,289853.3125,303738.75,280308.5,288605.5625,277411.625,253830.890625,263643.3125,-0.054443359375,0.86669921875,-0.484130859375,-3.540038824081421,11.230467796325684,2.380370855331421,100.0,154026.0,1.0
510516.5996209,260773.875,289602.0,303268.3125,279665.3125,286540.4375,277088.6875,253442.515625,263116.53125,-0.0517578125,0.871337890625,-0.47900390625,-3.143310308456421,11.383055686950684,2.197265386581421,100.0,154027.0,1.0
510516.60212,259984.6875,289148.53125,302956.71875,279524.59375,286485.53125,277241.5,253431.515625,263119.28125,-0.051025390625,0.87646484375,-0.47705078125,-3.112792730331421,11.413573265075684,2.441406011581421,100.0,154028.0,1.0
510516.6070885,259565.90625,289064.65625,303206.25,280073.28125,288561.84375,277650.0625,253808.0,263643.75,-0.050537109375,0.87890625,-0.472900390625,-3.082275152206421,11.383055686950684,2.471923589706421,100.0,154029.0,1.0
510516.6096418,260128.09375,289471.03125,303667.59375,280530.40625,289871.03125,277744.5,254049.21875,263960.34375,-0.043701171875,0.88818359375,-0.4736328125,-3.265380620956421,11.291502952575684,2.593993902206421,100.0,154030.0,1.0
510516.6134528,260921.21875,289837.125,303727.9375,280283.125,288610.21875,277402.3125,253821.859375,263629.375,-0.036865234375,0.897216796875,-0.470458984375,-3.601073980331421,11.535643577575684,2.777099370956421,100.0,154031.0,1.0
510516.6134929,260789.796875,289603.625,303269.46875,279653.59375,286546.34375,277093.6875,253441.796875,263113.46875,-0.03466796875,0.900634765625,-0.472900390625,-4.364013195037842,11.810301780700684,3.143310308456421,100.0,154032.0,1.0
510516.613504,259994.078125,289143.96875,302946.53125,279502.21875,286463.8125,277240.3125,253430.171875,263106.78125,-0.0361328125,0.893798828125,-0.473388671875,-4.852294445037842,12.115477561950684,3.234863042831421,100.0,154033.0,1.0
510516.6158218,259572.25,289060.1875,303194.09375,280051.375,288529.125,277655.53125,253814.0,263631.34375,-0.03564453125,0.887451171875,-0.471435546875,-5.126952648162842,12.268065452575684,3.173827886581421,100.0,154034.0,1.0
510516.6183657,260116.65625,289457.59375,303650.15625,280508.875,289846.96875,277750.3125,254049.578125,263939.875,-0.035888671875,0.8798828125,-0.47314453125,-5.279540538787842,12.329100608825684,3.143310308456421,100.0,154035.0,1.0
510516.6209334,260917.640625,289830.25,303723.375,280277.3125,288607.78125,277406.4375,253819.890625,263609.15625,-0.036865234375,0.877197265625,-0.47412109375,-5.218505382537842,12.329100608825684,3.051757574081421,100.0,154036.0,1.0
510516.6209746,260799.8125,289613.90625,303280.1875,279660.75,286560.65625,277103.53125,253447.421875,263102.40625,-0.0361328125,0.879150390625,-0.47265625,-5.157470226287842,12.145995140075684,2.899169683456421,100.0,154037.0,1.0
510516.6258935,259996.3125,289154.78125,302950.8125,279500.96875,286468.8125,277248.46875,253435.53125,263092.90625,-0.0361328125,0.88330078125,-0.474853515625,-5.004882335662842,11.932372093200684,2.563476324081421,100.0,154038.0,1.0
510516.6259339,259557.765625,289062.0625,303189.09375,280041.53125,288525.8125,277655.96875,253809.875,263613.90625,-0.033203125,0.88330078125,-0.4716796875,-4.852294445037842,12.023924827575684,2.502441167831421,100.0,154039.0,1.0
510516.6283771,260107.625,289469.9375,303658.125,280518.53125,289879.6875,277759.34375,254058.171875,263943.1875,-0.031982421875,0.8798828125,-0.468505859375,-4.821776866912842,11.993407249450684,2.227782964706421,100.0,154040.0,1.0
510516.6308558,260929.625,289861.1875,303752.71875,280313.34375,288690.75,277429.78125,253850.828125,263642.25,-0.033447265625,0.89013671875,-0.46533203125,-4.821776866912842,11.993407249450684,2.014159917831421,100.0,154041.0,1.0
510516.6334527,260822.421875,289641.4375,303311.40625,279701.15625,286642.90625,277115.0625,253470.671875,263133.0625,-0.030517578125,0.895751953125,-0.462646484375,-5.126952648162842,11.932372093200684,1.8920897245407104,100.0,154042.0,1.0
510516.6334917,260013.65625,289174.46875,302970.21875,279522.96875,286509.15625,277246.40625,253438.9375,263104.4375,-0.02978515625,0.89599609375,-0.464111328125,-5.493163585662842,11.962889671325684,1.6784666776657104,100.0,154043.0,1.0
510516.6374798,259555.796875,289068.25,303189.90625,280040.46875,288543.5,277649.71875,253799.15625,263607.1875,-0.028564453125,0.894287109375,-0.463623046875,-5.645751476287842,11.840819358825684,1.5869139432907104,100.0,154044.0,1.0
510516.644494,260097.0625,289467.53125,303655.71875,280513.0625,289908.65625,277753.78125,254043.0625,263929.15625,-0.027587890625,0.8935546875,-0.467041015625,-5.767821788787842,11.657713890075684,1.3427733182907104,100.0,154045.0,1.0
510516.6470703,260921.671875,289857.78125,303756.65625,280309.9375,288739.21875,277425.3125,253839.65625,263629.28125,-0.023193359375,0.893310546875,-0.4697265625,-5.676269054412842,11.505125999450684,1.0070799589157104,100.0,154046.0,1.0
510516.6521679,260817.15625,289637.9375,303310.15625,279690.34375,286676.34375,277105.125,253458.515625,263114.75,-0.02490234375,0.895751953125,-0.469482421875,-5.737304210662842,11.413573265075684,0.7629393935203552,100.0,154047.0,1.0
510516.6522081,260017.9375,289176.96875,302967.28125,279512.25,286516.5625,277243.90625,253427.75,263083.25,-0.022216796875,0.8984375,-0.469482421875,-5.706786632537842,11.199950218200684,0.4882812201976776,100.0,154048.0,1.0
510516.6546308,259558.65625,289076.375,303186.3125,280025.15625,288543.875,277663.125,253801.828125,263593.875,-0.0205078125,0.901123046875,-0.47021484375,-5.554198741912842,11.077879905700684,0.1831054538488388,100.0,154049.0,1.0
510516.6546736,260095.734375,289474.78125,303655.09375,280504.21875,289930.40625,277777.03125,254053.875,263921.625,-0.0146484375,0.90234375,-0.46630859375,-5.493163585662842,11.016844749450684,0.0,100.0,154050.0,1.0
510516.6570522,260927.65625,289872.46875,303766.125,280317.09375,288788.3125,277449.8125,253852.53125,263628.03125,-0.010498046875,0.9033203125,-0.46826171875,-5.615233898162842,11.230467796325684,0.1220703050494194,100.0,154051.0,1.0
510516.6570916,260830.46875,289657.34375,303324.1875,279701.6875,286733.8125,277126.0625,253472.375,263115.71875,-0.00634765625,0.905517578125,-0.468505859375,-5.767821788787842,11.566161155700684,0.3662109076976776,100.0,154052.0,1.0
510516.6596229,260018.296875,289180.0,302962.96875,279501.4375,286537.125,277247.125,253421.9375,263070.03125,-0.00439453125,0.906494140625,-0.468017578125,-6.042479991912842,11.810301780700684,0.4577636420726776,100.0,154053.0,1.0
510516.6646249,259556.421875,289083.15625,303183.46875,280018.90625,288570.34375,277672.96875,253806.390625,263597.34375,-0.010986328125,0.906494140625,-0.46923828125,-6.286620616912842,12.237547874450684,0.5187987685203552,100.0,154054.0,1.0
510516.6646653,260079.90625,289473.25,303647.65625,280504.5625,289977.59375,277784.71875,254062.453125,263936.84375,-0.01171875,0.90576171875,-0.467529296875,-6.591796398162842,12.451170921325684,0.3051757514476776,100.0,154055.0,1.0
510516.6695052,260913.71875,289865.75,303760.75,280324.3125,288852.15625,277449.0,253859.765625,263646.15625,-0.0146484375,0.902587890625,-0.46728515625,-6.683349132537842,12.359618186950684,0.2441406100988388,100.0,154056.0,1.0
510516.6695432,260826.09375,289647.78125,303318.90625,279706.96875,286786.9375,277113.46875,253473.53125,263128.40625,-0.014892578125,0.89892578125,-0.46630859375,-6.713866710662842,12.298583030700684,0.0610351525247097,100.0,154057.0,1.0
510516.6721219,260014.546875,289167.5625,302949.375,279497.5,286565.28125,277227.09375,253423.015625,263078.625,-0.015869140625,0.894287109375,-0.4638671875,-6.713866710662842,12.023924827575684,0.0,100.0,154058.0,1.0
510516.674491,259536.21875,289051.25,303149.9375,279997.71875,288560.78125,277639.875,253786.90625,263585.90625,-0.015380859375,0.893310546875,-0.46435546875,-6.744384288787842,11.810301780700684,-0.0915527269244194,100.0,154059.0,1.0
510516.6771402,260058.0,289444.71875,303620.5625,280485.25,289991.375,277764.59375,254051.8125,263933.34375,-0.01904296875,0.890380859375,-0.46142578125,-6.530761241912842,11.688231468200684,-0.2136230319738388,100.0,154060.0,1.0
510516.6796283,260907.640625,289848.3125,303751.8125,280321.375,288899.09375,277437.46875,253861.375,263657.0,-0.018798828125,0.8876953125,-0.46337890625,-6.195067882537842,11.505125999450684,-0.4882812201976776,100.0,154061.0,1.0
510516.6821643,260839.328125,289641.25,303324.4375,279715.71875,286825.90625,277105.59375,253473.625,263141.8125,-0.018310546875,0.891845703125,-0.4599609375,-6.072997570037842,11.260985374450684,-0.6408690810203552,100.0,154062.0,1.0
510516.6822056,260034.484375,289169.625,302959.125,279505.09375,286586.125,277227.71875,253425.34375,263088.71875,-0.016357421875,0.894775390625,-0.45751953125,-5.981444835662842,11.016844749450684,-0.5798339247703552,100.0,154063.0,1.0
510516.6869338,259548.109375,289057.34375,303159.5,280002.375,288583.65625,277651.0625,253801.03125,263594.84375,-0.017578125,0.89404296875,-0.45947265625,-5.950927257537842,10.681151390075684,-0.5187987685203552,100.0,154064.0,1.0
510516.6896435,260057.546875,289442.5,303623.59375,280491.875,290021.125,277773.28125,254062.90625,263937.5625,-0.016845703125,0.894287109375,-0.455078125,-5.950927257537842,10.406493186950684,-0.3356933295726776,100.0,154065.0,1.0
510516.6896855,260913.359375,289849.65625,303759.25,280337.1875,288935.1875,277446.5,253869.15625,263660.21875,-0.018310546875,0.890625,-0.455322265625,-6.072997570037842,10.253905296325684,-0.2136230319738388,100.0,154066.0,1.0
510516.6920446,260864.0,289662.15625,303347.4375,279741.40625,286870.4375,277126.15625,253493.296875,263156.75,-0.021728515625,0.885498046875,-0.457763671875,-5.828856945037842,10.101317405700684,-0.2746581733226776,100.0,154067.0,1.0
510516.6920828,260061.671875,289195.46875,302983.28125,279527.4375,286603.1875,277248.375,253442.78125,263105.25,-0.024658203125,0.88671875,-0.456787109375,-5.371093273162842,9.857176780700684,-0.3356933295726776,100.0,154068.0,1.0
510516.6945949,259553.65625,289068.96875,303164.5,280006.40625,288570.96875,277657.0625,253798.078125,263595.375,-0.02587890625,0.887939453125,-0.45556640625,-5.249022960662842,9.674071311950684,-0.3356933295726776,100.0,154069.0,1.0
510516.6971547,260056.03125,289455.375,303633.8125,280504.9375,290044.9375,277788.3125,254073.28125,263956.84375,-0.029541015625,0.88818359375,-0.457275390625,-4.791259288787842,9.368895530700684,-0.2441406100988388,100.0,154070.0,1.0
510516.6971954,260915.140625,289862.625,303775.0625,280358.21875,288985.375,277463.5625,253889.453125,263693.8125,-0.031982421875,0.88671875,-0.456787109375,-4.425048351287842,8.819579124450684,-0.2136230319738388,100.0,154071.0,1.0
510516.7046013,260872.765625,289676.3125,303362.0,279761.34375,286908.15625,277133.84375,253508.671875,263186.34375,-0.030517578125,0.883544921875,-0.4560546875,-4.211425304412842,8.483885765075684,-0.3356933295726776,100.0,154072.0,1.0
510516.7071347,260072.65625,289209.25,302989.53125,279537.09375,286610.625,277255.0625,253456.640625,263124.5625,-0.031982421875,0.88134765625,-0.459228515625,-3.845214605331421,8.056639671325684,-0.3051757514476776,100.0,154073.0,1.0
510516.7096159,259555.171875,289072.09375,303160.03125,280003.53125,288554.34375,277666.875,253806.3125,263605.125,-0.03369140625,0.880615234375,-0.459228515625,-3.295898199081421,7.690429210662842,-0.5493163466453552,100.0,154074.0,1.0
510516.7096572,260053.078125,289448.75,303626.03125,280500.0,290021.78125,277791.25,254071.578125,263956.5,-0.03466796875,0.880859375,-0.457275390625,-2.807616949081421,7.202147960662842,-0.5798339247703552,100.0,154075.0,1.0
510516.7121094,260921.140625,289860.75,303778.375,280361.34375,288974.625,277466.78125,253887.75,263694.09375,-0.036376953125,0.881591796875,-0.455810546875,-2.319335699081421,6.835937023162842,-0.7019042372703552,100.0,154076.0,1.0
510516.7407117,260875.359375,289666.46875,303354.125,279748.71875,286868.84375,277115.875,253491.0625,263162.65625,-0.03662109375,0.88037109375,-0.45556640625,-1.9836424589157104,6.469726085662842,-0.7324218153953552,100.0,154077.0,1.0
510516.7522132,260075.796875,289189.375,302970.9375,279511.625,286531.9375,277220.65625,253424.0,263083.25,-0.0390625,0.880615234375,-0.45458984375,-1.6784666776657104,5.981444835662842,-0.7629393935203552,100.0,154078.0,1.0
510516.7522534,259556.875,289050.1875,303139.1875,279974.9375,288463.40625,277632.0,253773.671875,263563.65625,-0.041259765625,0.879638671875,-0.45703125,-1.3732908964157104,5.615233898162842,-0.7019042372703552,100.0,154079.0,1.0
510516.7522632,260049.0625,289429.09375,303611.0,280476.21875,289954.875,277767.71875,254049.140625,263924.75,-0.04150390625,0.880615234375,-0.453857421875,-0.9460448622703552,5.157470226287842,-0.8850097060203552,100.0,154080.0,1.0
510516.7559889,260919.4375,289842.5,303762.28125,280335.875,288917.5,277439.34375,253861.203125,263656.8125,-0.043701171875,0.87939453125,-0.45556640625,-0.5493163466453552,4.821776866912842,-1.0375975370407104,100.0,154081.0,1.0
510516.7560294,260893.421875,289660.84375,303350.28125,279728.34375,286806.0625,277095.84375,253468.609375,263134.40625,-0.043212890625,0.877197265625,-0.45703125,-0.2136230319738388,4.486083507537842,-1.1291502714157104,100.0,154082.0,1.0
510516.756038,260092.0625,289187.6875,302964.78125,279481.84375,286446.8125,277195.25,253397.71875,263054.03125,-0.043212890625,0.87744140625,-0.45947265625,-0.0610351525247097,4.150390148162842,-1.2512205839157104,100.0,154083.0,1.0
510516.7560475,259566.703125,289047.6875,303133.375,279947.65625,288371.75,277609.75,253748.28125,263538.625,-0.044189453125,0.87744140625,-0.457275390625,0.3967284858226776,3.906249761581421,-1.4038084745407104,100.0,154084.0,1.0
510516.7608608,260057.109375,289431.15625,303613.40625,280461.75,289884.09375,277760.5,254029.46875,263910.375,-0.046875,0.878173828125,-0.456298828125,0.7019042372703552,3.692626714706421,-1.4953612089157104,100.0,154085.0,1.0
510516.7632595,260930.796875,289851.96875,303775.25,280336.40625,288874.0625,277440.6875,253853.0625,263657.0,-0.046630859375,0.877685546875,-0.463623046875,0.9765624403953552,3.295898199081421,-1.6174315214157104,100.0,154086.0,1.0
510516.7708458,260910.859375,289674.78125,303362.71875,279733.78125,286760.65625,277089.59375,253459.9375,263138.78125,-0.04736328125,0.879638671875,-0.46533203125,1.4038084745407104,3.112792730331421,-1.6784666776657104,100.0,154087.0,1.0
510516.7733904,260093.5,289182.78125,302955.46875,279466.46875,286358.84375,277167.0,253366.25,263040.09375,-0.04833984375,0.879150390625,-0.46484375,1.7395018339157104,2.838134527206421,-1.7395018339157104,100.0,154088.0,1.0
510516.7757297,259559.203125,289039.8125,303120.875,279927.4375,288276.90625,277584.4375,253719.3125,263527.15625,-0.05322265625,0.879150390625,-0.466552734375,1.9836424589157104,2.563476324081421,-1.9531248807907104,100.0,154089.0,1.0
510516.7784331,260034.125,289420.5,303595.34375,280441.09375,289810.84375,277737.59375,254006.671875,263902.5,-0.05419921875,0.877685546875,-0.467041015625,2.166747808456421,2.258300542831421,-2.105712652206421,100.0,154090.0,1.0
510516.7784734,260900.21875,289839.375,303752.4375,280312.09375,288818.875,277419.9375,253831.25,263651.1875,-0.052490234375,0.876220703125,-0.464599609375,2.380370855331421,2.075195074081421,-2.288818120956421,100.0,154091.0,1.0
510516.7833776,260889.65625,289660.125,303343.21875,279711.4375,286698.5,277072.0625,253438.9375,263132.96875,-0.049072265625,0.874755859375,-0.46826171875,2.593993902206421,1.7089842557907104,-2.349853277206421,100.0,154092.0,1.0
510516.7858642,260102.96875,289185.1875,302955.5625,279459.9375,286295.5625,277170.21875,253366.0625,263052.96875,-0.048095703125,0.875244140625,-0.47021484375,2.838134527206421,1.5563963651657104,-2.349853277206421,100.0,154093.0,1.0
510516.7895489,259567.609375,289045.1875,303120.78125,279919.9375,288217.4375,277592.21875,253722.078125,263536.5625,-0.046142578125,0.87939453125,-0.47314453125,3.265380620956421,1.3427733182907104,-2.441406011581421,100.0,154094.0,1.0
510516.78959,260026.171875,289410.5,303588.90625,280427.9375,289759.8125,277738.78125,253998.984375,263903.40625,-0.044189453125,0.883056640625,-0.47607421875,3.540038824081421,1.2817381620407104,-2.441406011581421,100.0,154095.0,1.0
510516.818714,260891.71875,289825.53125,303745.90625,280301.09375,288779.1875,277416.71875,253822.125,263648.0625,-0.041748046875,0.88330078125,-0.47998046875,3.723144292831421,1.2207030057907104,-2.349853277206421,100.0,154096.0,1.0
510516.8420993,260891.265625,289653.40625,303339.90625,279702.5,286657.84375,277068.03125,253431.515625,263125.65625,-0.04150390625,0.8818359375,-0.48046875,3.845214605331421,1.1901854276657104,-2.258300542831421,100.0,154097.0,1.0
510516.8421385,260100.28125,289176.875,302946.71875,279443.40625,286235.28125,277160.21875,253349.796875,263031.75,-0.04248046875,0.88134765625,-0.480712890625,3.814697027206421,1.2817381620407104,-1.9836424589157104,100.0,154098.0,1.0
510516.8421485,259561.078125,289036.40625,303110.0625,279902.5,288153.0625,277582.9375,253702.5,263511.0625,-0.043701171875,0.877685546875,-0.477783203125,3.906249761581421,1.3732908964157104,-1.9836424589157104,100.0,154099.0,1.0
510516.8446098,260023.125,289413.8125,303588.65625,280427.3125,289735.65625,277751.65625,253998.890625,263893.125,-0.04443359375,0.879638671875,-0.4775390625,4.180907726287842,1.5258787870407104,-1.7700194120407104,100.0,154100.0,1.0
510516.8462222,260887.34375,289830.15625,303748.0625,280306.8125,288779.0,277433.4375,253821.765625,263638.84375,-0.048583984375,0.880859375,-0.478515625,4.241942882537842,1.5563963651657104,-1.6784666776657104,100.0,154101.0,1.0
510516.8532147,260894.765625,289662.25,303342.96875,279708.9375,286655.25,277078.59375,253428.203125,263119.21875,-0.052001953125,0.8818359375,-0.47802734375,4.394530773162842,1.3732908964157104,-1.5869139432907104,100.0,154102.0,1.0
510516.855832,260108.875,289191.0,302948.6875,279446.71875,286223.125,277172.71875,253351.765625,263025.6875,-0.054931640625,0.88232421875,-0.4814453125,4.425048351287842,1.2207030057907104,-1.5563963651657104,100.0,154103.0,1.0
510516.858395,259561.25,289040.625,303102.90625,279899.09375,288130.1875,277593.46875,253698.84375,263500.875,-0.05322265625,0.881591796875,-0.484130859375,4.516601085662842,0.8850097060203552,-1.5258787870407104,100.0,154104.0,1.0
510516.8607349,260007.9375,289404.78125,303574.78125,280418.125,289726.8125,277758.625,253990.21875,263884.15625,-0.050048828125,0.880859375,-0.487548828125,4.638671398162842,0.6713866591453552,-1.4648436307907104,100.0,154105.0,1.0
510516.8633458,260893.78125,289840.09375,303758.15625,280316.625,288809.9375,277464.09375,253838.84375,263656.28125,-0.046875,0.880615234375,-0.4853515625,4.730224132537842,0.4882812201976776,-1.3122557401657104,100.0,154106.0,1.0
510516.8734013,260910.046875,289678.8125,303354.21875,279719.03125,286686.0,277108.8125,253453.234375,263139.21875,-0.045654296875,0.880615234375,-0.484375,4.760741710662842,0.4272460639476776,-1.1901854276657104,100.0,154107.0,1.0
510516.8757184,260120.5,289196.625,302948.21875,279449.84375,286218.84375,277180.25,253357.84375,263034.71875,-0.04638671875,0.8798828125,-0.48291015625,4.882812023162842,0.4577636420726776,-1.0986326932907104,100.0,154108.0,1.0
510516.8783697,259569.125,289050.8125,303105.21875,279902.40625,288122.75,277599.375,253706.078125,263508.125,-0.044677734375,0.881591796875,-0.483642578125,4.913329601287842,0.4272460639476776,-0.9460448622703552,100.0,154109.0,1.0
510516.8809128,260004.359375,289413.34375,303579.96875,280424.46875,289745.3125,277767.09375,254003.53125,263894.8125,-0.044921875,0.881591796875,-0.486328125,4.943847179412842,0.4272460639476776,-0.7934569716453552,100.0,154110.0,1.0
510516.8857406,260888.859375,289846.96875,303760.03125,280329.4375,288845.25,277463.75,253850.46875,263665.40625,-0.04443359375,0.88037109375,-0.484130859375,4.852294445037842,0.3662109076976776,-0.6713866591453552,100.0,154111.0,1.0
510516.8884297,260922.296875,289699.90625,303365.40625,279741.3125,286732.3125,277110.78125,253468.703125,263148.0,-0.040771484375,0.881103515625,-0.48388671875,4.760741710662842,0.3662109076976776,-0.5187987685203552,100.0,154112.0,1.0
510516.8884699,260125.6875,289205.75,302948.0625,279452.59375,286241.5625,277169.25,253360.515625,263023.375,-0.03955078125,0.8818359375,-0.483642578125,4.638671398162842,0.3356933295726776,-0.3662109076976776,100.0,154113.0,1.0
510516.8908075,259572.15625,289052.3125,303106.65625,279904.375,288140.5625,277594.375,253709.03125,263503.46875,-0.0400390625,0.881591796875,-0.485595703125,4.669188976287842,0.3356933295726776,-0.1831054538488388,100.0,154114.0,1.0
510516.8934438,259994.703125,289403.875,303573.90625,280427.3125,289772.78125,277764.875,254001.75,263895.34375,-0.0361328125,0.88232421875,-0.484619140625,4.608153820037842,0.4577636420726776,0.0610351525247097,100.0,154115.0,1.0
510516.893485,260868.734375,289831.34375,303745.28125,280320.84375,288878.6875,277456.15625,253845.5625,263660.21875,-0.033935546875,0.881103515625,-0.484619140625,4.425048351287842,0.5187987685203552,0.2746581733226776,100.0,154116.0,1.0
510516.9034001,260915.328125,289688.375,303358.25,279729.9375,286749.375,277105.21875,253464.5,263144.0625,-0.033447265625,0.8828125,-0.48388671875,4.180907726287842,0.7019042372703552,0.5798339247703552,100.0,154117.0,1.0
510516.9057166,260138.375,289212.28125,302952.34375,279448.59375,286236.09375,277178.0,253368.5625,263033.71875,-0.03369140625,0.883056640625,-0.480712890625,3.936767339706421,0.9765624403953552,0.8239745497703552,100.0,154118.0,1.0
510516.9083739,259563.046875,289041.59375,303087.4375,279873.4375,288089.0625,277585.15625,253696.609375,263485.40625,-0.031494140625,0.8857421875,-0.47509765625,3.753661870956421,0.9765624403953552,0.9765624403953552,100.0,154119.0,1.0
510516.9109445,259990.9375,289407.375,303570.0625,280405.25,289739.6875,277777.125,254010.6875,263888.5625,-0.03076171875,0.88525390625,-0.475830078125,3.417968511581421,1.0681151151657104,1.0375975370407104,100.0,154120.0,1.0
510516.9109849,260871.15625,289839.8125,303749.21875,280309.03125,288861.0,277478.3125,253856.90625,263661.90625,-0.0322265625,0.88916015625,-0.474853515625,3.204345464706421,1.0681151151657104,1.0986326932907104,100.0,154121.0,1.0
510516.915824,260912.28125,289689.1875,303346.625,279704.125,286707.90625,277106.3125,253453.140625,263125.28125,-0.033935546875,0.890625,-0.47412109375,2.899169683456421,1.1596678495407104,1.1291502714157104,100.0,154122.0,1.0
510516.91836,260147.40625,289220.9375,302946.625,279424.90625,286176.28125,277180.78125,253360.875,263017.5625,-0.03564453125,0.892822265625,-0.475830078125,2.593993902206421,1.1291502714157104,1.1291502714157104,100.0,154123.0,1.0
510516.9257423,259577.53125,289056.71875,303088.25,279856.1875,288031.375,277597.40625,253701.96875,263484.53125,-0.0361328125,0.89208984375,-0.474609375,2.044677495956421,1.0986326932907104,1.1901854276657104,100.0,154124.0,1.0
510516.9333536,259980.484375,289398.0625,303551.53125,280378.5,289680.9375,277773.09375,253997.015625,263871.28125,-0.03564453125,0.892822265625,-0.47265625,1.7395018339157104,1.1291502714157104,1.2512205839157104,100.0,154125.0,1.0
510516.9358315,260864.359375,289833.5625,303735.28125,280292.21875,288827.8125,277482.71875,253847.96875,263648.21875,-0.0361328125,0.894775390625,-0.470458984375,1.3732908964157104,1.1291502714157104,1.1291502714157104,100.0,154126.0,1.0
510516.9384062,260922.921875,289698.375,303346.0,279699.5625,286693.59375,277125.78125,253463.078125,263121.96875,-0.036376953125,0.89501953125,-0.472412109375,1.0375975370407104,1.0986326932907104,1.0681151151657104,100.0,154127.0,1.0
510516.9384473,260164.296875,289228.71875,302943.75,279417.28125,286139.09375,277195.09375,253370.796875,263011.375,-0.03466796875,0.89501953125,-0.47412109375,0.5798339247703552,1.0375975370407104,0.9155272841453552,100.0,154128.0,1.0
510516.940858,259568.9375,289034.09375,303065.625,279830.71875,287959.875,277589.53125,253690.171875,263456.8125,-0.03369140625,0.896240234375,-0.472900390625,0.1831054538488388,0.9460448622703552,0.7629393935203552,100.0,154129.0,1.0
510516.9433046,259964.921875,289378.125,303535.8125,280364.03125,289637.84375,277775.4375,253998.796875,263859.75,-0.035888671875,0.894775390625,-0.4716796875,-0.1220703050494194,1.0681151151657104,0.5798339247703552,100.0,154130.0,1.0
510516.9484009,260854.609375,289823.90625,303730.90625,280285.78125,288820.03125,277484.9375,253855.296875,263653.5,-0.037109375,0.892333984375,-0.47021484375,-0.5798339247703552,0.9460448622703552,0.4882812201976776,100.0,154131.0,1.0
510516.957153,260919.25,289690.875,303343.5,279691.40625,286675.34375,277111.3125,253451.53125,263111.15625,-0.03662109375,0.8916015625,-0.46728515625,-1.0070799589157104,0.9765624403953552,0.3662109076976776,100.0,154132.0,1.0
510516.957194,260159.125,289224.25,302940.90625,279402.90625,286107.625,277176.5,253359.359375,262996.1875,-0.0380859375,0.891845703125,-0.466552734375,-1.3732908964157104,0.8850097060203552,0.2136230319738388,100.0,154133.0,1.0
510516.9620721,259571.796875,289041.6875,303072.15625,279830.4375,287931.96875,277585.0,253689.09375,263457.25,-0.0390625,0.890869140625,-0.461669921875,-1.8310545682907104,0.9155272841453552,-0.03051757626235485,100.0,154134.0,1.0
510516.9646753,259952.3125,289377.21875,303534.75,280361.6875,289620.6875,277765.59375,253987.625,263856.0,-0.041748046875,0.8916015625,-0.45947265625,-2.288818120956421,0.8544921278953552,-0.2441406100988388,100.0,154135.0,1.0
510516.9647159,260841.65625,289830.34375,303732.5,280289.625,288831.59375,277483.34375,253850.390625,263648.0625,-0.040771484375,0.89013671875,-0.4599609375,-2.441406011581421,0.9155272841453552,-0.3662109076976776,100.0,154136.0,1.0
510516.9671279,260925.15625,289711.53125,303356.625,279706.34375,286705.65625,277121.59375,253464.6875,263123.5,-0.040283203125,0.889404296875,-0.460693359375,-2.685546636581421,0.7324218153953552,-0.6103515028953552,100.0,154137.0,1.0
510516.9671689,260165.015625,289234.0,302942.25,279408.8125,286108.875,277175.59375,253360.4375,262994.46875,-0.043701171875,0.890869140625,-0.458251953125,-3.082275152206421,0.7324218153953552,-0.8239745497703552,100.0,154138.0,1.0
510516.9721223,259575.109375,289048.125,303070.28125,279834.1875,287922.03125,277590.09375,253693.109375,263455.5625,-0.044189453125,0.890380859375,-0.460205078125,-3.509521245956421,0.6408690810203552,-1.0375975370407104,100.0,154139.0,1.0
510516.9745695,259956.171875,289386.0,303545.03125,280380.84375,289644.90625,277791.34375,254007.296875,263869.25,-0.04345703125,0.890625,-0.45703125,-3.814697027206421,0.5493163466453552,-1.2817381620407104,100.0,154140.0,1.0
510516.981961,260853.453125,289843.125,303754.59375,280318.78125,288890.0625,277505.59375,253874.34375,263667.28125,-0.044921875,0.8916015625,-0.4560546875,-4.058837413787842,0.5187987685203552,-1.4953612089157104,100.0,154141.0,1.0
510516.9819708,260942.6875,289722.96875,303379.15625,279733.34375,286760.65625,277130.34375,253486.765625,263139.84375,-0.043701171875,0.890869140625,-0.4560546875,-4.333495616912842,0.4577636420726776,-1.5258787870407104,100.0,154142.0,1.0
510516.984587,260174.046875,289229.625,302946.53125,279421.3125,286124.34375,277164.59375,253359.09375,262991.8125,-0.0439453125,0.890625,-0.456298828125,-4.638671398162842,0.3051757514476776,-1.8005369901657104,100.0,154143.0,1.0
510516.987091,259569.484375,289034.34375,303066.15625,279844.125,287930.09375,277571.9375,253689.890625,263457.6875,-0.04443359375,0.891845703125,-0.45654296875,-4.730224132537842,0.1525878757238388,-1.9836424589157104,100.0,154144.0,1.0
510516.9931575,259943.921875,289375.09375,303541.1875,280390.9375,289669.0625,277782.84375,254010.875,263881.40625,-0.042236328125,0.89306640625,-0.45751953125,-4.882812023162842,0.1525878757238388,-1.9531248807907104,100.0,154145.0,1.0
510516.9956932,260851.390625,289850.8125,303763.96875,280338.28125,288939.125,277519.09375,253893.65625,263686.5,-0.041748046875,0.894287109375,-0.45458984375,-5.065917491912842,0.1831054538488388,-1.9226073026657104,100.0,154146.0,1.0
510517.0020744,260942.6875,289735.21875,303384.25,279743.375,286795.59375,277142.78125,253495.078125,263143.15625,-0.043212890625,0.894775390625,-0.455078125,-5.310058116912842,0.0610351525247097,-1.8615721464157104,100.0,154147.0,1.0
510517.0058415,260178.78125,289245.625,302956.1875,279427.5,286137.125,277179.53125,253369.46875,262994.21875,-0.043212890625,0.8955078125,-0.45556640625,-5.462646007537842,0.0,-1.9226073026657104,100.0,154148.0,1.0
510517.0058586,259574.21875,289050.625,303075.90625,279847.78125,287925.875,277591.5,253704.296875,263458.5,-0.044677734375,0.896484375,-0.455078125,-5.584716320037842,-0.1220703050494194,-1.9226073026657104,100.0,154149.0,1.0
510517.0156766,259924.6875,289369.1875,303533.9375,280378.59375,289657.25,277783.28125,254009.609375,263865.75,-0.044921875,0.896728515625,-0.45263671875,-5.889892101287842,-0.1220703050494194,-1.8920897245407104,100.0,154150.0,1.0
510517.0195795,260823.328125,289830.78125,303750.75,280317.1875,288931.53125,277508.8125,253877.203125,263665.03125,-0.0458984375,0.8955078125,-0.452880859375,-5.920409679412842,-0.1831054538488388,-1.8920897245407104,100.0,154151.0,1.0
510517.0196036,260943.484375,289733.96875,303389.09375,279737.5625,286797.5625,277137.15625,253488.734375,263138.4375,-0.04833984375,0.89453125,-0.4501953125,-6.103515148162842,-0.2441406100988388,-1.9226073026657104,100.0,154152.0,1.0
510517.0409262,260189.15625,289245.71875,302959.5,279420.5,286113.34375,277167.28125,253360.4375,262985.71875,-0.050048828125,0.89501953125,-0.4501953125,-6.164550304412842,-0.2746581733226776,-2.044677495956421,100.0,154153.0,1.0
510517.0409665,259567.609375,289042.125,303067.21875,279828.46875,287885.9375,277576.3125,253696.515625,263446.15625,-0.05126953125,0.89404296875,-0.448974609375,-6.195067882537842,-0.3967284858226776,-2.075195074081421,100.0,154154.0,1.0
510517.0447136,259910.75,289361.84375,303529.09375,280366.875,289638.21875,277776.21875,254011.5,263863.15625,-0.05078125,0.895751953125,-0.450439453125,-6.195067882537842,-0.4882812201976776,-2.136230230331421,100.0,154155.0,1.0
510517.0447546,260821.09375,289835.34375,303754.9375,280313.875,288940.03125,277510.15625,253891.0625,263672.71875,-0.04931640625,0.8955078125,-0.44921875,-6.011962413787842,-0.7324218153953552,-2.105712652206421,100.0,154156.0,1.0
510517.0447647,260949.921875,289740.65625,303392.21875,279731.5625,286798.03125,277136.4375,253499.640625,263140.75,-0.047119140625,0.89697265625,-0.44921875,-6.011962413787842,-0.9460448622703552,-1.9531248807907104,100.0,154157.0,1.0
510517.0471576,260191.578125,289242.125,302949.125,279404.96875,286083.375,277158.34375,253363.65625,262980.09375,-0.047119140625,0.897705078125,-0.447998046875,-6.072997570037842,-0.8544921278953552,-1.6784666776657104,100.0,154158.0,1.0
510517.0471996,259557.40625,289013.25,303036.125,279802.46875,287821.1875,277551.5625,253675.6875,263417.90625,-0.049072265625,0.898193359375,-0.444580078125,-6.103515148162842,-0.8239745497703552,-1.4343260526657104,100.0,154159.0,1.0
510517.0496619,259905.46875,289338.25,303505.15625,280351.5,289591.1875,277768.71875,253996.109375,263839.8125,-0.051025390625,0.89697265625,-0.44580078125,-6.011962413787842,-0.7934569716453552,-1.3427733182907104,100.0,154160.0,1.0
510517.0658313,260827.96875,289828.65625,303748.0625,280311.71875,288919.5625,277517.3125,253883.015625,263655.8125,-0.050537109375,0.896728515625,-0.447265625,-5.889892101287842,-0.7324218153953552,-1.2512205839157104,100.0,154161.0,1.0
510517.0924715,260963.25,289741.9375,303391.96875,279725.5625,286777.71875,277138.5,253489.625,263120.375,-0.05322265625,0.894775390625,-0.446533203125,-5.798339366912842,-0.7019042372703552,-1.2207030057907104,100.0,154162.0,1.0
510517.0925119,260201.140625,289241.96875,302941.53125,279389.125,286040.28125,277155.65625,253351.9375,262956.46875,-0.052978515625,0.895751953125,-0.441650390625,-5.645751476287842,-0.8850097060203552,-1.1596678495407104,100.0,154163.0,1.0
510517.0925209,259561.96875,289013.625,303025.65625,279780.65625,287760.9375,277556.46875,253663.796875,263400.375,-0.052978515625,0.893310546875,-0.443359375,-5.554198741912842,-1.0070799589157104,-1.0375975370407104,100.0,154164.0,1.0
510517.0925301,259898.59375,289333.15625,303494.3125,280327.90625,289544.78125,277768.8125,253989.046875,263830.4375,-0.05126953125,0.89306640625,-0.4453125,-5.462646007537842,-1.0375975370407104,-1.0375975370407104,100.0,154165.0,1.0
510517.0945025,260819.03125,289821.9375,303735.375,280286.5,288889.34375,277509.34375,253874.171875,263645.625,-0.049072265625,0.89306640625,-0.44580078125,-5.340575695037842,-1.0375975370407104,-0.9155272841453552,100.0,154166.0,1.0
510517.0945385,260974.78125,289752.21875,303392.21875,279716.09375,286759.75,277141.875,253490.078125,263119.90625,-0.0498046875,0.893310546875,-0.444580078125,-5.157470226287842,-1.0681151151657104,-1.0070799589157104,100.0,154167.0,1.0
510517.0994936,260219.109375,289252.25,302945.09375,279388.875,286005.15625,277151.53125,253350.78125,262953.90625,-0.048583984375,0.89404296875,-0.44580078125,-5.096435070037842,-1.0375975370407104,-0.9155272841453552,100.0,154168.0,1.0
510517.1020545,259559.28125,289000.375,303012.875,279777.5,287704.15625,277534.28125,253652.96875,263384.46875,-0.0458984375,0.89306640625,-0.444580078125,-4.821776866912842,-0.8850097060203552,-0.8239745497703552,100.0,154169.0,1.0
510517.1045638,259892.0625,289317.34375,303486.0,280337.28125,289511.25,277759.34375,253984.5,263825.4375,-0.0458984375,0.89404296875,-0.442138671875,-4.608153820037842,-0.7934569716453552,-0.7019042372703552,100.0,154170.0,1.0
510517.1069702,260821.09375,289815.25,303741.34375,280306.90625,288894.96875,277511.0625,253880.609375,263653.9375,-0.04541015625,0.894287109375,-0.443115234375,-4.425048351287842,-0.7019042372703552,-0.5798339247703552,100.0,154171.0,1.0
510517.1095147,260981.9375,289751.5,303401.96875,279733.78125,286771.46875,277138.21875,253494.8125,263126.71875,-0.044189453125,0.893310546875,-0.442138671875,-4.150390148162842,-0.6408690810203552,-0.5493163466453552,100.0,154172.0,1.0
510517.1119701,260227.875,289249.375,302948.21875,279394.0625,285993.625,277145.46875,253346.21875,262949.78125,-0.043212890625,0.892578125,-0.4423828125,-4.058837413787842,-0.4882812201976776,-0.4882812201976776,100.0,154173.0,1.0
510517.1144868,259578.59375,289012.8125,303030.84375,279796.1875,287697.4375,277545.90625,253660.125,263394.40625,-0.0439453125,0.891845703125,-0.441650390625,-3.784179449081421,-0.2441406100988388,-0.5187987685203552,100.0,154174.0,1.0
510517.1196762,259899.03125,289332.71875,303503.28125,280357.75,289524.03125,277774.15625,253990.75,263835.1875,-0.04541015625,0.891357421875,-0.443359375,-3.540038824081421,-0.1220703050494194,-0.3051757514476776,100.0,154175.0,1.0
510517.1197165,260827.890625,289840.28125,303764.5,280334.4375,288937.78125,277530.71875,253889.984375,263672.53125,-0.042724609375,0.89013671875,-0.44384765625,-3.356933355331421,-0.03051757626235485,-0.2746581733226776,100.0,154176.0,1.0
510517.1221649,260995.25,289778.5,303427.90625,279762.3125,286815.1875,277153.96875,253498.921875,263146.5625,-0.042724609375,0.889892578125,-0.44091796875,-3.143310308456421,0.1525878757238388,-0.2136230319738388,100.0,154177.0,1.0
510517.1245025,260227.609375,289263.875,302958.78125,279410.0625,286007.03125,277145.71875,253338.96875,262959.15625,-0.042236328125,0.888916015625,-0.443115234375,-2.868652105331421,0.4272460639476776,-0.2441406100988388,100.0,154178.0,1.0
510517.1590118,259552.765625,289005.84375,303017.15625,279790.5625,287687.09375,277532.15625,253646.625,263394.65625,-0.04296875,0.88818359375,-0.43896484375,-2.655029058456421,0.4882812201976776,-0.1220703050494194,100.0,154179.0,1.0
510517.1590231,259863.359375,289311.6875,303485.46875,280353.28125,289521.1875,277762.5625,253976.453125,263836.34375,-0.044921875,0.88623046875,-0.44091796875,-2.349853277206421,0.7629393935203552,0.03051757626235485,100.0,154180.0,1.0
510517.2046024,260802.21875,289831.6875,303760.40625,280338.53125,288973.03125,277531.53125,253893.75,263687.21875,-0.045166015625,0.885498046875,-0.44384765625,-2.044677495956421,0.9765624403953552,0.0915527269244194,100.0,154181.0,1.0
510517.2046157,260971.65625,289767.5,303415.1875,279756.40625,286833.15625,277139.46875,253492.125,263143.96875,-0.046875,0.885986328125,-0.445556640625,-1.8615721464157104,1.0986326932907104,0.0610351525247097,100.0,154182.0,1.0
510517.2071046,260221.4375,289266.53125,302955.46875,279409.4375,286011.15625,277142.96875,253339.515625,262960.59375,-0.04736328125,0.88818359375,-0.444091796875,-1.5258787870407104,1.1596678495407104,0.03051757626235485,100.0,154183.0,1.0
510517.2093688,259544.53125,289003.5,303009.03125,279784.03125,287674.28125,277533.3125,253641.703125,263388.59375,-0.048095703125,0.88671875,-0.4443359375,-1.2512205839157104,1.2817381620407104,0.0915527269244194,100.0,154184.0,1.0
510517.2120476,259850.9375,289314.125,303482.96875,280355.875,289535.9375,277781.15625,253989.859375,263846.8125,-0.048828125,0.885009765625,-0.44287109375,-0.9765624403953552,1.3732908964157104,0.0610351525247097,100.0,154185.0,1.0
510517.2120623,260788.0,289831.25,303758.6875,280343.375,288996.96875,277551.71875,253902.5,263695.96875,-0.050048828125,0.885986328125,-0.44384765625,-0.8850097060203552,1.5563963651657104,0.2746581733226776,100.0,154186.0,1.0
510517.2168613,260976.828125,289780.28125,303425.21875,279766.15625,286856.3125,277161.09375,253500.53125,263153.90625,-0.05224609375,0.8876953125,-0.445556640625,-0.6713866591453552,1.5563963651657104,0.2441406100988388,100.0,154187.0,1.0
510517.2193847,260233.140625,289276.375,302962.625,279407.46875,286002.28125,277155.28125,253341.03125,262962.375,-0.052001953125,0.888671875,-0.4453125,-0.4577636420726776,1.5563963651657104,0.3051757514476776,100.0,154188.0,1.0
510517.2219271,259556.15625,289013.15625,303018.15625,279786.28125,287648.09375,277549.40625,253643.671875,263391.90625,-0.052001953125,0.888671875,-0.4462890625,-0.3051757514476776,1.6174315214157104,0.3356933295726776,100.0,154189.0,1.0
510517.2244232,259835.109375,289301.78125,303471.71875,280343.09375,289504.53125,277781.59375,253978.40625,263836.15625,-0.052734375,0.8896484375,-0.45166015625,-0.0610351525247097,1.6479490995407104,0.3662109076976776,100.0,154190.0,1.0
510517.227018,260759.484375,289802.71875,303736.25,280324.78125,288971.0625,277536.34375,253881.859375,263676.3125,-0.05322265625,0.890625,-0.451416015625,0.1525878757238388,1.5869139432907104,0.4272460639476776,100.0,154191.0,1.0
510517.229582,260966.546875,289766.15625,303415.03125,279756.9375,286843.71875,277153.5,253493.734375,263143.0625,-0.0556640625,0.890625,-0.452392578125,0.3356933295726776,1.4953612089157104,0.4272460639476776,100.0,154192.0,1.0
510517.2395728,260226.984375,289259.9375,302945.1875,279391.53125,285967.15625,277132.6875,253323.59375,262940.46875,-0.055908203125,0.8916015625,-0.45263671875,0.4882812201976776,1.5258787870407104,0.4577636420726776,100.0,154193.0,1.0
510517.241923,259551.78125,288999.5,302997.21875,279766.0625,287601.15625,277523.125,253620.15625,263367.40625,-0.053466796875,0.891357421875,-0.455322265625,0.6713866591453552,1.4648436307907104,0.4577636420726776,100.0,154194.0,1.0
510517.2445672,259840.734375,289301.15625,303465.8125,280340.15625,289487.46875,277775.78125,253967.421875,263825.0625,-0.052978515625,0.8935546875,-0.455810546875,0.9460448622703552,1.4343260526657104,0.5798339247703552,100.0,154195.0,1.0
510517.2469629,260770.9375,289807.46875,303740.90625,280329.96875,288983.21875,277547.34375,253882.03125,263678.4375,-0.0546875,0.890869140625,-0.454833984375,1.0070799589157104,1.4038084745407104,0.7019042372703552,100.0,154196.0,1.0
510517.249424,260988.28125,289771.25,303419.5,279755.15625,286843.34375,277160.5625,253491.6875,263144.5,-0.051025390625,0.890625,-0.456787109375,1.1596678495407104,1.5258787870407104,0.8239745497703552,100.0,154197.0,1.0
510517.2520949,260270.25,289281.9375,302960.84375,279397.71875,285948.21875,277140.71875,253331.015625,262951.125,-0.05078125,0.8916015625,-0.4580078125,1.2512205839157104,1.5258787870407104,0.8850097060203552,100.0,154198.0,1.0
510517.254652,259581.28125,289006.09375,302997.3125,279757.5625,287552.875,277519.53125,253618.109375,263363.28125,-0.046875,0.892822265625,-0.460693359375,1.4038084745407104,1.6174315214157104,1.0070799589157104,100.0,154199.0,1.0
510517.2571251,259849.140625,289291.75,303453.90625,280324.3125,289437.40625,277762.71875,253951.765625,263817.46875,-0.04736328125,0.889892578125,-0.462158203125,1.6174315214157104,1.7089842557907104,1.1291502714157104,100.0,154200.0,1.0
510517.2609254,260784.15625,289808.1875,303740.46875,280327.28125,288965.4375,277542.0625,253877.03125,263681.40625,-0.045166015625,0.89013671875,-0.46630859375,1.8005369901657104,1.8615721464157104,1.2207030057907104,100.0,154201.0,1.0
510517.2609659,261003.203125,289772.59375,303420.75,279751.5,286826.8125,277148.78125,253485.15625,263140.75,-0.043701171875,0.89111328125,-0.46435546875,2.014159917831421,1.9836424589157104,1.2207030057907104,100.0,154202.0,1.0
510517.2609759,260282.859375,289279.78125,302954.9375,279381.4375,285904.03125,277129.5625,253315.1875,262933.5,-0.043701171875,0.890380859375,-0.465576171875,2.105712652206421,2.227782964706421,1.4953612089157104,100.0,154203.0,1.0
510517.2649621,259586.28125,289002.625,302989.09375,279738.0,287498.34375,277512.65625,253599.78125,263342.90625,-0.043212890625,0.88720703125,-0.465087890625,2.136230230331421,2.441406011581421,1.5869139432907104,100.0,154204.0,1.0
510517.2734763,259845.125,289289.15625,303451.0625,280314.9375,289416.5625,277767.71875,253951.40625,263810.15625,-0.0400390625,0.885986328125,-0.46630859375,2.105712652206421,2.593993902206421,1.6479490995407104,100.0,154205.0,1.0
510517.2735163,260780.765625,289808.53125,303741.90625,280331.65625,288973.75,277548.875,253881.765625,263683.90625,-0.038818359375,0.886962890625,-0.462890625,2.349853277206421,2.716064214706421,1.7395018339157104,100.0,154206.0,1.0
510517.2735266,261022.4375,289793.875,303440.6875,279779.5625,286860.78125,277171.84375,253502.953125,263161.6875,-0.03759765625,0.885986328125,-0.465087890625,2.471923589706421,2.838134527206421,1.8615721464157104,100.0,154207.0,1.0
510517.2761169,260287.421875,289281.03125,302954.40625,279389.65625,285914.9375,277129.09375,253308.484375,262927.875,-0.036376953125,0.886962890625,-0.4658203125,2.655029058456421,2.929687261581421,2.014159917831421,100.0,154208.0,1.0
510517.2783585,259583.15625,288995.1875,302984.15625,279748.71875,287508.1875,277503.0,253586.71875,263337.34375,-0.03662109375,0.88818359375,-0.46875,2.624511480331421,2.990722417831421,2.105712652206421,100.0,154209.0,1.0
510517.2807317,259840.203125,289286.75,303457.9375,280349.71875,289476.84375,277770.40625,253953.640625,263826.25,-0.03515625,0.888671875,-0.468017578125,2.563476324081421,3.234863042831421,2.197265386581421,100.0,154210.0,1.0
510517.288301,260777.015625,289810.0625,303760.9375,280392.0,289102.3125,277561.21875,253904.75,263722.53125,-0.034423828125,0.88818359375,-0.468994140625,2.624511480331421,3.356933355331421,2.258300542831421,100.0,154211.0,1.0
