Time,FZ,C3,CZ,C4,PZ,PO7,OZ,PO8,AccX,AccY,AccZ,Gyro1,Gyro2,Gyro3,Battery,Counter,Validation
1135880.6442813,280033.84375,278349.875,311361.25,282302.8125,291746.25,272825.75,273842.21875,283246.40625,-0.135498046875,0.940673828125,-0.3427734375,-9.368895530700684,2.136230230331421,2.838134527206421,60.0,2762441.0,1.0
1135880.6443264,280273.625,278797.6875,311365.4375,282146.71875,291669.71875,273048.03125,274034.28125,283240.78125,-0.13818359375,0.947509765625,-0.3427734375,-9.155272483825684,1.1291502714157104,2.258300542831421,60.0,2762442.0,1.0
1135880.6499115,280754.8125,281058.34375,312922.28125,283996.0,293227.1875,274848.15625,275832.15625,286179.6875,-0.140380859375,0.95751953125,-0.342529296875,-8.972167015075684,0.1220703050494194,1.6174315214157104,60.0,2762443.0,1.0
1135880.6543127,280733.8125,281942.0625,313597.84375,284805.6875,294033.09375,275639.3125,276615.09375,287691.8125,-0.138916015625,0.97021484375,-0.34912109375,-8.911131858825684,-0.7324218153953552,1.0986326932907104,60.0,2762444.0,1.0
1135880.6543481,280349.375,280371.71875,312533.46875,283508.28125,293022.34375,274420.0625,275412.5,285802.125,-0.137939453125,0.984375,-0.354248046875,-9.002684593200684,-1.7395018339157104,0.5493163466453552,60.0,2762445.0,1.0
1135880.6598809,280143.71875,278550.5,311131.65625,281754.3125,291545.96875,272876.375,273872.53125,283051.40625,-0.13525390625,1.003173828125,-0.35888671875,-9.094237327575684,-2.716064214706421,0.1831054538488388,60.0,2762446.0,1.0
1135880.669226,280414.8125,279009.875,311290.0,281871.25,291606.59375,273133.40625,274117.875,283199.3125,-0.134033203125,1.02294921875,-0.36181640625,-9.185790061950684,-3.540038824081421,-0.1831054538488388,60.0,2762447.0,1.0
1135880.6692666,280844.84375,281183.875,312841.65625,283747.4375,293159.40625,274879.0,275867.3125,286110.9375,-0.130859375,1.04052734375,-0.3642578125,-9.826659202575684,-4.333495616912842,-0.4882812201976776,60.0,2762448.0,1.0
1135880.6717574,280826.78125,282072.40625,313575.78125,284648.9375,294016.125,275690.90625,276677.15625,287684.21875,-0.126220703125,1.0546875,-0.366943359375,-10.498045921325684,-5.065917491912842,-0.5493163466453552,60.0,2762449.0,1.0
1135880.6717902,280494.8125,280569.9375,312636.28125,283541.09375,293110.40625,274540.78125,275554.09375,285938.09375,-0.118408203125,1.066162109375,-0.36962890625,-11.413573265075684,-5.645751476287842,-0.4272460639476776,60.0,2762450.0,1.0
1135880.6800316,280311.375,278767.75,311336.3125,281970.65625,291698.9375,273022.375,274053.21875,283300.875,-0.11083984375,1.06982421875,-0.36962890625,-12.298583030700684,-6.164550304412842,-0.2136230319738388,60.0,2762451.0,1.0
1135880.682289,280594.96875,279229.53125,311563.03125,282210.8125,291795.25,273296.40625,274321.09375,283507.65625,-0.105712890625,1.06787109375,-0.371337890625,-13.183592796325684,-6.500243663787842,0.03051757626235485,60.0,2762452.0,1.0
1135880.6862344,281030.375,281409.625,313164.75,284175.96875,293377.75,275063.53125,276096.53125,286464.34375,-0.103271484375,1.05712890625,-0.37646484375,-14.190672874450684,-6.774901866912842,0.3967284858226776,60.0,2762453.0,1.0
1135880.695465,281024.375,282331.875,313959.3125,285190.84375,294271.46875,275904.9375,276944.125,288119.625,-0.09912109375,1.04638671875,-0.38330078125,-14.648436546325684,-6.988524913787842,0.4882812201976776,60.0,2762454.0,1.0
1135880.695507,280750.34375,280910.46875,313154.65625,284300.625,293463.21875,274834.65625,275913.96875,286542.5,-0.0986328125,1.03173828125,-0.389892578125,-14.801024436950684,-7.019042491912842,0.5493163466453552,60.0,2762455.0,1.0
1135880.6973079,280621.53125,279164.53125,311981.09375,282936.34375,292147.96875,273381.78125,274495.78125,284048.9375,-0.0986328125,1.018310546875,-0.3935546875,-14.648436546325684,-7.110595226287842,0.6103515028953552,60.0,2762456.0,1.0
1135880.7092214,280897.875,279598.78125,312229.375,283242.9375,292260.34375,273641.96875,274761.59375,284270.5625,-0.097412109375,1.005615234375,-0.396484375,-14.221190452575684,-7.202147960662842,0.6713866591453552,60.0,2762457.0,1.0
1135880.7092715,281324.25,281761.625,313833.34375,285236.4375,293850.25,275400.25,276528.375,287228.34375,-0.09765625,0.9892578125,-0.395263671875,-13.580321311950684,-7.232665538787842,0.6103515028953552,60.0,2762458.0,1.0
1135880.7117586,281311.5625,282678.40625,314648.125,286296.09375,294771.96875,276255.6875,277389.0,288919.46875,-0.09326171875,0.9755859375,-0.396728515625,-12.756346702575684,-7.110595226287842,0.5187987685203552,60.0,2762459.0,1.0
1135880.7118021,280998.53125,281218.65625,313811.90625,285375.5625,293948.15625,275156.875,276329.625,287320.4375,-0.090087890625,0.958984375,-0.3916015625,-11.749266624450684,-7.019042491912842,0.3051757514476776,60.0,2762460.0,1.0
1135880.7197673,280827.15625,279403.625,312563.59375,283913.9375,292580.0625,273646.6875,274845.28125,284735.40625,-0.08740234375,0.939453125,-0.39013671875,-10.620116233825684,-6.927489757537842,0.2136230319738388,60.0,2762461.0,1.0
1135880.7268614,281066.125,279769.03125,312731.125,284117.96875,292627.625,273846.34375,275042.78125,284858.0625,-0.084716796875,0.919921875,-0.39013671875,-9.277342796325684,-6.805419445037842,-0.03051757626235485,60.0,2762462.0,1.0
1135880.7269157,281491.28125,281924.71875,314317.21875,286096.4375,294204.03125,275597.125,276794.625,287793.28125,-0.08544921875,0.899169921875,-0.389404296875,-7.690429210662842,-6.591796398162842,-0.2746581733226776,60.0,2762463.0,1.0
1135880.7286766,281495.5625,282885.3125,315157.65625,287186.125,295153.625,276478.40625,277679.40625,289521.34375,-0.08642578125,0.878662109375,-0.3818359375,-5.981444835662842,-6.561278820037842,-0.6408690810203552,60.0,2762464.0,1.0
1135880.7323574,281139.8125,281384.875,314266.625,286177.53125,294290.9375,275343.46875,276576.75,287860.875,-0.0888671875,0.861328125,-0.377685546875,-4.089354991912842,-6.439208507537842,-0.8850097060203552,60.0,2762465.0,1.0
1135880.7467535,280878.375,279456.375,312873.125,284502.125,292807.5,273737.09375,274987.8125,285104.46875,-0.09228515625,0.843505859375,-0.374755859375,-2.044677495956421,-6.378173351287842,-1.2512205839157104,60.0,2762466.0,1.0
1135880.7467962,281073.5625,279750.34375,312929.71875,284530.5625,292766.84375,273877.625,275115.375,285085.15625,-0.09228515625,0.827880859375,-0.373291015625,0.1220703050494194,-6.347655773162842,-1.7700194120407104,60.0,2762467.0,1.0
1135880.7487678,281476.34375,281874.8125,314446.6875,286395.34375,294282.71875,275592.1875,276825.5625,287943.40625,-0.09033203125,0.816162109375,-0.3701171875,2.319335699081421,-6.195067882537842,-2.166747808456421,60.0,2762468.0,1.0
1135880.7511868,281478.9375,282834.78125,315255.375,287427.1875,295207.46875,276468.5625,277696.84375,289637.84375,-0.08642578125,0.81103515625,-0.368896484375,4.638671398162842,-6.256103038787842,-2.777099370956421,60.0,2762469.0,1.0
1135880.7536446,281092.34375,281310.75,314294.96875,286310.9375,294296.03125,275312.0,276557.96875,287902.65625,-0.086181640625,0.80810546875,-0.3681640625,6.988524913787842,-6.134032726287842,-3.326415777206421,60.0,2762470.0,1.0
1135880.7624196,280779.84375,279317.59375,312791.5,284460.84375,292731.0625,273647.25,274895.71875,285011.3125,-0.0849609375,0.809326171875,-0.3681640625,9.155272483825684,-5.920409679412842,-3.753661870956421,60.0,2762471.0,1.0
1135880.7656182,280933.71875,279548.625,312743.75,284319.9375,292607.78125,273727.34375,274950.25,284859.84375,-0.0849609375,0.815673828125,-0.365478515625,11.138915061950684,-5.767821788787842,-4.180907726287842,60.0,2762472.0,1.0
1135880.7656613,281345.53125,281676.53125,314227.0,286114.59375,294100.78125,275436.4375,276646.125,287668.125,-0.084716796875,0.823486328125,-0.364990234375,12.847899436950684,-5.554198741912842,-4.547118663787842,60.0,2762473.0,1.0
1135880.7711946,281341.25,282642.28125,315004.84375,287088.15625,295010.125,276309.96875,277510.15625,289335.21875,-0.0810546875,0.835205078125,-0.36767578125,14.495848655700684,-5.371093273162842,-4.913329601287842,60.0,2762474.0,1.0
1135880.7805044,280941.15625,281112.1875,313999.46875,285886.6875,294077.625,275141.75,276356.1875,287556.625,-0.079833984375,0.846435546875,-0.3662109375,15.960692405700684,-5.218505382537842,-5.004882335662842,60.0,2762475.0,1.0
1135880.7805471,280604.78125,279084.6875,312427.15625,283912.21875,292463.125,273448.75,274658.15625,284582.78125,-0.080810546875,0.8583984375,-0.364013671875,17.059324264526367,-4.974364757537842,-4.943847179412842,60.0,2762476.0,1.0
1135880.7830082,280725.75,279260.28125,312284.5625,283618.71875,292260.59375,273473.96875,274650.28125,284305.25,-0.0810546875,0.868408203125,-0.364013671875,17.944334030151367,-4.943847179412842,-4.760741710662842,60.0,2762477.0,1.0
1135880.7830513,281108.0625,281341.0625,313674.375,285258.875,293677.15625,275135.59375,276289.3125,286991.75,-0.0810546875,0.8798828125,-0.36572265625,18.493650436401367,-4.791259288787842,-4.608153820037842,60.0,2762478.0,1.0
1135880.7912808,281069.1875,282276.0,314363.09375,286084.0,294512.3125,275972.25,277106.3125,288563.90625,-0.0810546875,0.887939453125,-0.36865234375,18.951414108276367,-4.638671398162842,-4.333495616912842,60.0,2762479.0,1.0
1135880.7949508,280641.8125,280735.59375,313301.03125,284781.625,293528.5,274789.5,275933.5625,286740.0,-0.081298828125,0.898681640625,-0.3701171875,19.287107467651367,-4.394530773162842,-4.180907726287842,60.0,2762480.0,1.0
1135880.7986265,280308.5,278718.84375,311716.90625,282783.90625,291893.0625,273095.0625,274240.1875,283766.3125,-0.081298828125,0.905517578125,-0.367919921875,19.409177780151367,-4.119872570037842,-3.967284917831421,60.0,2762481.0,1.0
1135880.8079602,280453.78125,278909.375,311571.625,282478.15625,291676.59375,273123.5,274236.53125,283482.375,-0.08154296875,0.91015625,-0.3642578125,19.317625045776367,-3.997802495956421,-3.784179449081421,60.0,2762482.0,1.0
1135880.8080101,280825.625,280965.5625,312908.0,284021.5,293037.8125,274761.78125,275843.4375,286091.53125,-0.08837890625,0.90966796875,-0.358642578125,19.073484420776367,-3.875732183456421,-3.540038824081421,60.0,2762483.0,1.0
1135880.8106207,280745.875,281869.625,313524.71875,284730.40625,293799.03125,275564.65625,276618.3125,287587.40625,-0.09619140625,0.907958984375,-0.35498046875,18.707273483276367,-3.845214605331421,-3.326415777206421,60.0,2762484.0,1.0
1135880.8106648,280375.90625,280415.96875,312528.375,283507.125,292856.25,274443.6875,275512.625,285855.125,-0.105224609375,0.9013671875,-0.3564453125,18.249509811401367,-3.967284917831421,-3.265380620956421,60.0,2762485.0,1.0
1135880.8262585,280152.03125,278533.6875,311104.8125,281734.71875,291338.46875,272856.0625,273944.875,283070.0,-0.114013671875,0.896484375,-0.359375,17.822263717651367,-4.119872570037842,-3.295898199081421,60.0,2762486.0,1.0
1135880.8292788,280316.0,278739.0625,311020.34375,281542.40625,291160.28125,272901.5,273970.8125,282848.71875,-0.12060546875,0.893798828125,-0.357177734375,17.608640670776367,-4.547118663787842,-3.601073980331421,60.0,2762487.0,1.0
1135880.8293219,280639.03125,280734.34375,312309.40625,283050.71875,292477.25,274486.21875,275527.09375,285397.46875,-0.125,0.894775390625,-0.360107421875,17.303464889526367,-5.035399913787842,-3.784179449081421,60.0,2762488.0,1.0
1135880.8311508,280576.46875,281663.8125,312948.5,283791.625,293259.0,275309.03125,276323.0,286917.65625,-0.131103515625,0.8974609375,-0.358642578125,16.937253952026367,-5.523681163787842,-3.845214605331421,60.0,2762489.0,1.0
1135880.8337693,280290.1875,280328.875,312097.78125,282779.1875,292433.78125,274284.71875,275326.375,285364.5625,-0.131591796875,0.899169921875,-0.356201171875,16.632078170776367,-6.042479991912842,-4.241942882537842,60.0,2762490.0,1.0
1135880.8374283,280166.6875,278569.1875,310871.75,281312.90625,291076.84375,272808.96875,273891.84375,282815.46875,-0.132080078125,0.901611328125,-0.35791015625,16.174314498901367,-6.561278820037842,-4.364013195037842,60.0,2762491.0,1.0
1135880.8462367,280374.5625,278814.59375,310907.875,281322.75,290992.46875,272899.6875,273976.4375,282721.5,-0.13037109375,0.904541015625,-0.353271484375,15.411375999450684,-7.141112804412842,-4.577636241912842,60.0,2762492.0,1.0
1135880.8492357,280691.53125,280792.5625,312228.03125,282902.09375,292330.0625,274478.375,275527.8125,285299.1875,-0.129150390625,0.903076171875,-0.356689453125,14.739989280700684,-7.781981945037842,-4.760741710662842,60.0,2762493.0,1.0
1135880.8492799,280664.0625,281769.84375,312946.15625,283767.125,293180.15625,275348.28125,276374.3125,286918.90625,-0.12841796875,0.901123046875,-0.362060546875,14.099120140075684,-8.209227561950684,-4.852294445037842,60.0,2762494.0,1.0
1135880.8550109,280435.71875,280517.34375,312233.15625,282968.90625,292472.9375,274402.1875,275470.5,285538.71875,-0.12646484375,0.90673828125,-0.3671875,13.488768577575684,-8.728026390075684,-5.004882335662842,60.0,2762495.0,1.0
1135880.8592711,280369.21875,278821.84375,311138.71875,281718.09375,291224.28125,272986.15625,274104.8125,283138.6875,-0.124267578125,0.91162109375,-0.3720703125,12.939452171325684,-9.185790061950684,-4.882812023162842,60.0,2762496.0,1.0
1135880.8593139,280623.40625,279099.1875,311270.0625,281884.65625,291224.125,273115.0,274229.375,283135.0,-0.1240234375,0.92041015625,-0.374755859375,12.542723655700684,-9.582518577575684,-4.882812023162842,60.0,2762497.0,1.0
1135880.8673984,281004.625,281141.78125,312714.34375,283644.1875,292673.3125,274756.5,275850.84375,285833.5,-0.125,0.932861328125,-0.374755859375,12.054442405700684,-9.918211936950684,-4.974364757537842,60.0,2762498.0,1.0
1135880.8717161,281010.875,282169.875,313546.4375,284690.34375,293624.59375,275680.71875,276762.09375,287584.53125,-0.123291015625,0.942626953125,-0.371337890625,11.260985374450684,-10.223387718200684,-4.974364757537842,60.0,2762499.0,1.0
1135880.8717583,280780.9375,280924.34375,312888.3125,283983.5625,292973.34375,274754.28125,275879.71875,286268.0,-0.12353515625,0.95263671875,-0.371826171875,10.314940452575684,-10.437010765075684,-5.035399913787842,60.0,2762500.0,1.0
1135880.8912971,280646.8125,279139.59375,311734.4375,282661.25,291679.1875,273269.03125,274449.3125,283786.0,-0.12060546875,0.960205078125,-0.369873046875,9.124754905700684,-10.681151390075684,-4.913329601287842,60.0,2762501.0,1.0
1135880.894836,280825.625,279309.46875,311768.3125,282697.8125,291599.25,273311.59375,274487.3125,283651.59375,-0.120361328125,0.9697265625,-0.366943359375,8.148192405700684,-10.772704124450684,-4.852294445037842,60.0,2762502.0,1.0
1135880.8948783,281141.875,281276.5,313122.125,284332.8125,292979.96875,274892.40625,276036.90625,286242.0,-0.1220703125,0.97998046875,-0.36279296875,6.958007335662842,-10.986327171325684,-4.760741710662842,60.0,2762503.0,1.0
1135880.8948903,281068.375,282236.75,313843.4375,285213.1875,293854.09375,275755.28125,276871.96875,287879.03125,-0.12158203125,0.9873046875,-0.355224609375,5.676269054412842,-11.077879905700684,-4.547118663787842,60.0,2762504.0,1.0
1135880.8974301,280759.03125,280905.03125,313041.84375,284291.6875,293094.875,274749.0,275894.75,286400.78125,-0.121826171875,0.98876953125,-0.346435546875,4.211425304412842,-11.230467796325684,-4.180907726287842,60.0,2762505.0,1.0
1135880.8999242,280579.5,279044.65625,311757.40625,282772.03125,291700.65625,273202.875,274382.34375,283759.15625,-0.120361328125,0.988525390625,-0.338623046875,2.746581792831421,-11.230467796325684,-3.845214605331421,60.0,2762506.0,1.0
1135880.9024523,280709.21875,279147.28125,311659.25,282602.78125,291512.4375,273180.25,274339.34375,283459.03125,-0.12109375,0.98779296875,-0.3359375,1.3427733182907104,-11.352538108825684,-3.509521245956421,60.0,2762507.0,1.0
1135880.9062318,280935.78125,281023.21875,312848.96875,283982.59375,292759.21875,274681.5,275799.4375,285881.78125,-0.12060546875,0.986572265625,-0.33349609375,-0.0610351525247097,-11.444090843200684,-3.295898199081421,60.0,2762508.0,1.0
1135880.909918,280836.4375,281956.28125,313470.53125,284690.6875,293554.875,275521.28125,276603.65625,287426.8125,-0.12158203125,0.984375,-0.32568359375,-1.2512205839157104,-11.535643577575684,-3.021239995956421,60.0,2762509.0,1.0
1135880.9242994,280535.5,280644.03125,312633.6875,283688.625,292764.3125,274524.125,275635.75,285931.5,-0.122802734375,0.98388671875,-0.320068359375,-2.563476324081421,-11.627196311950684,-2.868652105331421,60.0,2762510.0,1.0
1135880.9243446,280354.53125,278780.71875,311322.4375,282116.21875,291335.25,272961.3125,274113.21875,283264.46875,-0.12646484375,0.986328125,-0.31689453125,-3.753661870956421,-11.657713890075684,-2.777099370956421,60.0,2762511.0,1.0
1135880.926734,280479.34375,278860.65625,311188.40625,281887.96875,291111.625,272916.78125,274050.8125,282927.78125,-0.128662109375,0.989501953125,-0.313720703125,-5.004882335662842,-11.718749046325684,-2.746581792831421,60.0,2762512.0,1.0
1135880.92678,280693.125,280712.4375,312315.75,283165.21875,292308.625,274394.21875,275478.8125,285273.375,-0.134033203125,0.99169921875,-0.310302734375,-6.072997570037842,-11.840819358825684,-2.685546636581421,60.0,2762513.0,1.0
1135880.9337094,280540.875,281612.25,312847.1875,283730.46875,293033.0,275196.125,276238.53125,286730.0625,-0.136474609375,0.9931640625,-0.30224609375,-7.324218273162842,-11.993407249450684,-2.807616949081421,60.0,2762514.0,1.0
1135880.9362355,280270.78125,280347.03125,312034.3125,282747.4375,292258.71875,274233.84375,275305.65625,285276.9375,-0.138916015625,0.989501953125,-0.29248046875,-8.636473655700684,-12.176512718200684,-2.899169683456421,60.0,2762515.0,1.0
1135880.9386222,280208.71875,278607.1875,310876.03125,281386.65625,290949.09375,272776.6875,273900.78125,282778.46875,-0.141845703125,0.982421875,-0.289794921875,-10.009764671325684,-12.237547874450684,-3.021239995956421,60.0,2762516.0,1.0
1135880.9425413,280363.40625,278716.875,310800.65625,281256.125,290764.8125,272752.375,273869.6875,282494.5,-0.146728515625,0.978759765625,-0.286865234375,-11.138915061950684,-12.542723655700684,-3.021239995956421,60.0,2762517.0,1.0
1135880.9492859,280527.90625,280524.78125,311869.78125,282448.375,291915.75,274188.40625,275259.0625,284769.8125,-0.1533203125,0.973876953125,-0.28271484375,-12.237547874450684,-12.847899436950684,-3.143310308456421,60.0,2762518.0,1.0
1135880.9493317,280365.8125,281429.125,312378.53125,282957.8125,292625.75,274997.46875,276021.96875,286212.125,-0.15625,0.969970703125,-0.2822265625,-13.275145530700684,-13.244627952575684,-3.295898199081421,60.0,2762519.0,1.0
1135880.9548635,280171.1875,280263.1875,311664.59375,282116.5,291929.09375,274108.3125,275164.1875,284886.21875,-0.15869140625,0.966064453125,-0.281982421875,-14.038084983825684,-13.519286155700684,-3.509521245956421,60.0,2762520.0,1.0
1135880.9586593,280209.15625,278635.78125,310669.6875,281017.40625,290739.71875,272732.5,273853.5,282575.0625,-0.163330078125,0.965087890625,-0.281982421875,-14.892577171325684,-13.977049827575684,-3.784179449081421,60.0,2762521.0,1.0
1135880.9656407,280407.21875,278775.53125,310686.75,281048.875,290623.84375,272742.34375,273862.71875,282389.71875,-0.161865234375,0.963134765625,-0.281982421875,-15.441893577575684,-14.373778343200684,-4.241942882537842,60.0,2762522.0,1.0
1135880.9656841,280526.9375,280522.09375,311720.84375,282209.125,291749.46875,274148.09375,275220.53125,284634.1875,-0.158935546875,0.96044921875,-0.281494140625,-15.991209983825684,-14.648436546325684,-4.608153820037842,60.0,2762523.0,1.0
1135880.9711496,280344.1875,281419.46875,312216.25,282699.34375,292462.21875,274963.125,275988.4375,286080.53125,-0.15625,0.954833984375,-0.280029296875,-16.601560592651367,-14.892577171325684,-4.943847179412842,60.0,2762524.0,1.0
1135880.9804167,280200.9375,280322.625,311598.96875,281998.46875,291841.75,274138.0,275204.4375,284873.625,-0.15283203125,0.9501953125,-0.277099609375,-17.089841842651367,-15.106200218200684,-5.035399913787842,60.0,2762525.0,1.0
1135880.9804619,280331.5625,278787.25,310763.90625,281142.125,290773.59375,272843.8125,273991.1875,282731.15625,-0.1484375,0.94140625,-0.27392578125,-17.608640670776367,-15.167235374450684,-5.310058116912842,60.0,2762526.0,1.0
1135880.9824097,280559.375,278940.3125,310851.34375,281296.53125,290709.40625,272872.6875,274029.1875,282611.8125,-0.145751953125,0.933349609375,-0.27294921875,-17.761228561401367,-15.136717796325684,-5.371093273162842,60.0,2762527.0,1.0
1135880.9863404,280621.4375,280632.78125,311843.40625,282424.59375,291808.125,274240.09375,275349.46875,284819.1875,-0.143310546875,0.925537109375,-0.27001953125,-17.913816452026367,-15.197752952575684,-5.462646007537842,60.0,2762528.0,1.0
1135880.9979428,280404.71875,281510.03125,312317.71875,282893.96875,292510.6875,275045.46875,276104.3125,286264.09375,-0.138916015625,0.91748046875,-0.270263671875,-17.944334030151367,-15.014647483825684,-5.554198741912842,60.0,2762529.0,1.0
1135880.9979881,280311.09375,280472.03125,311783.5,282312.90625,291961.0,274273.8125,275376.8125,285159.90625,-0.135986328125,0.91259765625,-0.26318359375,-17.730710983276367,-14.831542015075684,-5.584716320037842,60.0,2762530.0,1.0
1135880.9997525,280502.6875,278989.84375,311050.5625,281611.78125,290968.0625,273025.15625,274215.15625,283113.75,-0.13671875,0.90673828125,-0.258544921875,-17.395017623901367,-14.617918968200684,-5.645751476287842,60.0,2762531.0,1.0
1135881.0023017,280723.34375,279123.6875,311155.4375,281807.59375,290915.375,273042.5,274244.5625,282994.90625,-0.13720703125,0.906005859375,-0.255126953125,-17.028806686401367,-14.373778343200684,-5.493163585662842,60.0,2762532.0,1.0
1135881.0061058,280748.125,280769.75,312108.96875,282874.75,291995.96875,274388.25,275540.0625,285156.5,-0.138916015625,0.906494140625,-0.25244140625,-16.632078170776367,-13.946532249450684,-5.462646007537842,60.0,2762533.0,1.0
1135881.0178396,280467.75,281591.65625,312507.625,283233.28125,292645.6875,275151.875,276248.71875,286535.25,-0.14111328125,0.911865234375,-0.24951171875,-16.143796920776367,-13.763426780700684,-5.401610851287842,60.0,2762534.0,1.0
1135881.0178711,280357.84375,280538.8125,311950.96875,282617.78125,292089.5625,274368.5625,275507.875,285413.1875,-0.141357421875,0.91943359375,-0.244873046875,-15.716551780700684,-13.458250999450684,-5.218505382537842,60.0,2762535.0,1.0
1135881.0203317,280558.75,279044.65625,311212.65625,281917.8125,291096.25,273104.34375,274329.0625,283349.15625,-0.146728515625,0.927734375,-0.238525390625,-15.441893577575684,-13.214110374450684,-5.096435070037842,60.0,2762536.0,1.0
1135881.020359,280749.71875,279129.84375,311263.4375,282044.0625,291004.78125,273079.59375,274312.59375,283151.8125,-0.151611328125,0.932861328125,-0.230712890625,-15.289305686950684,-13.000487327575684,-4.974364757537842,60.0,2762537.0,1.0
1135881.0285598,280684.5625,280682.84375,312085.0,282912.03125,291989.0,274349.875,275519.3125,285161.34375,-0.155517578125,0.93896484375,-0.22412109375,-15.258788108825684,-12.756346702575684,-4.943847179412842,60.0,2762538.0,1.0
1135881.0316228,280329.4375,281442.8125,312351.875,283056.0625,292542.6875,275053.34375,276153.59375,286402.21875,-0.15966796875,0.9423828125,-0.21875,-15.380858421325684,-12.481688499450684,-4.821776866912842,60.0,2762539.0,1.0
1135881.0316571,280225.53125,280418.5625,311765.53125,282370.40625,291960.8125,274277.1875,275408.1875,285247.0625,-0.1650390625,0.943115234375,-0.212646484375,-15.563963890075684,-12.237547874450684,-4.730224132537842,60.0,2762540.0,1.0
1135881.0397878,280476.21875,278980.0,311070.75,281724.8125,290991.46875,273045.34375,274258.0625,283218.34375,-0.172119140625,0.948974609375,-0.21142578125,-15.869139671325684,-12.207030296325684,-4.730224132537842,60.0,2762541.0,1.0
1135881.0461279,280686.15625,279063.59375,311128.0625,281857.21875,290903.0625,273020.65625,274242.40625,283011.375,-0.177001953125,0.953369140625,-0.205810546875,-16.021726608276367,-12.237547874450684,-4.730224132537842,60.0,2762542.0,1.0
1135881.0485533,280559.65625,280537.75,311838.59375,282561.65625,291799.34375,274227.40625,275379.125,284898.5625,-0.177734375,0.954345703125,-0.203857421875,-16.082761764526367,-12.176512718200684,-4.669188976287842,60.0,2762543.0,1.0
1135881.0654019,280154.46875,281251.9375,312003.0,282537.5,292280.1875,274896.59375,275966.375,286036.53125,-0.1806640625,0.95751953125,-0.198974609375,-16.418455123901367,-12.145995140075684,-4.699706554412842,60.0,2762544.0,1.0
1135881.0654361,280080.4375,280267.375,311429.1875,281859.1875,291704.3125,274143.8125,275243.0625,284911.0,-0.18212890625,0.9580078125,-0.1884765625,-16.815183639526367,-12.298583030700684,-4.699706554412842,60.0,2762545.0,1.0
1135881.0673755,280433.21875,278931.71875,310870.5,281407.21875,290834.125,272993.65625,274184.40625,283026.84375,-0.181396484375,0.959716796875,-0.185302734375,-17.364500045776367,-12.237547874450684,-4.577636241912842,60.0,2762546.0,1.0
1135881.0923924,280679.90625,279039.46875,310987.71875,281634.59375,290784.6875,272987.3125,274189.21875,282869.375,-0.181640625,0.958251953125,-0.181396484375,-17.883298873901367,-12.176512718200684,-4.608153820037842,60.0,2762547.0,1.0
1135881.0949144,280504.03125,280455.3125,311633.9375,282247.84375,291627.96875,274151.65625,275273.71875,284681.125,-0.178955078125,0.954345703125,-0.177001953125,-18.524168014526367,-12.115477561950684,-4.516601085662842,60.0,2762548.0,1.0
1135881.0975558,280052.09375,281134.09375,311732.5625,282120.875,292059.0,274794.5,275829.3125,285765.1875,-0.178955078125,0.94677734375,-0.173095703125,-18.951414108276367,-12.023924827575684,-4.455565929412842,60.0,2762549.0,1.0
1135881.0999287,280026.6875,280220.25,311225.78125,281529.71875,291531.59375,274092.5625,275163.3125,284723.34375,-0.17822265625,0.941650390625,-0.166015625,-19.165037155151367,-11.871336936950684,-4.577636241912842,60.0,2762550.0,1.0
1135881.1024261,280477.84375,278985.8125,310814.96875,281300.46875,290769.375,273023.09375,274203.25,282998.65625,-0.176513671875,0.93310546875,-0.1640625,-19.409177780151367,-11.779784202575684,-4.638671398162842,60.0,2762551.0,1.0
1135881.1049378,280761.4375,279117.0625,311006.75,281654.78125,290768.75,273042.5625,274248.125,282916.6875,-0.17578125,0.926025390625,-0.162841796875,-19.592283248901367,-11.566161155700684,-4.730224132537842,60.0,2762552.0,1.0
1135881.1075248,280549.1875,280492.5,311619.71875,282234.5,291583.78125,274176.625,275303.15625,284690.4375,-0.178466796875,0.921630859375,-0.163818359375,-19.500730514526367,-11.352538108825684,-5.035399913787842,60.0,2762553.0,1.0
1135881.1099231,280050.46875,281144.28125,311672.75,282041.375,291985.59375,274798.0,275833.15625,285733.4375,-0.177734375,0.91943359375,-0.161376953125,-19.378660202026367,-11.260985374450684,-5.157470226287842,60.0,2762554.0,1.0
1135881.1124275,280062.46875,280285.25,311224.1875,281533.375,291510.21875,274140.3125,275214.0,284765.625,-0.18115234375,0.92138671875,-0.155517578125,-19.165037155151367,-10.925292015075684,-5.401610851287842,60.0,2762555.0,1.0
1135881.1149137,280566.8125,279100.96875,310906.15625,281455.0625,290817.3125,273109.375,274297.3125,283133.59375,-0.1806640625,0.918212890625,-0.1484375,-18.981931686401367,-10.711668968200684,-5.645751476287842,60.0,2762556.0,1.0
1135881.1237872,280867.21875,279237.5,311144.25,281881.71875,290857.71875,273139.59375,274355.4375,283085.03125,-0.179443359375,0.91796875,-0.14306640625,-18.829343795776367,-10.406493186950684,-5.737304210662842,60.0,2762557.0,1.0
1135881.1262248,280610.6875,280568.21875,311724.40625,282416.625,291656.84375,274249.75,275387.1875,284827.125,-0.180908203125,0.919921875,-0.139892578125,-18.798826217651367,-10.131834983825684,-5.920409679412842,60.0,2762558.0,1.0
1135881.1410926,280081.59375,281199.34375,311750.875,282186.21875,292043.53125,274857.53125,275905.21875,285859.96875,-0.181640625,0.918701171875,-0.140869140625,-18.768308639526367,-9.796141624450684,-6.134032726287842,60.0,2762559.0,1.0
1135881.141137,280124.15625,280379.59375,311348.09375,281740.09375,291609.09375,274227.21875,275315.9375,284948.0,-0.1787109375,0.919189453125,-0.140625,-18.615720748901367,-9.490965843200684,-6.286620616912842,60.0,2762560.0,1.0
1135881.1411497,280693.5625,279251.625,311116.1875,281788.53125,290987.0,273241.5,274447.59375,283395.46875,-0.177490234375,0.9208984375,-0.13671875,-18.310544967651367,-9.033202171325684,-6.378173351287842,60.0,2762561.0,1.0
1135881.1467575,280999.78125,279374.75,311371.625,282271.96875,291033.84375,273261.96875,274494.46875,283345.9375,-0.175048828125,0.91845703125,-0.136962890625,-18.066404342651367,-8.483885765075684,-6.439208507537842,60.0,2762562.0,1.0
1135881.1468001,280695.8125,280666.125,311915.3125,282771.03125,291809.09375,274343.4375,275493.65625,285047.4375,-0.174072265625,0.917236328125,-0.135498046875,-17.700193405151367,-7.995604991912842,-6.317138195037842,60.0,2762563.0,1.0
1135881.1487638,280161.6875,281310.5,311944.90625,282533.125,292213.5,274972.34375,276027.25,286096.875,-0.171142578125,0.9169921875,-0.13427734375,-17.272947311401367,-7.476806163787842,-6.347655773162842,60.0,2762564.0,1.0
1135881.1511817,280213.0,280512.53125,311565.09375,282110.59375,291802.3125,274368.46875,275457.8125,285213.90625,-0.16943359375,0.916259765625,-0.13623046875,-16.876218795776367,-6.774901866912842,-6.195067882537842,60.0,2762565.0,1.0
1135881.1536766,280778.0625,279370.8125,311332.8125,282164.21875,291174.59375,273370.625,274577.6875,283646.4375,-0.16796875,0.91748046875,-0.1357421875,-16.479490280151367,-6.072997570037842,-6.072997570037842,60.0,2762566.0,1.0
1135881.1562386,281060.0625,279452.34375,311553.84375,282602.78125,291192.375,273357.5625,274591.28125,283541.71875,-0.16796875,0.91943359375,-0.13525390625,-15.960692405700684,-5.310058116912842,-5.859374523162842,60.0,2762567.0,1.0
1135881.1587948,280747.125,280726.84375,312070.25,283054.71875,291949.03125,274425.6875,275573.25,285206.5,-0.167236328125,0.920166015625,-0.13427734375,-15.594481468200684,-4.577636241912842,-5.645751476287842,60.0,2762568.0,1.0
1135881.1611579,280195.03125,281364.5625,312072.03125,282770.5,292333.28125,275044.125,276090.46875,286237.0,-0.166259765625,0.919921875,-0.1337890625,-15.106200218200684,-3.875732183456421,-5.249022960662842,60.0,2762569.0,1.0
1135881.163676,280226.875,280548.65625,311655.21875,282293.53125,291894.65625,274418.46875,275498.59375,285320.75,-0.164306640625,0.919189453125,-0.1357421875,-14.617918968200684,-2.868652105331421,-4.974364757537842,60.0,2762570.0,1.0
1135881.1662307,280797.1875,279390.5625,311399.25,282309.78125,291243.59375,273401.625,274597.53125,283715.90625,-0.164794921875,0.919189453125,-0.135009765625,-14.038084983825684,-2.014159917831421,-4.882812023162842,60.0,2762571.0,1.0
1135881.169389,281083.75,279451.1875,311593.25,282706.5,291232.15625,273365.5,274583.0625,283561.84375,-0.16552734375,0.918701171875,-0.134033203125,-13.458250999450684,-1.1291502714157104,-4.669188976287842,60.0,2762572.0,1.0
1135881.1694326,280748.46875,280700.0,312062.90625,283087.1875,291948.9375,274408.8125,275538.09375,285171.71875,-0.166015625,0.920654296875,-0.134033203125,-13.031004905700684,-0.3356933295726776,-4.516601085662842,60.0,2762573.0,1.0
1135881.1711811,280171.1875,281330.6875,312024.46875,282734.46875,292307.46875,275023.5625,276046.65625,286167.625,-0.1650390625,0.923828125,-0.1337890625,-12.390135765075684,0.4577636420726776,-4.302978038787842,60.0,2762574.0,1.0
1135881.1748758,280192.375,280519.40625,311588.78125,282218.25,291854.4375,274400.03125,275448.78125,285234.28125,-0.166748046875,0.927001953125,-0.130615234375,-11.871336936950684,1.2817381620407104,-4.089354991912842,60.0,2762575.0,1.0
1135881.184242,280763.59375,279358.03125,311329.5,282226.0,291193.71875,273372.84375,274535.03125,283613.34375,-0.166259765625,0.9296875,-0.129638671875,-11.383055686950684,2.075195074081421,-3.784179449081421,60.0,2762576.0,1.0
1135881.184306,281060.5,279415.15625,311525.5625,282626.1875,291184.5,273332.6875,274519.125,283450.0,-0.166259765625,0.930419921875,-0.130859375,-11.260985374450684,2.502441167831421,-3.631591558456421,60.0,2762577.0,1.0
1135881.186833,280727.1875,280660.84375,311985.3125,282988.03125,291897.0625,274373.5625,275471.0625,285050.125,-0.170166015625,0.931396484375,-0.130126953125,-10.894774436950684,3.204345464706421,-3.448486089706421,60.0,2762578.0,1.0
1135881.1868798,280150.59375,281299.65625,311941.0625,282618.34375,292250.9375,274991.375,275980.75,286049.9375,-0.171630859375,0.932373046875,-0.13525390625,-10.528563499450684,3.845214605331421,-3.356933355331421,60.0,2762579.0,1.0
1135881.2024339,280182.34375,280517.28125,311528.625,282126.6875,291819.5625,274389.5,275406.40625,285155.15625,-0.170166015625,0.938232421875,-0.134033203125,-10.192870140075684,4.516601085662842,-3.234863042831421,60.0,2762580.0,1.0
1135881.2073025,280777.8125,279381.09375,311313.875,282200.09375,291198.4375,273391.71875,274528.0625,283584.90625,-0.168701171875,0.94189453125,-0.130859375,-9.887694358825684,5.187987804412842,-3.143310308456421,60.0,2762581.0,1.0
1135881.207351,281083.40625,279436.96875,311528.53125,282634.15625,291197.46875,273350.03125,274513.3125,283431.40625,-0.16796875,0.9423828125,-0.132080078125,-9.552000999450684,5.737304210662842,-3.143310308456421,60.0,2762582.0,1.0
1135881.2073645,280750.25,280674.71875,311988.15625,282998.5,291901.46875,274378.84375,275454.59375,285025.875,-0.169921875,0.942626953125,-0.12744140625,-9.307860374450684,6.317138195037842,-3.204345464706421,60.0,2762583.0,1.0
1135881.2099331,280168.59375,281320.78125,311949.46875,282633.875,292263.28125,275004.34375,275974.3125,286041.375,-0.169189453125,0.9443359375,-0.127685546875,-9.063719749450684,6.927489757537842,-3.204345464706421,60.0,2762584.0,1.0
1135881.2138218,280209.78125,280557.84375,311557.9375,282172.28125,291848.25,274418.28125,275420.09375,285180.65625,-0.17138671875,0.943359375,-0.128173828125,-8.758543968200684,7.537841320037842,-3.356933355331421,60.0,2762585.0,1.0
1135881.2205026,280826.96875,279437.84375,311374.125,282296.5625,291244.21875,273430.59375,274559.28125,283639.53125,-0.1748046875,0.94287109375,-0.127685546875,-8.514403343200684,8.026122093200684,-3.448486089706421,60.0,2762586.0,1.0
1135881.2205459,281138.09375,279478.96875,311595.84375,282753.78125,291239.59375,273377.75,274538.625,283476.46875,-0.177490234375,0.937255859375,-0.127685546875,-8.117674827575684,8.575438499450684,-3.570556402206421,60.0,2762587.0,1.0
1135881.2336855,280800.15625,280710.125,312050.03125,283117.21875,291937.125,274402.0,275473.5625,285054.40625,-0.178955078125,0.9306640625,-0.126708984375,-7.598876476287842,8.972167015075684,-3.936767339706421,60.0,2762588.0,1.0
1135881.2367532,280207.65625,281363.15625,312008.65625,282749.3125,292297.71875,275028.9375,275992.46875,286072.75,-0.182861328125,0.923095703125,-0.127685546875,-7.080077648162842,9.338377952575684,-4.058837413787842,60.0,2762589.0,1.0
1135881.236796,280250.3125,280617.65625,311630.1875,282305.0625,291896.375,274455.5625,275450.21875,285233.03125,-0.185546875,0.919189453125,-0.1279296875,-6.530761241912842,9.674071311950684,-4.241942882537842,60.0,2762590.0,1.0
1135881.243115,280873.03125,279499.90625,311457.0,282447.65625,291301.0,273470.84375,274588.34375,283699.09375,-0.1884765625,0.913818359375,-0.130126953125,-5.645751476287842,9.979247093200684,-4.455565929412842,60.0,2762591.0,1.0
1135881.2431597,281190.875,279532.375,311679.28125,282911.5,291292.875,273406.8125,274556.40625,283521.6875,-0.187255859375,0.907958984375,-0.132568359375,-4.913329601287842,10.284422874450684,-4.821776866912842,60.0,2762592.0,1.0
1135881.2530289,280857.375,280758.40625,312134.78125,283276.28125,291992.5625,274427.9375,275488.03125,285090.875,-0.185302734375,0.905029296875,-0.13037109375,-4.211425304412842,10.528563499450684,-5.096435070037842,60.0,2762593.0,1.0
1135881.2530711,280251.46875,281403.75,312076.21875,282885.375,292339.90625,275049.9375,275996.9375,286098.21875,-0.18212890625,0.90087890625,-0.1328125,-3.387450933456421,10.772704124450684,-5.126952648162842,60.0,2762594.0,1.0
1135881.2667565,280283.03125,280658.0,311685.96875,282426.09375,291934.09375,274478.4375,275450.3125,285263.15625,-0.177734375,0.8974609375,-0.133056640625,-2.441406011581421,11.047362327575684,-5.371093273162842,60.0,2762595.0,1.0
1135881.2667987,280900.90625,279537.09375,311516.1875,282577.03125,291348.21875,273496.75,274595.9375,283740.46875,-0.17578125,0.89892578125,-0.1416015625,-1.3732908964157104,11.322020530700684,-5.554198741912842,60.0,2762596.0,1.0
1135881.2697986,281225.8125,279564.71875,311741.3125,283045.15625,291347.5,273432.75,274565.71875,283557.65625,-0.170654296875,0.902099609375,-0.1455078125,-0.3051757514476776,11.657713890075684,-5.554198741912842,60.0,2762597.0,1.0
1135881.2698402,280890.09375,280774.84375,312180.40625,283383.5625,292032.4375,274438.5625,275479.90625,285094.1875,-0.16748046875,0.908447265625,-0.150390625,0.5798339247703552,12.023924827575684,-5.615233898162842,60.0,2762598.0,1.0
1135881.2698524,280292.40625,281427.25,312125.21875,282984.90625,292388.5625,275069.0,275996.40625,286100.375,-0.1650390625,0.915771484375,-0.151611328125,1.5563963651657104,12.390135765075684,-5.462646007537842,60.0,2762599.0,1.0
1135881.274387,280307.4375,280679.90625,311726.46875,282504.0625,291979.78125,274498.5625,275452.09375,285263.71875,-0.16357421875,0.9208984375,-0.1533203125,2.288818120956421,12.786864280700684,-5.279540538787842,60.0,2762600.0,1.0
1135881.2744311,280920.125,279559.28125,311555.25,282649.0,291393.8125,273518.03125,274600.21875,283748.625,-0.1669921875,0.922119140625,-0.16162109375,2.899169683456421,13.244627952575684,-5.096435070037842,60.0,2762601.0,1.0
1135881.2774258,281240.9375,279563.90625,311770.90625,283105.0625,291382.625,273440.34375,274558.75,283552.71875,-0.16796875,0.920654296875,-0.166748046875,3.448486089706421,13.580321311950684,-4.882812023162842,60.0,2762602.0,1.0
1135881.2912324,280894.46875,280745.4375,312177.8125,283400.03125,292035.65625,274422.125,275446.1875,285045.03125,-0.16552734375,0.919921875,-0.174072265625,4.089354991912842,14.007567405700684,-4.699706554412842,60.0,2762603.0,1.0
1135881.2942795,280281.0625,281389.78125,312093.40625,282954.40625,292365.125,275036.8125,275943.84375,286021.34375,-0.1630859375,0.9189453125,-0.18115234375,4.760741710662842,14.373778343200684,-4.394530773162842,60.0,2762604.0,1.0
1135881.2943224,280298.75,280667.125,311707.25,282480.5625,291973.15625,274484.71875,275423.40625,285213.5625,-0.159423828125,0.919677734375,-0.1875,5.645751476287842,14.770506858825684,-4.211425304412842,60.0,2762605.0,1.0
1135881.2963029,280933.8125,279575.28125,311575.1875,282678.875,291419.375,273531.375,274606.3125,283749.15625,-0.153564453125,0.922119140625,-0.19384765625,6.469726085662842,15.136717796325684,-4.028319835662842,60.0,2762606.0,1.0
1135881.3074506,281256.125,279575.46875,311796.21875,283151.65625,291405.875,273443.375,274556.6875,283545.03125,-0.153076171875,0.92236328125,-0.205078125,7.293700695037842,15.563963890075684,-3.814697027206421,60.0,2762607.0,1.0
1135881.3105105,280901.4375,280733.53125,312184.875,283425.125,292042.375,274401.90625,275418.3125,285000.9375,-0.154541015625,0.923828125,-0.21044921875,8.117674827575684,16.021726608276367,-3.540038824081421,60.0,2762608.0,1.0
1135881.3105535,280278.28125,281371.375,312089.03125,282961.5625,292365.125,275012.21875,275908.59375,285963.5,-0.152587890625,0.9228515625,-0.212646484375,8.850096702575684,16.448972702026367,-3.356933355331421,60.0,2762609.0,1.0
1135881.3124705,280317.96875,280692.6875,311741.125,282532.21875,292004.625,274501.78125,275425.4375,285213.28125,-0.15380859375,0.922119140625,-0.216796875,9.521483421325684,16.876218795776367,-3.021239995956421,60.0,2762610.0,1.0
1135881.3213111,280961.34375,279627.84375,311650.3125,282791.4375,291477.9375,273576.34375,274641.09375,283810.75,-0.15380859375,0.916748046875,-0.224365234375,10.131834983825684,17.242429733276367,-2.868652105331421,60.0,2762611.0,1.0
1135881.3254824,281294.40625,279623.5625,311891.875,283298.90625,291471.40625,273488.0,274599.40625,283622.71875,-0.154541015625,0.913330078125,-0.23193359375,10.711668968200684,17.578123092651367,-2.838134527206421,60.0,2762612.0,1.0
1135881.3255268,280948.5625,280774.65625,312290.375,283590.0,292105.5625,274439.375,275460.6875,285074.25,-0.15576171875,0.908203125,-0.233642578125,11.413573265075684,17.883298873901367,-2.777099370956421,60.0,2762613.0,1.0
1135881.3336838,280339.71875,281429.75,312201.40625,283136.1875,292428.6875,275054.40625,275953.65625,286041.90625,-0.158447265625,0.90673828125,-0.23828125,12.268065452575684,18.157957077026367,-2.746581792831421,60.0,2762614.0,1.0
1135881.3380059,280374.75,280767.25,311873.625,282744.3125,292088.84375,274557.75,275489.375,285333.71875,-0.160888671875,0.908203125,-0.243408203125,13.000487327575684,18.280027389526367,-2.716064214706421,60.0,2762615.0,1.0
1135881.3380579,281033.25,279722.625,311830.09375,283076.71875,291608.125,273657.6875,274736.84375,283996.1875,-0.163330078125,0.912353515625,-0.24267578125,13.610838890075684,18.432615280151367,-2.777099370956421,60.0,2762616.0,1.0
1135881.3399782,281373.4375,279709.21875,312087.9375,283618.0,291618.84375,273564.4375,274693.21875,283821.21875,-0.164794921875,0.919921875,-0.241943359375,14.038084983825684,18.615720748901367,-2.899169683456421,60.0,2762617.0,1.0
1135881.3509934,281046.65625,280859.53125,312492.875,283924.9375,292261.84375,274507.0625,275542.75,285260.40625,-0.166259765625,0.933349609375,-0.24267578125,14.465331077575684,18.798826217651367,-2.899169683456421,60.0,2762618.0,1.0
1135881.3580031,280447.71875,281520.59375,312421.15625,283497.03125,292602.84375,275129.0625,276037.4375,286237.96875,-0.167724609375,0.9443359375,-0.2392578125,14.678954124450684,18.890378952026367,-2.929687261581421,60.0,2762619.0,1.0
1135881.3580456,280478.46875,280870.4375,312114.6875,283131.4375,292286.96875,274648.3125,275591.125,285569.84375,-0.1669921875,0.957275390625,-0.23779296875,14.648436546325684,19.073484420776367,-2.777099370956421,60.0,2762620.0,1.0
1135881.3598795,281140.53125,279842.59375,312099.125,283503.8125,291835.375,273762.40625,274862.8125,284276.03125,-0.162841796875,0.971435546875,-0.2353515625,14.190672874450684,19.042966842651367,-2.655029058456421,60.0,2762621.0,1.0
1135881.3625382,281483.84375,279819.96875,312370.5625,284066.625,291857.65625,273667.625,274823.75,284102.5625,-0.158935546875,0.979248046875,-0.235595703125,13.580321311950684,19.195554733276367,-2.441406011581421,60.0,2762622.0,1.0
1135881.3662271,281144.8125,280934.09375,312751.53125,284341.5625,292474.75,274583.875,275644.21875,285495.34375,-0.157958984375,0.981689453125,-0.23681640625,12.939452171325684,19.378660202026367,-2.258300542831421,60.0,2762623.0,1.0
1135881.37553,280546.6875,281603.84375,312681.4375,283912.9375,292817.0625,275209.71875,276144.8125,286479.09375,-0.156005859375,0.982177734375,-0.237548828125,12.237547874450684,19.592283248901367,-1.8920897245407104,60.0,2762624.0,1.0
1135881.3755729,280578.15625,280976.46875,312397.46875,283575.53125,292524.8125,274752.84375,275725.6875,285850.3125,-0.15625,0.9814453125,-0.2392578125,11.535643577575684,19.836423873901367,-1.5563963651657104,60.0,2762625.0,1.0
1135881.3780028,281227.53125,279945.25,312386.65625,283956.40625,292079.03125,273874.875,275011.0625,284575.0,-0.15771484375,0.978271484375,-0.2412109375,10.955809593200684,20.080564498901367,-1.3122557401657104,60.0,2762626.0,1.0
1135881.3780521,281553.75,279891.15625,312631.71875,284492.3125,292076.78125,273757.125,274950.34375,284374.03125,-0.158203125,0.974853515625,-0.24072265625,10.437010765075684,20.416257858276367,-1.0681151151657104,60.0,2762627.0,1.0
1135881.3863504,281209.09375,280985.3125,312985.0625,284728.5,292667.0625,274651.0,275745.25,285721.5625,-0.1591796875,0.97119140625,-0.240234375,9.796141624450684,20.568845748901367,-0.8544921278953552,60.0,2762628.0,1.0
1135881.3899259,280617.5,281664.09375,312913.53125,284288.90625,293010.46875,275284.53125,276248.625,286700.84375,-0.16455078125,0.964111328125,-0.24365234375,9.368895530700684,20.782468795776367,-0.6408690810203552,60.0,2762629.0,1.0
1135881.3936919,280649.84375,281055.84375,312636.46875,283959.15625,292729.46875,274844.125,275844.15625,286097.5,-0.167724609375,0.958740234375,-0.243408203125,9.063719749450684,20.874021530151367,-0.5798339247703552,60.0,2762630.0,1.0
1135881.4030303,281280.28125,280017.5625,312615.96875,284333.0625,292280.90625,273959.25,275123.78125,284829.90625,-0.173583984375,0.950927734375,-0.24462890625,8.819579124450684,20.904539108276367,-0.3662109076976776,60.0,2762631.0,1.0
1135881.4030727,281598.03125,279940.15625,312843.78125,284840.90625,292264.0,273824.09375,275045.5625,284600.03125,-0.1806640625,0.940185546875,-0.24755859375,8.666991233825684,20.843503952026367,-0.3356933295726776,60.0,2762632.0,1.0
1135881.4050045,281241.65625,281002.5625,313155.46875,285011.75,292818.9375,274686.59375,275804.4375,285885.34375,-0.189453125,0.93115234375,-0.251953125,8.636473655700684,20.660398483276367,-0.3967284858226776,60.0,2762633.0,1.0
1135881.4161911,280628.65625,281661.3125,313034.84375,284493.03125,293119.90625,275292.40625,276273.21875,286809.0,-0.197021484375,0.92138671875,-0.25732421875,8.697508811950684,20.355222702026367,-0.5493163466453552,60.0,2762634.0,1.0
1135881.4192504,280647.96875,281056.125,312734.53125,284119.125,292821.90625,274851.90625,275865.875,286194.25,-0.210205078125,0.907958984375,-0.259521484375,9.002684593200684,19.897459030151367,-0.7629393935203552,60.0,2762635.0,1.0
1135881.4192945,281259.6875,280001.3125,312693.78125,284462.875,292362.53125,273964.1875,275144.4375,284919.84375,-0.2197265625,0.8984375,-0.260986328125,9.490965843200684,19.317625045776367,-1.0070799589157104,60.0,2762636.0,1.0
1135881.4212382,281559.75,279888.90625,312877.5,284912.15625,292306.03125,273799.125,275035.46875,284637.6875,-0.22802734375,0.884765625,-0.2607421875,10.101317405700684,18.646238327026367,-1.3732908964157104,60.0,2762637.0,1.0
1135881.4356179,281198.625,280928.375,313138.375,285003.625,292814.125,274635.28125,275759.28125,285848.53125,-0.237548828125,0.874755859375,-0.263916015625,10.742186546325684,17.791746139526367,-1.9836424589157104,60.0,2762638.0,1.0
1135881.4356618,280576.8125,281581.3125,312981.03125,284418.28125,293082.625,275231.15625,276209.375,286728.1875,-0.24853515625,0.861328125,-0.2646484375,12.054442405700684,16.113279342651367,-2.868652105331421,60.0,2762639.0,1.0
1135881.4399323,280590.65625,280991.65625,312676.96875,284028.46875,292784.25,274804.6875,275809.625,286124.59375,-0.255126953125,0.85302734375,-0.26953125,13.061522483825684,14.923094749450684,-3.479003667831421,60.0,2762640.0,1.0
1135881.4430794,281229.125,279974.21875,312672.125,284419.78125,292353.84375,273947.375,275119.5,284900.71875,-0.2607421875,0.854736328125,-0.2705078125,14.068602561950684,13.793944358825684,-4.364013195037842,60.0,2762641.0,1.0
1135881.4431243,281540.625,279862.4375,312862.65625,284878.71875,292307.46875,273781.625,275012.5625,284618.1875,-0.263427734375,0.859130859375,-0.273193359375,15.136717796325684,12.603758811950684,-5.279540538787842,60.0,2762642.0,1.0
1135881.4448761,281154.90625,280859.34375,313075.4375,284898.75,292779.78125,274582.34375,275696.8125,285766.09375,-0.262939453125,0.866943359375,-0.27392578125,15.991209983825684,11.291502952575684,-6.286620616912842,60.0,2762643.0,1.0
1135881.4543874,280526.46875,281509.875,312892.0625,284262.25,293036.65625,275176.1875,276137.5625,286620.09375,-0.26318359375,0.875732421875,-0.27099609375,16.845701217651367,9.948729515075684,-7.141112804412842,60.0,2762644.0,1.0
1135881.4544315,280561.625,280960.1875,312615.4375,283901.78125,292764.40625,274775.625,275768.5,286062.28125,-0.26318359375,0.88818359375,-0.2744140625,17.456052780151367,8.697508811950684,-7.995604991912842,60.0,2762645.0,1.0
1135881.456044,281223.21875,279972.25,312656.84375,284360.6875,292370.125,273944.4375,275110.28125,284895.34375,-0.2568359375,0.900634765625,-0.275390625,17.822263717651367,7.629394054412842,-8.758543968200684,60.0,2762646.0,1.0
1135881.4649424,281533.75,279846.1875,312851.65625,284839.125,292325.59375,273770.71875,274996.125,284612.375,-0.251220703125,0.9150390625,-0.2763671875,18.035886764526367,6.530761241912842,-9.460448265075684,60.0,2762647.0,1.0
1135881.4798492,281135.34375,280820.625,313038.0625,284821.40625,292776.75,274546.125,275652.8125,285719.9375,-0.243896484375,0.927734375,-0.27587890625,18.066404342651367,5.676269054412842,-10.101317405700684,60.0,2762648.0,1.0
1135881.4798914,280502.96875,281475.1875,312850.125,284167.75,293033.0,275139.34375,276092.34375,286565.84375,-0.236083984375,0.943359375,-0.27294921875,17.974851608276367,4.699706554412842,-10.559081077575684,60.0,2762649.0,1.0
1135881.4799036,280552.03125,280964.5625,312601.9375,283841.34375,292795.0,274773.6875,275756.4375,286050.84375,-0.228759765625,0.956298828125,-0.271240234375,17.486570358276367,4.180907726287842,-10.894774436950684,60.0,2762650.0,1.0
1135881.4830788,281220.0,279993.0625,312669.71875,284341.125,292427.53125,273960.34375,275120.84375,284921.09375,-0.22509765625,0.96533203125,-0.269287109375,16.845701217651367,3.662109136581421,-11.047362327575684,60.0,2762651.0,1.0
1135881.4831224,281531.6875,279854.125,312867.5625,284825.34375,292381.46875,273778.3125,275002.5625,284633.21875,-0.219482421875,0.970458984375,-0.26953125,16.052244186401367,3.295898199081421,-10.925292015075684,60.0,2762652.0,1.0
1135881.4848907,281114.6875,280801.125,313026.1875,284773.65625,292806.0,274533.25,275637.15625,285703.84375,-0.2109375,0.970947265625,-0.264892578125,15.045165061950684,2.990722417831421,-10.772704124450684,60.0,2762653.0,1.0
1135881.4936846,280466.84375,281455.0625,312815.71875,284088.71875,293038.71875,275121.03125,276070.34375,286538.75,-0.205078125,0.970947265625,-0.263916015625,14.099120140075684,2.746581792831421,-10.681151390075684,60.0,2762654.0,1.0
1135881.5005299,280520.03125,280961.875,312579.5,283777.84375,292803.5,274772.5,275754.75,286061.5625,-0.196533203125,0.971435546875,-0.2626953125,13.092040061950684,2.807616949081421,-10.375975608825684,60.0,2762655.0,1.0
1135881.5005753,281222.0625,280019.1875,312686.625,284339.0625,292461.0625,273986.96875,275150.53125,284983.0625,-0.185302734375,0.9697265625,-0.26171875,12.237547874450684,2.929687261581421,-10.009764671325684,60.0,2762656.0,1.0
1135881.5031609,281559.3125,279884.8125,312903.4375,284856.53125,292423.15625,273811.75,275042.15625,284700.8125,-0.177490234375,0.969482421875,-0.26123046875,11.413573265075684,3.143310308456421,-9.399413108825684,60.0,2762657.0,1.0
1135881.5032053,281132.21875,280807.9375,313040.03125,284773.21875,292822.0,274546.84375,275659.15625,285736.9375,-0.17333984375,0.96728515625,-0.2587890625,10.406493186950684,3.417968511581421,-8.911131858825684,60.0,2762658.0,1.0
1135881.5186868,280466.03125,281452.03125,312808.5625,284057.96875,293037.09375,275126.28125,276082.5,286558.5,-0.171875,0.967529296875,-0.257080078125,9.460448265075684,3.845214605331421,-8.453368186950684,60.0,2762659.0,1.0
1135881.5236224,280528.875,280985.65625,312593.71875,283775.78125,292819.125,274798.34375,275785.9375,286115.84375,-0.168701171875,0.966552734375,-0.25634765625,8.575438499450684,4.302978038787842,-7.843017101287842,60.0,2762660.0,1.0
1135881.523665,281248.71875,280059.6875,312738.375,284397.8125,292503.0,274029.0,275204.4375,285079.15625,-0.168212890625,0.96826171875,-0.256103515625,7.659911632537842,4.821776866912842,-7.049560070037842,60.0,2762661.0,1.0
1135881.5236774,281580.6875,279904.125,312956.09375,284933.0,292459.0,273833.5625,275082.3125,284785.90625,-0.1650390625,0.966552734375,-0.258544921875,6.774901866912842,5.462646007537842,-6.439208507537842,60.0,2762662.0,1.0
1135881.5267808,281135.15625,280798.1875,313067.03125,284821.40625,292834.6875,274544.0625,275673.375,285786.8125,-0.162109375,0.965087890625,-0.25830078125,5.920409679412842,6.042479991912842,-5.767821788787842,60.0,2762663.0,1.0
1135881.5268238,280461.46875,281441.90625,312819.90625,284077.375,293041.5,275119.21875,276092.875,286594.96875,-0.159912109375,0.968017578125,-0.263671875,5.249022960662842,6.652831554412842,-5.096435070037842,60.0,2762664.0,1.0
1135881.534987,280525.84375,280990.59375,312604.90625,283787.40625,292832.90625,274799.59375,275805.78125,286160.53125,-0.15966796875,0.965576171875,-0.264892578125,4.333495616912842,7.385253429412842,-4.425048351287842,60.0,2762665.0,1.0
1135881.538692,281248.78125,280066.125,312748.21875,284407.1875,292516.40625,274026.5,275219.09375,285117.0625,-0.156005859375,0.9619140625,-0.2646484375,3.662109136581421,7.965087413787842,-3.662109136581421,60.0,2762666.0,1.0
1135881.5423593,281549.5625,279857.625,312918.4375,284876.46875,292427.25,273790.28125,275052.1875,284754.1875,-0.155029296875,0.958740234375,-0.26611328125,2.807616949081421,8.636473655700684,-2.990722417831421,60.0,2762667.0,1.0
1135881.5517282,281057.03125,280685.71875,312938.5625,284627.65625,292729.1875,274446.90625,275581.1875,285635.71875,-0.152099609375,0.95556640625,-0.267578125,2.227782964706421,9.338377952575684,-2.410888433456421,60.0,2762668.0,1.0
1135881.5517686,280328.96875,281276.59375,312588.8125,283718.40625,292855.15625,274978.875,275943.21875,286330.59375,-0.15087890625,0.94482421875,-0.271484375,1.5869139432907104,10.040282249450684,-1.7700194120407104,60.0,2762669.0,1.0
1135881.5568964,280358.3125,280799.0,312297.15625,283302.65625,292582.5625,274632.15625,275620.71875,285827.3125,-0.149169921875,0.937255859375,-0.272705078125,1.3122557401657104,10.803221702575684,-1.2512205839157104,60.0,2762670.0,1.0
1135881.5569405,281081.59375,279876.3125,312417.5,283880.03125,292242.90625,273854.5625,275030.0,284764.625,-0.14794921875,0.932373046875,-0.274169921875,1.2512205839157104,11.199950218200684,-1.0375975370407104,60.0,2762671.0,1.0
1135881.5623088,281388.28125,279655.46875,312556.15625,284303.28125,292125.6875,273599.40625,274839.5625,284356.03125,-0.1484375,0.927001953125,-0.275634765625,1.0681151151657104,11.962889671325684,-0.4882812201976776,60.0,2762672.0,1.0
1135881.5742841,280832.96875,280396.75,312457.46875,283880.65625,292327.03125,274176.625,275274.53125,285089.375,-0.147216796875,0.922119140625,-0.2763671875,1.1291502714157104,12.695311546325684,0.0610351525247097,60.0,2762673.0,1.0
1135881.5743259,280033.21875,280913.59375,311970.46875,282754.6875,292340.1875,274634.46875,275545.78125,285625.09375,-0.14404296875,0.920166015625,-0.280517578125,1.4038084745407104,13.458250999450684,0.2746581733226776,60.0,2762674.0,1.0
1135881.576776,280070.40625,280471.03125,311659.15625,282283.6875,292052.28125,274300.8125,275231.71875,285109.375,-0.144287109375,0.919677734375,-0.276611328125,1.6479490995407104,14.160155296325684,0.7019042372703552,60.0,2762675.0,1.0
1135881.576819,280882.75,279656.09375,311890.8125,283009.65625,291800.96875,273606.8125,274739.53125,284185.28125,-0.14453125,0.9140625,-0.280029296875,2.227782964706421,15.197752952575684,1.1596678495407104,60.0,2762676.0,1.0
1135881.5788276,281252.09375,279497.3125,312126.125,283576.59375,291761.34375,273408.4375,274620.34375,283879.40625,-0.1474609375,0.911376953125,-0.2783203125,2.777099370956421,15.838622093200684,1.4648436307907104,60.0,2762677.0,1.0
1135881.5899321,280685.4375,280219.1875,312005.25,283123.125,291948.125,273971.6875,275040.28125,284573.40625,-0.14990234375,0.908203125,-0.2802734375,3.295898199081421,16.357419967651367,1.7700194120407104,60.0,2762678.0,1.0
1135881.5998704,279860.21875,280711.5625,311468.53125,281916.03125,291919.59375,274408.1875,275281.25,285050.8125,-0.1533203125,0.90283203125,-0.281982421875,3.845214605331421,16.815183639526367,2.014159917831421,60.0,2762679.0,1.0
1135881.599913,279943.0,280345.4375,311230.875,281544.46875,291689.90625,274136.65625,275032.59375,284638.65625,-0.15966796875,0.898193359375,-0.28466796875,4.547118663787842,17.181394577026367,2.166747808456421,60.0,2762680.0,1.0
1135881.599925,280869.0,279675.6875,311657.0,282561.46875,291590.21875,273563.09375,274676.84375,283948.34375,-0.160888671875,0.894775390625,-0.28564453125,5.371093273162842,17.517087936401367,2.227782964706421,60.0,2762681.0,1.0
1135881.6024399,281300.28125,279576.34375,312028.5,283355.125,291645.84375,273422.65625,274628.84375,283791.1875,-0.162353515625,0.889892578125,-0.2822265625,6.103515148162842,17.883298873901367,2.136230230331421,60.0,2762682.0,1.0
1135881.6050089,280715.3125,280254.40625,311920.40625,282949.84375,291831.625,273958.28125,275027.0625,284482.375,-0.166748046875,0.8876953125,-0.284912109375,7.049560070037842,18.035886764526367,2.014159917831421,60.0,2762683.0,1.0
1135881.6111944,279868.875,280724.96875,311372.25,281743.40625,291796.0625,274376.4375,275251.8125,284943.09375,-0.16796875,0.884033203125,-0.2861328125,8.056639671325684,18.188474655151367,1.9531248807907104,60.0,2762684.0,1.0
1135881.6173963,279986.5625,280408.8125,311210.40625,281484.125,291629.84375,274156.125,275059.59375,284622.9375,-0.167724609375,0.88134765625,-0.287841796875,9.063719749450684,18.310544967651367,1.6784666776657104,60.0,2762685.0,1.0
1135881.6217503,280967.96875,279808.0,311759.5625,282694.25,291628.9375,273651.4375,274786.1875,284079.25,-0.167724609375,0.878662109375,-0.291748046875,10.253905296325684,18.371580123901367,1.6174315214157104,60.0,2762686.0,1.0
1135881.6217949,281419.65625,279722.09375,312196.03125,283608.78125,291733.09375,273526.1875,274763.125,283984.125,-0.16552734375,0.874267578125,-0.291015625,11.291502952575684,18.310544967651367,1.5563963651657104,60.0,2762687.0,1.0
1135881.6306354,280822.3125,280369.21875,312081.15625,283210.46875,291912.28125,274040.8125,275135.9375,284645.375,-0.16357421875,0.86865234375,-0.288330078125,12.298583030700684,18.402097702026367,1.3427733182907104,60.0,2762688.0,1.0
1135881.63068,279969.125,280828.40625,311522.1875,281985.78125,291875.25,274455.75,275347.21875,285079.0,-0.15966796875,0.862548828125,-0.2900390625,13.397215843200684,18.341062545776367,1.0681151151657104,60.0,2762689.0,1.0
1135881.63242,280076.03125,280516.90625,311356.78125,281725.0625,291710.9375,274240.71875,275155.53125,284764.90625,-0.15869140625,0.85791015625,-0.29345703125,14.434813499450684,18.341062545776367,0.8544921278953552,60.0,2762690.0,1.0
1135881.641234,281045.65625,279913.875,311915.125,282958.0,291718.53125,273739.0625,274887.03125,284246.96875,-0.156494140625,0.853271484375,-0.298095703125,15.594481468200684,18.310544967651367,0.7019042372703552,60.0,2762691.0,1.0
1135881.6455306,281497.53125,279809.34375,312357.0625,283883.53125,291829.40625,273603.6875,274858.34375,284148.625,-0.155029296875,0.853759765625,-0.29541015625,16.876218795776367,18.218992233276367,0.6103515028953552,60.0,2762692.0,1.0
1135881.6455731,280881.6875,280413.65625,312199.625,283429.875,291974.0625,274080.21875,275188.0625,284741.125,-0.155517578125,0.85400390625,-0.298828125,18.066404342651367,18.188474655151367,0.6408690810203552,60.0,2762693.0,1.0
1135881.6537963,279988.6875,280827.40625,311573.125,282105.65625,291881.0625,274450.8125,275344.8125,285090.96875,-0.156005859375,0.857177734375,-0.29931640625,19.165037155151367,18.280027389526367,0.5798339247703552,60.0,2762694.0,1.0
1135881.6567703,280080.25,280519.59375,311382.0625,281792.3125,291706.46875,274236.34375,275148.5625,284759.8125,-0.1572265625,0.85888671875,-0.3017578125,20.202634811401367,18.280027389526367,0.4882812201976776,60.0,2762695.0,1.0
1135881.6568134,281073.46875,279947.9375,311963.03125,283046.21875,291741.78125,273765.6875,274912.0625,284278.25,-0.156982421875,0.861572265625,-0.303955078125,21.087644577026367,18.157957077026367,0.4272460639476776,60.0,2762696.0,1.0
1135881.6587018,281509.3125,279817.375,312375.84375,283939.84375,291826.09375,273609.78125,274859.78125,284147.1875,-0.160400390625,0.864990234375,-0.306396484375,21.881101608276367,18.066404342651367,0.3967284858226776,60.0,2762697.0,1.0
1135881.6722822,280856.03125,280368.40625,312149.5625,283384.0,291912.09375,274033.21875,275132.375,284641.78125,-0.162841796875,0.869140625,-0.3076171875,22.613523483276367,17.730710983276367,0.4272460639476776,60.0,2762698.0,1.0
1135881.6793862,279924.59375,280738.90625,311450.65625,281938.5625,291764.5625,274366.25,275246.0,284898.375,-0.16748046875,0.874755859375,-0.30810546875,23.193357467651367,17.486570358276367,0.4882812201976776,60.0,2762699.0,1.0
1135881.6794305,279978.3125,280396.03125,311194.40625,281524.34375,291535.4375,274120.5625,275015.15625,284507.40625,-0.172607421875,0.8798828125,-0.308837890625,23.681638717651367,17.242429733276367,0.4882812201976776,60.0,2762700.0,1.0
1135881.6811458,280954.1875,279817.375,311747.9375,282731.96875,291547.75,273641.6875,274771.625,284014.78125,-0.179931640625,0.884033203125,-0.307373046875,23.986814498901367,16.906736373901367,0.4577636420726776,60.0,2762701.0,1.0
1135881.6835998,281389.4375,279682.84375,312149.625,283595.90625,291627.15625,273485.0625,274720.46875,283864.75,-0.183349609375,0.89013671875,-0.306640625,24.200437545776367,16.357419967651367,0.3967284858226776,60.0,2762702.0,1.0
1135881.6861847,280713.25,280202.65625,311873.90625,282956.125,291669.34375,273885.15625,274961.875,284289.875,-0.187744140625,0.894287109375,-0.304931640625,24.261472702026367,15.777586936950684,0.2441406100988388,60.0,2762703.0,1.0
1135881.6931371,279756.9375,280538.625,311097.84375,281389.78125,291456.125,274180.625,275025.34375,284453.9375,-0.19189453125,0.903076171875,-0.302001953125,24.230955123901367,15.106200218200684,0.03051757626235485,60.0,2762704.0,1.0
1135881.6931814,279827.03125,280232.59375,310847.4375,280961.25,291236.625,273958.90625,274818.8125,284081.65625,-0.1953125,0.907470703125,-0.3017578125,24.230955123901367,14.709471702575684,-0.03051757626235485,60.0,2762705.0,1.0
1135881.6949383,280842.1875,279717.4375,311473.625,282265.34375,291309.6875,273531.90625,274636.25,283688.25,-0.1962890625,0.918212890625,-0.30126953125,23.925779342651367,14.038084983825684,-0.2136230319738388,60.0,2762706.0,1.0
1135881.7286838,281297.96875,279596.46875,311916.90625,283205.65625,291416.34375,273380.0,274597.09375,283585.1875,-0.200927734375,0.93115234375,-0.29736328125,23.498533248901367,13.214110374450684,-0.4882812201976776,60.0,2762707.0,1.0
1135881.7342352,280666.40625,280132.28125,311684.71875,282641.5,291489.46875,273786.0,274852.09375,284046.96875,-0.204833984375,0.944580078125,-0.29345703125,22.735593795776367,12.451170921325684,-0.6713866591453552,60.0,2762708.0,1.0
1135881.7342768,279732.90625,280495.09375,310953.0,281141.6875,291314.6875,274106.59375,274943.28125,284260.1875,-0.206298828125,0.95751953125,-0.292236328125,21.850584030151367,11.688231468200684,-0.9460448622703552,60.0,2762709.0,1.0
1135881.7363054,279835.28125,280251.375,310774.28125,280815.96875,291160.625,273941.125,274794.25,283988.5,-0.21337890625,0.96875,-0.291015625,20.843503952026367,10.864256858825684,-1.2817381620407104,60.0,2762710.0,1.0
1135881.7386772,280885.28125,279791.46875,311488.125,282255.875,291306.71875,273566.84375,274675.59375,283709.375,-0.218505859375,0.9765625,-0.290771484375,19.714353561401367,10.040282249450684,-1.3732908964157104,60.0,2762711.0,1.0
1135881.7412331,281384.15625,279705.90625,312010.4375,283323.46875,291476.0625,273457.15625,274688.03125,283696.40625,-0.217041015625,0.982177734375,-0.287353515625,18.463132858276367,9.185790061950684,-1.5869139432907104,60.0,2762712.0,1.0
1135881.7436886,280762.15625,280244.84375,311817.59375,282830.21875,291573.78125,273874.0625,274954.90625,284192.78125,-0.216064453125,0.982421875,-0.28076171875,16.967771530151367,8.239745140075684,-1.7395018339157104,60.0,2762713.0,1.0
1135881.7463492,279840.8125,280628.125,311119.84375,281387.5625,291419.90625,274209.25,275058.0625,284440.96875,-0.216064453125,0.97900390625,-0.276611328125,15.441893577575684,7.385253429412842,-1.9531248807907104,60.0,2762714.0,1.0
1135881.7486763,279951.9375,280407.65625,310977.25,281119.96875,291295.46875,274071.1875,274937.65625,284222.21875,-0.21435546875,0.971923828125,-0.2744140625,14.129637718200684,6.408690929412842,-2.105712652206421,60.0,2762715.0,1.0
1135881.7511716,280990.15625,279938.4375,311697.6875,282583.8125,291452.53125,273704.46875,274829.71875,283973.46875,-0.20947265625,0.966064453125,-0.2744140625,12.969969749450684,5.462646007537842,-2.349853277206421,60.0,2762716.0,1.0
1135881.753687,281482.9375,279830.09375,312215.8125,283659.46875,291614.90625,273581.6875,274832.78125,283952.09375,-0.208740234375,0.962158203125,-0.272705078125,11.718749046325684,4.730224132537842,-2.410888433456421,60.0,2762717.0,1.0
1135881.7563486,280890.28125,280384.84375,312065.5,283239.71875,291747.59375,274017.90625,275126.125,284493.1875,-0.20556640625,0.964111328125,-0.269287109375,10.650633811950684,4.028319835662842,-2.716064214706421,60.0,2762718.0,1.0
1135881.7586595,279969.28125,280765.90625,311378.84375,281822.59375,291609.28125,274352.84375,275231.71875,284755.34375,-0.20263671875,0.9677734375,-0.269775390625,9.582518577575684,3.387450933456421,-2.838134527206421,60.0,2762719.0,1.0
1135881.7617719,280040.8125,280522.375,311208.09375,281521.5625,291471.0625,274193.59375,275086.34375,284517.25,-0.197509765625,0.9716796875,-0.265625,8.605956077575684,2.868652105331421,-2.899169683456421,60.0,2762720.0,1.0
1135881.7618147,281050.9375,280023.21875,311893.03125,282933.75,291603.03125,273798.59375,274941.40625,284217.09375,-0.1923828125,0.978271484375,-0.264404296875,7.354735851287842,2.410888433456421,-2.838134527206421,60.0,2762721.0,1.0
1135881.7636301,281541.96875,279890.625,312384.6875,283967.84375,291745.625,273649.5625,274911.375,284137.0,-0.190185546875,0.984130859375,-0.262939453125,5.920409679412842,1.9836424589157104,-2.685546636581421,60.0,2762722.0,1.0
1135881.7663503,280952.21875,280425.8125,312204.8125,283508.03125,291850.40625,274055.5625,275163.75,284612.65625,-0.188720703125,0.98486328125,-0.26318359375,4.394530773162842,1.6174315214157104,-2.624511480331421,60.0,2762723.0,1.0
1135881.7728859,280056.1875,280843.15625,311543.375,282115.78125,291731.75,274411.5,275283.90625,284889.0,-0.18798828125,0.986328125,-0.26123046875,2.960204839706421,1.3427733182907104,-2.380370855331421,60.0,2762724.0,1.0
1135881.7729285,280103.5,280590.3125,311339.15625,281757.15625,291574.84375,274243.3125,275119.0625,284614.4375,-0.1904296875,0.9853515625,-0.265869140625,1.7700194120407104,1.0375975370407104,-2.258300542831421,60.0,2762725.0,1.0
1135881.7805314,281074.90625,280048.25,311959.1875,283067.5,291660.25,273812.09375,274933.25,284239.1875,-0.187744140625,0.98388671875,-0.26806640625,0.4882812201976776,0.7019042372703552,-2.014159917831421,60.0,2762726.0,1.0
1135881.7805737,281552.78125,279890.6875,312414.90625,284041.59375,291767.875,273633.375,274875.0625,284110.90625,-0.185302734375,0.98193359375,-0.268798828125,-0.5798339247703552,0.4577636420726776,-1.8920897245407104,60.0,2762727.0,1.0
1135881.7862336,280967.625,280429.5625,312220.625,283551.75,291857.125,274030.0,275112.53125,284555.0625,-0.182373046875,0.979248046875,-0.27197265625,-1.5258787870407104,0.3356933295726776,-1.6174315214157104,60.0,2762728.0,1.0
1135881.7906061,280046.625,280826.34375,311524.25,282108.53125,291710.03125,274366.25,275209.625,284798.875,-0.180908203125,0.9775390625,-0.27294921875,-2.471923589706421,0.2746581733226776,-1.2817381620407104,60.0,2762729.0,1.0
1135881.7906498,280079.34375,280560.09375,311288.75,281688.15625,291527.8125,274184.3125,275031.78125,284493.5625,-0.17626953125,0.9736328125,-0.274169921875,-3.387450933456421,0.2136230319738388,-0.9765624403953552,60.0,2762730.0,1.0
1135881.7962471,281027.25,279994.59375,311867.46875,282930.0,291582.09375,273739.0625,274828.46875,284086.03125,-0.174560546875,0.966796875,-0.2763671875,-4.089354991912842,0.3051757514476776,-0.6103515028953552,60.0,2762731.0,1.0
1135881.8055295,281497.53125,279822.5,312305.375,283874.0625,291671.59375,273554.0625,274767.6875,283947.375,-0.17431640625,0.959228515625,-0.279052734375,-4.821776866912842,0.3356933295726776,-0.3051757514476776,60.0,2762732.0,1.0
1135881.8055724,280922.1875,280353.375,312111.90625,283381.96875,291752.875,273950.5,275013.5625,284394.3125,-0.173828125,0.947265625,-0.28271484375,-5.218505382537842,0.3967284858226776,0.0915527269244194,60.0,2762733.0,1.0
1135881.8074254,280005.3125,280766.4375,311422.21875,281945.28125,291608.90625,274297.59375,275129.0625,284661.375,-0.175048828125,0.9375,-0.2822265625,-5.432128429412842,0.5187987685203552,0.5187987685203552,60.0,2762734.0,1.0
1135881.8137528,280019.1875,280502.875,311176.0,281507.375,291419.90625,274120.71875,274958.9375,284373.03125,-0.174072265625,0.927978515625,-0.283447265625,-5.554198741912842,0.5493163466453552,0.8850097060203552,60.0,2762735.0,1.0
1135881.8180015,280981.8125,279958.65625,311773.21875,282770.0625,291489.375,273696.59375,274786.375,284007.4375,-0.17236328125,0.9189453125,-0.284423828125,-5.432128429412842,0.6713866591453552,1.0681151151657104,60.0,2762736.0,1.0
1135881.8180396,281488.75,279808.1875,312255.21875,283783.5625,291615.09375,273541.03125,274764.46875,283924.75,-0.17333984375,0.909912109375,-0.28369140625,-5.065917491912842,0.8544921278953552,1.4343260526657104,60.0,2762737.0,1.0
1135881.8262361,280930.96875,280353.75,312086.96875,283336.625,291722.5625,273950.6875,275030.71875,284402.1875,-0.173095703125,0.902587890625,-0.28125,-4.669188976287842,0.9155272841453552,1.6174315214157104,60.0,2762738.0,1.0
1135881.8305258,280010.25,280778.5,311420.0625,281939.1875,291605.0,274316.53125,275166.71875,284709.65625,-0.172119140625,0.89453125,-0.28076171875,-4.150390148162842,1.0070799589157104,1.8615721464157104,60.0,2762739.0,1.0
1135881.8305689,280022.9375,280530.59375,311196.1875,281538.65625,291442.71875,274160.96875,275025.0,284473.625,-0.1708984375,0.887939453125,-0.283447265625,-3.540038824081421,1.1901854276657104,1.9531248807907104,60.0,2762740.0,1.0
1135881.8387703,280998.09375,280000.5,311818.125,282835.84375,291536.78125,273748.0,274873.90625,284148.0,-0.173583984375,0.8857421875,-0.282958984375,-2.807616949081421,1.1901854276657104,2.105712652206421,60.0,2762741.0,1.0
1135881.8424512,281512.375,279849.65625,312326.125,283891.125,291681.59375,273593.3125,274862.375,284092.90625,-0.173828125,0.88427734375,-0.280517578125,-2.014159917831421,1.3732908964157104,2.197265386581421,60.0,2762742.0,1.0
1135881.8467821,280969.40625,280406.59375,312213.75,283534.40625,291829.21875,274025.15625,275166.0,284647.5,-0.172119140625,0.881103515625,-0.2763671875,-1.2207030057907104,1.4648436307907104,2.288818120956421,60.0,2762743.0,1.0
1135881.8468252,280107.6875,280905.03125,311669.0,282306.375,291815.28125,274464.9375,275405.4375,285131.21875,-0.170166015625,0.880615234375,-0.2744140625,-0.5187987685203552,1.5258787870407104,2.349853277206421,60.0,2762744.0,1.0
1135881.8598878,280128.53125,280680.625,311506.625,281991.15625,291712.90625,274339.34375,275308.0625,284989.3125,-0.1669921875,0.881103515625,-0.2734375,0.1831054538488388,1.6479490995407104,2.349853277206421,60.0,2762745.0,1.0
1135881.8649342,281079.71875,280126.03125,312131.5,283296.75,291815.53125,273916.09375,275146.0625,284669.6875,-0.161865234375,0.881103515625,-0.273193359375,0.8850097060203552,1.7700194120407104,2.441406011581421,60.0,2762746.0,1.0
1135881.8649778,281577.53125,279935.59375,312602.5625,284313.5,291932.65625,273724.5625,275082.40625,284543.1875,-0.156982421875,0.883056640625,-0.27587890625,1.6479490995407104,1.9531248807907104,2.532958745956421,60.0,2762747.0,1.0
1135881.8649903,281018.65625,280435.09375,312411.875,283858.40625,292011.4375,274089.09375,275288.9375,284937.71875,-0.15234375,0.884765625,-0.275146484375,2.410888433456421,2.166747808456421,2.563476324081421,60.0,2762748.0,1.0
1135881.8687079,280113.25,280858.4375,311731.375,282442.46875,291876.59375,274433.3125,275382.625,285176.8125,-0.1484375,0.88818359375,-0.271240234375,3.112792730331421,2.563476324081421,2.716064214706421,60.0,2762749.0,1.0
1135881.8723832,280106.09375,280599.34375,311453.5,281951.90625,291674.09375,274250.8125,275182.34375,284843.125,-0.146240234375,0.890380859375,-0.2685546875,3.662109136581421,2.838134527206421,2.807616949081421,60.0,2762750.0,1.0
1135881.8904815,281000.25,279998.4375,311972.34375,283100.15625,291687.96875,273775.625,274942.84375,284378.5,-0.1435546875,0.890625,-0.26953125,4.180907726287842,3.417968511581421,2.899169683456421,60.0,2762751.0,1.0
1135881.8905242,281502.71875,279811.3125,312423.5,284073.34375,291778.625,273578.46875,274867.8125,284214.59375,-0.143310546875,0.887939453125,-0.2734375,4.608153820037842,3.814697027206421,3.021239995956421,60.0,2762752.0,1.0
1135881.8937679,280966.90625,280341.75,312266.03125,283661.34375,291874.8125,273962.75,275102.78125,284645.625,-0.142822265625,0.885986328125,-0.27392578125,5.126952648162842,4.211425304412842,3.021239995956421,60.0,2762753.0,1.0
1135881.8938106,280090.71875,280820.625,311651.1875,282336.0625,291792.5625,274360.34375,275261.375,284981.71875,-0.1435546875,0.88232421875,-0.275634765625,5.645751476287842,4.547118663787842,3.204345464706421,60.0,2762754.0,1.0
1135881.8938233,280091.40625,280607.375,311434.90625,281928.1875,291645.5625,274230.625,275135.3125,284765.09375,-0.145751953125,0.877685546875,-0.279296875,6.317138195037842,4.943847179412842,3.173827886581421,60.0,2762755.0,1.0
1135881.8980514,281028.59375,280059.6875,312027.40625,283169.875,291719.59375,273807.28125,274970.5625,284421.21875,-0.14599609375,0.875732421875,-0.2822265625,6.927489757537842,5.279540538787842,3.082275152206421,60.0,2762756.0,1.0
1135881.8980978,281533.03125,279870.40625,312520.84375,284211.90625,291847.0,273624.4375,274933.90625,284326.0,-0.145263671875,0.871826171875,-0.2841796875,7.659911632537842,5.523681163787842,2.990722417831421,60.0,2762757.0,1.0
1135881.911168,281006.40625,280395.40625,312402.21875,283859.46875,291970.3125,274018.0,275192.1875,284802.90625,-0.147705078125,0.87255859375,-0.28466796875,8.392333030700684,5.767821788787842,2.899169683456421,60.0,2762758.0,1.0
1135881.9142846,280145.5,280877.84375,311820.34375,282587.5625,291912.8125,274421.15625,275368.125,285181.8125,-0.146728515625,0.87353515625,-0.28369140625,8.972167015075684,5.981444835662842,2.685546636581421,60.0,2762759.0,1.0
1135881.9143289,280168.03125,280710.3125,311685.875,282289.75,291844.59375,274345.875,275326.75,285113.84375,-0.149169921875,0.874267578125,-0.283935546875,9.674071311950684,6.072997570037842,2.655029058456421,60.0,2762760.0,1.0
1135881.9230752,281221.09375,280360.625,312609.90625,283985.90625,292224.5625,274156.6875,275512.34375,285344.09375,-0.154296875,0.874755859375,-0.283935546875,10.192870140075684,6.164550304412842,2.502441167831421,60.0,2762761.0,1.0
1135881.9231187,281831.0,280318.5,313429.6875,285505.8125,292646.40625,274164.1875,275779.78125,285791.28125,-0.157958984375,0.875244140625,-0.283203125,10.589598655700684,6.225585460662842,2.197265386581421,60.0,2762762.0,1.0
1135881.9292339,281312.90625,280828.75,313405.90625,285326.90625,292859.625,274568.3125,276080.34375,286400.875,-0.162841796875,0.874267578125,-0.28369140625,11.077879905700684,6.134032726287842,2.044677495956421,60.0,2762763.0,1.0
1135881.9292777,280408.90625,281249.875,312807.40625,284062.0625,292797.5,274927.0,276206.25,286740.34375,-0.16552734375,0.874267578125,-0.286376953125,11.474608421325684,5.981444835662842,1.7089842557907104,60.0,2762764.0,1.0
1135881.9430475,280355.96875,280988.4375,312558.6875,283622.5625,292643.96875,274762.9375,276037.0,286496.4375,-0.166015625,0.876220703125,-0.2880859375,11.810301780700684,5.920409679412842,1.4343260526657104,60.0,2762765.0,1.0
1135881.9430932,281222.40625,280376.28125,313086.8125,284781.34375,292686.4375,274295.34375,275818.21875,286095.0,-0.16650390625,0.87744140625,-0.28662109375,12.176512718200684,5.798339366912842,1.0375975370407104,60.0,2762766.0,1.0
1135881.9455085,281726.40625,280160.625,313559.75,285799.875,292802.0625,274086.125,275751.53125,285964.46875,-0.1689453125,0.879150390625,-0.291015625,12.481688499450684,5.615233898162842,0.7629393935203552,60.0,2762767.0,1.0
1135881.9455511,281245.21875,280701.0,313481.53125,285515.9375,292960.9375,274490.6875,276023.125,286465.6875,-0.16845703125,0.87939453125,-0.296142578125,12.817381858825684,5.401610851287842,0.4882812201976776,60.0,2762768.0,1.0
1135881.9543819,280399.875,281208.84375,312943.125,284314.1875,292947.875,274917.8125,276228.59375,286901.90625,-0.168701171875,0.880859375,-0.302490234375,13.000487327575684,5.187987804412842,0.2136230319738388,60.0,2762769.0,1.0
1135881.9544257,280373.9375,281010.25,312748.9375,283937.875,292848.625,274812.46875,276134.90625,286769.5,-0.1708984375,0.880859375,-0.302001953125,13.244627952575684,4.913329601287842,-0.1220703050494194,60.0,2762770.0,1.0
1135881.960527,281250.125,280439.40625,313319.71875,285144.71875,292938.84375,274389.40625,275972.4375,286454.875,-0.169677734375,0.882080078125,-0.3076171875,13.488768577575684,4.730224132537842,-0.3051757514476776,60.0,2762771.0,1.0
1135881.9605697,281704.5,280193.71875,313764.875,286131.9375,293035.6875,274158.5625,275877.75,286284.8125,-0.171142578125,0.8837890625,-0.313720703125,13.854979515075684,4.669188976287842,-0.4577636420726776,60.0,2762772.0,1.0
1135881.9686141,281195.15625,280704.21875,313641.125,285792.625,293148.0625,274519.125,276091.875,286695.03125,-0.171630859375,0.885009765625,-0.314208984375,14.007567405700684,4.364013195037842,-0.5493163466453552,60.0,2762773.0,1.0
1135881.9729934,280346.21875,281204.90625,313084.375,284562.5625,293113.46875,274933.71875,276271.59375,287077.0625,-0.17138671875,0.883544921875,-0.317626953125,14.068602561950684,4.150390148162842,-0.6713866591453552,60.0,2762774.0,1.0
1135881.9730414,280276.5,280972.875,312814.5625,284074.3125,292949.84375,274787.96875,276111.1875,286829.5,-0.175537109375,0.882568359375,-0.32177734375,14.251708030700684,3.936767339706421,-0.8239745497703552,60.0,2762775.0,1.0
1135881.9818221,281089.65625,280327.53125,313236.5625,285067.71875,292911.65625,274276.125,275819.90625,286294.75,-0.177734375,0.882080078125,-0.327392578125,14.434813499450684,3.570556402206421,-0.7934569716453552,60.0,2762776.0,1.0
1135881.9818652,281555.375,280042.96875,313576.46875,285891.25,292905.15625,273985.5625,275632.4375,285942.75,-0.178466796875,0.880859375,-0.32666015625,14.709471702575684,3.295898199081421,-0.7629393935203552,60.0,2762777.0,1.0
1135881.9835195,281076.59375,280535.78125,313404.46875,285473.1875,292959.6875,274321.375,275802.75,286255.5,-0.18310546875,0.875244140625,-0.3310546875,14.953612327575684,2.960204839706421,-0.9155272841453552,60.0,2762778.0,1.0
1135881.9899709,280244.65625,281041.09375,312815.90625,284191.96875,292885.5625,274722.625,275957.25,286584.25,-0.1865234375,0.870849609375,-0.334716796875,15.289305686950684,2.532958745956421,-0.9460448622703552,60.0,2762779.0,1.0
1135881.9924605,280183.875,280827.96875,312528.46875,283667.4375,292702.28125,274583.3125,275797.5625,286320.84375,-0.1884765625,0.86767578125,-0.33544921875,15.533446311950684,2.227782964706421,-1.0681151151657104,60.0,2762780.0,1.0
1135882.0012853,281004.96875,280197.09375,312944.375,284638.03125,292657.9375,274086.84375,275520.03125,285791.375,-0.189697265625,0.866455078125,-0.338134765625,15.808104515075684,1.8615721464157104,-1.2207030057907104,60.0,2762781.0,1.0
1135882.0042724,281485.90625,279920.03125,313285.0,285462.375,292649.09375,273802.0,275344.09375,285447.25,-0.193359375,0.866943359375,-0.338623046875,16.021726608276367,1.3427733182907104,-1.2817381620407104,60.0,2762782.0,1.0
1135882.0043151,281034.5625,280430.8125,313136.25,285079.625,292719.25,274150.6875,275534.25,285782.34375,-0.19677734375,0.86767578125,-0.342041015625,16.235349655151367,0.8239745497703552,-1.3732908964157104,60.0,2762783.0,1.0
1135882.0098653,280221.34375,280958.03125,312575.40625,283835.78125,292664.0,274571.0,275712.4375,286142.65625,-0.199951171875,0.87451171875,-0.339599609375,16.632078170776367,0.3051757514476776,-1.5258787870407104,60.0,2762784.0,1.0
1135882.0191753,280161.53125,280763.5,312302.96875,283322.40625,292494.59375,274449.125,275572.71875,285908.875,-0.198974609375,0.88134765625,-0.338623046875,16.632078170776367,-0.2136230319738388,-1.7089842557907104,60.0,2762785.0,1.0
1135882.0192076,280971.8125,280136.75,312719.96875,284286.21875,292452.84375,273956.3125,275301.34375,285392.8125,-0.198486328125,0.889404296875,-0.33837890625,16.723630905151367,-0.8239745497703552,-1.7395018339157104,60.0,2762786.0,1.0
1135882.0216099,281459.96875,279858.875,313078.125,285127.4375,292455.25,273677.71875,275135.0625,285063.4375,-0.198486328125,0.8974609375,-0.34033203125,16.357419967651367,-1.3122557401657104,-1.7395018339157104,60.0,2762787.0,1.0
1135882.0216466,281040.21875,280385.65625,312960.28125,284787.0625,292543.21875,274040.09375,275342.3125,285422.3125,-0.19677734375,0.905029296875,-0.339599609375,16.052244186401367,-1.7700194120407104,-1.6479490995407104,60.0,2762788.0,1.0
1135882.0322921,280243.3125,280934.09375,312430.5625,283588.40625,292516.3125,274483.71875,275545.96875,285816.15625,-0.1962890625,0.912109375,-0.346435546875,15.502928733825684,-2.319335699081421,-1.6174315214157104,60.0,2762789.0,1.0
1135882.0353276,280162.15625,280736.84375,312156.875,283076.625,292352.53125,274368.40625,275412.9375,285595.84375,-0.19384765625,0.91943359375,-0.344482421875,14.923094749450684,-2.716064214706421,-1.3732908964157104,60.0,2762790.0,1.0
1135882.03536,280966.53125,280113.6875,312576.90625,284044.90625,292317.375,273886.65625,275152.59375,285095.0,-0.194091796875,0.924072265625,-0.349365234375,14.343260765075684,-3.143310308456421,-1.1901854276657104,60.0,2762791.0,1.0
1135882.0435786,281467.125,279841.09375,312947.78125,284908.03125,292326.78125,273613.96875,274994.5,284778.84375,-0.19091796875,0.930419921875,-0.352783203125,13.458250999450684,-3.509521245956421,-1.0375975370407104,60.0,2762792.0,1.0
1135882.046162,281047.53125,280356.59375,312840.9375,284588.15625,292416.09375,273971.4375,275201.65625,285139.78125,-0.188232421875,0.933837890625,-0.351806640625,12.725829124450684,-3.936767339706421,-0.8239745497703552,60.0,2762793.0,1.0
1135882.0486986,280247.78125,280904.3125,312322.09375,283405.1875,292389.875,274416.5,275409.1875,285547.65625,-0.187744140625,0.939697265625,-0.3544921875,11.993407249450684,-4.211425304412842,-0.4577636420726776,60.0,2762794.0,1.0
1135882.0524503,280169.75,280730.25,312059.6875,282903.09375,292237.4375,274318.59375,275292.6875,285356.25,-0.18505859375,0.940673828125,-0.35693359375,11.108397483825684,-4.394530773162842,-0.0915527269244194,60.0,2762795.0,1.0
1135882.0667771,280971.1875,280115.65625,312482.59375,283870.9375,292208.46875,273844.09375,275042.6875,284877.09375,-0.181884765625,0.937744140625,-0.35888671875,10.192870140075684,-4.669188976287842,0.3051757514476776,60.0,2762796.0,1.0
1135882.066821,281470.71875,279831.96875,312858.625,284743.4375,292220.65625,273570.0625,274889.625,284571.875,-0.178955078125,0.934326171875,-0.35986328125,9.246825218200684,-4.852294445037842,0.7934569716453552,60.0,2762797.0,1.0
1135882.0693683,281062.5625,280350.25,312764.40625,284447.34375,292316.5,273929.40625,275106.28125,284943.625,-0.17578125,0.9287109375,-0.358642578125,8.300780296325684,-5.065917491912842,1.2207030057907104,60.0,2762798.0,1.0
1135882.0694035,280260.40625,280901.8125,312246.28125,283272.4375,292288.0625,274373.5625,275319.0625,285358.21875,-0.171630859375,0.9228515625,-0.3564453125,7.446288585662842,-5.218505382537842,1.6174315214157104,60.0,2762799.0,1.0
1135882.0805348,280168.59375,280731.03125,311983.25,282767.71875,292135.09375,274281.9375,275212.40625,285181.71875,-0.170166015625,0.913818359375,-0.359375,6.774901866912842,-5.340575695037842,1.9531248807907104,60.0,2762800.0,1.0
1135882.0805796,280969.03125,280124.3125,312412.65625,283741.09375,292109.78125,273815.6875,274971.625,284720.125,-0.1708984375,0.906494140625,-0.357177734375,6.286620616912842,-5.340575695037842,2.288818120956421,60.0,2762801.0,1.0
1135882.0823776,281468.375,279836.96875,312790.25,284621.9375,292119.34375,273537.09375,274818.90625,284417.75,-0.173095703125,0.899169921875,-0.357666015625,5.798339366912842,-5.371093273162842,2.624511480331421,60.0,2762802.0,1.0
1135882.0862319,281061.125,280343.90625,312699.65625,284341.21875,292213.125,273891.40625,275035.90625,284791.8125,-0.17431640625,0.890625,-0.359619140625,5.401610851287842,-5.493163585662842,2.899169683456421,60.0,2762803.0,1.0
1135882.0956548,280265.3125,280904.3125,312192.71875,283188.46875,292197.3125,274345.40625,275260.3125,285228.46875,-0.177001953125,0.885009765625,-0.359375,5.126952648162842,-5.615233898162842,3.173827886581421,60.0,2762804.0,1.0
1135882.0957005,280168.21875,280740.53125,311926.75,282684.59375,292052.28125,274261.90625,275157.40625,285068.4375,-0.17919921875,0.876953125,-0.363037109375,4.791259288787842,-5.828856945037842,3.387450933456421,60.0,2762805.0,1.0
1135882.0974038,280964.03125,280131.65625,312354.28125,283656.625,292036.5625,273798.59375,274923.4375,284615.9375,-0.18017578125,0.86962890625,-0.362548828125,4.638671398162842,-6.134032726287842,3.509521245956421,60.0,2762806.0,1.0
1135882.0999564,281476.34375,279841.09375,312738.28125,284550.25,292054.53125,273519.90625,274774.75,284320.71875,-0.182861328125,0.865478515625,-0.36376953125,4.547118663787842,-6.378173351287842,3.601073980331421,60.0,2762807.0,1.0
1135882.108683,281085.09375,280353.03125,312664.34375,284301.5,292162.25,273879.59375,275000.9375,284710.375,-0.18212890625,0.86328125,-0.3623046875,4.455565929412842,-6.500243663787842,3.692626714706421,60.0,2762808.0,1.0
1135882.1118876,280300.1875,280930.25,312185.5,283193.65625,292172.1875,274353.0,275246.53125,285182.78125,-0.181884765625,0.86181640625,-0.36572265625,4.455565929412842,-6.744384288787842,3.814697027206421,60.0,2762809.0,1.0
1135882.1119313,280200.84375,280775.28125,311934.53125,282710.0625,292043.34375,274283.28125,275159.1875,285051.625,-0.177734375,0.85986328125,-0.366943359375,4.547118663787842,-6.927489757537842,4.028319835662842,60.0,2762810.0,1.0
1135882.117381,280992.8125,280166.0625,312360.90625,283677.1875,292027.6875,273821.75,274925.40625,284604.40625,-0.1767578125,0.858642578125,-0.365234375,4.516601085662842,-7.080077648162842,4.150390148162842,60.0,2762811.0,1.0
1135882.126781,281505.40625,279868.8125,312747.0625,284575.375,292044.875,273542.0,274774.125,284304.5625,-0.17431640625,0.859375,-0.368896484375,4.394530773162842,-7.202147960662842,4.302978038787842,60.0,2762812.0,1.0
1135882.1268251,281122.90625,280381.46875,312694.9375,284361.6875,292168.6875,273910.625,275008.46875,284708.75,-0.173095703125,0.86181640625,-0.37060546875,4.425048351287842,-7.324218273162842,4.486083507537842,60.0,2762813.0,1.0
1135882.1292335,280344.4375,280972.71875,312241.625,283294.6875,292199.53125,274396.8125,275267.90625,285209.4375,-0.1708984375,0.860107421875,-0.373779296875,4.455565929412842,-7.293700695037842,4.608153820037842,60.0,2762814.0,1.0
1135882.1292755,280240.46875,280832.78125,312000.25,282820.03125,292080.90625,274336.21875,275192.46875,285097.21875,-0.1650390625,0.861328125,-0.378662109375,4.455565929412842,-7.324218273162842,4.791259288787842,60.0,2762815.0,1.0
1135882.142563,281019.1875,280218.125,312412.03125,283765.0625,292060.5,273872.09375,274955.78125,284644.21875,-0.15966796875,0.865966796875,-0.380615234375,4.486083507537842,-7.354735851287842,5.035399913787842,60.0,2762816.0,1.0
1135882.1472784,281535.25,279909.125,312788.625,284650.28125,292078.65625,273589.21875,274798.09375,284329.65625,-0.155517578125,0.86865234375,-0.384033203125,4.394530773162842,-7.232665538787842,5.249022960662842,60.0,2762817.0,1.0
1135882.147327,281167.34375,280425.53125,312750.90625,284462.71875,292214.28125,273960.0625,275038.59375,284747.65625,-0.1552734375,0.87109375,-0.382568359375,4.302978038787842,-7.141112804412842,5.584716320037842,60.0,2762818.0,1.0
1135882.1473401,280405.25,281043.15625,312330.15625,283445.15625,292271.78125,274460.3125,275318.34375,285288.375,-0.15283203125,0.874755859375,-0.387451171875,4.150390148162842,-6.988524913787842,5.798339366912842,60.0,2762819.0,1.0
1135882.1499506,280295.0,280907.15625,312092.875,282980.53125,292166.0,274403.625,275243.96875,285189.5,-0.14990234375,0.872314453125,-0.391845703125,4.150390148162842,-6.896972179412842,6.072997570037842,60.0,2762820.0,1.0
1135882.163648,281046.5625,280263.8125,312475.96875,283879.59375,292128.8125,273923.875,274986.1875,284703.9375,-0.149169921875,0.872802734375,-0.397216796875,4.028319835662842,-6.744384288787842,6.256103038787842,60.0,2762821.0,1.0
1135882.1680717,281535.34375,279912.53125,312809.90625,284704.375,292107.28125,273601.71875,274795.40625,284334.59375,-0.148193359375,0.87646484375,-0.40283203125,4.028319835662842,-6.500243663787842,6.530761241912842,60.0,2762822.0,1.0
1135882.168116,281184.15625,280430.625,312777.375,284528.0625,292238.875,273966.875,275035.375,284747.28125,-0.148193359375,0.87890625,-0.40380859375,4.089354991912842,-6.286620616912842,6.744384288787842,60.0,2762823.0,1.0
1135882.1742344,280448.4375,281074.375,312391.46875,283564.34375,292321.9375,274493.65625,275342.5625,285329.40625,-0.14208984375,0.87890625,-0.408935546875,3.997802495956421,-6.042479991912842,6.927489757537842,60.0,2762824.0,1.0
1135882.1742762,280319.21875,280931.59375,312139.8125,283075.65625,292207.5,274435.53125,275264.25,285224.90625,-0.140869140625,0.87841796875,-0.412109375,3.997802495956421,-5.981444835662842,7.110595226287842,60.0,2762825.0,1.0
1135882.1799308,281028.6875,280244.5,312455.3125,283869.59375,292118.8125,273917.34375,274964.03125,284671.21875,-0.140380859375,0.8779296875,-0.41455078125,4.089354991912842,-5.798339366912842,7.385253429412842,60.0,2762826.0,1.0
1135882.1892872,281501.5625,279863.34375,312744.5625,284619.0,292061.84375,273570.0625,274745.5,284250.53125,-0.138427734375,0.8779296875,-0.4130859375,3.936767339706421,-5.584716320037842,7.568358898162842,60.0,2762827.0,1.0
1135882.1893316,281149.03125,280372.96875,312702.09375,284425.96875,292179.6875,273925.1875,274977.4375,284647.59375,-0.140380859375,0.878173828125,-0.416748046875,3.814697027206421,-5.310058116912842,7.720946788787842,60.0,2762828.0,1.0
1135882.1931321,280420.8125,281034.84375,312330.59375,283480.84375,292273.46875,274465.9375,275295.09375,285249.40625,-0.140869140625,0.878173828125,-0.4130859375,3.875732183456421,-5.035399913787842,7.904052257537842,60.0,2762829.0,1.0
1135882.1931761,280294.90625,280914.6875,312082.59375,282988.03125,292172.09375,274425.25,275231.78125,285160.34375,-0.14453125,0.879150390625,-0.413818359375,3.814697027206421,-4.913329601287842,7.904052257537842,60.0,2762830.0,1.0
1135882.203064,280974.0625,280203.09375,312350.96875,283713.03125,292050.5,273883.4375,274909.40625,284567.3125,-0.145263671875,0.87939453125,-0.41162109375,3.692626714706421,-4.699706554412842,7.904052257537842,60.0,2762831.0,1.0
1135882.2031082,281438.6875,279806.3125,312614.5625,284423.5625,291967.8125,273518.84375,274676.125,284117.78125,-0.149169921875,0.880126953125,-0.40869140625,3.540038824081421,-4.669188976287842,7.781981945037842,60.0,2762832.0,1.0
1135882.2055551,281115.9375,280338.53125,312599.8125,284271.09375,292107.625,273893.71875,274928.625,284542.71875,-0.151611328125,0.882568359375,-0.40673828125,3.417968511581421,-4.577636241912842,7.720946788787842,60.0,2762833.0,1.0
1135882.2055974,280420.4375,281040.46875,312278.75,283402.34375,292245.0625,274467.46875,275287.3125,285208.375,-0.155517578125,0.885009765625,-0.402587890625,2.929687261581421,-4.638671398162842,7.446288585662842,60.0,2762834.0,1.0
1135882.2187055,280290.875,280927.09375,312042.53125,282931.875,292153.59375,274432.84375,275232.59375,285149.625,-0.1572265625,0.88818359375,-0.400634765625,2.593993902206421,-4.699706554412842,7.293700695037842,60.0,2762835.0,1.0
1135882.2237742,280959.90625,280205.59375,312299.84375,283643.84375,292027.875,273887.28125,274905.28125,284561.78125,-0.159423828125,0.895263671875,-0.39599609375,2.197265386581421,-4.821776866912842,6.988524913787842,60.0,2762836.0,1.0
1135882.223819,281430.90625,279804.78125,312567.625,284367.40625,291951.0,273524.65625,274675.6875,284121.4375,-0.159912109375,0.90234375,-0.393310546875,1.5258787870407104,-4.882812023162842,6.622313976287842,60.0,2762837.0,1.0
1135882.2238305,281148.3125,280374.3125,312606.9375,284291.5,292134.1875,273927.25,274963.40625,284597.1875,-0.158935546875,0.90771484375,-0.38720703125,0.7019042372703552,-5.065917491912842,6.408690929412842,60.0,2762838.0,1.0
1135882.226121,280471.59375,281104.9375,312337.75,283502.46875,292312.375,274526.90625,275349.28125,285320.46875,-0.158203125,0.91650390625,-0.386962890625,-0.0610351525247097,-5.126952648162842,6.134032726287842,60.0,2762839.0,1.0
1135882.2299392,280336.125,281001.3125,312126.21875,283069.9375,292248.0,274508.75,275310.5625,285297.40625,-0.158203125,0.923583984375,-0.385498046875,-1.1291502714157104,-5.249022960662842,5.920409679412842,60.0,2762840.0,1.0
1135882.2442761,280992.1875,280272.46875,312384.59375,283775.625,292128.71875,273961.6875,274982.875,284703.9375,-0.15673828125,0.9287109375,-0.3818359375,-2.166747808456421,-5.523681163787842,5.584716320037842,60.0,2762841.0,1.0
1135882.244341,281459.0,279856.375,312647.625,284482.65625,292047.46875,273587.875,274742.1875,284245.625,-0.156982421875,0.93212890625,-0.381103515625,-3.173827886581421,-5.615233898162842,5.401610851287842,60.0,2762842.0,1.0
1135882.2505849,281187.09375,280424.46875,312698.78125,284423.09375,292233.0625,273991.375,275030.625,284729.84375,-0.156005859375,0.93408203125,-0.380615234375,-4.364013195037842,-5.828856945037842,5.187987804412842,60.0,2762843.0,1.0
1135882.2506325,280534.875,281185.75,312464.53125,283684.875,292440.21875,274614.96875,275443.6875,285495.8125,-0.153564453125,0.93603515625,-0.382080078125,-5.493163585662842,-5.828856945037842,5.065917491912842,60.0,2762844.0,1.0
1135882.2530441,280387.28125,281084.46875,312247.09375,283243.8125,292370.75,274597.4375,275402.21875,285475.25,-0.153076171875,0.93359375,-0.38232421875,-6.622313976287842,-5.859374523162842,4.852294445037842,60.0,2762845.0,1.0
1135882.2530872,281020.1875,280329.5,312473.125,283901.21875,292225.75,274031.5,275054.40625,284854.3125,-0.15380859375,0.929931640625,-0.380859375,-7.873534679412842,-5.950927257537842,4.608153820037842,60.0,2762846.0,1.0
1135882.2662437,281481.6875,279893.125,312719.78125,284586.8125,292129.71875,273644.03125,274805.6875,284377.5,-0.153076171875,0.92578125,-0.3779296875,-9.002684593200684,-5.981444835662842,4.455565929412842,60.0,2762847.0,1.0
1135882.2692857,281214.375,280461.46875,312778.875,284544.0625,292317.46875,274047.34375,275100.46875,284867.09375,-0.15087890625,0.918701171875,-0.382568359375,-9.979247093200684,-5.981444835662842,4.272460460662842,60.0,2762848.0,1.0
1135882.2693285,280548.125,281217.0625,312541.96875,283813.15625,292516.65625,274665.65625,275510.84375,285641.90625,-0.15087890625,0.912109375,-0.384033203125,-10.925292015075684,-6.042479991912842,4.028319835662842,60.0,2762849.0,1.0
1135882.2713354,280392.09375,281122.90625,312319.15625,283364.15625,292446.65625,274651.90625,275470.6875,285630.375,-0.146728515625,0.905029296875,-0.386474609375,-11.627196311950684,-5.981444835662842,3.906249761581421,60.0,2762850.0,1.0
1135882.2749497,281021.34375,280361.15625,312533.09375,283998.5,292294.75,274081.03125,275116.625,284999.15625,-0.14453125,0.89892578125,-0.390380859375,-12.145995140075684,-5.950927257537842,3.631591558456421,60.0,2762851.0,1.0
1135882.283749,281479.71875,279901.875,312762.15625,284663.96875,292182.03125,273675.9375,274850.375,284496.25,-0.14208984375,0.891845703125,-0.39208984375,-12.573241233825684,-5.950927257537842,3.540038824081421,60.0,2762852.0,1.0
1135882.2880249,281219.5625,280456.125,312815.53125,284619.15625,292367.90625,274075.21875,275141.75,284975.71875,-0.140869140625,0.88623046875,-0.395751953125,-12.664793968200684,-5.798339366912842,3.326415777206421,60.0,2762853.0,1.0
1135882.288068,280573.9375,281239.0625,312599.4375,283905.34375,292594.09375,274718.40625,275573.875,285771.1875,-0.140625,0.879638671875,-0.397705078125,-12.847899436950684,-5.615233898162842,3.234863042831421,60.0,2762854.0,1.0
1135882.2968857,280401.84375,281141.5,312360.09375,283431.75,292517.65625,274702.59375,275527.5625,285750.53125,-0.13916015625,0.87353515625,-0.4033203125,-12.969969749450684,-5.493163585662842,3.112792730331421,60.0,2762855.0,1.0
1135882.2969307,281011.875,280364.75,312546.5,284028.0,292345.09375,274116.09375,275154.375,285091.5,-0.141845703125,0.86962890625,-0.4033203125,-12.725829124450684,-5.249022960662842,2.868652105331421,60.0,2762856.0,1.0
1135882.2985511,281471.15625,279894.46875,312770.84375,284682.90625,292226.8125,273701.25,274882.75,284572.9375,-0.14404296875,0.861083984375,-0.406494140625,-12.573241233825684,-5.126952648162842,2.716064214706421,60.0,2762857.0,1.0
1135882.3049586,281209.1875,280446.375,312816.6875,284629.90625,292403.65625,274091.78125,275167.15625,285037.3125,-0.14501953125,0.8515625,-0.40576171875,-12.145995140075684,-4.943847179412842,2.441406011581421,60.0,2762858.0,1.0
1135882.3074663,280543.5625,281220.46875,312575.5625,283885.75,292607.25,274720.3125,275584.40625,285809.90625,-0.150146484375,0.84130859375,-0.40869140625,-11.535643577575684,-4.760741710662842,2.197265386581421,60.0,2762859.0,1.0
1135882.313855,280359.8125,281123.8125,312322.71875,283384.28125,292521.21875,274704.84375,275535.875,285780.84375,-0.153076171875,0.832763671875,-0.41259765625,-10.711668968200684,-4.577636241912842,1.8310545682907104,60.0,2762860.0,1.0
1135882.317995,280987.1875,280359.71875,312520.6875,283990.90625,292356.28125,274129.5,275174.40625,285130.5625,-0.159423828125,0.827392578125,-0.41064453125,-9.735106468200684,-4.547118663787842,1.4343260526657104,60.0,2762861.0,1.0
1135882.3180378,281462.3125,279888.28125,312751.96875,284663.25,292236.8125,273711.78125,274900.4375,284609.78125,-0.16259765625,0.824462890625,-0.410400390625,-8.728026390075684,-4.699706554412842,0.9460448622703552,60.0,2762862.0,1.0
1135882.3261503,281200.875,280429.65625,312796.0625,284613.71875,292407.875,274090.96875,275175.5625,285060.125,-0.170166015625,0.823974609375,-0.40576171875,-7.629394054412842,-4.760741710662842,0.4882812201976776,60.0,2762863.0,1.0
1135882.330515,280530.15625,281207.5,312554.84375,283865.90625,292618.59375,274726.90625,275598.0,285834.125,-0.1787109375,0.82666015625,-0.40087890625,-6.774901866912842,-4.943847179412842,-0.1220703050494194,60.0,2762864.0,1.0
1135882.3305569,280343.5625,281122.71875,312299.5625,283356.125,292538.5625,274722.8125,275557.15625,285807.84375,-0.187255859375,0.827880859375,-0.403076171875,-5.767821788787842,-5.279540538787842,-0.6713866591453552,60.0,2762865.0,1.0
1135882.3388154,280978.25,280373.21875,312509.9375,283980.8125,292387.375,274158.65625,275207.03125,285171.625,-0.1982421875,0.83251953125,-0.4013671875,-4.882812023162842,-5.584716320037842,-1.3732908964157104,60.0,2762866.0,1.0
1135882.3417957,281474.0,279911.1875,312766.46875,284693.46875,292288.5,273748.4375,274947.3125,284667.0,-0.206787109375,0.837646484375,-0.396728515625,-4.211425304412842,-6.164550304412842,-2.075195074081421,60.0,2762867.0,1.0
1135882.3418389,281221.25,280446.8125,312821.4375,284663.0625,292471.34375,274129.75,275225.8125,285121.09375,-0.217041015625,0.844970703125,-0.394287109375,-3.387450933456421,-6.805419445037842,-2.868652105331421,60.0,2762868.0,1.0
1135882.3436981,280545.53125,281224.375,312573.96875,283901.40625,292680.0,274766.0625,275639.40625,285886.6875,-0.225830078125,0.856201171875,-0.392822265625,-2.716064214706421,-7.446288585662842,-3.662109136581421,60.0,2762869.0,1.0
1135882.372466,280352.40625,281149.09375,312313.875,283377.9375,292604.71875,274762.40625,275591.65625,285857.1875,-0.23388671875,0.870361328125,-0.392822265625,-1.9531248807907104,-8.300780296325684,-4.516601085662842,60.0,2762870.0,1.0
1135882.3749987,280982.375,280397.375,312523.71875,284000.28125,292477.0625,274194.84375,275225.0,285219.4375,-0.24169921875,0.887451171875,-0.39013671875,-1.5258787870407104,-9.277342796325684,-5.279540538787842,60.0,2762871.0,1.0
1135882.3774507,281489.9375,279932.625,312789.53125,284723.34375,292413.9375,273781.25,274947.84375,284713.3125,-0.247314453125,0.9033203125,-0.389404296875,-1.2817381620407104,-10.253905296325684,-6.042479991912842,60.0,2762872.0,1.0
1135882.3799521,281238.96875,280462.46875,312846.5625,284689.96875,292604.375,274158.09375,275219.09375,285157.59375,-0.251708984375,0.913818359375,-0.3837890625,-1.1291502714157104,-11.260985374450684,-6.683349132537842,60.0,2762873.0,1.0
1135882.3824587,280529.4375,281211.0625,312566.09375,283883.0,292789.90625,274772.875,275612.21875,285896.4375,-0.25390625,0.921142578125,-0.3857421875,-1.2817381620407104,-12.268065452575684,-7.141112804412842,60.0,2762874.0,1.0
1135882.3856642,280314.21875,281130.34375,312279.71875,283313.5625,292695.65625,274765.90625,275558.40625,285854.0625,-0.2529296875,0.9228515625,-0.384033203125,-1.7089842557907104,-13.214110374450684,-7.537841320037842,60.0,2762875.0,1.0
1135882.3857085,280956.96875,280395.75,312501.625,283941.1875,292555.1875,274214.53125,275221.78125,285237.25,-0.2509765625,0.919189453125,-0.381591796875,-1.9226073026657104,-14.129637718200684,-7.934569835662842,60.0,2762876.0,1.0
1135882.3874086,281480.53125,279931.75,312774.78125,284672.53125,292454.25,273803.4375,274967.875,284735.75,-0.248291015625,0.90966796875,-0.384521484375,-2.044677495956421,-15.045165061950684,-8.270262718200684,60.0,2762877.0,1.0
1135882.3899117,281232.0,280445.65625,312813.46875,284619.71875,292607.59375,274165.71875,275235.375,285162.9375,-0.2490234375,0.895751953125,-0.385986328125,-1.9531248807907104,-15.777586936950684,-8.666991233825684,60.0,2762878.0,1.0
1135882.3924071,280510.21875,281183.71875,312505.84375,283775.71875,292761.03125,274777.53125,275623.84375,285883.125,-0.24609375,0.886962890625,-0.38916015625,-1.6784666776657104,-16.571043014526367,-9.033202171325684,60.0,2762879.0,1.0
1135882.3956458,280283.375,281093.6875,312189.6875,283156.90625,292638.0,274767.40625,275559.75,285819.71875,-0.243896484375,0.874755859375,-0.3916015625,-1.1291502714157104,-17.211912155151367,-9.368895530700684,60.0,2762880.0,1.0
1135882.3956889,280917.0,280343.5625,312380.40625,283739.75,292462.75,274198.78125,275200.0625,285172.96875,-0.24267578125,0.8681640625,-0.391357421875,-0.4272460639476776,-17.822263717651367,-9.643553733825684,60.0,2762881.0,1.0
1135882.3974039,281445.65625,279878.90625,312656.9375,284480.15625,292358.78125,273785.1875,274946.21875,284672.1875,-0.23779296875,0.863037109375,-0.385986328125,0.3051757514476776,-18.371580123901367,-10.070799827575684,60.0,2762882.0,1.0
1135882.4136449,281184.96875,280385.9375,312690.625,284427.21875,292507.1875,274143.1875,275208.0,285094.1875,-0.231201171875,0.85888671875,-0.38232421875,0.9460448622703552,-18.859861373901367,-10.253905296325684,60.0,2762883.0,1.0
1135882.4168293,280455.75,281126.84375,312370.90625,283564.71875,292656.40625,274755.96875,275593.09375,285804.0,-0.2236328125,0.856689453125,-0.3798828125,1.6174315214157104,-19.104001998901367,-10.345458030700684,60.0,2762884.0,1.0
1135882.4168746,280210.0625,281032.6875,312019.28125,282896.5625,292504.96875,274734.5,275506.90625,285704.9375,-0.21484375,0.8544921875,-0.37646484375,2.441406011581421,-19.317625045776367,-10.284422874450684,60.0,2762885.0,1.0
1135882.418846,280869.4375,280316.375,312222.875,283485.9375,292344.03125,274187.6875,275162.9375,285065.5,-0.20263671875,0.8544921875,-0.37451171875,2.960204839706421,-19.378660202026367,-10.162352561950684,60.0,2762886.0,1.0
1135882.421223,281409.0,279855.84375,312513.15625,284251.96875,292248.96875,273776.59375,274912.875,284580.09375,-0.19091796875,0.85302734375,-0.373046875,3.387450933456421,-19.226072311401367,-10.040282249450684,60.0,2762887.0,1.0
1135882.4249335,281156.0,280361.15625,312564.5,284228.46875,292408.5,274138.4375,275182.8125,285020.96875,-0.177978515625,0.85498046875,-0.369873046875,4.058837413787842,-18.890378952026367,-9.674071311950684,60.0,2762888.0,1.0
1135882.4393093,280415.4375,281096.09375,312243.6875,283366.40625,292559.6875,274747.9375,275568.9375,285740.15625,-0.16552734375,0.857666015625,-0.368408203125,4.547118663787842,-18.432615280151367,-9.124754905700684,60.0,2762889.0,1.0
1135882.4393509,280158.21875,281001.40625,311891.59375,282693.875,292415.375,274725.21875,275486.78125,285650.3125,-0.154052734375,0.8603515625,-0.36328125,5.065917491912842,-17.761228561401367,-8.483885765075684,60.0,2762890.0,1.0
1135882.4418807,280812.5,280276.125,312094.90625,283287.46875,292250.6875,274163.90625,275134.4375,285011.125,-0.140869140625,0.861328125,-0.361328125,5.401610851287842,-16.967771530151367,-7.904052257537842,60.0,2762891.0,1.0
1135882.4419251,281386.40625,279831.78125,312427.59375,284110.96875,292181.9375,273763.375,274904.9375,284553.375,-0.131591796875,0.86572265625,-0.361572265625,5.737304210662842,-15.960692405700684,-6.958007335662842,60.0,2762892.0,1.0
1135882.4524171,281145.53125,280329.6875,312493.21875,284111.96875,292347.0625,274118.5,275173.9375,284996.03125,-0.12109375,0.8681640625,-0.361572265625,5.981444835662842,-14.678954124450684,-6.042479991912842,60.0,2762893.0,1.0
1135882.4678991,280389.59375,281052.09375,312161.96875,283238.90625,292490.375,274719.3125,275551.78125,285701.71875,-0.114013671875,0.874755859375,-0.360595703125,6.072997570037842,-13.366698265075684,-5.065917491912842,60.0,2762894.0,1.0
1135882.4679391,280129.15625,280970.1875,311809.8125,282559.21875,292350.0,274705.90625,275475.53125,285613.28125,-0.1103515625,0.883544921875,-0.361328125,6.042479991912842,-11.901854515075684,-3.997802495956421,60.0,2762895.0,1.0
1135882.4679493,280791.9375,280259.40625,312027.78125,283167.75,292198.375,274155.4375,275134.34375,284985.46875,-0.108154296875,0.89404296875,-0.361572265625,5.950927257537842,-10.498045921325684,-2.868652105331421,60.0,2762896.0,1.0
1135882.4679599,281375.21875,279812.65625,312371.28125,284012.8125,292133.375,273748.0,274903.21875,284530.5625,-0.10595703125,0.90625,-0.360595703125,5.767821788787842,-9.033202171325684,-1.7089842557907104,60.0,2762897.0,1.0
1135882.4712121,281134.8125,280301.0,312445.65625,284034.625,292304.59375,274096.78125,275174.21875,284974.84375,-0.1064453125,0.91650390625,-0.35888671875,5.401610851287842,-7.415771007537842,-0.5187987685203552,60.0,2762898.0,1.0
1135882.4712542,280376.8125,281028.125,312117.0,283162.8125,292453.09375,274700.90625,275556.96875,285686.5,-0.10498046875,0.9267578125,-0.35205078125,4.730224132537842,-6.072997570037842,0.6103515028953552,60.0,2762899.0,1.0
1135882.4712664,280105.375,280950.25,311756.59375,282465.53125,292311.03125,274685.875,275476.5,285597.1875,-0.106201171875,0.93505859375,-0.35400390625,3.936767339706421,-4.730224132537842,1.7700194120407104,60.0,2762900.0,1.0
1135882.4738274,280767.96875,280239.65625,311980.65625,283078.6875,292166.375,274135.75,275137.125,284975.90625,-0.10986328125,0.942138671875,-0.35498046875,3.051757574081421,-3.448486089706421,2.899169683456421,60.0,2762901.0,1.0
1135882.4774485,281364.3125,279794.78125,312347.75,283957.28125,292122.5625,273735.375,274917.0,284537.1875,-0.114013671875,0.946044921875,-0.3564453125,1.9531248807907104,-2.044677495956421,4.058837413787842,60.0,2762902.0,1.0
1135882.486192,281138.75,280288.75,312442.25,284006.375,292310.6875,274091.6875,275194.6875,284994.40625,-0.119873046875,0.948486328125,-0.35107421875,1.0070799589157104,-0.8544921278953552,5.004882335662842,60.0,2762903.0,1.0
1135882.4955114,280384.40625,281026.71875,312121.46875,283142.15625,292471.875,274700.4375,275580.65625,285717.8125,-0.12646484375,0.9482421875,-0.348388671875,-0.2136230319738388,0.1525878757238388,5.615233898162842,60.0,2762904.0,1.0
1135882.4955608,280110.375,280960.28125,311765.1875,282448.375,292344.375,274693.03125,275505.65625,285647.15625,-0.136962890625,0.9462890625,-0.345947265625,-1.2817381620407104,0.9460448622703552,6.408690929412842,60.0,2762905.0,1.0
1135882.4981373,280789.875,280277.125,312018.84375,283099.0625,292231.28125,274166.6875,275189.9375,285064.6875,-0.143798828125,0.946044921875,-0.345947265625,-2.410888433456421,1.6784666776657104,6.958007335662842,60.0,2762906.0,1.0
1135882.4981816,281410.8125,279849.5625,312421.0,284029.53125,292212.6875,273783.125,274992.09375,284658.0625,-0.152587890625,0.938232421875,-0.347412109375,-3.326415777206421,2.319335699081421,7.232665538787842,60.0,2762907.0,1.0
1135882.5186679,281176.03125,280322.375,312509.5,284083.53125,292391.125,274119.3125,275253.78125,285102.78125,-0.154296875,0.932373046875,-0.349365234375,-4.119872570037842,2.716064214706421,7.446288585662842,60.0,2762908.0,1.0
1135882.5222365,280402.28125,281042.0,312177.25,283211.53125,292541.53125,274718.40625,275630.46875,285817.84375,-0.1552734375,0.924072265625,-0.348876953125,-4.852294445037842,3.143310308456421,7.568358898162842,60.0,2762909.0,1.0
1135882.5222804,280117.71875,280980.03125,311820.34375,282514.53125,292402.9375,274722.0,275565.71875,285755.96875,-0.15673828125,0.9228515625,-0.345703125,-5.340575695037842,3.326415777206421,7.568358898162842,60.0,2762910.0,1.0
1135882.5222927,280797.65625,280305.0,312076.84375,283173.90625,292279.125,274201.46875,275258.53125,285186.5625,-0.1591796875,0.916259765625,-0.34423828125,-5.920409679412842,3.509521245956421,7.324218273162842,60.0,2762911.0,1.0
1135882.5260518,281427.34375,279876.5625,312489.03125,284132.15625,292260.875,273816.03125,275064.15625,284786.8125,-0.162353515625,0.912353515625,-0.33984375,-6.500243663787842,3.601073980331421,7.110595226287842,60.0,2762912.0,1.0
1135882.5260869,281210.34375,280352.65625,312596.5,284222.5625,292443.875,274156.84375,275336.5,285241.96875,-0.16650390625,0.904296875,-0.33935546875,-6.988524913787842,3.692626714706421,7.049560070037842,60.0,2762913.0,1.0
1135882.5260985,280436.53125,281075.25,312267.21875,283361.21875,292583.71875,274753.65625,275709.125,285959.5625,-0.170654296875,0.895751953125,-0.337158203125,-7.415771007537842,3.631591558456421,6.805419445037842,60.0,2762914.0,1.0
1135882.5286931,280142.28125,281017.84375,311907.15625,282667.0625,292447.5625,274757.40625,275642.8125,285904.75,-0.173583984375,0.88330078125,-0.3388671875,-7.690429210662842,3.540038824081421,6.408690929412842,60.0,2762915.0,1.0
1135882.5398555,280820.625,280340.5,312169.125,283340.375,292335.71875,274240.09375,275338.71875,285343.625,-0.178955078125,0.8740234375,-0.338623046875,-7.659911632537842,3.295898199081421,5.920409679412842,60.0,2762916.0,1.0
1135882.5441716,281455.78125,279901.4375,312588.8125,284313.84375,292318.375,273851.34375,275141.40625,284942.375,-0.1806640625,0.86474609375,-0.338623046875,-7.507323741912842,2.990722417831421,5.462646007537842,60.0,2762917.0,1.0
1135882.5442071,281249.96875,280381.5625,312706.1875,284419.34375,292505.9375,274192.96875,275412.84375,285394.0625,-0.181884765625,0.85693359375,-0.3359375,-6.988524913787842,2.593993902206421,4.913329601287842,60.0,2762918.0,1.0
1135882.5584744,280495.53125,281127.375,312399.09375,283584.09375,292672.40625,274808.625,275805.0625,286132.5625,-0.182373046875,0.854736328125,-0.337158203125,-6.500243663787842,2.319335699081421,4.150390148162842,60.0,2762919.0,1.0
1135882.5584975,280203.28125,281082.6875,312045.75,282891.75,292551.53125,274825.09375,275748.9375,286092.78125,-0.181640625,0.85205078125,-0.33349609375,-6.072997570037842,1.9226073026657104,3.509521245956421,60.0,2762920.0,1.0
1135882.5585048,280860.3125,280382.8125,312282.75,283535.46875,292420.8125,274289.34375,275423.03125,285511.28125,-0.1806640625,0.850830078125,-0.328369140625,-5.493163585662842,1.5563963651657104,2.807616949081421,60.0,2762921.0,1.0
1135882.5610534,281498.875,279931.28125,312697.0,284508.40625,292402.5,273889.34375,275215.53125,285097.21875,-0.18212890625,0.852783203125,-0.328369140625,-5.126952648162842,1.1596678495407104,2.136230230331421,60.0,2762922.0,1.0
1135882.5635276,281303.0625,280405.78125,312816.0,284619.15625,292592.5,274224.0,275481.34375,285538.71875,-0.181884765625,0.852294921875,-0.328369140625,-4.638671398162842,0.7324218153953552,1.6784666776657104,60.0,2762923.0,1.0
1135882.5660366,280536.5,281148.21875,312503.40625,283777.75,292755.84375,274838.21875,275865.34375,286271.59375,-0.1826171875,0.852783203125,-0.324462890625,-4.272460460662842,0.2136230319738388,1.1596678495407104,60.0,2762924.0,1.0
1135882.5685313,280225.09375,281104.75,312136.3125,283064.375,292630.5625,274857.53125,275802.9375,286227.34375,-0.179443359375,0.8564453125,-0.3212890625,-3.967284917831421,-0.1220703050494194,0.5798339247703552,60.0,2762925.0,1.0
1135882.577278,280875.25,280404.96875,312359.75,283680.5625,292495.9375,274321.4375,275468.53125,285629.03125,-0.18017578125,0.85888671875,-0.3232421875,-3.570556402206421,-0.4882812201976776,0.03051757626235485,60.0,2762926.0,1.0
1135882.5797774,281513.625,279941.5625,312759.3125,284625.25,292464.0,273909.90625,275242.875,285183.875,-0.178466796875,0.865478515625,-0.32177734375,-3.234863042831421,-0.7324218153953552,-0.6103515028953552,60.0,2762927.0,1.0
1135882.5860557,281312.90625,280401.5625,312865.96875,284720.28125,292643.96875,274232.59375,275494.46875,285599.96875,-0.17529296875,0.874267578125,-0.318603515625,-3.112792730331421,-1.0375975370407104,-1.0986326932907104,60.0,2762928.0,1.0
1135882.59536,280538.0,281145.25,312542.40625,283863.0625,292799.0,274840.28125,275874.1875,286324.78125,-0.171875,0.882080078125,-0.315673828125,-2.960204839706421,-1.3427733182907104,-1.3732908964157104,60.0,2762929.0,1.0
1135882.5953839,280222.40625,281111.09375,312173.25,283134.125,292677.15625,274868.625,275818.65625,286284.5625,-0.168701171875,0.890625,-0.315185546875,-2.990722417831421,-1.4648436307907104,-1.6784666776657104,60.0,2762930.0,1.0
1135882.5972806,280867.21875,280407.75,312388.25,283728.3125,292539.75,274330.9375,275484.5625,285673.28125,-0.16455078125,0.897705078125,-0.31298828125,-3.143310308456421,-1.4648436307907104,-1.7395018339157104,60.0,2762931.0,1.0
1135882.6010523,281501.0,279926.09375,312771.90625,284658.25,292495.03125,273903.125,275247.34375,285201.21875,-0.16064453125,0.90234375,-0.31298828125,-3.265380620956421,-1.6479490995407104,-1.7700194120407104,60.0,2762932.0,1.0
1135882.6103719,281302.8125,280377.78125,312870.25,284747.5625,292667.84375,274218.90625,275492.59375,285603.375,-0.15966796875,0.90771484375,-0.3115234375,-3.509521245956421,-1.7395018339157104,-1.7700194120407104,60.0,2762933.0,1.0
1135882.6103955,280529.53125,281126.5625,312546.78125,283881.46875,292823.96875,274834.375,275873.375,286332.5625,-0.157470703125,0.912353515625,-0.311767578125,-3.814697027206421,-1.5563963651657104,-1.8310545682907104,60.0,2762934.0,1.0
1135882.6121256,280189.6875,281086.4375,312152.21875,283111.9375,292683.6875,274853.5,275803.03125,286281.5,-0.1533203125,0.91650390625,-0.309326171875,-4.241942882537842,-1.4343260526657104,-1.7089842557907104,60.0,2762935.0,1.0
1135882.6197808,280825.375,280378.40625,312348.3125,283677.1875,292529.09375,274306.78125,275457.90625,285655.65625,-0.15087890625,0.91943359375,-0.309326171875,-4.760741710662842,-1.2512205839157104,-1.4648436307907104,60.0,2762936.0,1.0
1135882.6228723,281473.03125,279896.5,312737.9375,284609.25,292479.21875,273878.8125,275221.15625,285179.75,-0.14697265625,0.924560546875,-0.3076171875,-5.279540538787842,-1.0375975370407104,-1.2512205839157104,60.0,2762937.0,1.0
1135882.6228952,281284.03125,280346.3125,312838.875,284694.8125,292646.03125,274192.09375,275466.5625,285572.875,-0.146484375,0.924072265625,-0.30908203125,-5.798339366912842,-0.7934569716453552,-1.0681151151657104,60.0,2762938.0,1.0
1135882.6247753,280499.03125,281090.0,312496.09375,283797.78125,292788.09375,274801.65625,275842.53125,286282.3125,-0.147216796875,0.92333984375,-0.30615234375,-6.225585460662842,-0.5187987685203552,-0.7629393935203552,60.0,2762939.0,1.0
1135882.6386223,280165.1875,281063.625,312090.1875,283001.25,292640.3125,274824.0,275773.59375,286221.78125,-0.14794921875,0.919921875,-0.307373046875,-6.683349132537842,-0.3051757514476776,-0.3356933295726776,60.0,2762940.0,1.0
1135882.6417147,280813.28125,280362.0625,312290.375,283564.0,292485.71875,274282.375,275434.125,285600.78125,-0.1494140625,0.916015625,-0.3095703125,-7.141112804412842,0.1220703050494194,0.0610351525247097,60.0,2762941.0,1.0
1135882.6417529,281477.40625,279874.96875,312691.875,284517.4375,292440.75,273851.875,275198.1875,285128.15625,-0.150146484375,0.9140625,-0.309326171875,-7.446288585662842,0.3356933295726776,0.3356933295726776,60.0,2762942.0,1.0
1135882.6436476,281292.4375,280311.28125,312789.78125,284608.625,292598.9375,274152.46875,275429.28125,285510.5625,-0.150390625,0.91064453125,-0.3076171875,-7.690429210662842,0.6103515028953552,0.7019042372703552,60.0,2762943.0,1.0
1135882.6523053,280504.125,281059.6875,312447.8125,283707.125,292741.96875,274763.65625,275808.75,286221.15625,-0.151123046875,0.908935546875,-0.304443359375,-7.781981945037842,0.8239745497703552,1.0375975370407104,60.0,2762944.0,1.0
1135882.6554426,280152.5625,281043.0625,312040.46875,282904.15625,292600.4375,274793.78125,275749.71875,286172.71875,-0.153564453125,0.907470703125,-0.304443359375,-7.995604991912842,1.2207030057907104,1.2207030057907104,60.0,2762945.0,1.0
1135882.6554747,280797.375,280358.40625,312253.96875,283489.5,292461.5,274266.28125,275422.9375,285577.625,-0.155029296875,0.90673828125,-0.30224609375,-8.209227561950684,1.4038084745407104,1.5258787870407104,60.0,2762946.0,1.0
1135882.6613369,281470.0625,279879.25,312673.90625,284479.875,292427.34375,273839.1875,275194.34375,285120.84375,-0.155517578125,0.9033203125,-0.3056640625,-8.300780296325684,1.5258787870407104,1.7395018339157104,60.0,2762947.0,1.0
1135882.6655464,281286.78125,280309.03125,312781.28125,284589.5625,292586.59375,274136.03125,275425.8125,285500.90625,-0.154541015625,0.9013671875,-0.30810546875,-8.392333030700684,1.8310545682907104,1.9226073026657104,60.0,2762948.0,1.0
1135882.6655896,280483.84375,281043.53125,312427.6875,283677.71875,292720.875,274741.03125,275797.84375,286202.3125,-0.155517578125,0.89892578125,-0.305908203125,-8.483885765075684,2.075195074081421,2.136230230331421,60.0,2762949.0,1.0
1135882.673706,280117.09375,281022.59375,312007.21875,282857.0625,292571.03125,274771.0,275733.90625,286153.9375,-0.15673828125,0.899658203125,-0.3017578125,-8.392333030700684,2.319335699081421,2.410888433456421,60.0,2762950.0,1.0
1135882.6780524,280778.25,280355.25,312238.875,283463.75,292447.1875,274258.25,275419.375,285577.625,-0.15869140625,0.8974609375,-0.304931640625,-8.270262718200684,2.410888433456421,2.502441167831421,60.0,2762951.0,1.0
1135882.6780955,281463.90625,279872.8125,312677.59375,284488.0,292422.78125,273831.0625,275194.78125,285131.21875,-0.15966796875,0.896484375,-0.305908203125,-8.117674827575684,2.502441167831421,2.716064214706421,60.0,2762952.0,1.0
1135882.6800095,281286.71875,280294.28125,312788.375,284609.6875,292582.90625,274117.4375,275419.1875,285501.875,-0.162353515625,0.8955078125,-0.302734375,-7.934569835662842,2.563476324081421,2.685546636581421,60.0,2762953.0,1.0
1135882.6961877,280486.78125,281036.09375,312430.8125,283689.34375,292717.65625,274726.03125,275788.34375,286201.0625,-0.162109375,0.896240234375,-0.30517578125,-7.690429210662842,2.746581792831421,2.746581792831421,60.0,2762954.0,1.0
1135882.6993062,280118.15625,281028.6875,312011.9375,282860.0,292573.625,274771.25,275733.28125,286162.5,-0.164794921875,0.896240234375,-0.304443359375,-7.537841320037842,2.838134527206421,2.838134527206421,60.0,2762955.0,1.0
1135882.6993552,280787.8125,280375.28125,312254.59375,283477.71875,292460.0625,274270.9375,275433.0625,285603.71875,-0.163330078125,0.896484375,-0.300537109375,-7.354735851287842,2.899169683456421,2.838134527206421,60.0,2762956.0,1.0
