Time,FZ,C3,CZ,C4,PZ,PO7,OZ,PO8,AccX,AccY,AccZ,Gyro1,Gyro2,Gyro3,Battery,Counter,Validation
1168274.7581962,301573.9375,322137.46875,333146.40625,313194.09375,302089.21875,306881.6875,289855.28125,326701.59375,-0.110595703125,0.927001953125,-0.3994140625,21.179197311401367,-4.180907726287842,-0.6103515028953552,80.0,1423767.0,1.0
1168274.7582259,301385.03125,322540.15625,332991.46875,312910.03125,302349.75,307114.59375,290395.75,327310.75,-0.10302734375,0.9248046875,-0.403564453125,20.507810592651367,-3.967284917831421,-0.2441406100988388,80.0,1423768.0,1.0
1168274.7601025,302137.125,321664.0625,333154.8125,313384.78125,302098.9375,306467.28125,289496.78125,326622.46875,-0.09814453125,0.92236328125,-0.40966796875,19.653318405151367,-3.631591558456421,0.1220703050494194,80.0,1423769.0,1.0
1168274.762603,302838.78125,320749.96875,333430.375,313988.90625,301749.375,305864.78125,288434.34375,325650.0,-0.094970703125,0.9189453125,-0.415771484375,18.920896530151367,-3.021239995956421,0.6408690810203552,80.0,1423770.0,1.0
1168274.7651263,302448.875,321034.0,333457.03125,313905.15625,301849.6875,306116.0,288728.84375,325823.625,-0.0869140625,0.914794921875,-0.415771484375,18.249509811401367,-2.441406011581421,1.3427733182907104,80.0,1423771.0,1.0
1168274.7676068,301634.75,322214.8125,333307.8125,313319.625,302395.25,306925.59375,290088.28125,327037.0625,-0.080810546875,0.912109375,-0.418701171875,17.547605514526367,-1.8920897245407104,2.014159917831421,80.0,1423772.0,1.0
1168274.7744216,301429.46875,322625.28125,333147.03125,313015.8125,302650.6875,307158.5,290627.84375,327638.5,-0.07568359375,0.906982421875,-0.4248046875,16.784666061401367,-1.1596678495407104,2.746581792831421,80.0,1423773.0,1.0
1168274.7744532,302119.875,321723.15625,333263.71875,313395.625,302374.78125,306512.625,289715.1875,326931.03125,-0.072998046875,0.904052734375,-0.4287109375,16.235349655151367,-0.5493163466453552,3.356933355331421,80.0,1423774.0,1.0
1168274.7769925,302788.71875,320750.40625,333492.34375,313957.90625,301988.34375,305880.0625,288612.71875,325924.3125,-0.070556640625,0.90087890625,-0.430908203125,15.716551780700684,0.2136230319738388,3.997802495956421,80.0,1423775.0,1.0
1168274.7770213,302516.9375,321063.875,333558.3125,313965.65625,302083.40625,306151.6875,288894.6875,326077.1875,-0.068603515625,0.895751953125,-0.432373046875,15.197752952575684,1.0681151151657104,4.699706554412842,80.0,1423776.0,1.0
1168274.7901019,301651.8125,322269.53125,333406.875,313354.84375,302617.6875,306953.21875,290232.3125,327262.53125,-0.06982421875,0.888916015625,-0.431884765625,14.678954124450684,1.6784666776657104,5.615233898162842,80.0,1423777.0,1.0
1168274.7931696,301432.34375,322709.21875,333251.5625,313037.8125,302896.625,307194.875,290789.6875,327875.25,-0.070556640625,0.881103515625,-0.431396484375,14.221190452575684,2.380370855331421,6.225585460662842,80.0,1423778.0,1.0
1168274.7931991,302191.84375,321826.15625,333409.71875,313569.6875,302660.78125,306577.34375,289919.84375,327214.0,-0.072509765625,0.8740234375,-0.4326171875,13.824461936950684,3.021239995956421,6.774901866912842,80.0,1423779.0,1.0
1168274.7951028,302873.84375,320839.8125,333629.9375,314170.875,302253.09375,305942.75,288804.40625,326195.75,-0.0751953125,0.867919921875,-0.43359375,13.580321311950684,3.662109136581421,7.263183116912842,80.0,1423780.0,1.0
1168274.8063533,302541.5,321100.71875,333648.96875,314121.40625,302304.9375,306176.53125,289033.8125,326292.65625,-0.081787109375,0.8623046875,-0.43310546875,13.458250999450684,4.150390148162842,7.659911632537842,80.0,1423781.0,1.0
1168274.8094163,301785.40625,322363.75,333565.03125,313611.0,302877.15625,307027.40625,290402.0,327501.875,-0.084716796875,0.859375,-0.428955078125,13.244627952575684,4.486083507537842,7.873534679412842,80.0,1423782.0,1.0
1168274.8094461,301462.65625,322775.3125,333365.1875,313151.875,303138.3125,307241.375,290942.84375,328102.0,-0.087890625,0.85791015625,-0.4287109375,13.061522483825684,4.821776866912842,7.873534679412842,80.0,1423783.0,1.0
1168274.8182005,302163.9375,321858.96875,333443.78125,313519.09375,302838.96875,306589.78125,290024.53125,327383.59375,-0.089599609375,0.858642578125,-0.4287109375,12.878417015075684,4.943847179412842,7.873534679412842,80.0,1423784.0,1.0
1168274.8182298,302823.875,320827.5625,333610.8125,314064.03125,302364.84375,305917.6875,288850.1875,326299.09375,-0.09130859375,0.860107421875,-0.42724609375,12.664793968200684,5.004882335662842,7.751464366912842,80.0,1423785.0,1.0
1168274.8200599,302529.53125,321106.875,333667.21875,314003.9375,302442.71875,306159.5625,289089.0625,326408.1875,-0.093505859375,0.863525390625,-0.427734375,12.451170921325684,5.065917491912842,7.659911632537842,80.0,1423786.0,1.0
1168274.8263577,301735.96875,322349.90625,333592.28125,313542.0625,303022.0,306993.625,290456.5625,327621.875,-0.093994140625,0.8681640625,-0.42724609375,12.115477561950684,5.218505382537842,7.415771007537842,80.0,1423787.0,1.0
1168274.8331919,301465.875,322787.71875,333398.1875,313148.65625,303265.71875,307222.40625,290996.125,328206.78125,-0.093994140625,0.8759765625,-0.427978515625,11.657713890075684,5.218505382537842,7.232665538787842,80.0,1423788.0,1.0
1168274.8332203,302222.0625,321927.09375,333521.03125,313609.03125,302996.875,306628.21875,290127.09375,327525.03125,-0.095947265625,0.8798828125,-0.427978515625,11.138915061950684,5.065917491912842,7.019042491912842,80.0,1423789.0,1.0
1168274.8351024,302863.75,320879.6875,333719.25,314216.46875,302568.6875,305974.28125,288993.75,326494.4375,-0.095947265625,0.885498046875,-0.4296875,10.559081077575684,5.096435070037842,6.835937023162842,80.0,1423790.0,1.0
1168274.843854,302507.28125,321073.0,333707.4375,314120.96875,302568.34375,306149.25,289152.71875,326520.46875,-0.094970703125,0.892822265625,-0.43212890625,9.887694358825684,5.065917491912842,6.591796398162842,80.0,1423791.0,1.0
1168274.8481925,301694.28125,322319.21875,333606.15625,313497.90625,303133.65625,306973.875,290501.78125,327703.59375,-0.094482421875,0.897705078125,-0.429443359375,9.002684593200684,5.065917491912842,6.500243663787842,80.0,1423792.0,1.0
1168274.8482208,301499.46875,322817.59375,333484.8125,313273.65625,303434.4375,307258.625,291107.15625,328357.78125,-0.093505859375,0.903076171875,-0.431884765625,7.995604991912842,4.913329601287842,6.225585460662842,80.0,1423793.0,1.0
1168274.8614489,302170.65625,321933.1875,333557.96875,313605.625,303138.3125,306632.6875,290215.34375,327662.375,-0.094970703125,0.90673828125,-0.4306640625,7.141112804412842,4.852294445037842,6.042479991912842,80.0,1423794.0,1.0
1168274.864522,302806.875,320867.875,333719.15625,314102.09375,302673.5625,305950.25,289047.0625,326593.34375,-0.09326171875,0.903564453125,-0.429443359375,5.981444835662842,4.882812023162842,5.950927257537842,80.0,1423795.0,1.0
1168274.8645781,302621.28125,321141.28125,333808.03125,314159.875,302733.46875,306201.5625,289269.0625,326684.4375,-0.090576171875,0.8994140625,-0.43115234375,5.126952648162842,4.760741710662842,5.737304210662842,80.0,1423796.0,1.0
1168274.8664271,301850.84375,322434.21875,333760.46875,313752.0,303306.3125,307047.1875,290623.21875,327874.4375,-0.090576171875,0.894287109375,-0.431884765625,4.364013195037842,4.730224132537842,5.584716320037842,80.0,1423797.0,1.0
1168274.8701268,301508.0625,322899.21875,333564.75,313323.90625,303583.09375,307288.5,291199.0625,328498.875,-0.0908203125,0.888916015625,-0.43310546875,3.845214605331421,4.821776866912842,5.523681163787842,80.0,1423798.0,1.0
1168274.8795101,302204.625,322007.28125,333629.5625,313679.03125,303281.28125,306659.78125,290314.5625,327811.5,-0.091552734375,0.883056640625,-0.43212890625,3.234863042831421,4.791259288787842,5.310058116912842,80.0,1423799.0,1.0
1168274.8795496,302882.4375,320956.03125,333811.59375,314244.34375,302814.21875,305996.90625,289158.625,326747.28125,-0.091796875,0.879150390625,-0.433349609375,2.777099370956421,4.882812023162842,4.974364757537842,80.0,1423800.0,1.0
1168274.881936,302521.03125,321135.5,333803.28125,314059.28125,302820.46875,306158.03125,289301.0625,326760.34375,-0.091796875,0.876953125,-0.433349609375,2.471923589706421,4.852294445037842,4.699706554412842,80.0,1423801.0,1.0
1168274.8819738,301831.96875,322442.09375,333781.46875,313687.34375,303433.71875,307027.15625,290683.65625,327982.53125,-0.087158203125,0.86962890625,-0.43115234375,2.258300542831421,4.974364757537842,4.516601085662842,80.0,1423802.0,1.0
1168274.8900585,301549.625,322943.46875,333628.40625,313386.3125,303732.59375,307306.8125,291290.71875,328632.71875,-0.0869140625,0.86376953125,-0.430419921875,2.166747808456421,5.065917491912842,4.333495616912842,80.0,1423803.0,1.0
1168274.9070291,302167.4375,322010.96875,333638.96875,313607.3125,303393.65625,306661.65625,290388.875,327912.0,-0.0888671875,0.856689453125,-0.426025390625,2.166747808456421,5.218505382537842,4.180907726287842,80.0,1423804.0,1.0
1168274.9070788,302832.53125,320944.5,333820.28125,314193.375,302925.96875,306000.21875,289238.28125,326857.4375,-0.09423828125,0.85302734375,-0.422607421875,2.441406011581421,5.157470226287842,3.906249761581421,80.0,1423805.0,1.0
1168274.9088825,302563.59375,321124.21875,333861.59375,314181.78125,302956.71875,306172.6875,289391.09375,326892.84375,-0.099365234375,0.8515625,-0.418701171875,2.685546636581421,5.065917491912842,3.601073980331421,80.0,1423806.0,1.0
1168274.9114242,301840.375,322426.25,333808.46875,313713.46875,303525.625,307024.90625,290730.75,328059.0625,-0.105712890625,0.8544921875,-0.419189453125,2.960204839706421,5.035399913787842,3.143310308456421,80.0,1423807.0,1.0
1168274.9139329,301577.0,322986.125,333671.0625,313389.25,303843.0,307336.6875,291366.90625,328730.78125,-0.107421875,0.859375,-0.42236328125,3.082275152206421,4.943847179412842,2.563476324081421,80.0,1423808.0,1.0
1168274.9201033,302258.53125,322099.1875,333735.25,313778.53125,303541.53125,306724.6875,290508.40625,328064.875,-0.1025390625,0.866455078125,-0.420166015625,3.234863042831421,4.821776866912842,1.9531248807907104,80.0,1423809.0,1.0
1168274.9244907,302940.1875,321004.875,333910.65625,314351.09375,303055.15625,306040.09375,289328.5,326990.21875,-0.100830078125,0.873779296875,-0.41748046875,3.173827886581421,4.791259288787842,1.6174315214157104,80.0,1423810.0,1.0
1168274.9245376,302646.125,321153.71875,333922.28125,314266.71875,303037.625,306192.375,289429.28125,326965.0,-0.099609375,0.878173828125,-0.4130859375,3.021239995956421,4.577636241912842,1.3427733182907104,80.0,1423811.0,1.0
1168274.9332757,301796.21875,322380.375,333791.21875,313660.15625,303542.875,306983.4375,290709.40625,328066.03125,-0.10009765625,0.879150390625,-0.4150390625,2.777099370956421,4.516601085662842,0.9765624403953552,80.0,1423812.0,1.0
1168274.9333269,301494.75,322922.375,333629.5625,313273.21875,303857.6875,307289.84375,291351.34375,328742.84375,-0.09912109375,0.879150390625,-0.41357421875,2.593993902206421,4.455565929412842,0.6103515028953552,80.0,1423813.0,1.0
1168274.9357421,302239.0625,322112.71875,333779.96875,313860.4375,303637.71875,306754.71875,290586.28125,328171.8125,-0.096923828125,0.880859375,-0.41357421875,2.471923589706421,4.516601085662842,0.1525878757238388,80.0,1423814.0,1.0
1168274.935799,302758.9375,320916.875,333854.0,314192.125,303099.25,305987.4375,289346.84375,327035.625,-0.095458984375,0.882568359375,-0.410888671875,2.227782964706421,4.547118663787842,-0.1525878757238388,80.0,1423815.0,1.0
1168274.9414323,302555.375,321052.25,333841.65625,314035.84375,303040.3125,306128.4375,289407.53125,326954.09375,-0.09716796875,0.88427734375,-0.41015625,1.8920897245407104,4.577636241912842,-0.2136230319738388,80.0,1423816.0,1.0
1168274.950735,301877.9375,322396.84375,333814.90625,313667.5,303601.4375,307003.28125,290738.90625,328105.46875,-0.100830078125,0.884521484375,-0.409912109375,1.6784666776657104,4.486083507537842,-0.2746581733226776,80.0,1423817.0,1.0
1168274.9507874,301602.65625,322996.40625,333689.3125,313375.40625,303929.46875,307349.65625,291406.21875,328799.71875,-0.101318359375,0.887451171875,-0.40771484375,1.2512205839157104,4.486083507537842,-0.6103515028953552,80.0,1423818.0,1.0
1168274.9526261,302263.8125,322161.78125,333791.9375,313843.1875,303684.6875,306787.8125,290621.96875,328207.5625,-0.0966796875,0.88671875,-0.408203125,0.8239745497703552,4.455565929412842,-1.0375975370407104,80.0,1423819.0,1.0
1168274.9564292,302872.3125,321003.6875,333926.125,314362.90625,303176.03125,306055.75,289410.5,327102.875,-0.094482421875,0.880126953125,-0.406982421875,0.4577636420726776,4.425048351287842,-0.8850097060203552,80.0,1423820.0,1.0
1168274.9631205,302574.0625,321087.75,333903.875,314213.15625,303124.4375,306155.78125,289448.3125,327025.875,-0.09326171875,0.876708984375,-0.408447265625,0.3356933295726776,4.547118663787842,-0.7934569716453552,80.0,1423821.0,1.0
1168274.963171,301838.5,322328.0,333815.8125,313708.53125,303659.09375,306970.03125,290738.1875,328143.84375,-0.1005859375,0.873046875,-0.403564453125,0.3356933295726776,4.547118663787842,-0.6103515028953552,80.0,1423822.0,1.0
1168274.968857,301556.53125,322905.03125,333628.40625,313319.0,303918.5625,307296.96875,291362.6875,328778.34375,-0.10693359375,0.873291015625,-0.40087890625,0.2746581733226776,4.516601085662842,-0.6713866591453552,80.0,1423823.0,1.0
1168274.9782838,302229.21875,322112.15625,333756.4375,313780.40625,303700.40625,306766.53125,290622.84375,328224.5625,-0.110107421875,0.8759765625,-0.400390625,0.1220703050494194,4.302978038787842,-0.8544921278953552,80.0,1423824.0,1.0
1168274.9783821,302869.46875,320984.5625,333890.71875,314205.71875,303179.0,306034.65625,289404.9375,327105.71875,-0.108154296875,0.8740234375,-0.398681640625,-0.2136230319738388,4.058837413787842,-1.0681151151657104,80.0,1423825.0,1.0
1168274.9807852,302649.25,321086.125,333914.78125,314188.28125,303147.0625,306153.46875,289444.28125,327030.34375,-0.106201171875,0.870361328125,-0.402587890625,-0.2746581733226776,3.997802495956421,-1.2512205839157104,80.0,1423826.0,1.0
1168274.9808407,301843.34375,322300.09375,333780.75,313698.96875,303617.4375,306947.3125,290668.34375,328070.4375,-0.102294921875,0.866943359375,-0.402099609375,-0.2746581733226776,3.997802495956421,-1.3427733182907104,80.0,1423827.0,1.0
1168274.9914298,301498.9375,322869.09375,333574.15625,313262.5,303884.9375,307272.21875,291297.6875,328712.28125,-0.1064453125,0.8681640625,-0.400146484375,-0.1525878757238388,3.936767339706421,-1.4648436307907104,80.0,1423828.0,1.0
1168274.9944819,302182.46875,322074.78125,333692.6875,313680.65625,303668.40625,306735.15625,290561.53125,328167.6875,-0.109375,0.872802734375,-0.39892578125,-0.1220703050494194,3.723144292831421,-1.5563963651657104,80.0,1423829.0,1.0
1168274.9945351,302957.4375,321012.0,333949.65625,314400.90625,303235.3125,306082.03125,289431.40625,327148.46875,-0.1123046875,0.876220703125,-0.39697265625,-0.1525878757238388,3.570556402206421,-1.4953612089157104,80.0,1423830.0,1.0
1168275.0001817,302713.8125,321086.3125,333940.09375,314337.34375,303139.1875,306167.3125,289416.75,327011.21875,-0.110595703125,0.882080078125,-0.394287109375,-0.1831054538488388,3.417968511581421,-1.4038084745407104,80.0,1423831.0,1.0
1168275.0039246,301883.375,322326.375,333795.59375,313717.125,303603.75,306966.34375,290642.96875,328043.96875,-0.1123046875,0.88330078125,-0.391357421875,-0.3662109076976776,3.326415777206421,-1.4953612089157104,80.0,1423832.0,1.0
1168275.0076879,301562.78125,322939.0,333638.5,313317.28125,303934.03125,307313.15625,291344.53125,328766.8125,-0.11083984375,0.884521484375,-0.392333984375,-0.7629393935203552,3.143310308456421,-1.5869139432907104,80.0,1423833.0,1.0
1168275.0220734,302246.90625,322171.4375,333775.5625,313770.125,303732.40625,306787.71875,290639.84375,328248.4375,-0.1015625,0.880615234375,-0.3935546875,-1.1291502714157104,2.929687261581421,-1.6479490995407104,80.0,1423834.0,1.0
1168275.0221233,302935.34375,321039.375,333986.3125,314365.5,303276.1875,306087.84375,289482.90625,327206.3125,-0.094482421875,0.8779296875,-0.392333984375,-1.1291502714157104,2.960204839706421,-1.3732908964157104,80.0,1423835.0,1.0
1168275.0251583,302683.125,321070.21875,333981.84375,314284.84375,303206.96875,306159.46875,289477.375,327095.8125,-0.092041015625,0.87451171875,-0.390625,-1.0986326932907104,3.021239995956421,-1.0375975370407104,80.0,1423836.0,1.0
1168275.0252086,301943.75,322361.875,333910.84375,313799.46875,303743.15625,307015.34375,290770.625,328202.65625,-0.096923828125,0.87158203125,-0.38818359375,-1.1291502714157104,2.990722417831421,-0.5493163466453552,80.0,1423837.0,1.0
1168275.0252225,301629.84375,323007.3125,333749.75,313447.8125,304062.96875,307376.5625,291477.125,328924.8125,-0.101806640625,0.86865234375,-0.3876953125,-1.1901854276657104,2.990722417831421,-0.1831054538488388,80.0,1423838.0,1.0
1168275.0289364,302299.84375,322270.0625,333897.53125,313907.75,303879.125,306865.6875,290791.5625,328427.96875,-0.103515625,0.865234375,-0.38916015625,-1.1596678495407104,2.990722417831421,0.0610351525247097,80.0,1423839.0,1.0
1168275.0401793,302882.875,321056.90625,334040.5,314385.71875,303369.59375,306095.09375,289570.53125,327324.25,-0.100830078125,0.863037109375,-0.38671875,-1.0375975370407104,2.990722417831421,0.2136230319738388,80.0,1423840.0,1.0
1168275.044524,302713.34375,321176.34375,334109.96875,314374.53125,303357.71875,306244.125,289628.65625,327266.125,-0.09619140625,0.864990234375,-0.38623046875,-0.8544921278953552,3.051757574081421,0.2136230319738388,80.0,1423841.0,1.0
1168275.0445748,302023.40625,322559.8125,334152.15625,314049.8125,304021.375,307166.4375,291057.90625,328522.28125,-0.095458984375,0.868896484375,-0.387451171875,-0.7019042372703552,3.112792730331421,0.3967284858226776,80.0,1423842.0,1.0
1168275.0532266,301725.40625,323273.5625,334092.78125,313746.4375,304469.65625,307574.5,291924.625,329413.84375,-0.09716796875,0.870849609375,-0.3896484375,-0.7629393935203552,3.021239995956421,0.7324218153953552,80.0,1423843.0,1.0
1168275.0532734,302343.46875,322565.46875,334270.0,314122.5,304365.3125,307075.96875,291334.78125,329028.5,-0.096435546875,0.87158203125,-0.39013671875,-0.7934569716453552,2.990722417831421,1.0986326932907104,80.0,1423844.0,1.0
1168275.0595826,303088.59375,321425.96875,334518.71875,314837.21875,303967.90625,306362.5,290181.09375,328028.59375,-0.097900390625,0.872314453125,-0.3916015625,-0.7934569716453552,2.960204839706421,1.4343260526657104,80.0,1423845.0,1.0
1168275.0596309,302896.0,321483.625,334560.84375,314804.03125,303945.21875,306437.96875,290180.90625,327942.65625,-0.100341796875,0.875732421875,-0.393798828125,-0.7934569716453552,2.990722417831421,1.5563963651657104,80.0,1423846.0,1.0
1168275.072598,302078.375,322735.5,334472.3125,314212.875,304504.625,307250.9375,291491.4375,329080.1875,-0.099609375,0.88037109375,-0.39501953125,-0.7934569716453552,2.929687261581421,1.6784666776657104,80.0,1423847.0,1.0
1168275.0775314,301683.21875,323410.90625,334308.09375,313805.90625,304886.65625,307636.28125,292272.84375,329881.46875,-0.101806640625,0.889404296875,-0.390869140625,-0.9460448622703552,2.868652105331421,1.6174315214157104,80.0,1423848.0,1.0
1168275.0775651,302322.46875,322665.15625,334420.1875,314210.1875,304729.21875,307122.1875,291602.65625,329420.5625,-0.10107421875,0.89599609375,-0.390380859375,-1.1596678495407104,2.716064214706421,1.7089842557907104,80.0,1423849.0,1.0
1168275.0775767,303088.875,321522.875,334644.6875,314820.125,304301.21875,306409.71875,290427.21875,328381.90625,-0.103759765625,0.9033203125,-0.39404296875,-1.7089842557907104,2.593993902206421,1.7395018339157104,80.0,1423850.0,1.0
1168275.0807435,303008.3125,321692.5,334828.25,314995.0,304386.78125,306596.125,290570.0,328426.8125,-0.10498046875,0.906005859375,-0.39208984375,-2.288818120956421,2.349853277206421,1.7700194120407104,80.0,1423851.0,1.0
1168275.0807981,302259.53125,323062.46875,334928.5625,314720.4375,305134.9375,307501.8125,292104.0625,329809.46875,-0.104248046875,0.906005859375,-0.388916015625,-2.929687261581421,2.227782964706421,2.014159917831421,80.0,1423852.0,1.0
1168275.0889261,301836.1875,323791.3125,334822.875,314248.46875,305616.84375,307908.09375,293011.96875,330749.6875,-0.103515625,0.9052734375,-0.39111328125,-3.570556402206421,2.105712652206421,2.075195074081421,80.0,1423853.0,1.0
1168275.0926635,302409.5625,322999.53125,334893.625,314552.625,305476.65625,307360.71875,292332.3125,330307.375,-0.105712890625,0.9052734375,-0.390380859375,-4.150390148162842,2.044677495956421,2.136230230331421,80.0,1423854.0,1.0
1168275.0964317,303172.1875,321776.71875,335015.46875,315108.28125,304957.5625,306586.28125,290998.09375,329139.09375,-0.1064453125,0.90380859375,-0.392578125,-4.821776866912842,1.8005369901657104,2.044677495956421,80.0,1423855.0,1.0
1168275.1107413,302954.3125,321693.84375,334924.71875,314982.0625,304790.46875,306586.90625,290798.09375,328848.96875,-0.10498046875,0.90087890625,-0.387451171875,-5.340575695037842,1.5563963651657104,1.9836424589157104,80.0,1423856.0,1.0
1168275.110795,302228.59375,322950.4375,334827.28125,314492.1875,305313.40625,307421.15625,292061.0625,329930.0,-0.10498046875,0.903564453125,-0.38818359375,-5.615233898162842,1.4648436307907104,1.7395018339157104,80.0,1423857.0,1.0
1168275.1131595,301835.5625,323648.09375,334613.78125,314018.25,305637.21875,307805.53125,292792.5625,330662.875,-0.1064453125,0.905517578125,-0.387451171875,-6.011962413787842,1.2817381620407104,1.6174315214157104,80.0,1423858.0,1.0
1168275.1131986,302367.0,322844.40625,334592.5,314224.9375,305350.6875,307232.625,291982.8125,330038.46875,-0.10693359375,0.905517578125,-0.38671875,-6.622313976287842,1.0986326932907104,1.4953612089157104,80.0,1423859.0,1.0
1168275.1151743,303073.5,321576.875,334718.71875,314810.84375,304802.71875,306451.375,290655.65625,328844.25,-0.108642578125,0.903564453125,-0.386962890625,-7.232665538787842,0.7934569716453552,1.5563963651657104,80.0,1423860.0,1.0
1168275.1294741,302900.84375,321526.375,334738.21875,314864.9375,304705.15625,306501.09375,290578.78125,328659.34375,-0.107177734375,0.89501953125,-0.38623046875,-7.781981945037842,0.6408690810203552,1.4648436307907104,80.0,1423861.0,1.0
1168275.1295241,302211.6875,322880.25,334754.21875,314512.03125,305307.6875,307410.34375,291977.0,329860.8125,-0.108154296875,0.890625,-0.38525390625,-8.148192405700684,0.4577636420726776,1.3122557401657104,80.0,1423862.0,1.0
1168275.1320262,301823.3125,323636.1875,334597.40625,314074.46875,305684.78125,307828.78125,292810.90625,330701.125,-0.107666015625,0.88720703125,-0.383056640625,-8.331297874450684,0.1525878757238388,1.0681151151657104,80.0,1423863.0,1.0
1168275.132079,302405.96875,322843.78125,334616.90625,314305.96875,305434.1875,307260.59375,292054.25,330147.625,-0.1083984375,0.888916015625,-0.38134765625,-8.453368186950684,0.0610351525247097,0.7019042372703552,80.0,1423864.0,1.0
1168275.1401793,303142.78125,321604.59375,334762.71875,314872.96875,304885.59375,306471.5,290717.625,328950.0,-0.10595703125,0.889404296875,-0.3798828125,-8.575438499450684,-0.1831054538488388,0.5493163466453552,80.0,1423865.0,1.0
1168275.1432715,302968.15625,321579.84375,334781.40625,314858.65625,304765.4375,306514.65625,290614.90625,328738.9375,-0.103515625,0.890869140625,-0.38037109375,-8.789061546325684,-0.1831054538488388,0.4577636420726776,80.0,1423866.0,1.0
1168275.1433205,302192.375,322902.53125,334777.5625,314437.5625,305377.25,307417.9375,292028.3125,329959.5,-0.103271484375,0.888427734375,-0.380859375,-9.063719749450684,-0.3967284858226776,0.3662109076976776,80.0,1423867.0,1.0
1168275.1514313,301870.5,323747.0625,334721.15625,314165.0625,305872.375,307935.625,292997.21875,330938.96875,-0.100830078125,0.886474609375,-0.381103515625,-9.185790061950684,-0.3967284858226776,0.3051757514476776,80.0,1423868.0,1.0
1168275.158274,302420.625,322959.5625,334710.3125,314385.53125,305601.03125,307357.59375,292221.90625,330372.3125,-0.098388671875,0.88525390625,-0.376953125,-9.307860374450684,-0.5493163466453552,0.2441406100988388,80.0,1423869.0,1.0
1168275.1583231,303178.0,321637.875,334776.5,314914.09375,304965.34375,306509.3125,290744.53125,329045.21875,-0.096923828125,0.884765625,-0.375,-9.277342796325684,-0.4272460639476776,0.1220703050494194,80.0,1423870.0,1.0
1168275.1607851,302964.78125,321476.5625,334708.34375,314904.34375,304748.78125,306469.96875,290492.75,328693.78125,-0.09423828125,0.88818359375,-0.374267578125,-9.399413108825684,-0.4272460639476776,0.1525878757238388,80.0,1423871.0,1.0
1168275.1608407,302205.25,322749.71875,334605.28125,314343.15625,305218.28125,307327.375,291773.78125,329746.28125,-0.09521484375,0.889404296875,-0.37548828125,-9.521483421325684,-0.3662109076976776,0.1220703050494194,80.0,1423872.0,1.0
1168275.1776072,301865.59375,323586.65625,334459.09375,313895.5,305591.8125,307828.96875,292647.375,330591.34375,-0.09521484375,0.888671875,-0.371337890625,-9.582518577575684,-0.3051757514476776,0.0915527269244194,80.0,1423873.0,1.0
1168275.1807725,302367.875,322809.0,334475.375,314191.6875,305340.75,307273.75,291914.34375,330052.125,-0.09033203125,0.88916015625,-0.37060546875,-9.643553733825684,-0.1525878757238388,0.2136230319738388,80.0,1423874.0,1.0
1168275.1808262,303136.875,321528.78125,334651.5,314812.34375,304807.53125,306469.96875,290576.90625,328859.4375,-0.09033203125,0.888427734375,-0.36865234375,-9.613036155700684,0.0610351525247097,0.3356933295726776,80.0,1423875.0,1.0
1168275.182635,303044.4375,321473.1875,334674.5625,314881.5625,304643.65625,306503.9375,290410.25,328577.375,-0.088623046875,0.886962890625,-0.367919921875,-9.674071311950684,0.1831054538488388,0.2746581733226776,80.0,1423876.0,1.0
1168275.1851539,302203.03125,322704.03125,334532.84375,314290.84375,305092.84375,307322.375,291661.5,329613.6875,-0.091796875,0.88818359375,-0.365478515625,-9.460448265075684,0.3356933295726776,0.3356933295726776,80.0,1423877.0,1.0
1168275.1877018,301796.125,323496.28125,334349.9375,313852.75,305460.125,307794.09375,292523.90625,330460.625,-0.0908203125,0.890625,-0.36181640625,-9.521483421325684,0.3356933295726776,0.3967284858226776,80.0,1423878.0,1.0
1168275.1914322,302419.75,322801.0625,334403.84375,314143.9375,305226.0625,307282.3125,291809.1875,329933.59375,-0.091064453125,0.887939453125,-0.3623046875,-9.643553733825684,0.4882812201976776,0.3662109076976776,80.0,1423879.0,1.0
1168275.2007779,303181.59375,321535.21875,334577.8125,314802.875,304668.96875,306478.71875,290439.65625,328701.5625,-0.09033203125,0.891357421875,-0.364013671875,-9.643553733825684,0.7019042372703552,0.4882812201976776,80.0,1423880.0,1.0
1168275.200831,303017.78125,321406.3125,334555.90625,314784.1875,304472.25,306473.09375,290217.21875,328367.0,-0.092041015625,0.8955078125,-0.3603515625,-9.521483421325684,0.7629393935203552,0.4577636420726776,80.0,1423881.0,1.0
1168275.2026235,302215.09375,322610.6875,334414.9375,314230.125,304914.71875,307289.46875,291450.59375,329388.71875,-0.09326171875,0.897705078125,-0.361328125,-9.582518577575684,1.0070799589157104,0.4577636420726776,80.0,1423882.0,1.0
1168275.2088945,301759.375,323367.8125,334159.84375,313691.625,305200.9375,307728.0,292247.65625,330149.6875,-0.09375,0.90185546875,-0.359619140625,-9.765624046325684,1.1596678495407104,0.4882812201976776,80.0,1423883.0,1.0
1168275.218272,302354.375,322666.5,334204.46875,314013.78125,304958.90625,307218.5625,291540.0,329622.96875,-0.0947265625,0.902587890625,-0.354736328125,-10.009764671325684,1.1901854276657104,0.3662109076976776,80.0,1423884.0,1.0
1168275.2183225,303218.6875,321455.75,334414.9375,314687.53125,304397.15625,306443.59375,290180.28125,328388.1875,-0.093994140625,0.902099609375,-0.3544921875,-10.314940452575684,1.1901854276657104,0.3967284858226776,80.0,1423885.0,1.0
1168275.2201227,303133.3125,321366.5,334449.71875,314770.59375,304216.71875,306455.21875,289957.46875,328058.4375,-0.09423828125,0.9013671875,-0.352783203125,-10.345458030700684,1.2207030057907104,0.3051757514476776,80.0,1423886.0,1.0
1168275.2264513,302206.6875,322485.1875,334219.75,314092.625,304587.25,307215.625,291102.25,328994.71875,-0.0966796875,0.8994140625,-0.3505859375,-10.498045921325684,1.3732908964157104,0.2136230319738388,80.0,1423887.0,1.0
1168275.2294682,301734.09375,323214.1875,333936.5,313541.875,304861.09375,307660.0625,291885.46875,329741.34375,-0.09765625,0.8984375,-0.34912109375,-10.589598655700684,1.4038084745407104,0.03051757626235485,80.0,1423888.0,1.0
1168275.2295081,302318.1875,322486.875,333934.90625,313810.375,304559.4375,307120.6875,291126.46875,329151.71875,-0.09912109375,0.896240234375,-0.34765625,-10.498045921325684,1.4343260526657104,-0.2136230319738388,80.0,1423889.0,1.0
1168275.2377033,303147.875,321250.0,334119.4375,314446.21875,303958.53125,306312.25,289703.3125,327852.4375,-0.0986328125,0.892822265625,-0.34619140625,-10.467528343200684,1.4953612089157104,-0.3662109076976776,80.0,1423890.0,1.0
1168275.2420701,303024.5,321069.3125,334077.0625,314456.6875,303686.90625,306259.875,289354.625,327392.0,-0.09716796875,0.892822265625,-0.34716796875,-10.223387718200684,1.5869139432907104,-0.6408690810203552,80.0,1423891.0,1.0
1168275.2421214,302212.21875,322178.3125,333813.75,313815.65625,303964.34375,307020.8125,290409.25,328212.5,-0.095947265625,0.892822265625,-0.343505859375,-10.131834983825684,1.6174315214157104,-0.8544921278953552,80.0,1423892.0,1.0
1168275.2476762,301782.625,322978.34375,333537.40625,313308.0,304180.6875,307509.78125,291169.65625,328905.9375,-0.09619140625,0.893798828125,-0.339599609375,-10.040282249450684,1.7089842557907104,-1.1901854276657104,80.0,1423893.0,1.0
1168275.2514515,302311.375,322295.4375,333580.40625,313568.625,303919.46875,307006.21875,290475.6875,328371.625,-0.096923828125,0.897216796875,-0.337646484375,-9.887694358825684,1.6784666776657104,-1.4038084745407104,80.0,1423894.0,1.0
1168275.2601389,303154.5,321082.28125,333865.4375,314318.03125,303408.9375,306224.375,289166.6875,327183.6875,-0.09716796875,0.902587890625,-0.334228515625,-9.796141624450684,1.7395018339157104,-1.5869139432907104,80.0,1423895.0,1.0
1168275.2631669,303020.46875,320910.28125,333856.40625,314348.875,303159.9375,306177.6875,288868.9375,326767.21875,-0.09814453125,0.904541015625,-0.33447265625,-9.735106468200684,1.7700194120407104,-1.7089842557907104,80.0,1423896.0,1.0
1168275.2632022,302174.84375,322047.4375,333632.71875,313685.46875,303493.4375,306968.21875,289990.28125,327659.15625,-0.09765625,0.906982421875,-0.334716796875,-9.704588890075684,1.8920897245407104,-1.8005369901657104,80.0,1423897.0,1.0
1168275.2688296,301671.5,322791.65625,333326.9375,313116.03125,303729.03125,307427.34375,290784.21875,328393.625,-0.097900390625,0.909912109375,-0.33544921875,-9.735106468200684,1.9836424589157104,-1.8615721464157104,80.0,1423898.0,1.0
1168275.28321,302312.375,322215.4375,333459.625,313545.90625,303537.78125,307006.40625,290200.40625,327958.5,-0.097412109375,0.91455078125,-0.3330078125,-9.735106468200684,1.9836424589157104,-1.8920897245407104,80.0,1423899.0,1.0
1168275.2832425,303200.96875,321127.625,333832.09375,314338.78125,303098.875,306272.03125,288975.09375,326859.40625,-0.10009765625,0.91650390625,-0.333740234375,-9.979247093200684,2.044677495956421,-2.075195074081421,80.0,1423900.0,1.0
1168275.2857103,303153.875,321025.96875,333960.375,314514.625,302999.46875,306281.3125,288797.6875,326599.875,-0.100830078125,0.91650390625,-0.33251953125,-10.101317405700684,2.075195074081421,-2.166747808456421,80.0,1423901.0,1.0
1168275.2857429,302255.59375,322077.21875,333699.3125,313840.5,303327.84375,307027.34375,289900.625,327496.25,-0.102783203125,0.91552734375,-0.335205078125,-10.162352561950684,2.136230230331421,-2.166747808456421,80.0,1423902.0,1.0
1168275.2876162,301776.375,322840.5625,333371.1875,313187.28125,303549.3125,307483.3125,290686.59375,328220.4375,-0.104736328125,0.920654296875,-0.332763671875,-10.192870140075684,2.227782964706421,-2.227782964706421,80.0,1423903.0,1.0
1168275.2938679,302339.8125,322294.90625,333500.46875,313518.46875,303390.875,307061.84375,290136.125,327826.4375,-0.10791015625,0.92529296875,-0.332275390625,-10.284422874450684,2.136230230331421,-2.319335699081421,80.0,1423904.0,1.0
1168275.2981402,303263.5625,321208.34375,333910.03125,314349.21875,303007.5,306345.59375,288963.1875,326792.71875,-0.109619140625,0.931884765625,-0.332763671875,-10.437010765075684,2.105712652206421,-2.410888433456421,80.0,1423905.0,1.0
1168275.2981715,303182.03125,321044.65625,334004.375,314495.75,302881.53125,306305.09375,288743.96875,326502.21875,-0.107421875,0.935546875,-0.33203125,-10.711668968200684,2.044677495956421,-2.441406011581421,80.0,1423906.0,1.0
1168275.3013812,302278.125,322116.0,333740.15625,313844.71875,303221.1875,307057.8125,289843.125,327404.15625,-0.107666015625,0.9375,-0.333251953125,-11.077879905700684,2.044677495956421,-2.349853277206421,80.0,1423907.0,1.0
1168275.3326197,301794.6875,322900.90625,333422.34375,313228.96875,303485.65625,307540.71875,290667.5625,328184.59375,-0.109375,0.93994140625,-0.32958984375,-11.505125999450684,1.9531248807907104,-2.288818120956421,80.0,1423908.0,1.0
1168275.3356555,302406.25,322374.21875,333596.84375,313702.90625,303376.3125,307146.0625,290176.09375,327858.53125,-0.111083984375,0.941162109375,-0.32763671875,-11.749266624450684,1.8615721464157104,-2.136230230331421,80.0,1423909.0,1.0
1168275.3356906,303304.59375,321275.40625,334014.46875,314548.875,303003.3125,306411.125,289008.15625,326840.8125,-0.1103515625,0.939697265625,-0.325439453125,-12.054442405700684,1.6479490995407104,-2.105712652206421,80.0,1423910.0,1.0
1168275.3376532,303273.65625,321145.6875,334112.8125,314626.03125,302883.6875,306376.28125,288777.75,326542.1875,-0.110107421875,0.9384765625,-0.322509765625,-12.451170921325684,1.6479490995407104,-2.044677495956421,80.0,1423911.0,1.0
1168275.3402057,302352.875,322210.15625,333830.375,313923.125,303225.21875,307126.21875,289853.3125,327432.0625,-0.111083984375,0.935302734375,-0.322265625,-12.756346702575684,1.6784666776657104,-1.8310545682907104,80.0,1423912.0,1.0
1168275.3426826,301836.53125,322965.28125,333495.28125,313314.15625,303498.96875,307611.0625,290672.03125,328215.1875,-0.109619140625,0.930419921875,-0.31982421875,-13.000487327575684,1.7395018339157104,-1.8310545682907104,80.0,1423913.0,1.0
1168275.3451364,302487.0625,322458.71875,333661.84375,313737.40625,303372.375,307222.78125,290163.9375,327867.84375,-0.108642578125,0.92724609375,-0.315673828125,-13.092040061950684,1.7395018339157104,-1.8310545682907104,80.0,1423914.0,1.0
1168275.3477017,303380.59375,321386.53125,334120.96875,314632.375,303043.09375,306497.25,289020.84375,326880.40625,-0.107177734375,0.92724609375,-0.31494140625,-13.153075218200684,1.6784666776657104,-1.7089842557907104,80.0,1423915.0,1.0
1168275.3502024,303258.75,321142.8125,334153.0625,314608.96875,302872.6875,306378.6875,288708.375,326507.15625,-0.109619140625,0.927490234375,-0.311767578125,-13.122557640075684,1.7089842557907104,-1.5563963651657104,80.0,1423916.0,1.0
1168275.3526381,302382.8125,322172.53125,333826.53125,313871.34375,303147.15625,307102.53125,289716.25,327314.9375,-0.10986328125,0.926025390625,-0.313232421875,-13.214110374450684,1.7089842557907104,-1.4953612089157104,80.0,1423917.0,1.0
1168275.3557702,301913.4375,323005.34375,333531.21875,313349.03125,303454.28125,307654.875,290584.3125,328138.09375,-0.10888671875,0.925048828125,-0.31005859375,-13.214110374450684,1.6784666776657104,-1.2817381620407104,80.0,1423918.0,1.0
1168275.3558264,302535.53125,322515.84375,333724.4375,313809.03125,303380.0625,307289.46875,290135.65625,327860.3125,-0.11083984375,0.9248046875,-0.30810546875,-13.244627952575684,1.6479490995407104,-1.0986326932907104,80.0,1423919.0,1.0
1168275.3575966,303479.46875,321491.875,334228.34375,314759.4375,303090.90625,306585.84375,289029.78125,326914.3125,-0.11572265625,0.92333984375,-0.304443359375,-13.214110374450684,1.5563963651657104,-0.8544921278953552,80.0,1423920.0,1.0
1168275.3602036,303425.21875,321293.46875,334322.3125,314839.0,302963.6875,306500.71875,288762.125,326590.75,-0.115234375,0.91845703125,-0.303466796875,-13.336180686950684,1.4953612089157104,-0.7324218153953552,80.0,1423921.0,1.0
1168275.3664307,302493.875,322293.5625,333993.28125,314081.0,303266.78125,307216.15625,289788.875,327432.34375,-0.11474609375,0.91796875,-0.30126953125,-13.275145530700684,1.3732908964157104,-0.6408690810203552,80.0,1423922.0,1.0
1168275.38516,301902.53125,323053.09375,333598.625,313354.3125,303509.71875,307701.5625,290602.03125,328201.9375,-0.11376953125,0.91845703125,-0.30126953125,-13.061522483825684,1.4038084745407104,-0.7324218153953552,80.0,1423923.0,1.0
1168275.3852146,302508.15625,322576.1875,333779.59375,313778.53125,303449.625,307345.25,290180.5625,327950.96875,-0.11328125,0.921875,-0.30322265625,-13.000487327575684,1.4343260526657104,-0.7019042372703552,80.0,1423924.0,1.0
1168275.3852315,303509.71875,321557.21875,334311.5625,314762.375,303181.75,306650.125,289099.96875,327032.15625,-0.113525390625,0.928955078125,-0.299072265625,-12.817381858825684,1.3122557401657104,-0.6408690810203552,80.0,1423925.0,1.0
1168275.3877061,303461.78125,321370.1875,334415.46875,314884.25,303056.9375,306555.34375,288818.0,326699.0,-0.114501953125,0.93310546875,-0.29541015625,-13.000487327575684,1.2207030057907104,-0.6408690810203552,80.0,1423926.0,1.0
1168275.391385,302566.90625,322371.96875,334087.4375,314144.5,303362.625,307275.53125,289838.75,327539.09375,-0.1162109375,0.936767578125,-0.291015625,-13.092040061950684,1.0681151151657104,-0.5798339247703552,80.0,1423927.0,1.0
1168275.3914341,301986.65625,323170.125,333700.125,313463.46875,303617.71875,307797.3125,290685.625,328335.34375,-0.11767578125,0.9404296875,-0.29443359375,-13.305663108825684,0.9155272841453552,-0.3662109076976776,80.0,1423928.0,1.0
1168275.3914477,302567.34375,322736.9375,333911.28125,313913.90625,303605.625,307470.625,290335.59375,328155.09375,-0.1171875,0.94482421875,-0.29296875,-13.793944358825684,0.8850097060203552,-0.3356933295726776,80.0,1423929.0,1.0
1168275.3939437,303574.78125,321739.78125,334479.84375,314920.1875,303392.3125,306783.96875,289320.625,327311.4375,-0.118408203125,0.94384765625,-0.293212890625,-14.099120140075684,0.7629393935203552,-0.1220703050494194,80.0,1423930.0,1.0
1168275.3976765,303568.34375,321565.25,334623.34375,315080.75,303308.28125,306717.1875,289080.125,327030.0,-0.119384765625,0.94384765625,-0.29345703125,-14.495848655700684,0.6103515028953552,-0.1525878757238388,80.0,1423931.0,1.0
1168275.4089316,302645.0625,322571.28125,334286.71875,314291.28125,303622.09375,307443.78125,290112.34375,327891.6875,-0.11669921875,0.9462890625,-0.29736328125,-14.770506858825684,0.4882812201976776,-0.1220703050494194,80.0,1423932.0,1.0
1168275.4157777,302085.28125,323379.59375,333907.53125,313642.46875,303899.59375,307973.0,290987.4375,328727.9375,-0.11767578125,0.951171875,-0.2978515625,-15.075682640075684,0.4882812201976776,-0.2441406100988388,80.0,1423933.0,1.0
1168275.415828,302643.09375,322956.53125,334097.625,314038.8125,303882.1875,307637.90625,290639.03125,328551.34375,-0.114990234375,0.95556640625,-0.294189453125,-15.502928733825684,0.2746581733226776,-0.3356933295726776,80.0,1423934.0,1.0
1168275.424526,303631.84375,321944.4375,334673.9375,315033.625,303689.40625,306946.59375,289630.625,327723.09375,-0.1142578125,0.960205078125,-0.2978515625,-15.930174827575684,0.1525878757238388,-0.3356933295726776,80.0,1423935.0,1.0
1168275.4245767,303630.5,321736.125,334815.28125,315209.59375,303605.625,306854.875,289360.0625,327423.03125,-0.113525390625,0.96435546875,-0.297607421875,-16.571043014526367,0.1220703050494194,-0.2441406100988388,80.0,1423936.0,1.0
1168275.4307318,302712.09375,322702.53125,334451.75,314428.8125,303884.75,307553.21875,290334.875,328230.375,-0.11279296875,0.968505859375,-0.29931640625,-17.181394577026367,0.0610351525247097,-0.2136230319738388,80.0,1423937.0,1.0
1168275.4307911,302113.625,323483.59375,334023.5,313716.03125,304127.78125,308070.71875,291166.34375,329021.1875,-0.1162109375,0.9677734375,-0.30126953125,-17.944334030151367,-0.0610351525247097,-0.1525878757238388,80.0,1423938.0,1.0
1168275.4420754,302723.71875,323094.75,334225.46875,314139.46875,304110.53125,307762.15625,290818.75,328838.875,-0.119140625,0.9677734375,-0.30419921875,-18.585203170776367,-0.2441406100988388,-0.1220703050494194,80.0,1423939.0,1.0
1168275.442126,303709.09375,322069.96875,334804.46875,315163.28125,303906.75,307052.28125,289785.8125,327987.8125,-0.12060546875,0.9677734375,-0.3056640625,-19.256589889526367,-0.3967284858226776,-0.1525878757238388,80.0,1423940.0,1.0
1168275.4445288,303712.21875,321824.90625,334928.21875,315309.46875,303794.1875,306932.46875,289465.125,327633.9375,-0.12451171875,0.967041015625,-0.30224609375,-19.805906295776367,-0.5493163466453552,-0.1831054538488388,80.0,1423941.0,1.0
1168275.4445783,302796.6875,322757.5,334529.46875,314508.0,304026.46875,307607.59375,290384.75,328375.9375,-0.12451171875,0.964599609375,-0.305419921875,-20.324705123901367,-0.6713866591453552,-0.3051757514476776,80.0,1423942.0,1.0
1168275.4582733,302171.625,323521.9375,334062.5625,313740.1875,304234.34375,308113.625,291187.71875,329129.1875,-0.1240234375,0.9599609375,-0.30517578125,-20.904539108276367,-0.8850097060203552,-0.4882812201976776,80.0,1423943.0,1.0
1168275.4583904,302761.09375,323106.5625,334247.375,314194.5625,304202.34375,307793.90625,290827.84375,328934.1875,-0.12548828125,0.9521484375,-0.3017578125,-21.453855514526367,-0.9765624403953552,-0.5798339247703552,80.0,1423944.0,1.0
1168275.4613646,303729.375,322094.28125,334816.375,315154.6875,303979.1875,307085.8125,289774.28125,328051.28125,-0.12548828125,0.944580078125,-0.30078125,-21.820066452026367,-1.2207030057907104,-0.6408690810203552,80.0,1423945.0,1.0
1168275.4614262,303765.59375,321831.0625,334957.96875,315322.875,303860.625,306962.15625,289435.78125,327676.9375,-0.124755859375,0.935546875,-0.297119140625,-22.186277389526367,-1.3732908964157104,-0.8544921278953552,80.0,1423946.0,1.0
1168275.4614447,302855.25,322729.875,334547.59375,314568.375,304059.65625,307622.96875,290318.78125,328378.0,-0.129150390625,0.925537109375,-0.297119140625,-22.308347702026367,-1.7089842557907104,-1.1291502714157104,80.0,1423947.0,1.0
1168275.4639085,302187.65625,323489.40625,334052.8125,313764.5,304244.09375,308125.34375,291111.625,329112.71875,-0.131103515625,0.91845703125,-0.2958984375,-22.247312545776367,-2.075195074081421,-1.4953612089157104,80.0,1423948.0,1.0
1168275.4825547,302792.03125,323113.875,334223.6875,314148.15625,304190.1875,307818.125,290756.34375,328903.0625,-0.1279296875,0.91064453125,-0.293701171875,-22.033689498901367,-2.258300542831421,-1.9226073026657104,80.0,1423949.0,1.0
1168275.4901627,303803.5,322118.0625,334826.375,315178.46875,303975.59375,307109.125,289710.1875,328024.03125,-0.12744140625,0.90771484375,-0.2939453125,-21.697996139526367,-2.441406011581421,-2.441406011581421,80.0,1423950.0,1.0
1168275.4902125,303835.9375,321846.09375,334966.125,315356.65625,303836.65625,306968.3125,289332.53125,327611.15625,-0.12548828125,0.91015625,-0.291748046875,-21.423337936401367,-2.624511480331421,-3.051757574081421,80.0,1423951.0,1.0
1168275.4902266,302883.125,322703.78125,334512.28125,314516.6875,303997.40625,307608.9375,290165.09375,328259.625,-0.12158203125,0.90966796875,-0.2890625,-21.209714889526367,-2.746581792831421,-3.387450933456421,80.0,1423952.0,1.0
1168275.4926806,302232.25,323447.375,333985.3125,313706.46875,304143.15625,308111.3125,290925.5,328952.15625,-0.118896484375,0.90771484375,-0.28515625,-21.301267623901367,-2.807616949081421,-3.479003667831421,80.0,1423953.0,1.0
1168275.4952002,302815.625,323081.875,334144.03125,314096.90625,304071.28125,307811.0625,290561.59375,328723.625,-0.117431640625,0.90185546875,-0.28271484375,-21.148679733276367,-2.838134527206421,-3.662109136581421,80.0,1423954.0,1.0
1168275.4977031,303873.21875,322124.5,334795.4375,315198.3125,303888.34375,307138.375,289551.03125,327876.25,-0.115966796875,0.896240234375,-0.28125,-20.782468795776367,-2.868652105331421,-4.028319835662842,80.0,1423955.0,1.0
1168275.5001001,303883.96875,321824.625,334937.25,315384.46875,303739.9375,306976.90625,289163.46875,327455.125,-0.1162109375,0.89208984375,-0.28125,-20.446775436401367,-2.838134527206421,-4.272460460662842,80.0,1423956.0,1.0
1168275.5038364,302952.25,322684.625,334483.5,314524.28125,303893.875,307625.375,290002.625,328109.21875,-0.115478515625,0.88671875,-0.279541015625,-19.836423873901367,-2.807616949081421,-4.638671398162842,80.0,1423957.0,1.0
1168275.5156555,302283.40625,323437.28125,333949.03125,313709.59375,304026.28125,308137.6875,290775.46875,328811.0,-0.11376953125,0.88330078125,-0.276611328125,-19.256589889526367,-2.746581792831421,-5.004882335662842,80.0,1423958.0,1.0
1168275.5156919,302830.46875,323076.25,334113.09375,314092.625,303969.6875,307844.4375,290450.375,328620.5625,-0.11181640625,0.8837890625,-0.276123046875,-18.585203170776367,-2.655029058456421,-5.187987804412842,80.0,1423959.0,1.0
1168275.5181487,303890.5,322141.21875,334789.53125,315182.0625,303814.125,307170.21875,289474.875,327807.9375,-0.1083984375,0.882568359375,-0.27197265625,-18.005369186401367,-2.441406011581421,-5.340575695037842,80.0,1423960.0,1.0
1168275.5181839,303979.09375,321882.75,334992.75,315431.0625,303715.78125,307037.96875,289125.0,327425.28125,-0.1044921875,0.879638671875,-0.273193359375,-17.517087936401367,-2.349853277206421,-5.340575695037842,80.0,1423961.0,1.0
1168275.520022,303023.78125,322725.21875,334538.03125,314594.65625,303870.71875,307673.375,289948.4375,328068.5625,-0.1044921875,0.873291015625,-0.275146484375,-17.059324264526367,-1.9836424589157104,-5.279540538787842,80.0,1423962.0,1.0
1168275.5288127,302324.6875,323461.21875,333978.71875,313756.625,303996.96875,308179.34375,290714.3125,328765.125,-0.1044921875,0.86865234375,-0.27392578125,-16.510007858276367,-1.7700194120407104,-5.310058116912842,80.0,1423963.0,1.0
1168275.5331844,302888.15625,323115.59375,334133.5625,314117.46875,303932.6875,307892.25,290389.0625,328571.5625,-0.104248046875,0.865234375,-0.27099609375,-15.747069358825684,-1.5869139432907104,-5.432128429412842,80.0,1423964.0,1.0
1168275.5332183,303961.125,322207.46875,334844.96875,315243.9375,303803.59375,307232.625,289434.09375,327782.90625,-0.1064453125,0.860107421875,-0.271240234375,-14.984129905700684,-1.2817381620407104,-5.462646007537842,80.0,1423965.0,1.0
1168275.5362941,304052.3125,321934.78125,335062.59375,315495.25,303709.78125,307075.96875,289068.875,327396.3125,-0.107177734375,0.858642578125,-0.2724609375,-14.038084983825684,-0.9765624403953552,-5.371093273162842,80.0,1423966.0,1.0
1168275.5450842,303116.03125,322768.3125,334605.4375,314663.5,303855.53125,307710.21875,289872.375,328022.25,-0.104248046875,0.859619140625,-0.272705078125,-13.275145530700684,-0.7324218153953552,-5.493163585662842,80.0,1423967.0,1.0
1168275.549345,302408.75,323503.6875,334024.125,313815.125,303965.84375,308226.375,290630.09375,328704.78125,-0.102294921875,0.8583984375,-0.270263671875,-12.420653343200684,-0.4882812201976776,-5.371093273162842,80.0,1423968.0,1.0
1168275.5493654,302981.5625,323211.875,334207.15625,314206.90625,303942.0625,307978.625,290360.8125,328562.875,-0.1015625,0.8583984375,-0.2734375,-11.688231468200684,-0.2136230319738388,-5.157470226287842,80.0,1423969.0,1.0
1168275.5600546,304068.21875,322326.5625,334946.90625,315343.0625,303842.03125,307326.125,289443.9375,327810.625,-0.10107421875,0.85986328125,-0.275146484375,-10.833739280700684,0.1831054538488388,-5.126952648162842,80.0,1423970.0,1.0
1168275.563124,304170.59375,322037.96875,335182.125,315627.5625,303770.59375,307171.0,289087.71875,327438.21875,-0.1015625,0.858154296875,-0.274169921875,-10.009764671325684,0.4577636420726776,-5.004882335662842,80.0,1423971.0,1.0
1168275.5631438,303230.3125,322835.90625,334702.625,314786.34375,303901.5625,307785.15625,289861.375,328039.40625,-0.1025390625,0.857666015625,-0.272705078125,-9.277342796325684,0.7629393935203552,-4.852294445037842,80.0,1423972.0,1.0
1168275.5688005,302487.15625,323561.8125,334074.5625,313860.625,303970.59375,308284.65625,290579.9375,328678.3125,-0.102783203125,0.8583984375,-0.276123046875,-8.544920921325684,1.0681151151657104,-4.669188976287842,80.0,1423973.0,1.0
1168275.5719166,303039.6875,323275.34375,334233.96875,314213.0625,303928.21875,308032.90625,290303.3125,328522.28125,-0.102783203125,0.862548828125,-0.276611328125,-7.812499523162842,1.2817381620407104,-4.516601085662842,80.0,1423974.0,1.0
1168275.5719367,304131.4375,322394.875,334993.9375,315392.15625,303853.84375,307394.53125,289404.0625,327791.375,-0.100830078125,0.866455078125,-0.27734375,-7.019042491912842,1.6479490995407104,-4.333495616912842,80.0,1423975.0,1.0
1168275.5823802,304235.96875,322087.9375,335227.71875,315694.1875,303767.90625,307219.28125,289015.125,327388.78125,-0.102783203125,0.8720703125,-0.2802734375,-6.347655773162842,1.8920897245407104,-4.150390148162842,80.0,1423976.0,1.0
1168275.589377,303299.96875,322866.75,334723.75,314817.09375,303863.5,307811.4375,289737.71875,327936.59375,-0.104248046875,0.87841796875,-0.28173828125,-5.767821788787842,2.197265386581421,-3.814697027206421,80.0,1423977.0,1.0
1168275.5893981,302556.34375,323570.03125,334070.625,313878.9375,303911.59375,308301.46875,290433.65625,328548.75,-0.103271484375,0.886474609375,-0.28271484375,-5.218505382537842,2.380370855331421,-3.570556402206421,80.0,1423978.0,1.0
1168275.5913154,303057.84375,323278.5625,334209.375,314229.59375,303863.9375,308055.6875,290160.34375,328389.96875,-0.101806640625,0.889404296875,-0.283447265625,-4.882812023162842,2.563476324081421,-3.234863042831421,80.0,1423979.0,1.0
1168275.5937779,304189.1875,322427.0625,334993.03125,315429.25,303800.8125,307430.75,289284.6875,327668.1875,-0.101806640625,0.89208984375,-0.284912109375,-4.638671398162842,2.716064214706421,-2.807616949081421,80.0,1423980.0,1.0
1168275.5975262,304355.125,322133.625,335258.9375,315776.6875,303722.59375,307259.4375,288900.25,327268.8125,-0.101806640625,0.892822265625,-0.28759765625,-4.455565929412842,3.021239995956421,-2.471923589706421,80.0,1423981.0,1.0
1168275.6112836,303355.5625,322862.8125,334731.15625,314870.46875,303804.3125,307818.75,289590.03125,327793.34375,-0.10400390625,0.89404296875,-0.289306640625,-4.272460460662842,3.173827886581421,-2.075195074081421,80.0,1423982.0,1.0
1168275.6144597,302525.59375,323522.46875,334015.1875,313843.90625,303813.5,308282.78125,290251.53125,328370.03125,-0.102783203125,0.8974609375,-0.292236328125,-3.906249761581421,3.265380620956421,-1.7089842557907104,80.0,1423983.0,1.0
1168275.6144926,303088.40625,323272.03125,334156.375,314178.46875,303758.15625,308057.75,289996.71875,328218.5,-0.10205078125,0.90380859375,-0.2890625,-3.540038824081421,3.448486089706421,-1.4953612089157104,80.0,1423984.0,1.0
1168275.6163851,304216.03125,322457.53125,334962.625,315399.75,303708.625,307447.0,289155.0625,327527.09375,-0.103759765625,0.91064453125,-0.289794921875,-3.417968511581421,3.784179449081421,-1.1901854276657104,80.0,1423985.0,1.0
1168275.6188935,304363.625,322155.0,335253.125,315752.28125,303659.5625,307273.28125,288796.4375,327159.8125,-0.106689453125,0.912841796875,-0.290283203125,-3.204345464706421,3.906249761581421,-0.9765624403953552,80.0,1423986.0,1.0
1168275.6276431,303399.8125,322873.125,334729.375,314867.0625,303734.03125,307832.625,289476.125,327673.375,-0.107177734375,0.915283203125,-0.2890625,-3.173827886581421,3.967284917831421,-0.6713866591453552,80.0,1423987.0,1.0
1168275.6320609,302664.625,323591.5,334049.78125,313910.25,303754.6875,308335.28125,290155.875,328260.96875,-0.10888671875,0.919677734375,-0.290283203125,-3.143310308456421,4.058837413787842,-0.3356933295726776,80.0,1423988.0,1.0
1168275.632094,303172.71875,323356.625,334204.28125,314256.875,303730.375,308138.40625,289941.75,328150.34375,-0.10888671875,0.924560546875,-0.289794921875,-2.990722417831421,3.997802495956421,0.0610351525247097,80.0,1423989.0,1.0
1168275.6382503,304278.6875,322536.9375,335031.5625,315481.5625,303716.5,307534.625,289141.65625,327507.0625,-0.1083984375,0.929443359375,-0.28955078125,-3.021239995956421,4.089354991912842,0.3051757514476776,80.0,1423990.0,1.0
1168275.6382852,304437.9375,322235.09375,335329.46875,315832.03125,303668.3125,307350.71875,288780.09375,327136.84375,-0.11083984375,0.932861328125,-0.288818359375,-2.960204839706421,3.967284917831421,0.4577636420726776,80.0,1423991.0,1.0
1168275.6401414,303504.59375,322948.125,334801.34375,314957.28125,303725.875,307902.09375,289437.75,327626.6875,-0.110107421875,0.93798828125,-0.28857421875,-2.960204839706421,3.997802495956421,0.8544921278953552,80.0,1423992.0,1.0
1168275.6488916,302734.1875,323657.9375,334101.90625,313977.90625,303748.96875,308401.15625,290115.90625,328216.6875,-0.111083984375,0.939208984375,-0.2880859375,-2.990722417831421,3.997802495956421,1.1291502714157104,80.0,1423993.0,1.0
1168275.6531856,303262.9375,323447.46875,334254.15625,314318.03125,303727.3125,308212.15625,289922.0625,328120.3125,-0.109619140625,0.9404296875,-0.28515625,-3.082275152206421,3.845214605331421,1.3122557401657104,80.0,1423994.0,1.0
1168275.6532141,304370.4375,322634.3125,335085.75,315554.15625,303709.96875,307601.40625,289135.03125,327489.09375,-0.109619140625,0.938232421875,-0.287109375,-3.204345464706421,3.723144292831421,1.7700194120407104,80.0,1423995.0,1.0
1168275.6588915,304537.25,322349.8125,335415.5625,315941.125,303697.71875,307432.0,288797.34375,327151.6875,-0.106689453125,0.93408203125,-0.29052734375,-3.204345464706421,3.692626714706421,2.105712652206421,80.0,1423996.0,1.0
1168275.6625714,303568.875,323010.71875,334867.875,315034.8125,303763.1875,307955.5625,289437.65625,327637.78125,-0.10400390625,0.930908203125,-0.28955078125,-3.265380620956421,3.662109136581421,2.410888433456421,80.0,1423997.0,1.0
1168275.6713902,302775.75,323695.65625,334136.875,314001.6875,303765.75,308442.5625,290100.90625,328211.25,-0.099609375,0.92626953125,-0.2900390625,-2.929687261581421,3.753661870956421,2.655029058456421,80.0,1423998.0,1.0
1168275.6743886,303256.3125,323488.5,334274.90625,314321.25,303743.0625,308259.4375,289928.34375,328134.34375,-0.09814453125,0.92431640625,-0.286865234375,-2.532958745956421,3.784179449081421,2.929687261581421,80.0,1423999.0,1.0
1168275.6744238,304392.59375,322707.15625,335150.84375,315601.625,303776.5,307680.1875,289201.09375,327565.90625,-0.096923828125,0.931396484375,-0.289306640625,-2.166747808456421,3.906249761581421,3.082275152206421,80.0,1424000.0,1.0
1168275.6826253,304587.78125,322408.625,335495.6875,315998.34375,303764.4375,307493.6875,288857.96875,327228.75,-0.09521484375,0.938232421875,-0.29052734375,-1.8005369901657104,4.028319835662842,3.356933355331421,80.0,1424001.0,1.0
1168275.6920167,303650.0625,323097.96875,334975.25,315113.84375,303837.03125,308024.5625,289493.46875,327715.125,-0.092529296875,0.94482421875,-0.291015625,-1.6479490995407104,3.997802495956421,3.723144292831421,80.0,1424002.0,1.0
1168275.6920485,302839.78125,323780.9375,334233.875,314081.90625,303839.53125,308509.625,290148.53125,328287.0625,-0.08935546875,0.945556640625,-0.292724609375,-1.5869139432907104,4.058837413787842,4.150390148162842,80.0,1424003.0,1.0
1168275.6938732,303312.84375,323574.5,334353.9375,314377.21875,303810.8125,308324.71875,289977.5,328205.96875,-0.086669921875,0.941162109375,-0.29638671875,-1.5869139432907104,4.241942882537842,4.760741710662842,80.0,1424004.0,1.0
1168275.696338,304437.75,322804.53125,335241.5,315667.8125,303861.59375,307750.28125,289276.5625,327660.40625,-0.08203125,0.935546875,-0.297607421875,-1.3732908964157104,4.425048351287842,5.279540538787842,80.0,1424005.0,1.0
1168275.7001429,304664.84375,322500.1875,335610.75,316094.0,303870.71875,307565.75,288948.96875,327342.28125,-0.077880859375,0.934326171875,-0.29638671875,-1.0986326932907104,4.669188976287842,5.645751476287842,80.0,1424006.0,1.0
1168275.7120614,303711.75,323167.53125,335076.34375,315201.53125,303926.4375,308076.6875,289557.5625,327801.84375,-0.078125,0.933349609375,-0.296875,-0.7324218153953552,4.913329601287842,6.011962413787842,80.0,1424007.0,1.0
1168275.7120948,302859.53125,323830.65625,334307.28125,314141.34375,303914.4375,308551.8125,290198.4375,328357.78125,-0.080322265625,0.93408203125,-0.2978515625,-0.2136230319738388,5.249022960662842,6.408690929412842,80.0,1424008.0,1.0
1168275.7144588,303330.0,323633.25,334415.625,314421.1875,303891.5625,308378.375,290045.625,328298.0625,-0.081787109375,0.937744140625,-0.296875,0.1525878757238388,5.432128429412842,6.683349132537842,80.0,1424009.0,1.0
1168275.7144928,304478.6875,322875.53125,335313.1875,315714.28125,303956.46875,307817.25,289371.25,327780.21875,-0.08154296875,0.9404296875,-0.296630859375,0.3662109076976776,5.615233898162842,6.896972179412842,80.0,1424010.0,1.0
1168275.7163924,304708.84375,322569.9375,335700.6875,316170.90625,303979.09375,307629.21875,289048.40625,327470.40625,-0.08349609375,0.940673828125,-0.2939453125,0.4882812201976776,5.615233898162842,7.232665538787842,80.0,1424011.0,1.0
1168275.7251421,303775.0625,323224.21875,335164.96875,315283.25,304031.21875,308123.8125,289641.25,327915.5625,-0.08349609375,0.937744140625,-0.2958984375,0.6103515028953552,5.584716320037842,7.598876476287842,80.0,1424012.0,1.0
1168275.727641,302931.40625,323917.125,334411.96875,314239.71875,304042.9375,308618.15625,290306.625,328492.0625,-0.084228515625,0.93359375,-0.29296875,0.8239745497703552,5.676269054412842,7.873534679412842,80.0,1424013.0,1.0
1168275.7313719,303390.6875,323734.0,334524.375,314522.40625,304039.34375,308460.25,290184.5625,328459.4375,-0.086669921875,0.927490234375,-0.29345703125,1.2817381620407104,5.737304210662842,8.117674827575684,80.0,1424014.0,1.0
1168275.7407133,304530.65625,322975.3125,335423.96875,315820.875,304108.375,307898.0625,289525.75,327958.125,-0.086181640625,0.92333984375,-0.29296875,1.7089842557907104,5.706786632537842,8.270262718200684,80.0,1424015.0,1.0
1168275.7407461,304766.40625,322661.21875,335820.3125,316287.40625,304138.6875,307708.0625,289208.0625,327660.75,-0.08642578125,0.92529296875,-0.292724609375,2.014159917831421,5.615233898162842,8.361815452575684,80.0,1424016.0,1.0
1168275.7426223,303838.8125,323312.0,335301.21875,315412.1875,304211.1875,308208.65625,289806.375,328119.0625,-0.08544921875,0.92529296875,-0.292724609375,2.532958745956421,5.737304210662842,8.514403343200684,80.0,1424017.0,1.0
1168275.7538922,302981.3125,323990.78125,334516.40625,314330.1875,304193.9375,308681.4375,290439.84375,328664.625,-0.085693359375,0.931884765625,-0.292724609375,2.929687261581421,5.645751476287842,8.483885765075684,80.0,1424018.0,1.0
1168275.7693252,303419.5,323822.53125,334613.3125,314588.5625,304187.0625,308531.6875,290325.5625,328638.53125,-0.082275390625,0.933837890625,-0.295654296875,3.326415777206421,5.584716320037842,8.636473655700684,80.0,1424019.0,1.0
1168275.7693545,304563.1875,323065.5,335516.34375,315881.40625,304262.40625,307977.625,289683.375,328157.5,-0.08154296875,0.936279296875,-0.295654296875,3.448486089706421,5.462646007537842,8.636473655700684,80.0,1424020.0,1.0
1168275.7693604,304812.4375,322733.1875,335924.65625,316366.6875,304288.15625,307771.8125,289355.9375,327854.34375,-0.082763671875,0.93505859375,-0.293212890625,3.387450933456421,5.462646007537842,8.850096702575684,80.0,1424021.0,1.0
1168275.7693667,303876.375,323356.53125,335388.3125,315484.0625,304328.84375,308243.4375,289913.6875,328270.59375,-0.080810546875,0.930419921875,-0.29443359375,3.479003667831421,5.279540538787842,9.124754905700684,80.0,1424022.0,1.0
1168275.7713452,303019.65625,324062.84375,334615.46875,314406.625,304331.875,308735.09375,290558.75,328831.0,-0.078369140625,0.926513671875,-0.293701171875,3.692626714706421,5.340575695037842,9.216307640075684,80.0,1424023.0,1.0
1168275.7738913,303441.21875,323897.1875,334695.84375,314650.09375,304325.71875,308588.5625,290443.84375,328807.6875,-0.078125,0.924072265625,-0.292724609375,4.058837413787842,5.218505382537842,9.338377952575684,80.0,1424024.0,1.0
1168275.7763892,304591.34375,323137.125,335588.75,315943.34375,304395.375,308033.0625,289795.46875,328318.8125,-0.073486328125,0.921630859375,-0.29248046875,4.364013195037842,5.249022960662842,9.338377952575684,80.0,1424025.0,1.0
1168275.7800999,304851.625,322788.34375,335994.3125,316429.09375,304413.59375,307821.625,289451.4375,327999.34375,-0.072998046875,0.919189453125,-0.29296875,4.699706554412842,5.187987804412842,9.429930686950684,80.0,1424026.0,1.0
1168275.7863325,303934.03125,323415.375,335482.4375,315573.03125,304470.5625,308301.46875,290012.65625,328420.1875,-0.07177734375,0.917724609375,-0.290283203125,4.913329601287842,5.157470226287842,9.429930686950684,80.0,1424027.0,1.0
1168275.7906308,303091.53125,324137.25,334710.3125,314495.6875,304468.6875,308792.59375,290658.625,328970.84375,-0.069091796875,0.9189453125,-0.29296875,5.157470226287842,5.096435070037842,9.399413108825684,80.0,1424028.0,1.0
1168275.7906673,303489.40625,323984.09375,334777.125,314717.59375,304454.1875,308655.625,290557.40625,328951.34375,-0.066162109375,0.91748046875,-0.2919921875,5.340575695037842,5.187987804412842,9.368895530700684,80.0,1424029.0,1.0
1168275.800142,304614.3125,323211.59375,335664.84375,316004.0625,304528.3125,308104.15625,289921.28125,328476.59375,-0.06689453125,0.918212890625,-0.292724609375,5.645751476287842,5.187987804412842,9.368895530700684,80.0,1424030.0,1.0
1168275.8031614,304894.34375,322849.5,336075.3125,316507.0625,304547.1875,307881.625,289570.625,328148.75,-0.068115234375,0.919921875,-0.28955078125,5.828856945037842,5.218505382537842,9.399413108825684,80.0,1424031.0,1.0
1168275.8031893,304002.875,323484.84375,335571.9375,315666.8125,304607.53125,308359.40625,290122.09375,328559.21875,-0.064208984375,0.916748046875,-0.289794921875,5.920409679412842,5.187987804412842,9.582518577575684,80.0,1424032.0,1.0
1168275.8113555,303145.90625,324216.71875,334801.53125,314581.96875,304615.3125,308858.9375,290770.375,329113.8125,-0.06396484375,0.918212890625,-0.290771484375,5.920409679412842,5.249022960662842,9.613036155700684,80.0,1424033.0,1.0
1168275.81446,303539.65625,324067.9375,334859.375,314788.3125,304602.34375,308724.53125,290672.90625,329096.71875,-0.06298828125,0.91796875,-0.294189453125,6.072997570037842,5.401610851287842,9.643553733825684,80.0,1424034.0,1.0
1168275.8144963,304664.125,323289.03125,335734.3125,316064.9375,304663.3125,308172.90625,290035.71875,328618.3125,-0.0615234375,0.914794921875,-0.2939453125,6.164550304412842,5.401610851287842,9.674071311950684,80.0,1424035.0,1.0
1168275.8163884,304941.09375,322908.96875,336149.5,316570.71875,304673.875,307944.28125,289676.125,328285.71875,-0.0625,0.916259765625,-0.294189453125,6.256103038787842,5.493163585662842,9.521483421325684,80.0,1424036.0,1.0
1168275.8251416,304050.78125,323534.625,335655.96875,315741.03125,304728.59375,308407.875,290214.875,328682.875,-0.0615234375,0.917724609375,-0.2958984375,6.286620616912842,5.584716320037842,9.429930686950684,80.0,1424037.0,1.0
1168275.8294592,303192.75,324275.28125,334891.375,314664.125,304741.03125,308911.9375,290868.28125,329241.03125,-0.063232421875,0.921142578125,-0.29638671875,6.286620616912842,5.493163585662842,9.429930686950684,80.0,1424038.0,1.0
1168275.8294917,303546.0,324118.0,334918.09375,314827.90625,304713.3125,308773.09375,290763.84375,329219.5,-0.061279296875,0.923095703125,-0.296875,6.164550304412842,5.554198741912842,9.429930686950684,80.0,1424039.0,1.0
1168275.8376482,304659.46875,323328.1875,335772.03125,316083.53125,304755.59375,308206.34375,290113.40625,328728.1875,-0.062255859375,0.92041015625,-0.300537109375,6.072997570037842,5.523681163787842,9.338377952575684,80.0,1424040.0,1.0
1168275.8401431,304948.71875,322925.3125,336175.34375,316593.53125,304747.8125,307954.5625,289728.78125,328370.375,-0.0625,0.921142578125,-0.294677734375,5.981444835662842,5.554198741912842,9.185790061950684,80.0,1424041.0,1.0
1168275.8426398,304062.0625,323537.125,335680.65625,315765.6875,304797.0625,308409.125,290247.0625,328748.65625,-0.06201171875,0.9208984375,-0.297607421875,5.737304210662842,5.401610851287842,9.155272483825684,80.0,1424042.0,1.0
1168275.8570103,303204.03125,324292.90625,334919.8125,314684.15625,304814.15625,308919.375,290902.4375,329307.90625,-0.063720703125,0.92138671875,-0.30126953125,5.493163585662842,5.432128429412842,9.094237327575684,80.0,1424043.0,1.0
1168275.8570429,303552.8125,324154.5,334945.28125,314839.8125,304788.9375,308795.09375,290813.09375,329295.9375,-0.06591796875,0.923095703125,-0.29931640625,5.462646007537842,5.371093273162842,8.850096702575684,80.0,1424044.0,1.0
1168275.8588135,304662.15625,323361.09375,335792.25,316092.03125,304831.6875,308236.375,290173.3125,328810.09375,-0.065185546875,0.924072265625,-0.29736328125,5.401610851287842,5.432128429412842,8.758543968200684,80.0,1424045.0,1.0
1168275.8632436,304982.25,322966.4375,336222.65625,316633.3125,304834.34375,307995.0625,289799.6875,328462.3125,-0.066162109375,0.925537109375,-0.297119140625,5.340575695037842,5.310058116912842,8.636473655700684,80.0,1424046.0,1.0
1168275.8632759,304123.03125,323593.375,335759.15625,315839.65625,304897.5625,308456.21875,290327.8125,328849.78125,-0.0673828125,0.9296875,-0.30078125,5.065917491912842,5.157470226287842,8.392333030700684,80.0,1424047.0,1.0
1168275.8694055,303236.5625,324336.875,334977.375,314733.6875,304899.28125,308947.0,290974.3125,329392.9375,-0.06884765625,0.930419921875,-0.300537109375,4.821776866912842,4.943847179412842,8.300780296325684,80.0,1424048.0,1.0
1168275.8694352,303559.6875,324196.96875,334980.5,314868.25,304871.28125,308823.25,290894.1875,329384.1875,-0.0673828125,0.929931640625,-0.298095703125,4.455565929412842,4.760741710662842,8.209227561950684,80.0,1424049.0,1.0
1168275.8713901,304680.5625,323414.28125,335838.8125,316129.15625,304926.90625,308280.1875,290274.15625,328919.0625,-0.066650390625,0.93212890625,-0.30126953125,4.150390148162842,4.547118663787842,8.178709983825684,80.0,1424050.0,1.0
1168275.8801443,304996.90625,322989.34375,336263.15625,316667.375,304916.34375,308018.84375,289880.9375,328554.21875,-0.0673828125,0.93310546875,-0.300048828125,3.875732183456421,4.333495616912842,7.995604991912842,80.0,1424051.0,1.0
1168275.8838561,304133.21875,323597.75,335793.84375,315867.4375,304970.78125,308465.34375,290387.25,328921.5,-0.06591796875,0.933837890625,-0.301513671875,3.631591558456421,4.058837413787842,7.781981945037842,80.0,1424052.0,1.0
1168275.8931416,303261.875,324364.25,335022.625,314771.40625,304985.1875,308973.71875,291041.09375,329472.15625,-0.06787109375,0.93798828125,-0.300537109375,3.173827886581421,3.845214605331421,7.629394054412842,80.0,1424053.0,1.0
1168275.8931681,303581.5,324248.09375,335019.59375,314900.5,304964.625,308862.59375,290973.5,329474.375,-0.06640625,0.939453125,-0.295654296875,2.777099370956421,3.631591558456421,7.568358898162842,80.0,1424054.0,1.0
1168275.8950492,304680.21875,323437.28125,335844.71875,316131.90625,304993.21875,308298.6875,290333.78125,328987.21875,-0.066650390625,0.940673828125,-0.300537109375,2.380370855331421,3.387450933456421,7.476806163787842,80.0,1424055.0,1.0
1168275.9012416,305014.25,322997.125,336275.125,316681.9375,304975.09375,308030.84375,289928.5,328612.59375,-0.068115234375,0.94140625,-0.29833984375,1.9226073026657104,3.173827886581421,7.232665538787842,80.0,1424056.0,1.0
1168275.9094845,304166.9375,323593.5625,335816.03125,315894.8125,305021.21875,308470.4375,290418.46875,328961.90625,-0.067626953125,0.939453125,-0.299072265625,1.4953612089157104,3.051757574081421,7.141112804412842,80.0,1424057.0,1.0
1168275.9095175,303273.59375,324352.71875,335029.6875,314780.15625,305020.21875,308973.375,291060.3125,329492.96875,-0.067138671875,0.942138671875,-0.30078125,1.2512205839157104,2.777099370956421,6.958007335662842,80.0,1424058.0,1.0
1168275.9113443,303576.84375,324239.34375,335007.34375,314883.78125,304981.4375,308870.1875,290988.4375,329485.75,-0.06787109375,0.941650390625,-0.298583984375,0.8544921278953552,2.471923589706421,6.866454601287842,80.0,1424059.0,1.0
1168275.9151576,304686.9375,323446.65625,335842.9375,316124.125,305015.125,308323.1875,290362.3125,329012.6875,-0.06640625,0.94091796875,-0.301025390625,0.4577636420726776,2.227782964706421,6.744384288787842,80.0,1424060.0,1.0
1168275.9244611,305028.71875,322995.0625,336277.375,316687.84375,304995.375,308047.8125,289946.5,328630.75,-0.067138671875,0.94140625,-0.299560546875,0.0915527269244194,2.044677495956421,6.591796398162842,80.0,1424061.0,1.0
1168275.9244968,304186.15625,323571.1875,335811.1875,315901.5,305026.125,308471.0,290410.875,328956.28125,-0.066162109375,0.94287109375,-0.300048828125,-0.2441406100988388,1.7089842557907104,6.378173351287842,80.0,1424062.0,1.0
1168275.9263304,303286.1875,324333.9375,335023.6875,314780.53125,305025.96875,308972.90625,291049.5,329486.0,-0.06494140625,0.942626953125,-0.297607421875,-0.5798339247703552,1.5258787870407104,6.286620616912842,80.0,1424063.0,1.0
1168275.9301493,303563.875,324218.40625,334980.5,314856.4375,304974.46875,308858.9375,290971.71875,329470.4375,-0.06494140625,0.943115234375,-0.296142578125,-0.9765624403953552,1.1901854276657104,6.225585460662842,80.0,1424064.0,1.0
1168275.9438132,304680.125,323439.59375,335823.8125,316108.03125,305011.03125,308320.0625,290360.875,329009.8125,-0.06298828125,0.9423828125,-0.292724609375,-1.3427733182907104,1.0070799589157104,6.103515148162842,80.0,1424065.0,1.0
1168275.9470474,305038.75,322983.09375,336274.40625,316692.59375,304993.78125,308041.03125,289944.4375,328629.9375,-0.064697265625,0.94140625,-0.289306640625,-1.6479490995407104,0.7629393935203552,5.920409679412842,80.0,1424066.0,1.0
1168275.9470795,304198.59375,323545.0,335814.40625,315914.125,305020.0625,308454.0,290395.125,328943.9375,-0.06494140625,0.939697265625,-0.29443359375,-1.9836424589157104,0.4272460639476776,5.798339366912842,80.0,1424067.0,1.0
1168275.9714773,303287.53125,324306.9375,335015.375,314779.28125,305010.5,308958.34375,291028.9375,329465.96875,-0.064453125,0.93896484375,-0.289306640625,-2.349853277206421,0.1831054538488388,5.706786632537842,80.0,1424068.0,1.0
1168275.973961,303552.53125,324198.9375,334952.8125,314830.78125,304947.90625,308853.46875,290955.8125,329449.09375,-0.0634765625,0.935302734375,-0.292724609375,-2.563476324081421,0.0,5.554198741912842,80.0,1424069.0,1.0
1168275.9771216,304655.1875,323412.21875,335780.15625,316066.46875,304974.1875,308306.03125,290340.9375,328978.8125,-0.062255859375,0.9326171875,-0.28955078125,-2.746581792831421,-0.2441406100988388,5.432128429412842,80.0,1424070.0,1.0
1168275.977171,305037.21875,322958.84375,336255.0,316676.21875,304969.625,308026.625,289933.34375,328608.03125,-0.060546875,0.9345703125,-0.289794921875,-3.021239995956421,-0.4272460639476776,5.065917491912842,80.0,1424071.0,1.0
1168275.9789493,304213.0625,323506.125,335798.15625,315909.125,304989.65625,308429.3125,290368.65625,328906.84375,-0.05908203125,0.935791015625,-0.28857421875,-3.051757574081421,-0.6103515028953552,4.974364757537842,80.0,1424072.0,1.0
1168275.9814559,303282.4375,324253.1875,334970.3125,314746.90625,304952.375,308917.9375,290977.71875,329395.53125,-0.060546875,0.9375,-0.287353515625,-3.326415777206421,-0.7629393935203552,4.699706554412842,80.0,1424073.0,1.0
1168275.983976,303541.1875,324171.03125,334906.40625,314796.34375,304902.21875,308836.65625,290927.28125,329397.125,-0.06005859375,0.938720703125,-0.2861328125,-3.509521245956421,-1.0986326932907104,4.577636241912842,80.0,1424074.0,1.0
1168275.9864034,304655.0,323417.6875,335757.09375,316053.3125,304954.53125,308312.8125,290344.78125,328963.4375,-0.0615234375,0.937744140625,-0.28564453125,-3.784179449081421,-1.2207030057907104,4.425048351287842,80.0,1424075.0,1.0
1168275.9889561,305044.65625,322961.34375,336245.71875,316684.0,304950.5,308022.0625,289931.28125,328592.21875,-0.06005859375,0.934326171875,-0.285888671875,-3.997802495956421,-1.4343260526657104,4.211425304412842,80.0,1424076.0,1.0
1168275.9920891,304215.65625,323490.46875,335787.0625,315911.96875,304959.71875,308413.59375,290347.5625,328874.28125,-0.061279296875,0.93408203125,-0.281982421875,-4.241942882537842,-1.6174315214157104,3.906249761581421,80.0,1424077.0,1.0
1168275.9921406,303278.3125,324226.65625,334953.6875,314740.125,304915.4375,308907.125,290949.0,329358.6875,-0.059814453125,0.931884765625,-0.28076171875,-4.455565929412842,-1.7089842557907104,3.753661870956421,80.0,1424078.0,1.0
1168275.9939799,303522.21875,324150.28125,334876.34375,314770.78125,304853.84375,308827.09375,290897.34375,329355.5625,-0.06201171875,0.931640625,-0.28076171875,-4.425048351287842,-2.075195074081421,3.448486089706421,80.0,1424079.0,1.0
1168275.9982966,304649.28125,323418.21875,335741.375,316043.65625,304912.9375,308308.90625,290331.03125,328932.40625,-0.061767578125,0.93212890625,-0.28076171875,-4.486083507537842,-2.105712652206421,3.173827886581421,80.0,1424080.0,1.0
1168275.9983473,305059.65625,322969.84375,336252.78125,316698.65625,304920.53125,308022.53125,289923.0625,328566.0,-0.060546875,0.93310546875,-0.279541015625,-4.577636241912842,-2.258300542831421,3.051757574081421,80.0,1424081.0,1.0
1168276.0145505,304236.40625,323482.59375,335797.96875,315936.65625,304929.3125,308405.8125,290324.0625,328835.125,-0.060302734375,0.934814453125,-0.27783203125,-4.669188976287842,-2.319335699081421,2.929687261581421,80.0,1424082.0,1.0
1168276.0146077,303284.21875,324204.75,334938.65625,314737.96875,304870.9375,308894.6875,290908.5,329301.84375,-0.062255859375,0.9375,-0.279296875,-4.852294445037842,-2.471923589706421,2.441406011581421,80.0,1424083.0,1.0
1168276.016341,303517.21875,324136.59375,334842.375,314746.71875,304804.5,308821.90625,290860.5,329301.5625,-0.06298828125,0.93798828125,-0.277587890625,-4.943847179412842,-2.685546636581421,2.197265386581421,80.0,1424084.0,1.0
1168276.0190372,304636.3125,323407.5,335703.8125,316013.4375,304866.46875,308300.65625,290302.0625,328883.5,-0.062255859375,0.937255859375,-0.276123046875,-4.974364757537842,-2.807616949081421,1.9531248807907104,80.0,1424085.0,1.0
1168276.0214507,305046.4375,322945.71875,336217.375,316673.09375,304875.125,307999.8125,289884.53125,328509.6875,-0.06201171875,0.935302734375,-0.275146484375,-5.218505382537842,-3.021239995956421,1.7089842557907104,80.0,1424086.0,1.0
1168276.0252052,304221.84375,323433.96875,335757.46875,315911.53125,304874.40625,308373.09375,290263.875,328760.75,-0.059814453125,0.9345703125,-0.27099609375,-5.310058116912842,-3.173827886581421,1.5258787870407104,80.0,1424087.0,1.0
1168276.0321224,303248.90625,324146.0,334882.6875,314697.1875,304801.28125,308856.5,290836.71875,329212.96875,-0.060791015625,0.933349609375,-0.2734375,-5.401610851287842,-3.295898199081421,1.3122557401657104,80.0,1424088.0,1.0
1168276.0321732,303454.28125,324077.25,334765.84375,314679.84375,304718.9375,308783.46875,290787.96875,329203.9375,-0.060546875,0.932373046875,-0.2724609375,-5.340575695037842,-3.295898199081421,1.0681151151657104,80.0,1424089.0,1.0
1168276.0402007,304594.21875,323383.09375,335655.8125,315973.9375,304806.90625,308285.375,290263.625,328819.75,-0.059814453125,0.9326171875,-0.2734375,-5.432128429412842,-3.387450933456421,0.8850097060203552,80.0,1424090.0,1.0
1168276.0432971,305041.25,322934.34375,336203.875,316672.90625,304840.53125,307991.75,289863.34375,328466.40625,-0.059326171875,0.935302734375,-0.274169921875,-5.432128429412842,-3.479003667831421,0.7934569716453552,80.0,1424091.0,1.0
1168276.0433477,304223.78125,323401.3125,335740.90625,315907.84375,304824.4375,308346.71875,290223.375,328698.15625,-0.06005859375,0.932373046875,-0.2724609375,-5.462646007537842,-3.601073980331421,0.6408690810203552,80.0,1424092.0,1.0
1168276.0489065,303259.8125,324118.0,334867.3125,314690.9375,304757.8125,308844.09375,290801.5625,329156.375,-0.060791015625,0.933349609375,-0.274658203125,-5.462646007537842,-3.570556402206421,0.3356933295726776,80.0,1424093.0,1.0
1168276.055781,303449.8125,324051.6875,334725.96875,314643.65625,304656.875,308767.8125,290743.5625,329135.53125,-0.062255859375,0.93115234375,-0.272705078125,-5.432128429412842,-3.540038824081421,0.2136230319738388,80.0,1424094.0,1.0
1168276.0558316,304604.75,323386.5,335637.46875,315957.84375,304762.46875,308290.125,290242.15625,328774.875,-0.06396484375,0.931396484375,-0.272705078125,-5.371093273162842,-3.570556402206421,0.0610351525247097,80.0,1424095.0,1.0
1168276.064547,305073.53125,322947.3125,336215.03125,316683.65625,304810.125,308004.71875,289851.4375,328433.59375,-0.064208984375,0.93212890625,-0.27001953125,-5.249022960662842,-3.662109136581421,-0.2136230319738388,80.0,1424096.0,1.0
1168276.0646037,304262.0625,323408.46875,335760.21875,315928.78125,304797.96875,308355.21875,290203.625,328660.59375,-0.06494140625,0.931396484375,-0.27294921875,-5.218505382537842,-3.662109136581421,-0.3356933295726776,80.0,1424097.0,1.0
1168276.0670785,303268.5625,324101.46875,334855.53125,314680.75,304703.5625,308833.625,290758.46875,329094.40625,-0.064697265625,0.93017578125,-0.27099609375,-5.157470226287842,-3.631591558456421,-0.3662109076976776,80.0,1424098.0,1.0
1168276.0671294,303452.75,324057.21875,334719.1875,314634.71875,304617.90625,308777.75,290728.78125,329098.53125,-0.0654296875,0.92919921875,-0.26904296875,-5.096435070037842,-3.631591558456421,-0.5798339247703552,80.0,1424099.0,1.0
1168276.0802047,304604.21875,323407.21875,335633.625,315950.40625,304728.3125,308298.625,290240.28125,328749.125,-0.06396484375,0.927001953125,-0.267333984375,-4.974364757537842,-3.753661870956421,-0.6713866591453552,80.0,1424100.0,1.0
1168276.0876391,305081.5625,322961.34375,336223.8125,316698.3125,304788.65625,308008.125,289856.09375,328415.09375,-0.066650390625,0.924560546875,-0.27099609375,-4.791259288787842,-3.784179449081421,-0.8544921278953552,80.0,1424101.0,1.0
1168276.0876889,304262.59375,323387.8125,335758.625,315940.5,304766.40625,308341.71875,290188.6875,328626.375,-0.06689453125,0.92578125,-0.26708984375,-4.577636241912842,-3.784179449081421,-1.0375975370407104,80.0,1424102.0,1.0
1168276.0877025,303254.71875,324076.96875,334838.1875,314676.1875,304667.0625,308821.375,290737.75,329054.25,-0.06884765625,0.92822265625,-0.267578125,-4.425048351287842,-3.753661870956421,-1.0986326932907104,80.0,1424103.0,1.0
1168276.0921255,303433.09375,324056.40625,334696.03125,314623.71875,304594.75,308783.375,290723.4375,329075.625,-0.0693359375,0.934326171875,-0.269775390625,-4.302978038787842,-3.753661870956421,-1.2207030057907104,80.0,1424104.0,1.0
1168276.0921826,304601.4375,323429.9375,335633.0,315959.28125,304734.125,308323.8125,290263.53125,328757.15625,-0.06884765625,0.936279296875,-0.265625,-4.241942882537842,-3.662109136581421,-1.2512205839157104,80.0,1424105.0,1.0
1168276.0977021,305101.5,322991.9375,336247.0625,316730.9375,304808.25,308032.4375,289880.5,328433.25,-0.068359375,0.938232421875,-0.265380859375,-4.272460460662842,-3.814697027206421,-1.2207030057907104,80.0,1424106.0,1.0
1168276.1039503,304286.90625,323401.9375,335784.625,315975.375,304783.5,308354.65625,290196.5625,328636.46875,-0.06787109375,0.935302734375,-0.26904296875,-4.272460460662842,-3.753661870956421,-1.3427733182907104,80.0,1424107.0,1.0
1168276.1082692,303266.96875,324079.75,334851.84375,314694.15625,304674.21875,308830.21875,290737.28125,329058.28125,-0.069580078125,0.93505859375,-0.2685546875,-4.272460460662842,-3.875732183456421,-1.3122557401657104,80.0,1424108.0,1.0
1168276.1083208,303430.5625,324067.40625,334701.125,314623.71875,304594.65625,308799.28125,290730.84375,329088.15625,-0.07080078125,0.930908203125,-0.26708984375,-4.211425304412842,-3.936767339706421,-1.3732908964157104,80.0,1424109.0,1.0
1168276.1114601,304598.6875,323455.40625,335647.59375,315964.28125,304739.9375,308344.21875,290286.40625,328784.96875,-0.072509765625,0.9287109375,-0.266357421875,-4.058837413787842,-3.936767339706421,-1.4038084745407104,80.0,1424110.0,1.0
1168276.1308,305117.0625,323018.03125,336282.5625,316758.03125,304828.0,308048.625,289909.84375,328471.59375,-0.072509765625,0.928466796875,-0.264892578125,-3.997802495956421,-3.967284917831421,-1.4038084745407104,80.0,1424111.0,1.0
1168276.13085,304335.65625,323437.625,335850.53125,316039.03125,304825.875,308379.53125,290239.375,328694.75,-0.072998046875,0.928466796875,-0.26416015625,-3.723144292831421,-4.028319835662842,-1.4953612089157104,80.0,1424112.0,1.0
1168276.1333202,303312.84375,324107.375,334903.0,314747.8125,304708.375,308850.53125,290769.75,329107.90625,-0.07275390625,0.929443359375,-0.26806640625,-3.570556402206421,-3.967284917831421,-1.6174315214157104,80.0,1424113.0,1.0
1168276.1333779,303463.46875,324100.125,334725.0625,314652.9375,304618.78125,308818.5,290757.9375,329128.65625,-0.07373046875,0.929443359375,-0.2685546875,-3.387450933456421,-3.906249761581421,-1.6174315214157104,80.0,1424114.0,1.0
1168276.1421268,304627.125,323500.84375,335669.21875,315994.3125,304772.3125,308369.15625,290324.0625,328839.15625,-0.071533203125,0.93017578125,-0.267578125,-3.112792730331421,-3.845214605331421,-1.4648436307907104,80.0,1424115.0,1.0
1168276.1421778,305147.09375,323055.40625,336311.34375,316795.65625,304861.625,308066.40625,289937.8125,328523.53125,-0.071533203125,0.928955078125,-0.2666015625,-3.082275152206421,-3.845214605331421,-1.3732908964157104,80.0,1424116.0,1.0
1168276.1445447,304356.9375,323447.5625,335869.75,316064.0625,304846.34375,308384.625,290238.9375,328719.0,-0.0703125,0.92919921875,-0.267333984375,-3.021239995956421,-3.845214605331421,-1.3427733182907104,80.0,1424117.0,1.0
1168276.1445948,303317.125,324107.28125,334914.34375,314758.1875,304723.125,308859.625,290765.53125,329125.78125,-0.07275390625,0.93212890625,-0.268310546875,-2.777099370956421,-3.906249761581421,-1.2817381620407104,80.0,1424118.0,1.0
1168276.1527187,303454.53125,324113.375,334727.9375,314646.3125,304636.78125,308840.9375,290765.46875,329156.28125,-0.076416015625,0.9296875,-0.266845703125,-2.624511480331421,-3.936767339706421,-1.2512205839157104,80.0,1424119.0,1.0
1168276.162124,304633.375,323534.90625,335685.03125,315998.34375,304804.6875,308408.75,290349.0,328880.375,-0.0771484375,0.9306640625,-0.265380859375,-2.502441167831421,-3.906249761581421,-1.3122557401657104,80.0,1424120.0,1.0
1168276.1621808,305188.40625,323103.96875,336360.5,316841.4375,304919.28125,308117.5625,289985.1875,328583.0,-0.078857421875,0.932373046875,-0.265380859375,-2.319335699081421,-3.936767339706421,-1.4343260526657104,80.0,1424121.0,1.0
1168276.1732568,304410.3125,323486.34375,335922.875,316121.8125,304900.4375,308427.09375,290272.65625,328766.375,-0.08056640625,0.932861328125,-0.26513671875,-2.319335699081421,-3.997802495956421,-1.4648436307907104,80.0,1424122.0,1.0
1168276.173309,303346.8125,324122.03125,334934.90625,314786.53125,304746.28125,308884.5,290771.34375,329147.34375,-0.08251953125,0.9345703125,-0.263427734375,-2.197265386581421,-4.180907726287842,-1.4953612089157104,80.0,1424123.0,1.0
1168276.1763907,303467.9375,324132.75,334733.5625,314653.03125,304649.90625,308872.34375,290776.90625,329181.03125,-0.082275390625,0.93505859375,-0.263427734375,-2.136230230331421,-4.272460460662842,-1.4648436307907104,80.0,1424124.0,1.0
1168276.1764391,304645.875,323565.9375,335688.4375,315998.15625,304815.03125,308440.6875,290368.21875,328911.9375,-0.082275390625,0.93359375,-0.265625,-2.105712652206421,-4.364013195037842,-1.4648436307907104,80.0,1424125.0,1.0
1168276.1764531,305219.78125,323132.3125,336379.03125,316860.65625,304931.09375,308142.40625,289998.625,328612.21875,-0.082763671875,0.935791015625,-0.265380859375,-1.9836424589157104,-4.516601085662842,-1.4343260526657104,80.0,1424126.0,1.0
1168276.1802067,304445.15625,323494.65625,335941.90625,316150.34375,304904.53125,308438.71875,290270.59375,328782.1875,-0.0830078125,0.938232421875,-0.26513671875,-1.9531248807907104,-4.608153820037842,-1.4648436307907104,80.0,1424127.0,1.0
1168276.1864019,303380.96875,324134.09375,334952.4375,314813.25,304756.9375,308904.53125,290771.625,329162.8125,-0.0810546875,0.9365234375,-0.26708984375,-1.8310545682907104,-4.547118663787842,-1.4648436307907104,80.0,1424128.0,1.0
1168276.1982591,303484.5,324144.03125,334729.28125,314657.21875,304653.65625,308896.125,290774.5625,329187.65625,-0.078125,0.938720703125,-0.2646484375,-1.8310545682907104,-4.577636241912842,-1.4953612089157104,80.0,1424129.0,1.0
1168276.1983112,304681.84375,323606.875,335700.96875,316021.3125,304839.375,308487.71875,290386.0,328936.6875,-0.076904296875,0.93896484375,-0.267822265625,-1.7700194120407104,-4.577636241912842,-1.4648436307907104,80.0,1424130.0,1.0
1168276.2006896,305255.09375,323166.1875,336395.375,316890.8125,304951.5625,308178.34375,290007.1875,328628.0625,-0.07568359375,0.939453125,-0.26513671875,-1.7089842557907104,-4.577636241912842,-1.3122557401657104,80.0,1424131.0,1.0
1168276.2007271,304483.15625,323511.84375,335969.4375,316188.96875,304923.21875,308466.6875,290269.59375,328791.3125,-0.07421875,0.940673828125,-0.2705078125,-1.6784666776657104,-4.333495616912842,-1.2207030057907104,80.0,1424132.0,1.0
1168276.2089099,303408.5,324153.875,334983.65625,314851.25,304776.78125,308933.9375,290777.78125,329179.78125,-0.070068359375,0.939208984375,-0.269775390625,-1.7089842557907104,-4.272460460662842,-1.0070799589157104,80.0,1424133.0,1.0
1168276.2114029,303503.09375,324182.21875,334763.34375,314691.84375,304683.53125,308935.8125,290797.46875,329227.71875,-0.070556640625,0.939208984375,-0.270751953125,-1.5258787870407104,-4.180907726287842,-0.8544921278953552,80.0,1424134.0,1.0
1168276.2151848,304684.78125,323632.96875,335723.84375,316039.03125,304860.28125,308516.6875,290405.3125,328975.59375,-0.0712890625,0.937744140625,-0.266845703125,-1.5258787870407104,-3.997802495956421,-0.7324218153953552,80.0,1424135.0,1.0
1168276.2282983,305289.0,323205.71875,336441.96875,316931.125,304985.53125,308211.78125,290034.375,328677.15625,-0.0703125,0.93896484375,-0.27001953125,-1.5869139432907104,-3.845214605331421,-0.3967284858226776,80.0,1424136.0,1.0
1168276.228348,304541.46875,323560.5625,336038.09375,316252.6875,304976.5,308505.84375,290299.46875,328849.78125,-0.070556640625,0.937255859375,-0.269287109375,-1.4343260526657104,-3.723144292831421,-0.2746581733226776,80.0,1424137.0,1.0
1168276.2308035,303460.34375,324193.21875,335039.15625,314900.6875,304824.53125,308971.21875,290795.40625,329227.53125,-0.071044921875,0.9375,-0.267822265625,-1.3732908964157104,-3.448486089706421,-0.1220703050494194,80.0,1424138.0,1.0
1168276.2308547,303542.4375,324228.0625,334802.25,314718.9375,304722.0625,308975.40625,290813.71875,329268.84375,-0.071533203125,0.936279296875,-0.264404296875,-1.3427733182907104,-3.295898199081421,0.1220703050494194,80.0,1424139.0,1.0
1168276.2326601,304717.9375,323692.875,335765.6875,316069.3125,304904.1875,308557.0,290431.875,329025.84375,-0.072998046875,0.935791015625,-0.265625,-1.1596678495407104,-3.143310308456421,0.2441406100988388,80.0,1424140.0,1.0
1168276.2439771,305333.15625,323259.25,336497.84375,316987.0,305046.4375,308249.4375,290061.0,328733.8125,-0.07275390625,0.935546875,-0.26708984375,-1.0986326932907104,-2.899169683456421,0.4272460639476776,80.0,1424141.0,1.0
1168276.2471253,304593.6875,323599.28125,336101.15625,316324.84375,305036.3125,308532.125,290316.8125,328895.75,-0.0732421875,0.93505859375,-0.267333984375,-1.0681151151657104,-2.746581792831421,0.5493163466453552,80.0,1424142.0,1.0
1168276.2471749,303512.65625,324242.75,335109.78125,314977.75,304892.5625,309004.3125,290817.125,329280.28125,-0.0732421875,0.9345703125,-0.266357421875,-0.9765624403953552,-2.624511480331421,0.7019042372703552,80.0,1424143.0,1.0
1168276.2489489,303571.46875,324285.75,334854.28125,314773.28125,304788.65625,309011.71875,290838.59375,329322.5625,-0.0712890625,0.933837890625,-0.267822265625,-0.8544921278953552,-2.410888433456421,0.8850097060203552,80.0,1424144.0,1.0
1168276.2577021,304746.375,323759.21875,335814.3125,316118.84375,304977.6875,308602.15625,290470.40625,329089.3125,-0.0732421875,0.93408203125,-0.26904296875,-0.9460448622703552,-2.258300542831421,0.9155272841453552,80.0,1424145.0,1.0
1168276.2601399,305373.65625,323314.15625,336559.0,317048.34375,305120.375,308293.0625,290100.53125,328799.90625,-0.0732421875,0.934814453125,-0.266845703125,-0.7629393935203552,-2.166747808456421,1.0681151151657104,80.0,1424146.0,1.0
1168276.2644623,304632.75,323625.03125,336160.15625,316384.5,305100.625,308559.3125,290335.84375,328948.03125,-0.072998046875,0.932373046875,-0.266845703125,-0.7324218153953552,-2.014159917831421,1.0681151151657104,80.0,1424147.0,1.0
1168276.2644978,303549.03125,324271.78125,335165.59375,315031.65625,304959.25,309035.78125,290839.9375,329332.3125,-0.072021484375,0.931396484375,-0.266845703125,-0.6713866591453552,-1.8615721464157104,1.1901854276657104,80.0,1424148.0,1.0
1168276.2726144,303602.78125,324326.875,334900.3125,314809.9375,304857.5,309059.65625,290874.625,329385.6875,-0.0712890625,0.932861328125,-0.267333984375,-0.5798339247703552,-1.7089842557907104,1.3732908964157104,80.0,1424149.0,1.0
1168276.2750937,304767.75,323788.0,335841.0625,316135.75,305027.65625,308640.40625,290490.78125,329140.8125,-0.070068359375,0.933349609375,-0.268798828125,-0.4882812201976776,-1.4953612089157104,1.4038084745407104,80.0,1424150.0,1.0
1168276.2821263,305406.75,323348.5625,336602.625,317081.0625,305176.0625,308326.5,290119.21875,328853.53125,-0.0703125,0.9326171875,-0.267333984375,-0.3967284858226776,-1.3427733182907104,1.4648436307907104,80.0,1424151.0,1.0
1168276.2821774,304682.375,323666.40625,336219.34375,316434.1875,305162.03125,308590.25,290345.5,328996.0625,-0.0712890625,0.9306640625,-0.2705078125,-0.2746581733226776,-1.0375975370407104,1.4648436307907104,80.0,1424152.0,1.0
1168276.2902147,303589.0,324309.0,335221.375,315076.8125,305016.3125,309066.34375,290845.21875,329377.1875,-0.068603515625,0.93212890625,-0.270263671875,-0.1220703050494194,-0.8239745497703552,1.4343260526657104,80.0,1424153.0,1.0
1168276.2945456,303615.21875,324364.875,334936.0,314829.15625,304901.6875,309088.53125,290876.0625,329425.9375,-0.0673828125,0.93212890625,-0.27099609375,-0.0915527269244194,-0.7019042372703552,1.5258787870407104,80.0,1424154.0,1.0
1168276.2945956,304793.125,323854.53125,335887.0,316162.03125,305088.71875,308690.3125,290514.03125,329201.34375,-0.06591796875,0.930908203125,-0.274169921875,0.0,-0.5798339247703552,1.4648436307907104,80.0,1424155.0,1.0
1168276.3032519,305451.1875,323409.5625,336661.09375,317123.96875,305243.75,308378.625,290145.25,328918.53125,-0.065185546875,0.930908203125,-0.2744140625,0.1525878757238388,-0.3662109076976776,1.5869139432907104,80.0,1424156.0,1.0
1168276.3032984,304742.1875,323718.1875,336290.3125,316495.25,305230.6875,308639.6875,290368.5625,329055.15625,-0.064697265625,0.931884765625,-0.2734375,0.2136230319738388,-0.1525878757238388,1.6479490995407104,80.0,1424157.0,1.0
1168276.3051775,303644.34375,324363.0,335287.4375,315133.875,305081.9375,309116.5,290873.0,329435.03125,-0.061279296875,0.931884765625,-0.275146484375,0.3967284858226776,0.2136230319738388,1.6479490995407104,80.0,1424158.0,1.0
1168276.3139265,303649.71875,324422.875,334977.5625,314862.25,304959.71875,309137.96875,290907.625,329482.4375,-0.06298828125,0.93212890625,-0.27392578125,0.3662109076976776,0.4882812201976776,1.8005369901657104,80.0,1424159.0,1.0
1168276.318254,304822.28125,323917.90625,335921.0625,316187.625,305151.03125,308743.84375,290552.5,329264.375,-0.062255859375,0.933349609375,-0.273193359375,0.4882812201976776,0.7324218153953552,1.8615721464157104,80.0,1424160.0,1.0
1168276.3183056,305490.4375,323457.75,336697.9375,317158.75,305301.59375,308417.78125,290172.78125,328969.6875,-0.062744140625,0.93212890625,-0.272705078125,0.3967284858226776,0.9155272841453552,1.8615721464157104,80.0,1424161.0,1.0
1168276.3264543,304795.90625,323756.0,336337.34375,316543.90625,305285.5,308665.34375,290384.65625,329095.375,-0.06494140625,0.935302734375,-0.2724609375,0.3967284858226776,1.0681151151657104,1.9836424589157104,80.0,1424162.0,1.0
1168276.3306468,303698.1875,324410.46875,335344.21875,315185.90625,305144.5,309144.9375,290892.6875,329479.46875,-0.06494140625,0.93505859375,-0.27294921875,0.4272460639476776,1.3122557401657104,2.075195074081421,80.0,1424163.0,1.0
1168276.3306962,303687.0,324476.09375,335031.125,314902.5625,305028.71875,309176.21875,290936.9375,329538.125,-0.06591796875,0.93603515625,-0.27587890625,0.4272460639476776,1.4648436307907104,2.014159917831421,80.0,1424164.0,1.0
1168276.3483024,304837.125,323956.1875,335951.75,316204.78125,305202.28125,308777.65625,290571.875,329313.8125,-0.0673828125,0.93994140625,-0.276123046875,0.4577636420726776,1.5258787870407104,2.075195074081421,80.0,1424165.0,1.0
1168276.3483515,305524.03125,323503.59375,336742.71875,317199.25,305360.4375,308460.15625,290199.40625,329027.8125,-0.06640625,0.93896484375,-0.275634765625,0.3662109076976776,1.6784666776657104,2.136230230331421,80.0,1424166.0,1.0
1168276.3501975,304833.5625,323780.21875,336389.3125,316600.0625,305343.4375,308700.3125,290400.84375,329148.84375,-0.065185546875,0.93701171875,-0.277099609375,0.4577636420726776,1.7700194120407104,2.105712652206421,80.0,1424167.0,1.0
1168276.3526412,303732.875,324434.78125,335399.5625,315250.28125,305203.875,309183.5625,290910.5625,329538.3125,-0.06494140625,0.937255859375,-0.273681640625,0.5798339247703552,1.8920897245407104,2.258300542831421,80.0,1424168.0,1.0
1168276.3564774,303714.71875,324521.875,335071.0,314949.78125,305086.03125,309225.03125,290960.625,329600.53125,-0.065185546875,0.939453125,-0.27587890625,0.4882812201976776,1.8920897245407104,2.166747808456421,80.0,1424169.0,1.0
1168276.3601499,304866.28125,324011.625,335986.6875,316245.71875,305257.4375,308828.875,290601.40625,329374.0625,-0.066650390625,0.938232421875,-0.27783203125,0.4882812201976776,1.9531248807907104,2.105712652206421,80.0,1424170.0,1.0
1168276.369499,305558.71875,323552.15625,336784.9375,317251.8125,305419.53125,308504.59375,290226.78125,329086.0,-0.066650390625,0.9365234375,-0.27880859375,0.5493163466453552,2.075195074081421,2.136230230331421,80.0,1424171.0,1.0
1168276.3695463,304868.6875,323809.5625,336426.40625,316650.375,305389.65625,308727.0625,290408.625,329185.25,-0.06689453125,0.93994140625,-0.278076171875,0.6103515028953552,2.136230230331421,2.105712652206421,80.0,1424172.0,1.0
1168276.3752,303771.03125,324463.40625,335434.0625,315292.65625,305245.1875,309210.65625,290913.6875,329564.0625,-0.065673828125,0.940185546875,-0.280029296875,0.4272460639476776,2.014159917831421,1.9836424589157104,80.0,1424173.0,1.0
1168276.3795579,303744.5,324558.78125,335098.875,314976.5,305125.90625,309256.59375,290967.78125,329629.25,-0.0673828125,0.940673828125,-0.27734375,0.2746581733226776,2.044677495956421,2.136230230331421,80.0,1424174.0,1.0
1168276.3796064,304896.84375,324054.8125,336010.40625,316263.875,305300.15625,308865.71875,290614.34375,329410.46875,-0.068359375,0.938720703125,-0.276123046875,0.3051757514476776,2.105712652206421,2.166747808456421,80.0,1424175.0,1.0
1168276.3821192,305601.75,323582.8125,336812.90625,317272.75,305453.78125,308530.71875,290227.3125,329111.5625,-0.068115234375,0.939453125,-0.278076171875,0.03051757626235485,2.136230230331421,2.105712652206421,80.0,1424176.0,1.0
1168276.3821687,304936.71875,323843.96875,336481.65625,316697.9375,305435.71875,308757.71875,290412.46875,329214.65625,-0.066650390625,0.935302734375,-0.27734375,0.0,1.9226073026657104,2.197265386581421,80.0,1424177.0,1.0
1168276.3952111,303827.8125,324500.0625,335491.75,315337.71875,305295.25,309242.125,290920.65625,329599.28125,-0.065673828125,0.93017578125,-0.277587890625,-0.1220703050494194,1.8005369901657104,2.258300542831421,80.0,1424178.0,1.0
1168276.407636,303775.59375,324600.0,335137.25,314999.21875,305172.21875,309298.625,290980.3125,329670.0,-0.06103515625,0.92822265625,-0.27734375,0.0915527269244194,1.9836424589157104,2.258300542831421,80.0,1424179.0,1.0
1168276.4076917,304916.78125,324096.28125,336040.53125,316279.0625,305346.5625,308916.6875,290634.46875,329459.53125,-0.05859375,0.931396484375,-0.279296875,0.2746581733226776,2.136230230331421,2.349853277206421,80.0,1424180.0,1.0
1168276.4077088,305634.28125,323619.03125,336850.09375,317299.65625,305500.4375,308578.1875,290245.09375,329162.1875,-0.06103515625,0.93896484375,-0.279541015625,0.3967284858226776,2.197265386581421,2.288818120956421,80.0,1424181.0,1.0
1168276.4107719,304990.375,323886.625,336536.71875,316750.6875,305486.59375,308802.15625,290424.71875,329264.0,-0.060791015625,0.941162109375,-0.281494140625,0.3967284858226776,2.258300542831421,2.380370855331421,80.0,1424182.0,1.0
1168276.410821,303868.5,324538.75,335539.9375,315386.34375,305338.15625,309277.15625,290925.3125,329640.6875,-0.056884765625,0.941162109375,-0.280517578125,0.2746581733226776,2.349853277206421,2.532958745956421,80.0,1424183.0,1.0
1168276.4127257,303798.65625,324644.4375,335171.65625,315026.21875,305215.5,309334.5625,290993.625,329715.96875,-0.054931640625,0.93701171875,-0.279541015625,0.2441406100988388,2.319335699081421,2.655029058456421,80.0,1424184.0,1.0
1168276.4152306,304929.3125,324135.71875,336051.78125,316284.1875,305379.28125,308948.59375,290644.75,329498.96875,-0.052978515625,0.9345703125,-0.28076171875,0.0915527269244194,2.380370855331421,2.716064214706421,80.0,1424185.0,1.0
1168276.4176618,305660.3125,323642.375,336869.0625,317319.9375,305530.125,308604.84375,290250.28125,329194.625,-0.056396484375,0.933349609375,-0.280029296875,0.2136230319738388,2.441406011581421,2.838134527206421,80.0,1424186.0,1.0
1168276.4289125,305029.71875,323894.3125,336569.8125,316788.0625,305518.5,308819.5,290424.625,329288.0625,-0.059326171875,0.93505859375,-0.279541015625,0.2136230319738388,2.441406011581421,2.868652105331421,80.0,1424187.0,1.0
1168276.4333126,303919.625,324563.34375,335586.59375,315435.0,305382.875,309302.46875,290933.53125,329673.40625,-0.063232421875,0.936279296875,-0.281494140625,0.1525878757238388,2.410888433456421,2.838134527206421,80.0,1424188.0,1.0
1168276.4333642,303843.28125,324685.84375,335213.5,315062.0625,305260.1875,309370.15625,291011.15625,329758.34375,-0.062255859375,0.93701171875,-0.2783203125,0.0915527269244194,2.319335699081421,2.777099370956421,80.0,1424189.0,1.0
1168276.4393966,304970.25,324180.15625,336092.75,316313.3125,305418.625,308988.125,290670.25,329547.34375,-0.0625,0.936767578125,-0.276123046875,0.0915527269244194,2.227782964706421,2.624511480331421,80.0,1424190.0,1.0
1168276.4394534,305705.28125,323677.9375,336913.125,317357.875,305565.96875,308639.4375,290269.96875,329238.0,-0.062744140625,0.937255859375,-0.276123046875,-0.0610351525247097,2.044677495956421,2.593993902206421,80.0,1424191.0,1.0
1168276.4457996,305082.625,323921.125,336623.90625,316844.125,305558.71875,308850.25,290441.625,329332.40625,-0.064453125,0.934814453125,-0.275634765625,-0.0610351525247097,1.8920897245407104,2.593993902206421,80.0,1424192.0,1.0
1168276.4458618,303959.40625,324581.40625,335633.28125,315481.375,305417.46875,309327.875,290946.875,329710.6875,-0.0654296875,0.934814453125,-0.275634765625,-0.0610351525247097,1.8920897245407104,2.410888433456421,80.0,1424193.0,1.0
1168276.4564624,303855.25,324701.46875,335236.5,315078.96875,305283.8125,309392.6875,291017.75,329787.125,-0.06787109375,0.93603515625,-0.2763671875,-0.03051757626235485,1.6479490995407104,2.197265386581421,80.0,1424194.0,1.0
1168276.4607965,304970.625,324198.375,336102.84375,316319.65625,305442.40625,309011.4375,290675.78125,329578.28125,-0.06787109375,0.9365234375,-0.280517578125,-0.1525878757238388,1.3427733182907104,2.044677495956421,80.0,1424195.0,1.0
1168276.4608452,305719.84375,323695.03125,336928.5,317376.5625,305592.625,308654.90625,290275.25,329268.5625,-0.064453125,0.933837890625,-0.279541015625,-0.1220703050494194,1.1901854276657104,1.9226073026657104,80.0,1424196.0,1.0
1168276.4670966,305114.1875,323935.875,336650.1875,316876.75,305583.3125,308862.21875,290438.03125,329355.125,-0.06396484375,0.93701171875,-0.27978515625,-0.2136230319738388,0.9460448622703552,1.7395018339157104,80.0,1424197.0,1.0
1168276.467148,303999.375,324613.15625,335670.8125,315524.9375,305455.125,309353.6875,290954.1875,329743.84375,-0.06005859375,0.9345703125,-0.281005859375,-0.2441406100988388,0.9765624403953552,1.6784666776657104,80.0,1424198.0,1.0
1168276.4808065,303882.0,324734.21875,335260.625,315108.28125,305316.15625,309423.96875,291030.375,329820.65625,-0.05712890625,0.936279296875,-0.277099609375,-0.2746581733226776,0.8850097060203552,1.5869139432907104,80.0,1424199.0,1.0
1168276.4808604,304990.71875,324238.71875,336123.40625,316343.1875,305476.46875,309049.71875,290701.71875,329620.9375,-0.056396484375,0.93603515625,-0.2763671875,-0.2441406100988388,0.7934569716453552,1.5869139432907104,80.0,1424200.0,1.0
1168276.4832964,305757.21875,323732.65625,336965.25,317417.0625,305633.9375,308695.40625,290306.09375,329316.84375,-0.0546875,0.935546875,-0.276611328125,-0.3051757514476776,0.7934569716453552,1.4953612089157104,80.0,1424201.0,1.0
1168276.4833454,305164.09375,323957.96875,336697.65625,316930.125,305622.46875,308891.28125,290454.5,329388.1875,-0.056884765625,0.937255859375,-0.281494140625,-0.3967284858226776,0.6713866591453552,1.4343260526657104,80.0,1424202.0,1.0
1168276.4851743,304030.9375,324625.03125,335707.9375,315564.28125,305479.59375,309367.03125,290953.9375,329757.53125,-0.05517578125,0.935546875,-0.28125,-0.4272460639476776,0.6103515028953552,1.4038084745407104,80.0,1424203.0,1.0
1168276.5045484,303889.9375,324764.5,335285.21875,315128.3125,305345.21875,309447.84375,291043.0625,329840.6875,-0.052978515625,0.936767578125,-0.2802734375,-0.4882812201976776,0.6408690810203552,1.3122557401657104,80.0,1424204.0,1.0
1168276.5046002,304986.96875,324264.5625,336129.125,316343.625,305497.40625,309074.125,290710.46875,329633.25,-0.0537109375,0.93798828125,-0.27880859375,-0.4272460639476776,0.6713866591453552,1.2512205839157104,80.0,1424205.0,1.0
1168276.5076755,305754.90625,323742.875,336966.5,317418.125,305644.75,308708.71875,290300.34375,329321.59375,-0.053955078125,0.937744140625,-0.2763671875,-0.4882812201976776,0.6408690810203552,1.1901854276657104,80.0,1424206.0,1.0
1168276.5077293,305173.125,323964.59375,336709.375,316943.5625,305633.125,308899.6875,290441.96875,329392.125,-0.0537109375,0.9365234375,-0.277587890625,-0.6103515028953552,0.6713866591453552,1.2512205839157104,80.0,1424207.0,1.0
1168276.507747,304040.78125,324633.625,335724.28125,315580.53125,305501.875,309384.0,290950.71875,329774.4375,-0.05419921875,0.935302734375,-0.277587890625,-0.7019042372703552,0.6408690810203552,1.1901854276657104,80.0,1424208.0,1.0
1168276.5102246,303891.28125,324774.09375,335289.0625,315129.5625,305366.0625,309468.3125,291043.25,329865.53125,-0.0556640625,0.934326171875,-0.2763671875,-0.7019042372703552,0.6103515028953552,1.2512205839157104,80.0,1424209.0,1.0
1168276.5127227,304991.4375,324281.71875,336126.625,316337.375,305514.21875,309098.8125,290717.34375,329663.46875,-0.056396484375,0.935791015625,-0.276611328125,-0.6713866591453552,0.5493163466453552,1.2207030057907104,80.0,1424210.0,1.0
1168276.515226,305784.65625,323763.78125,336986.0,317437.625,305673.71875,308737.34375,290316.09375,329356.46875,-0.0576171875,0.93603515625,-0.274169921875,-0.7324218153953552,0.4882812201976776,1.2207030057907104,80.0,1424211.0,1.0
1168276.5239593,305215.0625,323963.875,336736.90625,316978.875,305658.0625,308915.53125,290447.4375,329412.4375,-0.05810546875,0.936279296875,-0.274658203125,-0.8239745497703552,0.4577636420726776,1.0070799589157104,80.0,1424212.0,1.0
1168276.526475,304092.1875,324647.65625,335763.1875,315623.90625,305529.40625,309410.03125,290965.53125,329793.375,-0.058349609375,0.937255859375,-0.272216796875,-0.8850097060203552,0.3967284858226776,0.8239745497703552,80.0,1424213.0,1.0
1168276.5357506,303925.71875,324797.875,335310.4375,315148.25,305379.75,309496.40625,291057.09375,329875.46875,-0.058349609375,0.9375,-0.27490234375,-1.0070799589157104,0.3051757514476776,0.8239745497703552,80.0,1424214.0,1.0
1168276.5357986,305017.90625,324313.53125,336141.28125,316345.9375,305524.9375,309129.90625,290731.65625,329672.6875,-0.06005859375,0.937255859375,-0.27294921875,-1.0681151151657104,0.2441406100988388,0.8239745497703552,80.0,1424215.0,1.0
1168276.5375718,305806.75,323789.53125,337003.15625,317448.6875,305680.9375,308764.40625,290326.46875,329363.78125,-0.061279296875,0.936279296875,-0.27099609375,-1.1596678495407104,0.0915527269244194,0.6713866591453552,80.0,1424216.0,1.0
1168276.5452254,305243.40625,323985.5,336764.90625,317001.5625,305666.1875,308936.71875,290449.9375,329415.1875,-0.060302734375,0.935546875,-0.27099609375,-1.1596678495407104,0.0,0.7019042372703552,80.0,1424217.0,1.0
1168276.5477367,304109.09375,324663.125,335785.1875,315644.46875,305534.3125,309425.125,290960.1875,329791.15625,-0.059814453125,0.9345703125,-0.27197265625,-1.2207030057907104,-0.1220703050494194,0.4882812201976776,80.0,1424218.0,1.0
1168276.5521236,303928.84375,324818.34375,335324.28125,315163.1875,305389.21875,309521.96875,291064.59375,329883.6875,-0.061767578125,0.934814453125,-0.270263671875,-1.2512205839157104,-0.1220703050494194,0.4577636420726776,80.0,1424219.0,1.0
1168276.5521781,305014.5,324337.0625,336143.53125,316350.34375,305532.34375,309158.15625,290743.8125,329686.09375,-0.060546875,0.936279296875,-0.272216796875,-1.2207030057907104,-0.2746581733226776,0.3051757514476776,80.0,1424220.0,1.0
1168276.5601732,305826.15625,323817.4375,337020.96875,317474.1875,305697.65625,308792.03125,290341.84375,329381.3125,-0.06005859375,0.93603515625,-0.273193359375,-1.2207030057907104,-0.3967284858226776,0.1525878757238388,80.0,1424221.0,1.0
1168276.5632989,305278.0,323995.15625,336786.71875,317039.84375,305681.03125,308952.53125,290452.25,329424.0625,-0.0576171875,0.93505859375,-0.270751953125,-1.2512205839157104,-0.5187987685203552,0.0610351525247097,80.0,1424222.0,1.0
1168276.5633572,304148.78125,324670.375,335808.78125,315683.28125,305550.5,309444.375,290960.90625,329803.5,-0.060302734375,0.93798828125,-0.27001953125,-1.2207030057907104,-0.6103515028953552,0.0,80.0,1424223.0,1.0
1168276.5739787,303961.125,324846.5,335339.46875,315182.78125,305409.59375,309553.09375,291072.5625,329906.03125,-0.060791015625,0.935791015625,-0.2724609375,-1.2512205839157104,-0.6713866591453552,0.0,80.0,1424224.0,1.0
1168276.5771239,305024.09375,324357.0,336135.46875,316344.15625,305538.625,309179.34375,290745.34375,329699.5,-0.06201171875,0.934814453125,-0.26708984375,-1.1901854276657104,-0.7629393935203552,-0.0610351525247097,80.0,1424225.0,1.0
1168276.5771741,305841.09375,323831.46875,337021.125,317481.59375,305706.25,308807.25,290345.0625,329398.21875,-0.060791015625,0.93505859375,-0.27001953125,-1.2817381620407104,-0.7934569716453552,-0.0610351525247097,80.0,1424226.0,1.0
1168276.5789374,305305.96875,324008.5,336805.3125,317068.625,305693.375,308965.40625,290452.4375,329438.8125,-0.061279296875,0.935302734375,-0.272705078125,-1.2817381620407104,-1.0070799589157104,-0.03051757626235485,80.0,1424227.0,1.0
1168276.5877793,304158.25,324666.875,335814.3125,315696.9375,305549.15625,309443.65625,290951.0625,329804.03125,-0.0625,0.93359375,-0.270263671875,-1.2512205839157104,-1.0375975370407104,-0.03051757626235485,80.0,1424228.0,1.0
1168276.6096283,303946.0,324836.21875,335328.65625,315176.34375,305399.59375,309550.65625,291064.78125,329906.5,-0.062744140625,0.933349609375,-0.27001953125,-1.1291502714157104,-1.1291502714157104,-0.0610351525247097,80.0,1424229.0,1.0
1168276.6096769,305023.625,324378.8125,336140.3125,316350.78125,305552.03125,309203.59375,290764.75,329725.875,-0.0634765625,0.93310546875,-0.27001953125,-1.1291502714157104,-1.1596678495407104,-0.1220703050494194,80.0,1424230.0,1.0
1168276.6127294,305858.25,323858.8125,337035.0,317500.5625,305722.96875,308826.375,290359.53125,329418.3125,-0.0634765625,0.93115234375,-0.271484375,-1.0986326932907104,-1.2817381620407104,-0.2136230319738388,80.0,1424231.0,1.0
1168276.6152359,305325.1875,324011.625,336819.875,317090.4375,305701.6875,308964.0625,290446.4375,329438.625,-0.0634765625,0.9345703125,-0.27099609375,-1.0681151151657104,-1.4038084745407104,-0.3051757514476776,80.0,1424232.0,1.0
1168276.6177251,304186.78125,324679.9375,335844.53125,315727.78125,305567.9375,309452.6875,290950.78125,329809.65625,-0.06298828125,0.93798828125,-0.26953125,-1.0375975370407104,-1.4953612089157104,-0.1831054538488388,80.0,1424233.0,1.0
1168276.620226,303958.34375,324854.90625,335338.59375,315174.90625,305408.875,309559.96875,291060.125,329907.03125,-0.064208984375,0.935546875,-0.270263671875,-0.9765624403953552,-1.5258787870407104,-0.1831054538488388,80.0,1424234.0,1.0
1168276.622726,305027.9375,324393.375,336136.1875,316331.65625,305552.46875,309209.03125,290757.59375,329724.28125,-0.0625,0.93603515625,-0.2685546875,-0.8544921278953552,-1.6784666776657104,-0.1525878757238388,80.0,1424235.0,1.0
1168276.6252282,305882.375,323872.78125,337052.0625,317502.96875,305735.5,308840.6875,290365.1875,329432.4375,-0.0634765625,0.936767578125,-0.267333984375,-0.9155272841453552,-1.7395018339157104,-0.1525878757238388,80.0,1424236.0,1.0
1168276.6277251,305356.3125,324011.8125,336847.59375,317105.8125,305712.4375,308969.15625,290444.75,329450.96875,-0.06298828125,0.93408203125,-0.2666015625,-0.8239745497703552,-1.7700194120407104,-0.1525878757238388,80.0,1424237.0,1.0
1168276.6308215,304204.84375,324665.53125,335858.5,315735.03125,305569.90625,309447.65625,290937.75,329811.1875,-0.06201171875,0.93310546875,-0.26806640625,-0.8544921278953552,-1.8005369901657104,-0.2136230319738388,80.0,1424238.0,1.0
1168276.6308702,303959.59375,324854.5625,335337.78125,315167.65625,305408.8125,309567.375,291058.8125,329911.9375,-0.063232421875,0.934326171875,-0.266357421875,-0.7019042372703552,-1.8615721464157104,-0.03051757626235485,80.0,1424239.0,1.0
1168276.6326383,305006.65625,324399.28125,336115.4375,316298.9375,305538.625,309215.46875,290754.90625,329722.5,-0.061767578125,0.936767578125,-0.267578125,-0.6713866591453552,-1.9226073026657104,-0.0610351525247097,80.0,1424240.0,1.0
1168276.6464797,305867.375,323877.0625,337041.0625,317486.0625,305724.59375,308843.90625,290359.53125,329430.40625,-0.062255859375,0.9375,-0.267578125,-0.6408690810203552,-1.9226073026657104,-0.1831054538488388,80.0,1424241.0,1.0
1168276.649518,305366.78125,324020.375,336861.90625,317120.65625,305721.375,308977.9375,290444.5625,329454.71875,-0.064697265625,0.9384765625,-0.269287109375,-0.5493163466453552,-1.9531248807907104,-0.1525878757238388,80.0,1424242.0,1.0
1168276.649575,304209.40625,324670.1875,335873.25,315746.03125,305577.15625,309453.46875,290936.21875,329812.625,-0.065185546875,0.93896484375,-0.27197265625,-0.5493163466453552,-1.9226073026657104,-0.03051757626235485,80.0,1424243.0,1.0
1168276.651398,303945.125,324863.21875,335340.28125,315159.78125,305411.5625,309571.75,291056.90625,329917.5,-0.064208984375,0.93798828125,-0.26953125,-0.4577636420726776,-1.8920897245407104,-0.0915527269244194,80.0,1424244.0,1.0
1168276.6551387,304994.84375,324419.40625,336121.96875,316293.84375,305548.71875,309227.71875,290762.15625,329743.5,-0.064697265625,0.937744140625,-0.266845703125,-0.4882812201976776,-1.9531248807907104,-0.1220703050494194,80.0,1424245.0,1.0
1168276.6694975,305866.28125,323894.125,337052.78125,317489.5625,305734.6875,308849.34375,290362.84375,329451.21875,-0.06396484375,0.938720703125,-0.2666015625,-0.4882812201976776,-2.014159917831421,-0.03051757626235485,80.0,1424246.0,1.0
1168276.6695452,305377.15625,324024.40625,336879.6875,317139.15625,305726.28125,308974.09375,290435.8125,329467.40625,-0.062744140625,0.939453125,-0.268798828125,-0.3356933295726776,-2.014159917831421,-0.0610351525247097,80.0,1424247.0,1.0
1168276.678889,304216.8125,324664.65625,335884.25,315760.0625,305575.375,309443.28125,290923.0,329819.3125,-0.062255859375,0.9384765625,-0.267578125,-0.3967284858226776,-1.8920897245407104,-0.0610351525247097,80.0,1424248.0,1.0
1168276.6789434,303941.71875,324865.09375,335337.53125,315157.1875,305412.71875,309569.0,291054.78125,329929.8125,-0.06298828125,0.9365234375,-0.265869140625,-0.3356933295726776,-1.9226073026657104,0.0,80.0,1424249.0,1.0
1168276.6789614,304981.34375,324426.46875,336105.96875,316279.34375,305552.90625,309229.6875,290766.625,329760.03125,-0.0615234375,0.9365234375,-0.26708984375,-0.3662109076976776,-1.9531248807907104,0.03051757626235485,80.0,1424250.0,1.0
1168276.6821221,305864.6875,323897.71875,337046.875,317488.03125,305743.09375,308848.1875,290368.3125,329469.125,-0.060791015625,0.934326171875,-0.26806640625,-0.3051757514476776,-1.8615721464157104,0.0610351525247097,80.0,1424251.0,1.0
1168276.682171,305387.15625,324020.46875,336889.1875,317152.75,305736.90625,308969.78125,290435.09375,329481.0,-0.060302734375,0.934326171875,-0.26806640625,-0.2441406100988388,-1.8615721464157104,0.03051757626235485,80.0,1424252.0,1.0
1168276.6839742,304221.65625,324663.84375,335898.53125,315776.78125,305591.1875,309444.0,290924.78125,329833.4375,-0.060791015625,0.935546875,-0.267822265625,-0.2136230319738388,-1.8005369901657104,0.03051757626235485,80.0,1424253.0,1.0
1168276.6976857,303928.5625,324871.28125,335346.09375,315159.4375,305426.59375,309576.78125,291063.53125,329947.0,-0.059814453125,0.93408203125,-0.269775390625,-0.2441406100988388,-1.8005369901657104,0.0915527269244194,80.0,1424254.0,1.0
1168276.7126403,304948.53125,324420.21875,336092.1875,316252.6875,305547.5625,309229.96875,290766.53125,329763.625,-0.06103515625,0.935302734375,-0.268798828125,-0.2441406100988388,-1.6784666776657104,0.1220703050494194,80.0,1424255.0,1.0
1168276.7126946,305841.09375,323887.4375,337035.53125,317466.59375,305737.46875,308841.5625,290365.90625,329465.25,-0.059814453125,0.93701171875,-0.27001953125,-0.2441406100988388,-1.4953612089157104,0.1220703050494194,80.0,1424256.0,1.0
1168276.7127112,305388.15625,324011.53125,336892.125,317148.1875,305741.5625,308961.28125,290433.65625,329472.59375,-0.058349609375,0.937255859375,-0.27001953125,-0.1831054538488388,-1.4343260526657104,0.0915527269244194,80.0,1424257.0,1.0
1168276.7163716,304230.15625,324657.6875,335908.1875,315780.1875,305602.375,309440.5,290924.34375,329829.96875,-0.059814453125,0.93603515625,-0.26904296875,-0.2136230319738388,-1.2817381620407104,0.1220703050494194,80.0,1424258.0,1.0
1168276.7164192,303918.90625,324866.25,335333.3125,315140.65625,305429.1875,309574.90625,291059.34375,329942.0625,-0.06005859375,0.9375,-0.267578125,-0.1220703050494194,-1.2207030057907104,0.2136230319738388,80.0,1424259.0,1.0
1168276.7164326,304938.25,324432.71875,336077.8125,316232.84375,305555.59375,309237.03125,290774.84375,329769.96875,-0.061767578125,0.938232421875,-0.26708984375,-0.1220703050494194,-1.0986326932907104,0.2746581733226776,80.0,1424260.0,1.0
1168276.7190403,305836.59375,323894.9375,337028.8125,317456.375,305741.46875,308843.09375,290368.84375,329467.9375,-0.0615234375,0.938720703125,-0.263916015625,-0.2441406100988388,-1.0681151151657104,0.3356933295726776,80.0,1424261.0,1.0
1168276.7214727,305393.0625,324003.5625,336899.8125,317157.21875,305740.9375,308951.90625,290424.625,329468.84375,-0.062744140625,0.935791015625,-0.26611328125,-0.3051757514476776,-0.9155272841453552,0.2746581733226776,80.0,1424262.0,1.0
1168276.7276868,304231.9375,324644.875,335919.09375,315788.59375,305596.28125,309425.3125,290911.90625,329822.625,-0.062255859375,0.939697265625,-0.267333984375,-0.3356933295726776,-0.8239745497703552,0.2746581733226776,80.0,1424263.0,1.0
1168276.7345442,303908.625,324860.34375,335331.4375,315131.09375,305418.4375,309567.03125,291049.15625,329935.8125,-0.0625,0.93603515625,-0.265625,-0.4272460639476776,-0.7934569716453552,0.2441406100988388,80.0,1424264.0,1.0
1168276.7345947,304924.5625,324438.4375,336063.78125,316210.6875,305544.53125,309239.4375,290767.5,329765.21875,-0.0625,0.936767578125,-0.267578125,-0.3662109076976776,-0.7934569716453552,0.2136230319738388,80.0,1424265.0,1.0
1168276.743263,305836.96875,323897.90625,337022.21875,317449.25,305736.46875,308843.90625,290360.09375,329467.6875,-0.0625,0.93603515625,-0.267578125,-0.4272460639476776,-0.6408690810203552,0.1220703050494194,80.0,1424266.0,1.0
1168276.7433064,305406.125,323995.4375,336906.0625,317169.125,305740.75,308943.6875,290409.0,329468.21875,-0.060546875,0.937744140625,-0.26708984375,-0.3967284858226776,-0.6713866591453552,0.0915527269244194,80.0,1424267.0,1.0
1168276.7557348,304233.375,324628.53125,335918.21875,315798.5,305592.96875,309411.0,290891.53125,329815.46875,-0.061767578125,0.9384765625,-0.265869140625,-0.3356933295726776,-0.6408690810203552,0.2136230319738388,80.0,1424268.0,1.0
1168276.7557743,303884.3125,324838.28125,335309.53125,315114.8125,305404.59375,309549.5,291027.0625,329922.59375,-0.0634765625,0.939453125,-0.267333984375,-0.3356933295726776,-0.5493163466453552,0.2136230319738388,80.0,1424269.0,1.0
1168276.7582974,304887.09375,324417.78125,336034.8125,316181.96875,305525.75,309217.34375,290750.53125,329756.09375,-0.060546875,0.9404296875,-0.266845703125,-0.3967284858226776,-0.3967284858226776,0.1831054538488388,80.0,1424270.0,1.0
1168276.7583533,305815.96875,323881.96875,337007.09375,317441.53125,305728.6875,308826.8125,290353.46875,329469.5625,-0.061279296875,0.94140625,-0.26904296875,-0.4882812201976776,-0.3356933295726776,0.1525878757238388,80.0,1424271.0,1.0
1168276.7694871,305402.4375,323972.1875,336898.5625,317176.46875,305730.40625,308922.3125,290392.625,329459.71875,-0.061279296875,0.942138671875,-0.266357421875,-0.5798339247703552,-0.3662109076976776,0.3051757514476776,80.0,1424272.0,1.0
1168276.7695293,304233.0,324603.84375,335913.125,315807.90625,305579.375,309390.09375,290870.875,329799.8125,-0.060546875,0.94091796875,-0.26708984375,-0.6103515028953552,-0.2136230319738388,0.2441406100988388,80.0,1424273.0,1.0
1168276.7720511,303883.0625,324839.625,335308.71875,315124.84375,305408.4375,309546.90625,291028.125,329926.78125,-0.06201171875,0.94189453125,-0.2685546875,-0.7934569716453552,-0.0915527269244194,0.3356933295726776,80.0,1424274.0,1.0
1168276.7720868,304876.03125,324417.71875,336016.90625,316173.75,305526.375,309215.75,290750.0,329755.75,-0.060546875,0.941162109375,-0.268310546875,-0.7934569716453552,0.0,0.3356933295726776,80.0,1424275.0,1.0
1168276.7802298,305811.84375,323878.5,336993.34375,317431.8125,305723.59375,308820.03125,290343.375,329460.0,-0.0615234375,0.938720703125,-0.268310546875,-0.8850097060203552,0.03051757626235485,0.4577636420726776,80.0,1424276.0,1.0
1168276.7845486,305408.15625,323957.4375,336896.25,317180.03125,305726.375,308909.0,290375.09375,329443.09375,-0.06201171875,0.93896484375,-0.263427734375,-0.8239745497703552,0.1220703050494194,0.4577636420726776,80.0,1424277.0,1.0
1168276.7846036,304245.34375,324597.6875,335922.59375,315819.96875,305589.3125,309387.9375,290865.84375,329795.1875,-0.0634765625,0.93994140625,-0.2646484375,-0.7934569716453552,0.03051757626235485,0.4882812201976776,80.0,1424278.0,1.0
1168276.7952365,303874.125,324833.8125,335301.75,315110.71875,305402.1875,309540.75,291019.625,329915.34375,-0.06494140625,0.940673828125,-0.263916015625,-0.8544921278953552,0.1220703050494194,0.5187987685203552,80.0,1424279.0,1.0
1168276.7983041,304856.875,324419.3125,335999.3125,316145.9375,305513.65625,309214.125,290746.9375,329750.21875,-0.064208984375,0.93896484375,-0.263916015625,-0.8850097060203552,0.2136230319738388,0.6103515028953552,80.0,1424280.0,1.0
1168276.7983541,305802.71875,323873.3125,336979.84375,317414.0,305715.28125,308813.59375,290339.96875,329454.09375,-0.06201171875,0.9365234375,-0.265869140625,-0.7934569716453552,0.1525878757238388,0.5798339247703552,80.0,1424281.0,1.0
1168276.8039767,305417.03125,323947.59375,336900.96875,317184.9375,305724.03125,308895.84375,290366.53125,329437.71875,-0.060791015625,0.9345703125,-0.266845703125,-0.8239745497703552,0.1831054538488388,0.6408690810203552,80.0,1424282.0,1.0
