Time,FZ,C3,CZ,C4,PZ,PO7,OZ,PO8,AccX,AccY,AccZ,Gyro1,Gyro2,Gyro3,Battery,Counter,Validation
1168136.3686075,301918.25,321849.84375,333757.25,314578.28125,302891.09375,305984.125,293157.28125,329307.90625,-0.139892578125,0.9287109375,-0.21484375,-2.593993902206421,-1.3732908964157104,-0.7019042372703552,80.0,1389128.0,1.0
1168136.3686271,302216.0625,322012.3125,334661.25,315425.0625,303526.5,305973.84375,293464.03125,329720.53125,-0.136474609375,0.9267578125,-0.212646484375,-2.380370855331421,-1.5869139432907104,-0.3051757514476776,80.0,1389129.0,1.0
1168136.3768404,300575.28125,321540.59375,332953.3125,313315.0625,302719.25,305828.75,292879.65625,329125.53125,-0.133056640625,0.926025390625,-0.215576171875,-2.075195074081421,-1.6784666776657104,0.2441406100988388,80.0,1389130.0,1.0
1168136.381185,299202.96875,321020.15625,330888.09375,311041.25,301525.6875,305692.75,292111.46875,328264.8125,-0.131103515625,0.9248046875,-0.2138671875,-1.8005369901657104,-1.7700194120407104,0.6713866591453552,80.0,1389131.0,1.0
1168136.3812179,299999.3125,321190.65625,331335.84375,311762.9375,301622.78125,305774.84375,292266.96875,328367.0,-0.12841796875,0.9228515625,-0.212646484375,-1.4038084745407104,-1.8005369901657104,1.1596678495407104,80.0,1389132.0,1.0
1168136.3874257,301880.25,321842.875,333724.15625,314524.65625,302928.375,305968.84375,293181.84375,329350.46875,-0.124267578125,0.923095703125,-0.21826171875,-1.1596678495407104,-1.8005369901657104,1.7089842557907104,80.0,1389133.0,1.0
1168136.3874548,302212.21875,322009.09375,334660.25,315414.96875,303573.71875,305962.75,293493.4375,329772.125,-0.123046875,0.920654296875,-0.2177734375,-0.7324218153953552,-1.8310545682907104,2.197265386581421,80.0,1389134.0,1.0
1168136.3929156,300586.53125,321549.8125,332986.1875,313335.8125,302787.375,305827.40625,292920.875,329195.0625,-0.12060546875,0.918701171875,-0.221435546875,-0.2441406100988388,-1.8615721464157104,2.624511480331421,80.0,1389135.0,1.0
1168136.401177,299195.28125,321018.28125,330899.8125,311035.71875,301582.4375,305690.34375,292141.59375,328324.25,-0.118896484375,0.9189453125,-0.2255859375,0.2441406100988388,-1.8005369901657104,3.021239995956421,80.0,1389136.0,1.0
1168136.4012067,299965.625,321157.3125,331295.53125,311705.46875,301638.40625,305759.09375,292257.75,328387.65625,-0.12060546875,0.924072265625,-0.228271484375,0.7934569716453552,-1.8005369901657104,3.479003667831421,80.0,1389137.0,1.0
1168136.4099257,301851.90625,321793.625,333668.28125,314454.1875,302918.1875,305946.65625,293147.0625,329343.5,-0.11865234375,0.927490234375,-0.22802734375,1.1901854276657104,-1.8615721464157104,3.845214605331421,80.0,1389138.0,1.0
1168136.4099585,302218.5625,321963.84375,334630.84375,315376.6875,303569.25,305956.3125,293467.875,329763.4375,-0.12158203125,0.93212890625,-0.233642578125,1.6784666776657104,-1.9836424589157104,4.180907726287842,80.0,1389139.0,1.0
1168136.4118553,300592.625,321495.4375,332955.71875,313305.3125,302768.4375,305810.21875,292883.5,329162.625,-0.123779296875,0.93798828125,-0.239990234375,2.105712652206421,-2.166747808456421,4.333495616912842,80.0,1389140.0,1.0
1168136.4461215,299182.9375,320969.1875,330865.375,311006.21875,301559.125,305672.71875,292108.96875,328286.875,-0.12548828125,0.942138671875,-0.2412109375,2.441406011581421,-2.441406011581421,4.638671398162842,80.0,1389141.0,1.0
1168136.4461507,299944.15625,321129.40625,331258.5,311670.40625,301622.59375,305760.6875,292243.34375,328364.65625,-0.127685546875,0.949462890625,-0.243896484375,2.655029058456421,-2.899169683456421,4.730224132537842,80.0,1389142.0,1.0
1168136.4486165,301820.53125,321750.59375,333614.90625,314404.65625,302886.4375,305941.46875,293125.96875,329310.40625,-0.12939453125,0.95556640625,-0.248779296875,2.807616949081421,-3.326415777206421,4.882812023162842,80.0,1389143.0,1.0
1168136.448642,302184.6875,321893.3125,334571.125,315328.0625,303514.53125,305920.65625,293418.78125,329706.40625,-0.1279296875,0.9658203125,-0.25341796875,2.929687261581421,-3.875732183456421,4.882812023162842,80.0,1389144.0,1.0
1168136.4511727,300602.28125,321467.28125,332957.3125,313315.875,302753.5,305796.09375,292868.125,329147.59375,-0.123291015625,0.974365234375,-0.252197265625,2.868652105331421,-4.394530773162842,4.974364757537842,80.0,1389145.0,1.0
1168136.4512048,299202.78125,320981.96875,330897.84375,311032.125,301575.21875,305682.5625,292130.4375,328313.4375,-0.118896484375,0.98388671875,-0.2548828125,2.716064214706421,-4.943847179412842,5.004882335662842,80.0,1389146.0,1.0
1168136.4531822,299921.53125,321113.21875,331237.21875,311637.4375,301604.09375,305753.09375,292239.0625,328365.8125,-0.11328125,0.991943359375,-0.258056640625,2.502441167831421,-5.401610851287842,5.157470226287842,80.0,1389147.0,1.0
1168136.4556585,301786.28125,321712.53125,333558.59375,314340.03125,302839.0625,305920.375,293092.625,329283.40625,-0.108642578125,0.996826171875,-0.2607421875,2.166747808456421,-5.767821788787842,5.279540538787842,80.0,1389148.0,1.0
1168136.4581558,302162.25,321839.5625,334519.96875,315274.0625,303458.84375,305888.71875,293373.28125,329667.25,-0.099609375,1.005615234375,-0.260986328125,1.8005369901657104,-6.164550304412842,5.401610851287842,80.0,1389149.0,1.0
1168136.4606346,300606.125,321433.21875,332951.96875,313314.34375,302730.0625,305780.375,292857.65625,329140.28125,-0.094482421875,1.012939453125,-0.26171875,1.2512205839157104,-6.469726085662842,5.676269054412842,80.0,1389150.0,1.0
1168136.4631821,299198.0625,320966.40625,330906.78125,311044.21875,301572.15625,305677.1875,292143.46875,328329.53125,-0.08935546875,1.017822265625,-0.2607421875,0.6713866591453552,-6.774901866912842,6.103515148162842,80.0,1389151.0,1.0
1168136.4656261,299878.4375,321073.53125,331203.0625,311597.5625,301575.90625,305732.625,292228.78125,328356.8125,-0.084716796875,1.020263671875,-0.259033203125,0.0,-7.019042491912842,6.408690929412842,80.0,1389152.0,1.0
1168136.4681854,301727.28125,321637.9375,333486.96875,314261.4375,302780.6875,305886.40625,293047.84375,329237.28125,-0.080322265625,1.02001953125,-0.255126953125,-0.9155272841453552,-7.171630382537842,6.927489757537842,80.0,1389153.0,1.0
1168136.474966,302138.125,321769.1875,334478.59375,315235.4375,303413.21875,305859.6875,293333.21875,329622.875,-0.07568359375,1.015869140625,-0.251220703125,-1.5563963651657104,-7.385253429412842,7.385253429412842,80.0,1389154.0,1.0
1168136.4750247,300597.1875,321368.375,332932.03125,313307.0,302694.125,305748.625,292824.40625,329101.03125,-0.0703125,1.00634765625,-0.248046875,-2.197265386581421,-7.385253429412842,7.873534679412842,80.0,1389155.0,1.0
1168136.477501,299180.4375,320908.84375,330882.375,311029.71875,301537.75,305652.4375,292119.15625,328298.15625,-0.066162109375,0.997802734375,-0.241943359375,-2.868652105331421,-7.507323741912842,8.361815452575684,80.0,1389156.0,1.0
1168136.4775499,299835.15625,321001.28125,331136.625,311537.09375,301518.78125,305703.3125,292181.9375,328306.90625,-0.06298828125,0.98974609375,-0.234130859375,-3.356933355331421,-7.568358898162842,8.728026390075684,80.0,1389157.0,1.0
1168136.4906323,301678.90625,321543.4375,333393.28125,314178.46875,302697.71875,305843.5,292973.34375,329162.25,-0.058349609375,0.98095703125,-0.230224609375,-3.631591558456421,-7.446288585662842,9.063719749450684,80.0,1389158.0,1.0
1168136.4935576,302117.375,321678.71875,334400.25,315179.375,303332.3125,305822.84375,293258.46875,329545.46875,-0.05517578125,0.97509765625,-0.23095703125,-3.906249761581421,-7.293700695037842,9.307860374450684,80.0,1389159.0,1.0
1168136.4936071,300592.34375,321284.875,332881.25,313283.21875,302623.6875,305713.6875,292762.625,329032.96875,-0.056640625,0.966796875,-0.222412109375,-4.058837413787842,-7.293700695037842,9.429930686950684,80.0,1389160.0,1.0
1168136.4993618,299160.78125,320838.28125,330835.6875,311004.25,301471.65625,305615.0625,292069.46875,328240.375,-0.055908203125,0.95556640625,-0.2197265625,-4.302978038787842,-7.324218273162842,9.490965843200684,80.0,1389161.0,1.0
1168136.5019052,299780.90625,320907.40625,331043.9375,311457.34375,301417.21875,305651.09375,292106.125,328222.96875,-0.054931640625,0.9443359375,-0.21484375,-4.272460460662842,-7.293700695037842,9.521483421325684,80.0,1389162.0,1.0
1168136.5043829,301610.0625,321402.375,333249.40625,314049.28125,302546.53125,305766.78125,292846.59375,329023.78125,-0.05029296875,0.934326171875,-0.21142578125,-4.089354991912842,-7.202147960662842,9.460448265075684,80.0,1389163.0,1.0
1168136.5131469,302055.84375,321502.6875,334241.5625,315044.375,303145.71875,305726.90625,293092.28125,329362.90625,-0.04736328125,0.9248046875,-0.209716796875,-3.814697027206421,-7.019042491912842,9.460448265075684,80.0,1389164.0,1.0
1168136.5162104,300566.34375,321144.78125,332769.21875,313199.4375,302459.875,305642.0625,292620.1875,328869.53125,-0.046142578125,0.915283203125,-0.207763671875,-3.448486089706421,-7.019042491912842,9.216307640075684,80.0,1389165.0,1.0
1168136.5162702,299137.53125,320718.84375,330736.625,310937.28125,301324.15625,305568.375,291950.53125,328096.625,-0.04833984375,0.90966796875,-0.20556640625,-2.777099370956421,-6.805419445037842,9.002684593200684,80.0,1389166.0,1.0
1168136.5181336,299726.90625,320776.78125,330904.0,311346.3125,301244.03125,305602.8125,291967.71875,328055.75,-0.051513671875,0.903564453125,-0.20361328125,-2.075195074081421,-6.652831554412842,8.728026390075684,80.0,1389167.0,1.0
1168136.5318665,301545.6875,321254.9375,333077.03125,313907.8125,302340.53125,305710.8125,292672.5,328823.40625,-0.05517578125,0.900390625,-0.205078125,-1.3427733182907104,-6.439208507537842,8.422850608825684,80.0,1389168.0,1.0
1168136.5350049,302013.3125,321349.4375,334084.3125,314923.21875,302933.75,305668.0625,292909.4375,329154.125,-0.058837890625,0.896240234375,-0.2041015625,-0.7934569716453552,-6.378173351287842,8.087157249450684,80.0,1389169.0,1.0
1168136.535055,300546.40625,321003.625,332648.15625,313120.6875,302266.3125,305594.3125,292454.53125,328673.46875,-0.0546875,0.893798828125,-0.2041015625,0.03051757626235485,-6.347655773162842,7.629394054412842,80.0,1389170.0,1.0
1168136.5368621,299113.03125,320601.90625,330630.96875,310864.84375,301140.96875,305526.375,291798.8125,327914.21875,-0.05078125,0.89453125,-0.205322265625,0.7629393935203552,-6.317138195037842,7.263183116912842,80.0,1389171.0,1.0
1168136.5406988,299674.3125,320652.15625,330767.46875,311233.21875,301039.9375,305546.125,291795.25,327856.375,-0.05078125,0.897705078125,-0.2080078125,1.5869139432907104,-6.134032726287842,6.774901866912842,80.0,1389172.0,1.0
1168136.54496,301491.4375,321124.9375,332926.9375,313779.96875,302124.625,305648.84375,292491.625,328611.34375,-0.045166015625,0.89794921875,-0.208740234375,2.349853277206421,-5.859374523162842,6.317138195037842,80.0,1389173.0,1.0
1168136.5450128,301982.09375,321237.0625,333962.34375,314830.15625,302731.6875,305609.4375,292737.3125,328951.0,-0.045166015625,0.901611328125,-0.21484375,3.112792730331421,-5.493163585662842,5.920409679412842,80.0,1389174.0,1.0
1168136.5531571,300531.8125,320917.5,332566.53125,313062.40625,302089.28125,305541.46875,292305.21875,328496.53125,-0.044677734375,0.905517578125,-0.21533203125,3.784179449081421,-5.126952648162842,5.676269054412842,80.0,1389175.0,1.0
1168136.556255,299089.5,320528.84375,330561.125,310811.75,300976.0,305478.4375,291666.9375,327754.09375,-0.04345703125,0.911376953125,-0.218994140625,4.516601085662842,-4.882812023162842,5.249022960662842,80.0,1389176.0,1.0
1168136.5563107,299627.21875,320574.28125,330676.28125,311150.96875,300869.25,305503.75,291665.34375,327691.25,-0.04150390625,0.91455078125,-0.228515625,4.974364757537842,-4.394530773162842,4.974364757537842,80.0,1389177.0,1.0
1168136.5618759,301436.1875,321035.09375,332811.0625,313671.78125,301936.5,305598.0625,292342.78125,328424.375,-0.041015625,0.919677734375,-0.228759765625,5.432128429412842,-4.028319835662842,4.699706554412842,80.0,1389178.0,1.0
1168136.5817813,301952.21875,321146.3125,333864.0,314744.6875,302548.65625,305555.4375,292585.6875,328758.78125,-0.041748046875,0.9248046875,-0.2314453125,5.828856945037842,-3.540038824081421,4.455565929412842,80.0,1389179.0,1.0
1168136.5818321,300526.46875,320840.71875,332502.6875,313019.75,301929.0625,305495.0,292168.875,328321.125,-0.040283203125,0.927734375,-0.232177734375,6.072997570037842,-2.960204839706421,4.333495616912842,80.0,1389180.0,1.0
1168136.5818451,299102.375,320494.4375,330530.625,310801.03125,300861.5625,305471.5625,291574.0625,327625.90625,-0.040771484375,0.93212890625,-0.23583984375,6.317138195037842,-2.502441167831421,4.241942882537842,80.0,1389181.0,1.0
1168136.5844081,299618.4375,320538.59375,330616.65625,311104.8125,300745.34375,305504.5625,291562.25,327556.96875,-0.043701171875,0.93505859375,-0.240478515625,6.500243663787842,-1.9531248807907104,4.211425304412842,80.0,1389182.0,1.0
1168136.5868771,301413.8125,320973.84375,332724.25,313598.46875,301787.46875,305590.75,292214.28125,328266.21875,-0.047119140625,0.937744140625,-0.242919921875,6.683349132537842,-1.3732908964157104,4.089354991912842,80.0,1389183.0,1.0
1168136.5894302,301946.4375,321080.21875,333787.46875,314692.09375,302398.375,305543.0,292451.9375,328598.71875,-0.04833984375,0.94091796875,-0.247314453125,6.622313976287842,-0.9460448622703552,3.906249761581421,80.0,1389184.0,1.0
1168136.5918899,300538.25,320788.9375,332454.6875,313003.375,301795.6875,305482.90625,292051.40625,328173.78125,-0.051025390625,0.945068359375,-0.248779296875,6.561278820037842,-0.6103515028953552,3.692626714706421,80.0,1389185.0,1.0
1168136.5956567,299085.65625,320430.34375,330467.59375,310763.75,300716.09375,305438.84375,291447.8125,327466.84375,-0.0537109375,0.94580078125,-0.249267578125,6.439208507537842,-0.3051757514476776,3.662109136581421,80.0,1389186.0,1.0
1168136.6075028,299576.96875,320471.71875,330525.375,311034.28125,300588.875,305468.625,291431.53125,327395.84375,-0.057861328125,0.946533203125,-0.254150390625,6.256103038787842,0.03051757626235485,3.540038824081421,80.0,1389187.0,1.0
1168136.6075586,301364.75,320896.0625,332610.78125,313507.8125,301618.03125,305550.15625,292075.0,328097.96875,-0.061279296875,0.949462890625,-0.254150390625,6.164550304412842,0.3051757514476776,3.387450933456421,80.0,1389188.0,1.0
1168136.6093851,301930.15625,321012.375,333711.375,314643.5625,302247.90625,305508.21875,292328.5625,328445.3125,-0.0625,0.954345703125,-0.254638671875,5.767821788787842,0.4882812201976776,3.082275152206421,80.0,1389189.0,1.0
1168136.6119345,300552.9375,320746.5625,332428.46875,313001.59375,301680.4375,305462.8125,291953.6875,328052.1875,-0.068603515625,0.95947265625,-0.253173828125,5.523681163787842,0.6408690810203552,2.929687261581421,80.0,1389190.0,1.0
1168136.6181292,299107.84375,320419.96875,330463.75,310777.25,300632.125,305437.75,291376.5625,327375.28125,-0.067626953125,0.961669921875,-0.251220703125,5.035399913787842,0.7629393935203552,2.746581792831421,80.0,1389191.0,1.0
1168136.6225624,299568.03125,320456.96875,330493.71875,311013.71875,300502.0625,305466.375,291359.125,327299.03125,-0.0712890625,0.963623046875,-0.24951171875,4.547118663787842,0.9155272841453552,2.655029058456421,80.0,1389192.0,1.0
1168136.6226109,301330.59375,320855.1875,332549.28125,313461.40625,301515.75,305533.0625,291989.34375,327984.0625,-0.07177734375,0.962158203125,-0.24755859375,3.997802495956421,0.9155272841453552,2.380370855331421,80.0,1389193.0,1.0
1168136.6331299,301910.3125,320966.25,333655.59375,314606.09375,302146.25,305485.40625,292243.15625,328328.46875,-0.071533203125,0.9619140625,-0.248291015625,3.356933355331421,0.9765624403953552,2.197265386581421,80.0,1389194.0,1.0
1168136.6362099,300547.46875,320703.65625,332395.9375,312990.5,301588.25,305434.625,291876.34375,327942.3125,-0.073974609375,0.961181640625,-0.2470703125,2.624511480331421,1.0681151151657104,2.075195074081421,80.0,1389195.0,1.0
1168136.63626,299085.21875,320380.625,330433.71875,310760.875,300546.125,305412.09375,291312.1875,327273.53125,-0.072265625,0.959716796875,-0.248291015625,2.044677495956421,1.3122557401657104,2.014159917831421,80.0,1389196.0,1.0
1168136.6381296,299525.375,320415.65625,330438.0,310961.59375,300404.875,305441.96875,291290.28125,327195.40625,-0.06982421875,0.95703125,-0.248779296875,1.3427733182907104,1.4038084745407104,2.105712652206421,80.0,1389197.0,1.0
1168136.6469111,301301.625,320823.46875,332497.0625,313410.90625,301420.53125,305518.6875,291928.09375,327889.375,-0.065673828125,0.956298828125,-0.251953125,0.8850097060203552,1.5563963651657104,2.014159917831421,80.0,1389198.0,1.0
1168136.6499767,301902.34375,320936.03125,333635.65625,314590.625,302070.6875,305474.875,292200.4375,328251.21875,-0.06201171875,0.9560546875,-0.252685546875,0.4272460639476776,1.7700194120407104,2.105712652206421,80.0,1389199.0,1.0
1168136.6500295,300562.03125,320692.90625,332413.5625,313011.4375,301544.8125,305434.71875,291859.78125,327891.78125,-0.060302734375,0.95458984375,-0.255126953125,0.1220703050494194,2.075195074081421,2.166747808456421,80.0,1389200.0,1.0
1168136.6581836,299107.65625,320407.1875,330471.8125,310798.875,300529.6875,305428.375,291319.34375,327252.71875,-0.05908203125,0.96142578125,-0.254150390625,-0.2746581733226776,2.563476324081421,2.227782964706421,80.0,1389201.0,1.0
1168136.6612513,299500.78125,320418.8125,330430.9375,310951.03125,300362.84375,305429.8125,291275.34375,327155.15625,-0.05908203125,0.962646484375,-0.251220703125,-0.6713866591453552,2.868652105331421,2.288818120956421,80.0,1389202.0,1.0
1168136.6613018,301265.21875,320805.3125,332464.25,313376.03125,301369.125,305493.90625,291900.65625,327842.15625,-0.055419921875,0.9599609375,-0.25048828125,-1.2817381620407104,3.295898199081421,2.624511480331421,80.0,1389203.0,1.0
1168136.6693805,301890.71875,320920.0,333617.0625,314578.90625,302026.71875,305446.53125,292171.125,328209.375,-0.05126953125,0.953125,-0.251708984375,-1.6784666776657104,3.936767339706421,2.868652105331421,80.0,1389204.0,1.0
1168136.6725031,300570.09375,320687.46875,332422.3125,313032.875,301515.21875,305408.71875,291838.34375,327861.3125,-0.046875,0.947021484375,-0.251220703125,-2.075195074081421,4.547118663787842,3.143310308456421,80.0,1389205.0,1.0
1168136.672552,299092.28125,320390.1875,330462.59375,310797.625,300491.6875,305390.46875,291288.75,327214.1875,-0.046875,0.940185546875,-0.255126953125,-2.105712652206421,5.157470226287842,3.295898199081421,80.0,1389206.0,1.0
1168136.6807092,299480.125,320418.71875,330406.90625,310924.65625,300324.84375,305412.0,291242.625,327119.40625,-0.04931640625,0.937744140625,-0.253662109375,-2.166747808456421,5.706786632537842,3.479003667831421,80.0,1389207.0,1.0
1168136.6900049,301227.5,320784.125,332412.3125,313319.25,301301.1875,305465.84375,291840.3125,327780.46875,-0.053466796875,0.93798828125,-0.250244140625,-2.166747808456421,6.256103038787842,3.601073980331421,80.0,1389208.0,1.0
1168136.6900553,301871.0625,320890.6875,333579.5,314543.0625,301962.25,305419.0,292107.625,328147.125,-0.05810546875,0.93798828125,-0.250244140625,-2.166747808456421,6.744384288787842,3.814697027206421,80.0,1389209.0,1.0
1168136.6925067,300580.5625,320684.4375,332425.4375,313035.84375,301481.5,305391.4375,291796.5,327818.375,-0.06201171875,0.93359375,-0.246826171875,-2.136230230331421,7.080077648162842,3.967284917831421,80.0,1389210.0,1.0
1168136.692566,299126.25,320437.40625,330507.46875,310835.09375,300505.0,305409.78125,291294.5625,327218.90625,-0.06396484375,0.93115234375,-0.246826171875,-2.044677495956421,7.385253429412842,4.211425304412842,80.0,1389211.0,1.0
1168136.6980661,299506.15625,320474.40625,330439.71875,310946.125,300346.9375,305447.15625,291267.21875,327140.9375,-0.068115234375,0.92578125,-0.24609375,-1.9836424589157104,7.476806163787842,4.272460460662842,80.0,1389212.0,1.0
1168136.7081864,301237.96875,320804.21875,332409.34375,313310.75,301295.09375,305484.78125,291843.96875,327779.5,-0.07080078125,0.921875,-0.245849609375,-1.7395018339157104,7.659911632537842,4.364013195037842,80.0,1389213.0,1.0
1168136.7112105,301905.46875,320901.6875,333601.40625,314567.125,301961.0,305433.46875,292116.65625,328149.65625,-0.07275390625,0.920166015625,-0.24560546875,-1.4648436307907104,7.659911632537842,4.364013195037842,80.0,1389214.0,1.0
1168136.7112618,300624.1875,320696.0625,332463.71875,313078.9375,301487.9375,305399.0625,291799.53125,327821.6875,-0.07373046875,0.9208984375,-0.243896484375,-1.0375975370407104,7.720946788787842,4.272460460662842,80.0,1389215.0,1.0
1168136.7131431,299137.4375,320439.625,330520.71875,310846.875,300492.21875,305398.0625,291275.25,327202.375,-0.073974609375,0.921630859375,-0.243896484375,-0.8239745497703552,7.690429210662842,4.211425304412842,80.0,1389216.0,1.0
1168136.7244115,299474.9375,320456.96875,330409.125,310906.4375,300305.8125,305423.625,291228.21875,327101.15625,-0.0732421875,0.925048828125,-0.240478515625,-0.4882812201976776,7.568358898162842,4.241942882537842,80.0,1389217.0,1.0
1168136.7275025,301211.40625,320793.0625,332380.125,313273.84375,301263.625,305479.34375,291817.78125,327751.78125,-0.0712890625,0.9287109375,-0.239990234375,-0.2746581733226776,7.415771007537842,4.333495616912842,80.0,1389218.0,1.0
1168136.7275758,301883.65625,320875.84375,333570.375,314533.6875,301922.71875,305418.09375,292075.625,328111.1875,-0.072021484375,0.931884765625,-0.2392578125,-0.1525878757238388,7.171630382537842,4.333495616912842,80.0,1389219.0,1.0
1168136.7356851,300632.40625,320692.46875,332471.125,313086.34375,301470.59375,305396.71875,291778.875,327804.71875,-0.07080078125,0.935791015625,-0.239990234375,-0.0610351525247097,7.171630382537842,4.333495616912842,80.0,1389220.0,1.0
1168136.7387521,299142.96875,320452.40625,330536.09375,310855.5625,300485.15625,305399.78125,291263.53125,327192.28125,-0.069091796875,0.939208984375,-0.2421875,0.03051757626235485,7.049560070037842,4.394530773162842,80.0,1389221.0,1.0
1168136.7388083,299447.125,320453.9375,330393.75,310880.40625,300283.8125,305412.65625,291201.9375,327074.53125,-0.067138671875,0.94287109375,-0.240478515625,-0.0610351525247097,6.896972179412842,4.486083507537842,80.0,1389222.0,1.0
1168136.7406871,301172.4375,320767.125,332345.59375,313227.875,301225.53125,305455.90625,291780.5,327713.15625,-0.06787109375,0.9443359375,-0.236328125,-0.0915527269244194,6.774901866912842,4.638671398162842,80.0,1389223.0,1.0
1168136.7543943,301871.40625,320849.125,333551.53125,314513.375,301891.15625,305397.53125,292041.46875,328072.9375,-0.066650390625,0.94677734375,-0.234375,-0.2136230319738388,6.622313976287842,4.638671398162842,80.0,1389224.0,1.0
1168136.7575186,300639.46875,320669.3125,332480.4375,313101.90625,301457.8125,305381.96875,291762.34375,327776.53125,-0.064208984375,0.94775390625,-0.2333984375,-0.3967284858226776,6.530761241912842,4.760741710662842,80.0,1389225.0,1.0
1168136.7575714,299151.375,320452.40625,330558.8125,310881.125,300489.625,305399.15625,291268.53125,327182.875,-0.062744140625,0.949462890625,-0.231201171875,-0.4882812201976776,6.286620616912842,4.699706554412842,80.0,1389226.0,1.0
1168136.7594318,299441.78125,320469.3125,330392.40625,310878.71875,300282.75,305425.78125,291209.1875,327067.625,-0.064453125,0.953369140625,-0.22998046875,-0.7629393935203552,6.164550304412842,4.760741710662842,80.0,1389227.0,1.0
1168136.7619318,301166.96875,320779.28125,332329.15625,313215.28125,301219.625,305474.6875,291779.96875,327701.4375,-0.064697265625,0.957275390625,-0.22998046875,-0.9460448622703552,6.011962413787842,4.730224132537842,80.0,1389228.0,1.0
1168136.7756432,301869.625,320842.6875,333540.25,314509.4375,301877.65625,305402.1875,292034.125,328057.28125,-0.06494140625,0.95703125,-0.228759765625,-1.3427733182907104,5.859374523162842,4.577636241912842,80.0,1389229.0,1.0
1168136.7787118,300662.4375,320672.28125,332501.71875,313130.34375,301458.25,305381.875,291760.8125,327771.90625,-0.06298828125,0.959228515625,-0.228515625,-1.5869139432907104,5.737304210662842,4.547118663787842,80.0,1389230.0,1.0
1168136.7787654,299176.78125,320476.1875,330603.59375,310921.8125,300511.09375,305407.09375,291285.4375,327198.1875,-0.064697265625,0.961669921875,-0.2275390625,-1.8310545682907104,5.523681163787842,4.455565929412842,80.0,1389231.0,1.0
1168136.7806832,299432.65625,320484.15625,330403.21875,310875.9375,300291.84375,305422.375,291214.90625,327075.25,-0.063720703125,0.964599609375,-0.225341796875,-2.197265386581421,5.310058116912842,4.364013195037842,80.0,1389232.0,1.0
1168136.7830981,301136.21875,320770.78125,332298.65625,313175.59375,301200.21875,305459.21875,291766.8125,327688.84375,-0.06396484375,0.963623046875,-0.22509765625,-2.563476324081421,5.187987804412842,3.997802495956421,80.0,1389233.0,1.0
1168136.7906793,301871.6875,320835.53125,333533.28125,314504.53125,301868.1875,305395.28125,292027.0,328051.125,-0.063720703125,0.964599609375,-0.224853515625,-2.960204839706421,5.004882335662842,3.784179449081421,80.0,1389234.0,1.0
1168136.7999798,300683.0,320672.28125,332524.9375,313163.15625,301464.4375,305378.03125,291758.125,327774.59375,-0.063232421875,0.96533203125,-0.2255859375,-3.204345464706421,4.852294445037842,3.570556402206421,80.0,1389235.0,1.0
1168136.8000299,299188.65625,320487.28125,330629.34375,310956.6875,300525.3125,305409.15625,291290.375,327208.1875,-0.06201171875,0.96435546875,-0.22412109375,-3.509521245956421,4.699706554412842,3.234863042831421,80.0,1389236.0,1.0
1168136.8023509,299420.75,320491.03125,330405.28125,310877.8125,300295.96875,305427.75,291211.40625,327081.9375,-0.06201171875,0.966064453125,-0.224365234375,-3.875732183456421,4.516601085662842,3.112792730331421,80.0,1389237.0,1.0
1168136.802407,301111.71875,320756.21875,332277.03125,313152.96875,301186.1875,305459.5,291743.75,327679.53125,-0.060546875,0.964599609375,-0.222412109375,-4.150390148162842,4.394530773162842,2.929687261581421,80.0,1389238.0,1.0
1168136.8081613,301870.34375,320816.3125,333526.75,314504.71875,301856.3125,305396.90625,292003.90625,328042.625,-0.060791015625,0.96630859375,-0.2255859375,-4.486083507537842,4.333495616912842,2.593993902206421,80.0,1389239.0,1.0
1168136.8144308,300708.21875,320667.875,332548.375,313190.59375,301468.53125,305386.625,291749.03125,327776.8125,-0.061279296875,0.965576171875,-0.227783203125,-4.669188976287842,4.211425304412842,2.319335699081421,80.0,1389240.0,1.0
1168136.8187519,299183.3125,320468.6875,330632.375,310958.46875,300513.5,305400.3125,291271.0625,327196.75,-0.0634765625,0.96533203125,-0.222900390625,-4.760741710662842,3.967284917831421,2.227782964706421,80.0,1389241.0,1.0
1168136.8188029,299387.6875,320469.9375,330376.84375,310842.0625,300268.0625,305419.15625,291192.1875,327055.84375,-0.06201171875,0.965087890625,-0.22265625,-4.913329601287842,3.997802495956421,1.9531248807907104,80.0,1389242.0,1.0
1168136.826888,301076.59375,320730.90625,332235.0,313104.3125,301147.125,305449.84375,291722.8125,327641.625,-0.062255859375,0.963134765625,-0.21923828125,-4.974364757537842,3.997802495956421,1.8005369901657104,80.0,1389243.0,1.0
1168136.8300616,301872.46875,320806.90625,333517.09375,314498.90625,301841.1875,305398.875,292002.65625,328022.15625,-0.065673828125,0.962158203125,-0.220947265625,-5.126952648162842,3.845214605331421,1.6174315214157104,80.0,1389244.0,1.0
1168136.8301108,300725.03125,320662.4375,332554.90625,313211.4375,301466.125,305387.875,291755.53125,327765.28125,-0.064697265625,0.9599609375,-0.218017578125,-5.096435070037842,3.784179449081421,1.2512205839157104,80.0,1389245.0,1.0
1168136.8318823,299213.53125,320500.0625,330657.40625,310994.59375,300536.84375,305425.4375,291300.375,327210.59375,-0.066162109375,0.95849609375,-0.217529296875,-5.065917491912842,3.692626714706421,1.1291502714157104,80.0,1389246.0,1.0
1168136.840675,299392.96875,320496.6875,330375.0625,310847.15625,300282.5625,305440.0,291209.34375,327063.09375,-0.068359375,0.9580078125,-0.21630859375,-5.096435070037842,3.570556402206421,1.0681151151657104,80.0,1389247.0,1.0
1168136.844384,301057.1875,320722.25,332196.03125,313073.21875,301134.4375,305451.1875,291708.25,327622.3125,-0.068115234375,0.9560546875,-0.215087890625,-5.004882335662842,3.448486089706421,0.8850097060203552,80.0,1389248.0,1.0
1168136.8486413,301860.59375,320775.71875,333482.0625,314473.6875,301815.96875,305382.40625,291965.90625,327986.90625,-0.06787109375,0.95556640625,-0.218017578125,-4.821776866912842,3.356933355331421,0.6713866591453552,80.0,1389249.0,1.0
1168136.8486783,300739.4375,320645.28125,332554.28125,313220.28125,301455.125,305375.0,291724.34375,327737.21875,-0.06591796875,0.955322265625,-0.2177734375,-4.730224132537842,3.265380620956421,0.5798339247703552,80.0,1389250.0,1.0
1168136.8569039,299222.625,320494.875,330664.03125,311006.46875,300533.96875,305421.9375,291282.5,327199.0625,-0.065673828125,0.95361328125,-0.218017578125,-4.455565929412842,3.204345464706421,0.4272460639476776,80.0,1389251.0,1.0
1168136.8612522,299381.15625,320488.28125,330356.21875,310825.15625,300265.9375,305443.40625,291189.6875,327050.65625,-0.066650390625,0.952392578125,-0.216064453125,-4.211425304412842,3.112792730331421,0.3662109076976776,80.0,1389252.0,1.0
1168136.8613036,301047.96875,320712.0625,332167.875,313042.09375,301106.4375,305457.4375,291686.96875,327603.28125,-0.068603515625,0.95263671875,-0.215576171875,-4.058837413787842,2.990722417831421,0.3967284858226776,80.0,1389253.0,1.0
1168136.8693867,301866.65625,320762.375,333466.5,314462.3125,301787.375,305384.375,291944.71875,327964.375,-0.06884765625,0.951171875,-0.21484375,-3.784179449081421,2.807616949081421,0.2746581733226776,80.0,1389254.0,1.0
1168136.8719336,300757.84375,320630.78125,332561.4375,313237.71875,301435.46875,305375.90625,291709.40625,327720.75,-0.06982421875,0.949951171875,-0.21240234375,-3.509521245956421,2.655029058456421,0.2441406100988388,80.0,1389255.0,1.0
1168136.8756654,299237.65625,320492.1875,330676.09375,311025.6875,300520.8125,305431.5,291272.84375,327186.28125,-0.065673828125,0.952392578125,-0.2138671875,-3.173827886581421,2.563476324081421,0.1525878757238388,80.0,1389256.0,1.0
1168136.8844413,299373.75,320494.25,330339.84375,310810.40625,300240.34375,305450.375,291167.4375,327023.5625,-0.064208984375,0.9521484375,-0.215576171875,-2.807616949081421,2.502441167831421,0.1525878757238388,80.0,1389257.0,1.0
1168136.8887526,301031.875,320711.25,332127.625,313003.84375,301066.3125,305458.59375,291650.03125,327565.0,-0.0634765625,0.956298828125,-0.2158203125,-2.471923589706421,2.532958745956421,0.1525878757238388,80.0,1389258.0,1.0
1168136.8888124,301872.65625,320749.4375,333442.96875,314449.625,301750.1875,305377.40625,291904.21875,327922.90625,-0.064208984375,0.95556640625,-0.21630859375,-2.166747808456421,2.502441167831421,0.2441406100988388,80.0,1389259.0,1.0
1168136.8944183,300787.8125,320632.03125,332567.5,313256.5,301414.90625,305374.28125,291681.4375,327689.71875,-0.066162109375,0.955322265625,-0.212890625,-1.8310545682907104,2.380370855331421,0.3967284858226776,80.0,1389260.0,1.0
1168136.9037513,299272.875,320525.28125,330701.3125,311057.71875,300522.0,305447.15625,291273.65625,327179.3125,-0.068603515625,0.954833984375,-0.21435546875,-1.6784666776657104,2.441406011581421,0.3662109076976776,80.0,1389261.0,1.0
1168136.9038039,299378.03125,320513.65625,330336.53125,310808.875,300226.84375,305460.84375,291165.46875,327010.40625,-0.067626953125,0.9541015625,-0.214111328125,-1.6784666776657104,2.319335699081421,0.5493163466453552,80.0,1389262.0,1.0
1168136.9061518,301023.84375,320710.71875,332108.59375,312986.65625,301037.6875,305461.0,291639.21875,327542.75,-0.0693359375,0.952880859375,-0.21630859375,-1.4343260526657104,2.288818120956421,0.6713866591453552,80.0,1389263.0,1.0
1168136.9062017,301877.125,320745.40625,333435.125,314443.65625,301722.71875,305383.21875,291894.84375,327904.3125,-0.068359375,0.952880859375,-0.21875,-1.1596678495407104,2.288818120956421,0.6713866591453552,80.0,1389264.0,1.0
1168136.9131841,300805.15625,320632.65625,332580.90625,313273.46875,301400.5,305383.5,291677.59375,327682.75,-0.065185546875,0.95263671875,-0.21630859375,-0.8239745497703552,2.288818120956421,0.6713866591453552,80.0,1389265.0,1.0
1168136.9156558,299292.1875,320548.15625,330727.6875,311086.59375,300526.71875,305468.15625,291289.28125,327193.0,-0.067138671875,0.957275390625,-0.216796875,-0.5187987685203552,2.227782964706421,0.6713866591453552,80.0,1389266.0,1.0
1168136.9219369,299385.34375,320544.9375,330352.53125,310823.46875,300235.875,305489.0,291187.8125,327032.3125,-0.06689453125,0.958984375,-0.217529296875,-0.3967284858226776,2.197265386581421,0.8544921278953552,80.0,1389267.0,1.0
1168136.9312549,301026.96875,320741.375,332109.75,312984.875,301042.96875,305489.875,291654.15625,327557.3125,-0.066650390625,0.958740234375,-0.21484375,-0.3356933295726776,2.105712652206421,0.9765624403953552,80.0,1389268.0,1.0
1168136.9313053,301901.375,320770.15625,333452.625,314463.40625,301736.125,305409.4375,291911.125,327921.46875,-0.068115234375,0.95654296875,-0.213623046875,-0.3967284858226776,2.044677495956421,1.2207030057907104,80.0,1389269.0,1.0
1168136.9362062,300851.1875,320660.28125,332620.96875,313320.96875,301423.9375,305411.9375,291699.75,327703.5,-0.0703125,0.953125,-0.21533203125,-0.1831054538488388,2.044677495956421,1.3122557401657104,80.0,1389270.0,1.0
1168136.9362652,299330.90625,320587.875,330772.3125,311131.8125,300551.5,305495.25,291316.03125,327217.3125,-0.06982421875,0.9521484375,-0.21533203125,0.0,1.9531248807907104,1.4343260526657104,80.0,1389271.0,1.0
1168136.9419517,299409.40625,320602.09375,330391.34375,310851.90625,300266.09375,305522.6875,291223.5,327067.625,-0.0703125,0.950439453125,-0.216552734375,0.2136230319738388,1.8920897245407104,1.5869139432907104,80.0,1389272.0,1.0
1168136.9512148,301032.78125,320772.21875,332120.46875,312986.5,301053.96875,305516.1875,291673.65625,327575.375,-0.068115234375,0.94970703125,-0.21728515625,0.5493163466453552,1.8005369901657104,1.6479490995407104,80.0,1389273.0,1.0
1168136.9512656,301909.84375,320770.71875,333455.59375,314471.71875,301729.53125,305422.375,291911.90625,327916.65625,-0.068115234375,0.9501953125,-0.21826171875,0.6408690810203552,1.6174315214157104,1.6174315214157104,80.0,1389274.0,1.0
1168136.9575013,300888.65625,320676.375,332658.875,313373.71875,301435.0,305428.03125,291714.5,327711.28125,-0.0673828125,0.948974609375,-0.21826171875,0.7629393935203552,1.5258787870407104,1.5869139432907104,80.0,1389275.0,1.0
1168136.9575506,299375.15625,320631.21875,330831.125,311204.0625,300588.78125,305527.0,291354.1875,327250.9375,-0.06787109375,0.94921875,-0.221435546875,0.9460448622703552,1.4648436307907104,1.8005369901657104,80.0,1389276.0,1.0
1168136.9662587,299413.96875,320628.09375,330403.78125,310872.375,300278.8125,305544.53125,291240.65625,327082.5625,-0.068115234375,0.95068359375,-0.219970703125,1.0070799589157104,1.3122557401657104,1.8615721464157104,80.0,1389277.0,1.0
1168136.9663178,301031.25,320781.34375,332108.125,312981.3125,301051.8125,305532.53125,291678.5625,327579.03125,-0.06787109375,0.951416015625,-0.221435546875,1.1291502714157104,1.1901854276657104,1.8615721464157104,80.0,1389278.0,1.0
1168136.9725051,301932.125,320773.46875,333453.625,314480.75,301728.28125,305437.59375,291914.34375,327917.375,-0.068115234375,0.949951171875,-0.222900390625,1.3427733182907104,1.0070799589157104,2.044677495956421,80.0,1389279.0,1.0
1168136.9725543,300932.28125,320688.4375,332682.84375,313413.75,301448.34375,305447.875,291728.375,327724.6875,-0.067626953125,0.94775390625,-0.22216796875,1.4953612089157104,0.8544921278953552,2.044677495956421,80.0,1389280.0,1.0
1168136.9781235,299418.15625,320658.21875,330866.90625,311254.6875,300612.90625,305551.3125,291383.0625,327278.625,-0.068603515625,0.94873046875,-0.223388671875,1.6479490995407104,0.7324218153953552,2.014159917831421,80.0,1389281.0,1.0
1168136.9924719,299445.96875,320670.3125,330432.90625,310906.78125,300307.40625,305585.03125,291281.59375,327118.15625,-0.067626953125,0.949462890625,-0.226318359375,1.7089842557907104,0.6103515028953552,2.105712652206421,80.0,1389282.0,1.0
1168136.9925241,301043.21875,320799.3125,332098.3125,312972.28125,301050.5625,305562.5625,291691.875,327586.75,-0.066650390625,0.947998046875,-0.2255859375,1.7089842557907104,0.4882812201976776,2.136230230331421,80.0,1389283.0,1.0
1168136.9955732,301960.8125,320781.625,333452.28125,314483.6875,301723.0,305464.6875,291919.15625,327917.8125,-0.06640625,0.9482421875,-0.2265625,1.8310545682907104,0.3967284858226776,2.197265386581421,80.0,1389284.0,1.0
1168136.9956308,300986.09375,320706.78125,332716.625,313452.65625,301457.375,305478.4375,291741.25,327732.125,-0.066162109375,0.949951171875,-0.22412109375,1.8310545682907104,0.3662109076976776,2.227782964706421,80.0,1389285.0,1.0
1168136.9956488,299465.90625,320698.28125,330917.25,311301.0625,300637.0625,305590.75,291409.375,327300.0,-0.064208984375,0.94970703125,-0.224853515625,1.8920897245407104,0.1525878757238388,2.075195074081421,80.0,1389286.0,1.0
1168136.998241,299469.40625,320716.875,330456.34375,310920.28125,300325.03125,305626.3125,291303.9375,327137.46875,-0.0615234375,0.951171875,-0.227783203125,2.044677495956421,0.03051757626235485,2.044677495956421,80.0,1389287.0,1.0
1168137.0018849,301051.90625,320823.1875,332093.65625,312962.875,301048.6875,305596.46875,291697.0625,327589.6875,-0.060302734375,0.95263671875,-0.22998046875,1.9836424589157104,-0.0915527269244194,2.105712652206421,80.0,1389288.0,1.0
1168137.0143546,301974.84375,320778.75,333438.0625,314475.65625,301707.53125,305481.65625,291905.3125,327902.34375,-0.05908203125,0.951904296875,-0.231689453125,1.9531248807907104,-0.1831054538488388,2.258300542831421,80.0,1389289.0,1.0
1168137.0186682,301024.1875,320713.03125,332731.125,313480.28125,301458.09375,305498.5625,291738.03125,327726.5625,-0.05859375,0.95263671875,-0.2333984375,1.8920897245407104,-0.1831054538488388,2.319335699081421,80.0,1389290.0,1.0
1168137.0187037,299524.65625,320742.71875,330966.6875,311362.21875,300669.6875,305636.34375,291440.9375,327327.625,-0.056884765625,0.955078125,-0.23681640625,1.8615721464157104,-0.2746581733226776,2.319335699081421,80.0,1389291.0,1.0
1168137.0298863,299515.71875,320776.25,330499.96875,310966.875,300363.28125,305681.65625,291344.625,327172.6875,-0.056884765625,0.9560546875,-0.2353515625,1.7700194120407104,-0.1831054538488388,2.380370855331421,80.0,1389292.0,1.0
1168137.0299214,301067.5625,320852.34375,332092.9375,312955.5625,301048.15625,305627.84375,291702.34375,327589.78125,-0.057373046875,0.95751953125,-0.234619140625,1.6784666776657104,-0.1831054538488388,2.349853277206421,80.0,1389293.0,1.0
1168137.0324073,302019.125,320809.15625,333461.84375,314493.4375,301712.09375,305517.875,291915.21875,327909.21875,-0.05712890625,0.9580078125,-0.234375,1.5869139432907104,-0.3356933295726776,2.319335699081421,80.0,1389294.0,1.0
1168137.0324584,301090.625,320749.4375,332790.3125,313536.34375,301480.78125,305537.53125,291759.65625,327749.28125,-0.057861328125,0.9599609375,-0.236328125,1.4648436307907104,-0.3662109076976776,2.319335699081421,80.0,1389295.0,1.0
1168137.0411345,299580.28125,320783.84375,331032.03125,311423.90625,300699.1875,305670.9375,291470.6875,327360.625,-0.056640625,0.958740234375,-0.235595703125,1.3427733182907104,-0.4882812201976776,2.380370855331421,80.0,1389296.0,1.0
1168137.0411703,299544.6875,320812.46875,330537.78125,310998.6875,300379.84375,305715.90625,291371.8125,327204.78125,-0.056884765625,0.95947265625,-0.239501953125,1.1901854276657104,-0.5493163466453552,2.288818120956421,80.0,1389297.0,1.0
1168137.0474306,301097.78125,320890.40625,332122.1875,312986.65625,301070.0625,305676.5625,291733.46875,327626.6875,-0.05615234375,0.95849609375,-0.23779296875,1.0375975370407104,-0.4882812201976776,2.227782964706421,80.0,1389298.0,1.0
1168137.0474659,302059.78125,320836.34375,333488.03125,314530.46875,301727.90625,305561.0625,291932.5625,327932.5625,-0.056884765625,0.959228515625,-0.234619140625,0.7629393935203552,-0.5798339247703552,2.197265386581421,80.0,1389299.0,1.0
1168137.0586013,301167.40625,320797.96875,332853.53125,313610.46875,301519.78125,305597.34375,291796.5,327788.15625,-0.05615234375,0.961181640625,-0.234619140625,0.4882812201976776,-0.6103515028953552,2.105712652206421,80.0,1389300.0,1.0
1168137.0586218,299665.90625,320850.625,331117.25,311510.5625,300758.65625,305741.125,291530.40625,327415.625,-0.05712890625,0.961181640625,-0.23193359375,0.3356933295726776,-0.7019042372703552,2.014159917831421,80.0,1389301.0,1.0
1168137.0873989,299608.34375,320879.4375,330598.78125,311051.1875,300431.875,305779.3125,291424.5625,327252.34375,-0.058349609375,0.962646484375,-0.23583984375,0.0915527269244194,-0.7934569716453552,2.075195074081421,80.0,1389302.0,1.0
1168137.0874245,301144.0,320940.5625,332146.40625,313002.125,301096.59375,305725.75,291768.59375,327651.375,-0.056640625,0.960205078125,-0.237060546875,-0.0915527269244194,-0.8239745497703552,1.9836424589157104,80.0,1389303.0,1.0
1168137.0898472,302114.15625,320876.46875,333517.625,314558.25,301749.0,305601.28125,291961.4375,327948.3125,-0.0556640625,0.96142578125,-0.23681640625,-0.4272460639476776,-0.9765624403953552,1.8920897245407104,80.0,1389304.0,1.0
1168137.0898667,301235.46875,320836.5,332907.4375,313674.03125,301548.65625,305630.0,291826.96875,327809.4375,-0.05615234375,0.95751953125,-0.23681640625,-0.4577636420726776,-0.9460448622703552,1.8005369901657104,80.0,1389305.0,1.0
1168137.0917794,299734.125,320913.5,331189.46875,311589.84375,300805.21875,305789.65625,291578.53125,327461.3125,-0.056640625,0.95703125,-0.239013671875,-0.6103515028953552,-1.0375975370407104,1.7700194120407104,80.0,1389306.0,1.0
1168137.0942798,299653.3125,320950.40625,330655.8125,311103.5625,300476.75,305839.125,291481.34375,327308.5,-0.057373046875,0.954833984375,-0.2373046875,-0.7629393935203552,-1.1291502714157104,1.7700194120407104,80.0,1389307.0,1.0
1168137.0967564,301182.53125,321004.9375,332191.09375,313034.21875,301136.03125,305792.71875,291819.75,327708.875,-0.0556640625,0.95654296875,-0.236328125,-0.8850097060203552,-1.1291502714157104,1.8615721464157104,80.0,1389308.0,1.0
1168137.0992815,302175.40625,320931.0,333570.3125,314604.5625,301788.25,305669.40625,292004.53125,328003.90625,-0.05224609375,0.957763671875,-0.239501953125,-1.0986326932907104,-1.2512205839157104,1.8920897245407104,80.0,1389309.0,1.0
1168137.1017804,301309.65625,320885.25,332974.21875,313740.8125,301589.6875,305687.21875,291862.21875,327858.4375,-0.052734375,0.959228515625,-0.239990234375,-1.3122557401657104,-1.2207030057907104,1.9226073026657104,80.0,1389310.0,1.0
1168137.1042796,299809.59375,320983.40625,331274.15625,311675.6875,300865.59375,305856.1875,291637.15625,327528.1875,-0.054443359375,0.96142578125,-0.2412109375,-1.5258787870407104,-1.1596678495407104,1.8920897245407104,80.0,1389311.0,1.0
1168137.1067581,299697.375,321014.34375,330711.96875,311157.84375,300524.6875,305899.1875,291534.0,327364.125,-0.053955078125,0.96435546875,-0.2421875,-1.7395018339157104,-1.1901854276657104,1.9226073026657104,80.0,1389312.0,1.0
1168137.1107575,301198.09375,321038.46875,332201.125,313044.34375,301151.9375,305833.84375,291841.1875,327728.09375,-0.0556640625,0.966552734375,-0.238037109375,-2.136230230331421,-1.1901854276657104,1.9531248807907104,80.0,1389313.0,1.0
1168137.1162171,302198.46875,320948.96875,333580.40625,314626.21875,301799.0,305698.9375,292020.28125,328013.03125,-0.060546875,0.968017578125,-0.2373046875,-2.471923589706421,-1.2207030057907104,2.105712652206421,80.0,1389314.0,1.0
1168137.1162519,301368.21875,320923.0625,333029.46875,313813.3125,301632.34375,305734.15625,291905.21875,327894.90625,-0.06298828125,0.965576171875,-0.239990234375,-2.929687261581421,-1.3122557401657104,2.136230230331421,80.0,1389315.0,1.0
1168137.1181211,299876.84375,321044.65625,331350.21875,311764.03125,300929.59375,305919.9375,291703.34375,327586.8125,-0.06103515625,0.96533203125,-0.242431640625,-3.448486089706421,-1.3732908964157104,2.136230230331421,80.0,1389316.0,1.0
1168137.1206202,299786.25,321125.75,330811.03125,311263.15625,300631.5,306010.9375,291646.375,327468.09375,-0.060302734375,0.963134765625,-0.23974609375,-3.753661870956421,-1.5258787870407104,2.044677495956421,80.0,1389317.0,1.0
1168137.1274645,301301.09375,321166.15625,332303.3125,313150.375,301273.71875,305964.625,291969.75,327846.8125,-0.06103515625,0.959716796875,-0.2392578125,-3.967284917831421,-1.5869139432907104,1.9836424589157104,80.0,1389318.0,1.0
1168137.1274973,302318.34375,321072.90625,333694.75,314744.59375,301925.21875,305833.5625,292149.125,328131.9375,-0.062744140625,0.958251953125,-0.24267578125,-4.150390148162842,-1.6784666776657104,2.136230230331421,80.0,1389319.0,1.0
1168137.1293945,301497.15625,321036.0625,333160.90625,313947.78125,301759.46875,305858.15625,292027.96875,328009.8125,-0.064697265625,0.95849609375,-0.23876953125,-4.669188976287842,-1.8920897245407104,2.349853277206421,80.0,1389320.0,1.0
1168137.140622,300001.375,321163.375,331489.53125,311902.78125,301063.34375,306039.5625,291823.6875,327707.6875,-0.062255859375,0.9560546875,-0.236328125,-5.157470226287842,-2.166747808456421,2.410888433456421,80.0,1389321.0,1.0
1168137.143716,299854.21875,321212.1875,330892.1875,311337.375,300720.03125,306094.0,291719.875,327552.40625,-0.062255859375,0.9521484375,-0.236328125,-5.340575695037842,-2.288818120956421,2.593993902206421,80.0,1389322.0,1.0
1168137.1437484,301339.625,321229.375,332345.25,313183.28125,301329.78125,306025.34375,292013.03125,327906.90625,-0.0634765625,0.94677734375,-0.23486328125,-5.401610851287842,-2.532958745956421,2.746581792831421,80.0,1389323.0,1.0
1168137.1456224,302390.96875,321149.34375,333764.21875,314807.25,301994.53125,305895.15625,292199.53125,328200.25,-0.06640625,0.942138671875,-0.235595703125,-5.554198741912842,-2.838134527206421,2.838134527206421,80.0,1389324.0,1.0
1168137.154344,301607.3125,321131.71875,333267.75,314050.78125,301855.5,305936.21875,292100.65625,328097.4375,-0.06640625,0.93701171875,-0.235107421875,-5.554198741912842,-3.051757574081421,2.807616949081421,80.0,1389325.0,1.0
1168137.1586765,300103.46875,321254.9375,331593.0625,312001.40625,301159.0,306120.375,291906.09375,327797.28125,-0.0625,0.935546875,-0.234375,-5.371093273162842,-3.356933355331421,2.685546636581421,80.0,1389326.0,1.0
1168137.1587081,299940.21875,321308.9375,330983.03125,311415.5,300816.3125,306186.90625,291814.28125,327646.09375,-0.060791015625,0.932373046875,-0.23486328125,-5.249022960662842,-3.692626714706421,2.685546636581421,80.0,1389327.0,1.0
1168137.1731303,301426.53125,321339.0625,332428.40625,313254.0,301423.75,306127.09375,292107.4375,327999.625,-0.05908203125,0.93017578125,-0.232177734375,-5.065917491912842,-3.814697027206421,2.441406011581421,80.0,1389328.0,1.0
1168137.1731618,302480.71875,321242.15625,333848.25,314885.84375,302079.5625,305987.25,292280.46875,328282.3125,-0.05810546875,0.931640625,-0.2314453125,-4.699706554412842,-4.089354991912842,2.349853277206421,80.0,1389329.0,1.0
1168137.1731696,301710.84375,321213.1875,333369.65625,314158.25,301942.3125,306019.0,292173.0625,328179.59375,-0.058349609375,0.93115234375,-0.22900390625,-4.486083507537842,-4.150390148162842,2.410888433456421,80.0,1389330.0,1.0
1168137.1756202,300209.96875,321351.75,331706.4375,312124.4375,301256.5625,306211.5,291992.75,327896.71875,-0.05517578125,0.931884765625,-0.230224609375,-4.211425304412842,-4.211425304412842,2.319335699081421,80.0,1389331.0,1.0
1168137.1781268,300038.9375,321428.46875,331083.71875,311526.46875,300919.125,306293.21875,291914.34375,327760.0,-0.051513671875,0.930419921875,-0.230224609375,-3.936767339706421,-4.272460460662842,2.349853277206421,80.0,1389332.0,1.0
1168137.1843802,301510.375,321444.75,332502.875,313340.34375,301514.6875,306229.65625,292195.96875,328101.53125,-0.050048828125,0.93017578125,-0.23046875,-3.540038824081421,-4.241942882537842,2.349853277206421,80.0,1389333.0,1.0
1168137.1905794,302564.9375,321323.59375,333913.53125,314966.84375,302157.96875,306074.0,292350.09375,328364.65625,-0.043212890625,0.93212890625,-0.230712890625,-3.234863042831421,-4.272460460662842,2.258300542831421,80.0,1389334.0,1.0
1168137.1974666,301822.15625,321302.84375,333458.71875,314266.53125,302032.25,306112.6875,292252.03125,328268.09375,-0.041015625,0.935302734375,-0.230712890625,-2.929687261581421,-4.150390148162842,2.197265386581421,80.0,1389335.0,1.0
1168137.1974983,300330.40625,321460.3125,331814.875,312250.5625,301362.875,306324.3125,292090.1875,328003.28125,-0.0361328125,0.937744140625,-0.227294921875,-2.655029058456421,-4.058837413787842,2.197265386581421,80.0,1389336.0,1.0
1168137.2000372,300137.53125,321535.03125,331183.9375,311635.0,301022.65625,306405.40625,292016.0625,327869.625,-0.033203125,0.943115234375,-0.228271484375,-2.441406011581421,-3.784179449081421,2.288818120956421,80.0,1389337.0,1.0
1168137.2000728,301598.90625,321549.0,332589.40625,313422.78125,301604.09375,306336.46875,292284.75,328200.6875,-0.030517578125,0.94873046875,-0.229248046875,-2.227782964706421,-3.631591558456421,2.288818120956421,80.0,1389338.0,1.0
1168137.2056262,302689.84375,321443.5,334027.875,315078.34375,302261.40625,306193.78125,292440.5,328473.03125,-0.02734375,0.951904296875,-0.233642578125,-2.227782964706421,-3.326415777206421,2.471923589706421,80.0,1389339.0,1.0
1168137.2156213,301968.78125,321426.6875,333603.46875,314413.6875,302153.21875,306231.0625,292348.21875,328387.90625,-0.02587890625,0.954345703125,-0.232666015625,-2.288818120956421,-2.899169683456421,2.563476324081421,80.0,1389340.0,1.0
1168137.2187225,300474.4375,321595.03125,331976.15625,312411.78125,301504.5625,306448.5,292205.625,328145.34375,-0.02197265625,0.95654296875,-0.22900390625,-2.288818120956421,-2.593993902206421,2.655029058456421,80.0,1389341.0,1.0
1168137.2187546,300261.1875,321679.78125,331323.0625,311764.28125,301161.53125,306539.34375,292134.4375,328015.34375,-0.018798828125,0.9560546875,-0.23193359375,-2.349853277206421,-2.197265386581421,2.807616949081421,80.0,1389342.0,1.0
1168137.2243552,301715.21875,321682.21875,332701.71875,313527.5,301730.3125,306468.4375,292390.6875,328334.4375,-0.017333984375,0.954345703125,-0.23095703125,-2.563476324081421,-1.7089842557907104,2.960204839706421,80.0,1389343.0,1.0
1168137.2287134,302816.34375,321558.28125,334137.3125,315186.625,302377.46875,306313.0625,292533.3125,328588.90625,-0.015380859375,0.955078125,-0.23095703125,-2.563476324081421,-1.2817381620407104,2.868652105331421,80.0,1389344.0,1.0
1168137.2287461,302113.15625,321533.4375,333732.75,314543.875,302272.21875,306348.03125,292436.28125,328495.90625,-0.0146484375,0.955322265625,-0.226806640625,-2.410888433456421,-0.8239745497703552,2.899169683456421,80.0,1389345.0,1.0
1168137.2367826,300630.53125,321731.125,332137.0,312564.75,301646.375,306584.59375,292314.59375,328272.65625,-0.01416015625,0.9580078125,-0.2275390625,-2.502441167831421,-0.3356933295726776,2.899169683456421,80.0,1389346.0,1.0
1168137.24107,300396.1875,321826.6875,331472.09375,311898.125,301304.125,306680.34375,292243.8125,328145.4375,-0.016357421875,0.960693359375,-0.228271484375,-2.593993902206421,0.1220703050494194,2.960204839706421,80.0,1389347.0,1.0
1168137.2410876,301830.0,321804.6875,332812.125,313622.96875,301845.84375,306603.375,292471.96875,328437.34375,-0.014404296875,0.96533203125,-0.2294921875,-2.716064214706421,0.4882812201976776,2.868652105331421,80.0,1389348.0,1.0
1168137.2467614,302945.625,321655.46875,334240.59375,315287.09375,302474.46875,306438.6875,292590.53125,328665.53125,-0.013427734375,0.966796875,-0.223876953125,-2.990722417831421,0.9155272841453552,2.838134527206421,80.0,1389349.0,1.0
1168137.2530154,302267.9375,321640.625,333867.5625,314687.375,302381.9375,306476.5,292502.90625,328580.03125,-0.01611328125,0.968994140625,-0.222412109375,-3.326415777206421,1.2512205839157104,2.807616949081421,80.0,1389350.0,1.0
1168137.2624657,300785.75,321859.78125,332292.5,312731.6875,301772.34375,306713.6875,292404.65625,328378.53125,-0.018798828125,0.96875,-0.219482421875,-3.479003667831421,1.4953612089157104,2.685546636581421,80.0,1389351.0,1.0
1168137.2624987,300528.6875,321963.65625,331610.3125,312038.5,301426.53125,306807.46875,292339.28125,328255.3125,-0.021484375,0.96728515625,-0.219482421875,-3.814697027206421,1.6784666776657104,2.502441167831421,80.0,1389352.0,1.0
1168137.2712157,301895.90625,321823.84375,332834.9375,313642.09375,301869.96875,306663.53125,292455.25,328438.59375,-0.025634765625,0.967529296875,-0.21826171875,-3.967284917831421,1.8920897245407104,2.197265386581421,80.0,1389353.0,1.0
1168137.2712488,302922.46875,321387.4375,334024.3125,315091.125,302262.75,306366.875,292303.0,328403.375,-0.029296875,0.968994140625,-0.219482421875,-4.028319835662842,1.9226073026657104,1.8310545682907104,80.0,1389354.0,1.0
1168137.280035,302288.6875,321350.6875,333636.46875,314511.0625,302100.65625,306408.71875,292163.875,328245.3125,-0.03076171875,0.96923828125,-0.2158203125,-4.089354991912842,2.014159917831421,1.4038084745407104,80.0,1389355.0,1.0
1168137.2800706,300962.78125,321975.65625,332401.40625,312883.84375,301772.09375,306848.6875,292413.84375,328367.53125,-0.03125,0.97265625,-0.21533203125,-4.394530773162842,1.9531248807907104,1.0070799589157104,80.0,1389356.0,1.0
1168137.2824349,300722.0,322271.125,331872.5625,312309.3125,301602.21875,307027.15625,292540.8125,328447.53125,-0.033935546875,0.97509765625,-0.212890625,-4.547118663787842,1.8005369901657104,0.6713866591453552,80.0,1389357.0,1.0
1168137.2824678,301977.0,321902.34375,332890.4375,313702.375,301896.34375,306765.625,292460.96875,328462.125,-0.033203125,0.975830078125,-0.208251953125,-5.004882335662842,1.7700194120407104,0.3051757514476776,80.0,1389358.0,1.0
1168137.2955791,302990.0625,321362.21875,334000.625,315089.96875,302200.96875,306421.6875,292205.96875,328326.3125,-0.036376953125,0.974365234375,-0.208251953125,-5.249022960662842,1.6784666776657104,0.03051757626235485,80.0,1389359.0,1.0
1168137.303133,302427.0625,321470.21875,333756.8125,314649.28125,302147.5,306532.375,292192.65625,328286.78125,-0.036865234375,0.971923828125,-0.205078125,-5.218505382537842,1.6174315214157104,-0.3051757514476776,80.0,1389360.0,1.0
1168137.3031697,301132.1875,322169.65625,332594.59375,313083.3125,301897.53125,307015.875,292526.9375,328496.09375,-0.03662109375,0.97119140625,-0.2060546875,-5.340575695037842,1.3732908964157104,-0.5798339247703552,80.0,1389361.0,1.0
1168137.3031785,300869.6875,322455.03125,332040.53125,312475.4375,301723.875,307181.46875,292645.6875,328579.40625,-0.037109375,0.968505859375,-0.20458984375,-5.462646007537842,1.2817381620407104,-0.8544921278953552,80.0,1389362.0,1.0
1168137.3062149,302086.96875,322059.875,333015.625,313824.6875,301993.375,306899.75,292537.84375,328573.15625,-0.035400390625,0.96435546875,-0.20361328125,-5.401610851287842,1.1596678495407104,-1.1901854276657104,80.0,1389363.0,1.0
1168137.3062509,303103.0,321492.75,334118.1875,315209.59375,302290.1875,306544.8125,292263.75,328420.28125,-0.033935546875,0.9619140625,-0.199951171875,-5.340575695037842,1.1291502714157104,-1.3732908964157104,80.0,1389364.0,1.0
1168137.3081234,302551.875,321565.09375,333871.96875,314779.28125,302226.71875,306638.9375,292228.15625,328361.34375,-0.035400390625,0.959716796875,-0.202880859375,-5.157470226287842,1.0681151151657104,-1.6174315214157104,80.0,1389365.0,1.0
1168137.3193741,301239.5625,322259.0625,332701.96875,313207.15625,301962.59375,307105.125,292551.96875,328559.3125,-0.03564453125,0.9599609375,-0.200439453125,-4.821776866912842,0.9765624403953552,-1.9836424589157104,80.0,1389366.0,1.0
1168137.3268036,300945.59375,322555.09375,332125.5625,312568.15625,301786.84375,307273.28125,292675.375,328643.34375,-0.035400390625,0.95849609375,-0.197998046875,-4.638671398162842,1.0375975370407104,-2.136230230331421,80.0,1389367.0,1.0
1168137.326837,302162.15625,322152.65625,333081.96875,313897.46875,302050.65625,306994.4375,292562.90625,328630.21875,-0.033447265625,0.955810546875,-0.19921875,-4.241942882537842,0.9765624403953552,-2.197265386581421,80.0,1389368.0,1.0
1168137.3268451,303210.1875,321616.75,334226.0,315327.96875,302378.09375,306650.65625,292321.40625,328505.9375,-0.03076171875,0.95458984375,-0.197265625,-3.875732183456421,0.9460448622703552,-2.319335699081421,80.0,1389369.0,1.0
1168137.3293699,302689.75,321723.0625,334035.21875,314949.6875,302360.90625,306753.21875,292323.375,328488.5,-0.030517578125,0.953857421875,-0.197265625,-3.601073980331421,0.9460448622703552,-2.349853277206421,80.0,1389370.0,1.0
1168137.3331477,301353.125,322368.6875,332827.875,313333.90625,302072.40625,307194.4375,292601.875,328652.46875,-0.03125,0.95263671875,-0.197509765625,-3.173827886581421,1.0375975370407104,-2.410888433456421,80.0,1389371.0,1.0
1168137.34187,301030.09375,322634.40625,332202.28125,312638.6875,301863.0,307356.875,292687.96875,328702.0,-0.032470703125,0.950439453125,-0.19384765625,-2.777099370956421,0.9460448622703552,-2.471923589706421,80.0,1389372.0,1.0
1168137.3512157,302268.71875,322310.46875,333215.71875,314017.25,302181.375,307127.28125,292645.875,328753.9375,-0.03369140625,0.948486328125,-0.19677734375,-2.441406011581421,1.0070799589157104,-2.471923589706421,80.0,1389373.0,1.0
1168137.351249,303365.84375,321877.21875,334464.28125,315546.75,302608.21875,306833.9375,292506.5625,328737.03125,-0.03515625,0.945068359375,-0.195556640625,-1.9836424589157104,1.1596678495407104,-2.593993902206421,80.0,1389374.0,1.0
1168137.36004,302828.34375,321918.96875,334244.0625,315138.0625,302573.34375,306905.375,292460.875,328687.25,-0.03662109375,0.94384765625,-0.19677734375,-1.4953612089157104,1.0681151151657104,-2.593993902206421,80.0,1389375.0,1.0
1168137.3600768,301412.9375,322353.65625,332855.3125,313352.25,302126.84375,307250.59375,292547.15625,328667.21875,-0.03369140625,0.9423828125,-0.194091796875,-0.9460448622703552,1.0986326932907104,-2.807616949081421,80.0,1389376.0,1.0
1168137.3624657,301059.3125,322529.6875,332129.15625,312572.34375,301813.5625,307382.8125,292535.34375,328608.03125,-0.034912109375,0.945068359375,-0.193603515625,-0.4882812201976776,1.0681151151657104,-2.960204839706421,80.0,1389377.0,1.0
1168137.3624982,302389.4375,322434.21875,333310.21875,314121.78125,302271.15625,307267.03125,292679.84375,328831.1875,-0.03515625,0.946533203125,-0.193359375,-0.2136230319738388,1.1291502714157104,-2.929687261581421,80.0,1389378.0,1.0
1168137.3762158,303595.4375,322273.625,334814.40625,315889.53125,302935.25,307093.40625,292803.9375,329081.96875,-0.03662109375,0.948974609375,-0.1953125,0.2136230319738388,1.1901854276657104,-2.868652105331421,80.0,1389379.0,1.0
1168137.3762487,303040.3125,322271.65625,334587.5625,315458.40625,302919.78125,307122.90625,292732.0625,329038.09375,-0.034423828125,0.9501953125,-0.198486328125,0.6408690810203552,1.1596678495407104,-2.868652105331421,80.0,1389380.0,1.0
1168137.3787128,301530.21875,322474.4375,333010.0625,313487.15625,302320.5,307355.71875,292611.53125,328835.65625,-0.03369140625,0.951171875,-0.202392578125,1.0070799589157104,1.2512205839157104,-2.868652105331421,80.0,1389381.0,1.0
1168137.3787457,301125.3125,322558.75,332170.4375,312603.8125,301903.875,307450.125,292492.53125,328669.71875,-0.031494140625,0.951904296875,-0.201171875,1.3732908964157104,1.2817381620407104,-2.746581792831421,80.0,1389382.0,1.0
1168137.3843872,302480.28125,322554.28125,333405.875,314204.375,302399.96875,307379.6875,292704.25,328946.71875,-0.0322265625,0.94970703125,-0.203857421875,1.7700194120407104,1.3122557401657104,-2.777099370956421,80.0,1389383.0,1.0
1168137.3962178,303712.03125,322442.34375,334964.59375,316027.21875,303107.90625,307230.71875,292877.25,329244.6875,-0.037109375,0.94970703125,-0.2041015625,2.105712652206421,1.3732908964157104,-2.716064214706421,80.0,1389384.0,1.0
1168137.3962507,303152.625,322388.0625,334724.4375,315589.75,303072.6875,307234.5625,292777.125,329172.28125,-0.0390625,0.95263671875,-0.2021484375,2.410888433456421,1.4038084745407104,-2.593993902206421,80.0,1389385.0,1.0
1168137.3986797,301610.0625,322525.40625,333089.1875,313560.9375,302410.96875,307422.15625,292593.65625,328900.3125,-0.040283203125,0.954345703125,-0.20361328125,2.471923589706421,1.4038084745407104,-2.471923589706421,80.0,1389386.0,1.0
1168137.3987084,301195.84375,322612.40625,332227.9375,312649.875,301975.5625,307515.6875,292465.78125,328716.3125,-0.04052734375,0.953369140625,-0.20361328125,2.685546636581421,1.3732908964157104,-2.471923589706421,80.0,1389387.0,1.0
1168137.4006209,302548.84375,322633.5,333465.5,314252.84375,302479.375,307457.65625,292697.28125,329007.3125,-0.041748046875,0.9521484375,-0.205810546875,2.807616949081421,1.2817381620407104,-2.410888433456421,80.0,1389388.0,1.0
1168137.4094003,303803.3125,322548.28125,335057.9375,316107.15625,303212.875,307315.75,292895.84375,329331.5,-0.041015625,0.95361328125,-0.204833984375,2.929687261581421,1.2512205839157104,-2.349853277206421,80.0,1389389.0,1.0
1168137.4124378,303272.3125,322504.5,334856.78125,315709.375,303204.1875,307324.4375,292807.96875,329277.25,-0.039794921875,0.9560546875,-0.203857421875,3.082275152206421,1.2207030057907104,-2.227782964706421,80.0,1389390.0,1.0
1168137.4124708,301735.25,322635.71875,333224.65625,313684.40625,302548.125,307518.25,292618.6875,329003.3125,-0.04150390625,0.95654296875,-0.2109375,3.112792730331421,1.1291502714157104,-2.075195074081421,80.0,1389391.0,1.0
1168137.4243191,301297.78125,322717.8125,332330.9375,312744.09375,302094.3125,307616.96875,292477.34375,328802.21875,-0.044189453125,0.95654296875,-0.21240234375,3.082275152206421,1.0070799589157104,-2.044677495956421,80.0,1389392.0,1.0
1168137.4274681,302644.78125,322752.40625,333557.875,314342.78125,302594.71875,307572.28125,292716.125,329095.75,-0.044189453125,0.957763671875,-0.210693359375,2.990722417831421,0.9155272841453552,-1.9836424589157104,80.0,1389393.0,1.0
1168137.4275022,303902.28125,322668.1875,335156.03125,316211.84375,303330.71875,307426.71875,292924.28125,329426.03125,-0.04248046875,0.954833984375,-0.209716796875,3.021239995956421,0.9155272841453552,-1.6784666776657104,80.0,1389394.0,1.0
1168137.4293717,303381.84375,322613.5625,334958.4375,315822.9375,303315.78125,307418.9375,292823.96875,329362.1875,-0.044189453125,0.9541015625,-0.213623046875,2.899169683456421,0.9460448622703552,-1.6174315214157104,80.0,1389395.0,1.0
1168137.4356279,301850.3125,322741.3125,333329.4375,313796.6875,302656.75,307612.21875,292625.5625,329085.1875,-0.04296875,0.950927734375,-0.212890625,2.960204839706421,0.8850097060203552,-1.4953612089157104,80.0,1389396.0,1.0
1168137.4449586,301384.0625,322804.96875,332405.40625,312819.5625,302180.3125,307702.90625,292468.375,328869.53125,-0.04296875,0.951171875,-0.21484375,2.899169683456421,0.8239745497703552,-1.3427733182907104,80.0,1389397.0,1.0
1168137.4449912,302716.9375,322834.65625,333615.53125,314398.84375,302667.5,307655.5,292709.78125,329164.15625,-0.04248046875,0.950927734375,-0.217041015625,2.838134527206421,0.7324218153953552,-1.3122557401657104,80.0,1389398.0,1.0
1168137.4468794,304001.4375,322768.0625,335242.84375,316297.59375,303419.21875,307524.34375,292943.21875,329515.15625,-0.04248046875,0.951904296875,-0.219970703125,2.960204839706421,0.7629393935203552,-1.2207030057907104,80.0,1389399.0,1.0
1168137.4556171,303493.15625,322699.03125,335064.75,315926.90625,303406.34375,307508.6875,292842.5625,329447.375,-0.04345703125,0.953857421875,-0.2197265625,2.960204839706421,0.7324218153953552,-1.2512205839157104,80.0,1389400.0,1.0
1168137.4587191,301943.125,322797.46875,333415.0,313881.0,302724.71875,307678.3125,292617.4375,329141.4375,-0.04296875,0.955078125,-0.2216796875,2.899169683456421,0.7629393935203552,-1.1596678495407104,80.0,1389401.0,1.0
1168137.4587526,301459.78125,322863.1875,332477.375,312888.40625,302244.875,307769.84375,292461.25,328921.65625,-0.0419921875,0.9580078125,-0.219970703125,2.716064214706421,0.6103515028953552,-1.0070799589157104,80.0,1389402.0,1.0
1168137.4606488,302787.28125,322916.46875,333682.59375,314457.6875,302739.28125,307738.03125,292713.1875,329221.8125,-0.041015625,0.960205078125,-0.220947265625,2.624511480331421,0.5798339247703552,-1.0070799589157104,80.0,1389403.0,1.0
1168137.4693851,304090.9375,322866.59375,335330.90625,316382.34375,303504.25,307612.6875,292957.53125,329587.21875,-0.043701171875,0.962646484375,-0.223388671875,2.441406011581421,0.5798339247703552,-1.0070799589157104,80.0,1389404.0,1.0
1168137.4786864,303608.78125,322801.5,335179.0,316049.3125,303509.4375,307601.25,292865.34375,329536.0,-0.043701171875,0.96533203125,-0.22314453125,2.319335699081421,0.4577636420726776,-0.8239745497703552,80.0,1389405.0,1.0
1168137.4787227,302064.53125,322902.34375,333539.375,314017.625,302843.0,307780.3125,292652.65625,329242.8125,-0.044189453125,0.968505859375,-0.222900390625,2.105712652206421,0.4577636420726776,-0.7934569716453552,80.0,1389406.0,1.0
1168137.4812517,301554.90625,322969.125,332567.40625,312983.09375,302345.71875,307871.6875,292487.0625,329012.59375,-0.044189453125,0.97119140625,-0.22265625,1.8310545682907104,0.3662109076976776,-0.7019042372703552,80.0,1389407.0,1.0
1168137.481287,302862.9375,323022.78125,333752.96875,314527.875,302827.78125,307841.28125,292740.1875,329309.96875,-0.04150390625,0.97265625,-0.21923828125,1.5563963651657104,0.3356933295726776,-0.5798339247703552,80.0,1389408.0,1.0
1168137.4943731,304174.25,322967.34375,335414.3125,316468.1875,303599.5625,307720.15625,292992.03125,329680.03125,-0.0439453125,0.97412109375,-0.2177734375,1.1901854276657104,0.2136230319738388,-0.5493163466453552,80.0,1389409.0,1.0
1168137.4974663,303706.21875,322893.9375,335282.875,316155.53125,303609.65625,307700.21875,292896.65625,329625.40625,-0.044677734375,0.971923828125,-0.218017578125,0.8850097060203552,0.1525878757238388,-0.3051757514476776,80.0,1389410.0,1.0
1168137.497499,302159.21875,322988.1875,333648.09375,314126.34375,302942.9375,307867.65625,292676.96875,329330.53125,-0.04541015625,0.968505859375,-0.21630859375,0.5187987685203552,0.1220703050494194,-0.1525878757238388,80.0,1389411.0,1.0
1168137.5000389,301641.8125,323069.53125,332670.9375,313081.25,302451.5625,307971.65625,292520.6875,329110.84375,-0.045166015625,0.962890625,-0.217529296875,0.1220703050494194,0.03051757626235485,0.03051757626235485,80.0,1389412.0,1.0
1168137.500086,302925.25,323113.53125,333817.875,314587.21875,302909.25,307930.15625,292756.28125,329390.625,-0.044921875,0.9599609375,-0.218017578125,0.0,0.0,0.1220703050494194,80.0,1389413.0,1.0
1168137.510625,304258.03125,323065.25,335494.15625,316547.21875,303688.53125,307811.6875,293018.0625,329773.28125,-0.042236328125,0.955078125,-0.217041015625,-0.0610351525247097,-0.1220703050494194,0.0610351525247097,80.0,1389414.0,1.0
1168137.5137172,303822.1875,323000.96875,335401.1875,316286.0625,303720.96875,307801.96875,292939.5625,329736.53125,-0.0439453125,0.95458984375,-0.218017578125,0.0,-0.1525878757238388,0.0610351525247097,80.0,1389415.0,1.0
1168137.5137498,302275.53125,323099.5,333775.3125,314262.6875,303058.1875,307978.09375,292721.59375,329439.6875,-0.045166015625,0.957763671875,-0.21728515625,0.1525878757238388,-0.2136230319738388,0.03051757626235485,80.0,1389416.0,1.0
1168137.5193719,301730.3125,323173.96875,332768.5,313182.09375,302550.625,308077.0625,292551.96875,329204.09375,-0.046142578125,0.96044921875,-0.21533203125,0.0,-0.2441406100988388,-0.0610351525247097,80.0,1389417.0,1.0
1168137.5235442,303017.0625,323234.59375,333916.84375,314688.4375,303019.84375,308053.90625,292803.5625,329499.0625,-0.046630859375,0.95849609375,-0.2138671875,-0.0915527269244194,-0.3662109076976776,0.0915527269244194,80.0,1389418.0,1.0
1168137.523576,304355.84375,323182.1875,335596.78125,316657.09375,303799.65625,307925.59375,293061.78125,329881.8125,-0.046875,0.95361328125,-0.212890625,-0.2441406100988388,-0.4882812201976776,0.0610351525247097,80.0,1389419.0,1.0
1168137.5293983,303934.9375,323110.84375,335511.6875,316404.875,303832.46875,307903.25,292971.75,329836.46875,-0.047119140625,0.948486328125,-0.21240234375,-0.1220703050494194,-0.5798339247703552,0.2136230319738388,80.0,1389420.0,1.0
1168137.5318235,302390.78125,323205.96875,333884.75,314383.75,303168.0,308074.46875,292748.9375,329538.3125,-0.047607421875,0.942626953125,-0.2158203125,-0.03051757626235485,-0.6713866591453552,0.1831054538488388,80.0,1389421.0,1.0
1168137.5406254,301821.96875,323274.28125,332858.0,313277.875,302652.5625,308173.15625,292570.84375,329297.90625,-0.054443359375,0.94140625,-0.21435546875,0.2441406100988388,-0.7629393935203552,0.0,80.0,1389422.0,1.0
1168137.5437171,303096.90625,323336.25,333987.90625,314760.5,303111.84375,308150.28125,292810.71875,329587.3125,-0.05859375,0.944580078125,-0.212890625,0.4272460639476776,-0.9765624403953552,-0.3051757514476776,80.0,1389423.0,1.0
1168137.5437528,304447.59375,323284.375,335676.71875,316738.71875,303892.1875,308020.65625,293065.71875,329971.21875,-0.0634765625,0.943603515625,-0.2099609375,0.6713866591453552,-1.2817381620407104,-0.4577636420726776,80.0,1389424.0,1.0
1168137.5543732,304041.75,323205.875,335606.1875,316502.875,303926.78125,307990.34375,292963.34375,329923.65625,-0.066162109375,0.94287109375,-0.212646484375,0.7324218153953552,-1.4953612089157104,-0.7019042372703552,80.0,1389425.0,1.0
1168137.5574628,302492.78125,323290.28125,333979.96875,314478.875,303264.1875,308152.96875,292724.375,329617.0,-0.066162109375,0.944580078125,-0.214599609375,0.9460448622703552,-1.8920897245407104,-0.9765624403953552,80.0,1389426.0,1.0
1168137.5574967,301910.46875,323359.5625,332942.9375,313359.9375,302745.375,308254.25,292541.78125,329377.125,-0.06884765625,0.943603515625,-0.214599609375,1.1596678495407104,-2.258300542831421,-1.1901854276657104,80.0,1389427.0,1.0
1168137.5593372,303168.09375,323423.78125,334050.5,314821.375,303191.5,308233.34375,292769.40625,329661.25,-0.068359375,0.947998046875,-0.21630859375,1.4038084745407104,-2.410888433456421,-1.3732908964157104,80.0,1389428.0,1.0
1168137.5681242,304539.21875,323386.5,335760.84375,316826.59375,303989.0,308119.53125,293029.25,330060.90625,-0.068359375,0.94775390625,-0.22021484375,1.5258787870407104,-2.807616949081421,-1.6479490995407104,80.0,1389429.0,1.0
1168137.5750072,304160.59375,323308.53125,335725.8125,316633.5625,304045.78125,308097.71875,292933.125,330029.6875,-0.067626953125,0.948974609375,-0.220458984375,1.5563963651657104,-3.051757574081421,-1.8920897245407104,80.0,1389430.0,1.0
1168137.5750403,302622.78125,323401.6875,334122.9375,314631.21875,303399.09375,308271.96875,292702.09375,329740.375,-0.06884765625,0.9501953125,-0.221435546875,1.7089842557907104,-3.295898199081421,-2.044677495956421,80.0,1389431.0,1.0
1168137.5837195,302025.71875,323484.84375,333069.71875,313486.09375,302877.25,308382.375,292510.0625,329503.25,-0.06884765625,0.951904296875,-0.221435546875,1.8615721464157104,-3.540038824081421,-2.227782964706421,80.0,1389432.0,1.0
1168137.5837531,303278.84375,323555.09375,334165.65625,314930.1875,303322.65625,308370.59375,292731.0625,329790.625,-0.068603515625,0.95361328125,-0.2197265625,1.9836424589157104,-3.814697027206421,-2.349853277206421,80.0,1389433.0,1.0
1168137.592413,304659.125,323515.9375,335876.90625,316941.3125,304117.21875,308250.40625,292969.15625,330183.03125,-0.070068359375,0.95654296875,-0.220703125,2.044677495956421,-3.906249761581421,-2.441406011581421,80.0,1389434.0,1.0
1168137.5924459,304293.90625,323431.0,335856.34375,316767.6875,304176.0625,308216.90625,292847.03125,330147.1875,-0.06640625,0.955810546875,-0.225341796875,2.044677495956421,-3.997802495956421,-2.532958745956421,80.0,1389435.0,1.0
1168137.5950394,302764.40625,323531.5,334267.40625,314780.0,303541.53125,308400.1875,292598.28125,329867.6875,-0.067138671875,0.958251953125,-0.224853515625,1.9836424589157104,-4.180907726287842,-2.655029058456421,80.0,1389436.0,1.0
1168137.5950754,302125.875,323582.28125,333171.09375,313587.9375,302988.90625,308492.90625,292351.90625,329603.65625,-0.0673828125,0.960205078125,-0.226318359375,2.014159917831421,-4.302978038787842,-2.746581792831421,80.0,1389437.0,1.0
1168137.6056204,303347.4375,323639.78125,334222.53125,314984.71875,303405.1875,308464.1875,292524.34375,329864.28125,-0.065185546875,0.96044921875,-0.226318359375,1.9836424589157104,-4.302978038787842,-2.868652105331421,80.0,1389438.0,1.0
1168137.6149758,304743.0625,323604.1875,335942.96875,317010.15625,304202.6875,308345.71875,292755.90625,330260.1875,-0.064453125,0.9638671875,-0.225830078125,1.9836424589157104,-4.302978038787842,-2.929687261581421,80.0,1389439.0,1.0
1168137.615005,304406.90625,323526.5,335961.9375,316879.0,304281.8125,308314.4375,292646.9375,330240.875,-0.065673828125,0.96484375,-0.224365234375,1.8310545682907104,-4.302978038787842,-2.960204839706421,80.0,1389440.0,1.0
1168137.6174647,302867.40625,323616.875,334373.96875,314889.875,303640.59375,308478.9375,292400.25,329954.78125,-0.066650390625,0.966796875,-0.22412109375,1.6479490995407104,-4.272460460662842,-2.929687261581421,80.0,1389441.0,1.0
1168137.6174977,302215.1875,323681.25,333269.8125,313685.8125,303089.84375,308578.90625,292182.28125,329698.53125,-0.065185546875,0.96533203125,-0.22412109375,1.4038084745407104,-4.272460460662842,-3.234863042831421,80.0,1389442.0,1.0
1168137.6230993,303433.09375,323746.625,334314.15625,315072.25,303503.90625,308562.09375,292382.125,329964.0625,-0.067138671875,0.96337890625,-0.220947265625,1.0986326932907104,-4.272460460662842,-3.356933355331421,80.0,1389443.0,1.0
1168137.6324663,304834.8125,323708.09375,336039.4375,317099.125,304298.1875,308434.96875,292627.625,330358.625,-0.06640625,0.962158203125,-0.22509765625,0.9460448622703552,-4.272460460662842,-3.540038824081421,80.0,1389444.0,1.0
1168137.6324981,304508.375,323615.375,336064.84375,316977.96875,304375.0625,308390.6875,292518.71875,330328.03125,-0.06591796875,0.96044921875,-0.225341796875,0.9155272841453552,-4.241942882537842,-3.723144292831421,80.0,1389445.0,1.0
1168137.6411815,302961.5625,323689.03125,334472.9375,314986.6875,303729.65625,308546.4375,292273.84375,330033.8125,-0.06591796875,0.96240234375,-0.22265625,0.7324218153953552,-4.119872570037842,-3.875732183456421,80.0,1389446.0,1.0
1168137.6412142,302290.46875,323753.21875,333348.5625,313753.40625,303168.53125,308646.5,292063.1875,329774.34375,-0.064697265625,0.962158203125,-0.21875,0.6103515028953552,-3.967284917831421,-3.936767339706421,80.0,1389447.0,1.0
1168137.6555749,303490.65625,323818.59375,334367.375,315112.0625,303566.46875,308628.15625,292261.0625,330030.3125,-0.06640625,0.96435546875,-0.21826171875,0.4272460639476776,-3.845214605331421,-3.906249761581421,80.0,1389448.0,1.0
1168137.6556255,304910.4375,323791.5,336105.4375,317162.40625,304370.78125,308510.3125,292513.90625,330435.0625,-0.066650390625,0.960205078125,-0.21923828125,0.3356933295726776,-3.723144292831421,-4.028319835662842,80.0,1389449.0,1.0
1168137.6556394,304600.75,323698.78125,336148.15625,317064.96875,304451.4375,308462.9375,292391.125,330403.59375,-0.068603515625,0.958251953125,-0.2216796875,0.2136230319738388,-3.753661870956421,-4.058837413787842,80.0,1389450.0,1.0
1168137.6593671,303038.625,323744.46875,334538.5625,315056.875,303784.625,308604.03125,292107.09375,330087.53125,-0.068603515625,0.9580078125,-0.221923828125,0.0,-3.692626714706421,-4.241942882537842,80.0,1389451.0,1.0
1168137.6594222,302345.625,323799.375,333393.90625,313805.0,303214.03125,308702.8125,291867.125,329819.125,-0.070068359375,0.956298828125,-0.21875,-0.0915527269244194,-3.570556402206421,-4.486083507537842,80.0,1389452.0,1.0
1168137.6594399,303526.0625,323865.34375,334390.53125,315140.9375,303605.28125,308685.5625,292032.625,330067.875,-0.070556640625,0.95751953125,-0.2177734375,-0.03051757626235485,-3.387450933456421,-4.638671398162842,80.0,1389453.0,1.0
1168137.6632143,304946.90625,323835.9375,336132.78125,317197.09375,304409.40625,308564.59375,292256.59375,330466.0,-0.072021484375,0.955078125,-0.214599609375,-0.0610351525247097,-3.326415777206421,-4.699706554412842,80.0,1389454.0,1.0
1168137.6719338,304659.5625,323737.6875,336199.40625,317131.84375,304503.09375,308517.3125,292122.375,330439.34375,-0.072509765625,0.955078125,-0.21533203125,-0.03051757626235485,-3.234863042831421,-4.760741710662842,80.0,1389455.0,1.0
1168137.6812941,303112.1875,323792.40625,334612.15625,315148.25,303852.21875,308667.78125,291842.90625,330136.4375,-0.07470703125,0.95361328125,-0.21484375,-0.03051757626235485,-3.204345464706421,-4.699706554412842,80.0,1389456.0,1.0
1168137.6813446,302391.03125,323841.84375,333437.4375,313858.125,303264.09375,308765.5,291589.59375,329857.6875,-0.07568359375,0.953125,-0.216064453125,-0.1525878757238388,-3.112792730331421,-4.638671398162842,80.0,1389457.0,1.0
1168137.6874513,303552.15625,323906.65625,334410.71875,315166.0625,303640.3125,308744.03125,291753.84375,330100.78125,-0.078369140625,0.95068359375,-0.214599609375,-0.1525878757238388,-3.021239995956421,-4.760741710662842,80.0,1389458.0,1.0
1168137.6875079,304990.09375,323888.6875,336168.09375,317240.1875,304453.21875,308622.0,291987.375,330507.40625,-0.07958984375,0.951904296875,-0.214599609375,-0.03051757626235485,-2.960204839706421,-4.852294445037842,80.0,1389459.0,1.0
1168137.6937819,304722.6875,323792.125,336260.5625,317201.3125,304557.1875,308567.28125,291849.875,330485.21875,-0.078125,0.949462890625,-0.216796875,0.03051757626235485,-2.899169683456421,-4.852294445037842,80.0,1389460.0,1.0
1168137.6938537,303183.0,323844.59375,334684.75,315226.03125,303916.9375,308722.21875,291567.78125,330189.09375,-0.0771484375,0.94921875,-0.214599609375,0.1525878757238388,-2.838134527206421,-4.882812023162842,80.0,1389461.0,1.0
1168137.6994334,302431.90625,323876.875,333476.6875,313895.125,303307.46875,308810.28125,291281.5,329887.90625,-0.079345703125,0.949462890625,-0.21337890625,0.2746581733226776,-2.807616949081421,-4.882812023162842,80.0,1389462.0,1.0
1168137.729705,303574.34375,323939.90625,334422.625,315169.28125,303668.5,308789.8125,291417.5,330115.25,-0.078369140625,0.94921875,-0.214599609375,0.3662109076976776,-2.624511480331421,-4.852294445037842,80.0,1389463.0,1.0
1168137.7297552,305036.59375,323941.4375,336206.71875,317267.1875,304497.84375,308681.1875,291654.34375,330533.3125,-0.07861328125,0.947998046875,-0.212158203125,0.4882812201976776,-2.563476324081421,-4.791259288787842,80.0,1389464.0,1.0
1168137.734465,304799.65625,323851.40625,336337.90625,317274.625,304621.5625,308629.9375,291528.53125,330524.8125,-0.080322265625,0.94677734375,-0.213623046875,0.5493163466453552,-2.441406011581421,-4.730224132537842,80.0,1389465.0,1.0
1168137.7369563,303250.25,323890.03125,334755.21875,315296.75,303971.9375,308768.25,291238.78125,330216.03125,-0.080078125,0.9482421875,-0.21337890625,0.7324218153953552,-2.349853277206421,-4.608153820037842,80.0,1389466.0,1.0
1168137.7394567,302479.28125,323925.78125,333526.40625,313943.40625,303352.78125,308855.4375,290971.4375,329914.53125,-0.080078125,0.94921875,-0.21630859375,0.9155272841453552,-2.227782964706421,-4.608153820037842,80.0,1389467.0,1.0
1168137.7419092,303612.0625,324004.46875,334463.125,315203.6875,303712.5625,308841.75,291145.0,330148.875,-0.07861328125,0.951904296875,-0.217041015625,1.0681151151657104,-2.075195074081421,-4.455565929412842,80.0,1389468.0,1.0
1168137.7444743,305076.375,324006.34375,336250.09375,317309.59375,304543.96875,308729.1875,291424.75,330575.53125,-0.080078125,0.950927734375,-0.21875,1.0375975370407104,-1.9836424589157104,-4.425048351287842,80.0,1389469.0,1.0
1168137.7469573,304851.875,323909.5,336391.53125,317329.96875,304672.1875,308669.125,291333.625,330567.84375,-0.0830078125,0.950439453125,-0.217529296875,1.1901854276657104,-1.8005369901657104,-4.333495616912842,80.0,1389470.0,1.0
1168137.749455,303301.46875,323937.6875,334811.8125,315351.46875,304020.9375,308801.4375,291068.28125,330255.625,-0.086181640625,0.951171875,-0.217529296875,1.2512205839157104,-1.8005369901657104,-4.302978038787842,80.0,1389471.0,1.0
1168137.7519384,302513.625,323967.0,333565.8125,313976.03125,303393.90625,308889.84375,290820.34375,329950.75,-0.0869140625,0.949951171875,-0.218505859375,1.4648436307907104,-1.7395018339157104,-4.241942882537842,80.0,1389472.0,1.0
1168137.7544558,303632.625,324042.28125,334480.8125,315217.1875,303743.0625,308880.125,291012.125,330182.75,-0.090087890625,0.9501953125,-0.21923828125,1.5258787870407104,-1.7700194120407104,-4.089354991912842,80.0,1389473.0,1.0
1168137.7569595,305118.21875,324063.84375,336287.65625,317348.5625,304587.5,308779.875,291319.96875,330626.21875,-0.093017578125,0.95068359375,-0.220703125,1.7395018339157104,-1.7700194120407104,-4.058837413787842,80.0,1389474.0,1.0
1168137.7600636,304907.40625,323960.46875,336451.4375,317395.9375,304722.78125,308717.21875,291236.1875,330622.90625,-0.09375,0.950927734375,-0.21923828125,1.8310545682907104,-1.8615721464157104,-3.875732183456421,80.0,1389475.0,1.0
1168137.7601141,303358.875,323987.46875,334879.5625,315425.34375,304080.125,308852.21875,290978.78125,330312.40625,-0.09326171875,0.94677734375,-0.21875,1.8310545682907104,-1.9836424589157104,-3.784179449081421,80.0,1389476.0,1.0
1168137.7619598,302553.9375,324015.28125,333615.8125,314027.53125,303448.71875,308941.28125,290732.8125,330001.71875,-0.09228515625,0.946533203125,-0.218505859375,2.014159917831421,-1.9531248807907104,-3.723144292831421,80.0,1389477.0,1.0
1168137.7644648,303660.0,324097.90625,334517.75,315244.375,303798.03125,308939.75,290933.625,330234.0,-0.094482421875,0.94775390625,-0.218505859375,2.105712652206421,-2.014159917831421,-3.601073980331421,80.0,1389478.0,1.0
1168137.7682184,305150.3125,324115.875,336331.53125,317384.9375,304647.3125,308837.46875,291248.25,330677.625,-0.095947265625,0.945068359375,-0.219482421875,2.197265386581421,-2.136230230331421,-3.662109136581421,80.0,1389479.0,1.0
1168137.777526,304969.4375,324023.6875,336527.0,317469.71875,304799.84375,308776.21875,291176.375,330685.65625,-0.095703125,0.94384765625,-0.21826171875,2.380370855331421,-2.075195074081421,-3.631591558456421,80.0,1389480.0,1.0
1168137.7775767,303426.46875,324046.84375,334965.21875,315510.8125,304161.125,308905.40625,290917.625,330380.0625,-0.094970703125,0.9482421875,-0.220458984375,2.716064214706421,-2.044677495956421,-3.479003667831421,80.0,1389481.0,1.0
1168137.780101,302600.0625,324074.375,333678.46875,314082.09375,303520.0625,308994.09375,290662.375,330064.5625,-0.0947265625,0.95166015625,-0.222412109375,2.807616949081421,-2.075195074081421,-3.387450933456421,80.0,1389482.0,1.0
1168137.7801518,303689.40625,324158.0625,334549.5625,315270.125,303851.25,308990.8125,290850.84375,330286.65625,-0.09375,0.951171875,-0.22314453125,2.838134527206421,-2.136230230331421,-3.143310308456421,80.0,1389483.0,1.0
1168137.7882013,305199.9375,324188.1875,336377.40625,317426.15625,304709.375,308898.71875,291174.03125,330742.4375,-0.094482421875,0.95068359375,-0.223876953125,2.899169683456421,-2.166747808456421,-3.051757574081421,80.0,1389484.0,1.0
1168137.7907173,305027.9375,324082.96875,336586.53125,317527.03125,304864.75,308828.15625,291094.03125,330747.375,-0.092529296875,0.952880859375,-0.223388671875,3.051757574081421,-2.044677495956421,-2.990722417831421,80.0,1389485.0,1.0
1168137.8050588,303485.75,324100.75,335032.5625,315576.78125,304228.28125,308953.34375,290833.125,330441.0625,-0.090087890625,0.953369140625,-0.224853515625,3.173827886581421,-2.075195074081421,-2.868652105331421,80.0,1389486.0,1.0
1168137.8051107,302661.5,324152.875,333750.28125,314145.375,303600.09375,309062.59375,290596.03125,330142.34375,-0.089111328125,0.95458984375,-0.224853515625,3.326415777206421,-1.9836424589157104,-2.593993902206421,80.0,1389487.0,1.0
1168137.8075368,303722.5,324222.4375,334589.1875,315298.625,303912.46875,309051.6875,290765.1875,330349.9375,-0.087890625,0.95703125,-0.223388671875,3.356933355331421,-1.9836424589157104,-2.288818120956421,80.0,1389488.0,1.0
1168137.8075859,305222.21875,324226.375,336397.25,317442.25,304748.875,308935.8125,291060.5,330783.40625,-0.089111328125,0.957275390625,-0.2255859375,3.326415777206421,-1.9226073026657104,-2.075195074081421,80.0,1389489.0,1.0
1168137.8093868,305084.59375,324130.8125,336639.375,317584.6875,304921.25,308862.78125,290987.1875,330800.1875,-0.09033203125,0.957763671875,-0.22705078125,3.295898199081421,-1.8615721464157104,-1.7395018339157104,80.0,1389490.0,1.0
1168137.8131853,303548.5,324155.84375,335101.03125,315649.5625,304295.40625,308992.40625,290728.78125,330499.25,-0.08837890625,0.95556640625,-0.225341796875,3.265380620956421,-1.8310545682907104,-1.4953612089157104,80.0,1389491.0,1.0
1168137.821913,302683.03125,324183.09375,333785.15625,314183.09375,303645.6875,309088.15625,290469.875,330182.40625,-0.089111328125,0.95556640625,-0.2236328125,3.112792730331421,-1.7700194120407104,-1.2817381620407104,80.0,1389492.0,1.0
1168137.8287819,303721.6875,324241.03125,334596.78125,315304.28125,303942.53125,309074.46875,290626.6875,330380.78125,-0.09033203125,0.95556640625,-0.225830078125,3.112792730331421,-1.8005369901657104,-1.2207030057907104,80.0,1389493.0,1.0
1168137.8288311,305228.5625,324248.1875,336411.125,317450.9375,304782.0625,308957.09375,290922.1875,330819.5,-0.09130859375,0.956787109375,-0.2255859375,3.021239995956421,-1.8005369901657104,-1.0986326932907104,80.0,1389494.0,1.0
1168137.831359,305108.84375,324151.8125,336673.71875,317616.78125,304964.4375,308883.78125,290847.25,330842.125,-0.0927734375,0.95361328125,-0.2294921875,2.868652105331421,-1.8310545682907104,-0.9765624403953552,80.0,1389495.0,1.0
1168137.8314091,303585.25,324188.28125,335157.09375,315702.65625,304351.90625,309013.5,290594.59375,330551.28125,-0.092529296875,0.951904296875,-0.227294921875,2.655029058456421,-1.8310545682907104,-0.6713866591453552,80.0,1389496.0,1.0
1168137.8431775,302702.4375,324224.9375,333832.34375,314223.0625,303700.21875,309107.5625,290336.9375,330236.21875,-0.09375,0.94921875,-0.22802734375,2.563476324081421,-1.9836424589157104,-0.4577636420726776,80.0,1389497.0,1.0
1168137.8462362,303715.875,324278.125,334607.40625,315303.03125,303975.78125,309084.6875,290474.4375,330418.4375,-0.09423828125,0.949951171875,-0.22802734375,2.563476324081421,-1.9836424589157104,-0.2746581733226776,80.0,1389498.0,1.0
1168137.8462908,305224.09375,324270.90625,336410.40625,317442.96875,304805.9375,308966.3125,290756.96875,330847.75,-0.095947265625,0.947509765625,-0.2236328125,2.532958745956421,-2.075195074081421,-0.1220703050494194,80.0,1389499.0,1.0
1168137.8494591,305134.9375,324184.1875,336705.4375,317647.28125,305005.5625,308899.5,290690.34375,330881.5625,-0.09375,0.9453125,-0.223388671875,2.441406011581421,-2.136230230331421,-0.0610351525247097,80.0,1389500.0,1.0
1168137.8587897,303601.875,324207.34375,335188.125,315733.875,304389.46875,309016.71875,290426.15625,330585.71875,-0.094482421875,0.944091796875,-0.22216796875,2.380370855331421,-2.258300542831421,-0.03051757626235485,80.0,1389501.0,1.0
1168137.858846,302699.125,324239.96875,333846.9375,314233.625,303734.90625,309108.625,290161.59375,330271.90625,-0.093994140625,0.943115234375,-0.225341796875,2.471923589706421,-2.441406011581421,0.03051757626235485,80.0,1389502.0,1.0
1168137.8607051,303694.6875,324293.15625,334600.8125,315289.34375,304002.96875,309087.4375,290290.0,330451.875,-0.0966796875,0.9404296875,-0.22412109375,2.532958745956421,-2.563476324081421,0.1220703050494194,80.0,1389503.0,1.0
1168137.8744667,305210.65625,324290.9375,336404.84375,317436.90625,304833.375,308972.03125,290571.09375,330880.84375,-0.0947265625,0.940673828125,-0.227294921875,2.502441167831421,-2.655029058456421,0.1220703050494194,80.0,1389504.0,1.0
1168137.8775309,305131.09375,324185.59375,336707.21875,317657.90625,305027.375,308896.03125,290493.21875,330905.78125,-0.094482421875,0.9404296875,-0.2265625,2.471923589706421,-2.868652105331421,0.1525878757238388,80.0,1389505.0,1.0
1168137.8775819,303612.34375,324213.3125,335216.375,315775.28125,304424.0625,309019.59375,290239.5625,330621.75,-0.091796875,0.942138671875,-0.226318359375,2.471923589706421,-2.807616949081421,0.2746581733226776,80.0,1389506.0,1.0
1168137.8794568,302696.625,324261.5,333867.75,314262.40625,303768.96875,309117.3125,289979.84375,330313.03125,-0.09228515625,0.940673828125,-0.229248046875,2.441406011581421,-2.990722417831421,0.3662109076976776,80.0,1389507.0,1.0
1168137.8862745,303671.53125,324309.78125,334588.90625,315278.25,304017.625,309092.53125,290098.46875,330480.40625,-0.091064453125,0.942626953125,-0.23095703125,2.502441167831421,-2.868652105331421,0.3662109076976776,80.0,1389508.0,1.0
1168137.8863248,305186.4375,324286.1875,336380.90625,317414.09375,304833.03125,308966.03125,290367.59375,330895.96875,-0.089599609375,0.944091796875,-0.2294921875,2.471923589706421,-2.868652105331421,0.3967284858226776,80.0,1389509.0,1.0
1168137.8951043,305132.8125,324173.0,336711.25,317668.1875,305041.34375,308886.46875,290299.8125,330928.59375,-0.08642578125,0.947021484375,-0.228515625,2.410888433456421,-2.899169683456421,0.5798339247703552,80.0,1389510.0,1.0
1168137.895154,303632.5625,324216.0,335245.34375,315809.6875,304458.03125,309018.4375,290062.09375,330660.0,-0.083740234375,0.946533203125,-0.230712890625,2.319335699081421,-2.807616949081421,0.5798339247703552,80.0,1389511.0,1.0
1168137.8969557,302704.15625,324277.0625,333896.46875,314284.3125,303809.65625,309123.46875,289817.5625,330361.84375,-0.08154296875,0.9482421875,-0.2314453125,2.166747808456421,-2.655029058456421,0.7324218153953552,80.0,1389512.0,1.0
1168137.9032082,303658.5625,324319.625,334595.25,315272.71875,304049.8125,309097.625,289934.15625,330522.0625,-0.078857421875,0.9501953125,-0.23388671875,2.075195074081421,-2.532958745956421,0.7629393935203552,80.0,1389513.0,1.0
1168137.9069693,305179.375,324291.0,336381.0,317405.78125,304861.09375,308966.65625,290195.84375,330927.96875,-0.076416015625,0.955078125,-0.23095703125,1.9531248807907104,-2.380370855331421,1.0070799589157104,80.0,1389514.0,1.0
1168137.9112528,305139.25,324167.71875,336718.40625,317673.5625,305063.34375,308883.0625,290118.875,330949.59375,-0.073486328125,0.9560546875,-0.227294921875,1.8920897245407104,-2.166747808456421,1.1596678495407104,80.0,1389515.0,1.0
1168137.9113034,303666.0625,324237.0,335287.53125,315852.25,304502.75,309036.5625,289908.125,330704.0,-0.0732421875,0.955322265625,-0.230224609375,1.6479490995407104,-1.9531248807907104,1.3427733182907104,80.0,1389516.0,1.0
1168137.9244271,302724.625,324304.4375,333928.1875,314316.3125,303856.96875,309154.0625,289673.625,330409.3125,-0.071044921875,0.9580078125,-0.235107421875,1.5258787870407104,-1.7089842557907104,1.4343260526657104,80.0,1389517.0,1.0
1168137.9274971,303640.25,324321.875,334580.40625,315252.25,304065.625,309116.6875,289768.375,330540.84375,-0.0703125,0.960693359375,-0.2314453125,1.4038084745407104,-1.4648436307907104,1.5869139432907104,80.0,1389518.0,1.0
1168137.927548,305151.65625,324271.0625,336351.40625,317371.53125,304855.09375,308971.9375,290017.46875,330926.90625,-0.070068359375,0.960205078125,-0.233154296875,1.2207030057907104,-1.1901854276657104,1.7395018339157104,80.0,1389519.0,1.0
1168137.9294145,305128.5,324149.75,336706.53125,317660.6875,305058.84375,308873.125,289938.34375,330940.03125,-0.070068359375,0.959716796875,-0.23095703125,0.9460448622703552,-0.7324218153953552,1.8310545682907104,80.0,1389520.0,1.0
1168137.9331245,303652.21875,324212.4375,335281.46875,315842.0625,304498.625,309014.59375,289724.03125,330685.84375,-0.06982421875,0.96142578125,-0.23046875,0.7019042372703552,-0.4272460639476776,1.8920897245407104,80.0,1389521.0,1.0
1168137.9444606,302696.09375,324281.1875,333916.9375,314296.21875,303849.4375,309125.09375,289491.5,330394.375,-0.069091796875,0.9609375,-0.228271484375,0.3967284858226776,-0.2746581733226776,1.9531248807907104,80.0,1389522.0,1.0
1168137.947527,303591.15625,324291.65625,334542.0625,315203.78125,304041.84375,309078.875,289575.09375,330517.125,-0.069580078125,0.958251953125,-0.229248046875,0.2441406100988388,-0.0915527269244194,1.9836424589157104,80.0,1389523.0,1.0
1168137.947584,305098.46875,324222.8125,336295.78125,317305.46875,304811.5625,308916.21875,289805.3125,330884.4375,-0.069580078125,0.955322265625,-0.229736328125,0.1220703050494194,0.2136230319738388,1.9836424589157104,80.0,1389524.0,1.0
1168137.9493755,305101.15625,324098.96875,336670.125,317621.96875,305021.9375,308816.71875,289727.25,330898.625,-0.068115234375,0.9560546875,-0.232666015625,-0.0915527269244194,0.3356933295726776,1.9836424589157104,80.0,1389525.0,1.0
1168137.9531144,303638.4375,324173.96875,335269.125,315832.9375,304474.40625,308960.9375,289528.78125,330655.09375,-0.07080078125,0.9541015625,-0.23046875,-0.1831054538488388,0.6408690810203552,1.8920897245407104,80.0,1389526.0,1.0
1168137.9675384,302665.34375,324253.09375,333894.5625,314270.09375,303827.53125,309079.21875,289307.84375,330365.9375,-0.07177734375,0.951171875,-0.22900390625,-0.2136230319738388,0.7629393935203552,1.8005369901657104,80.0,1389527.0,1.0
1168137.9675879,303544.65625,324266.875,334499.0625,315151.9375,304013.4375,309044.53125,289398.40625,330487.71875,-0.071533203125,0.948974609375,-0.229736328125,-0.1831054538488388,0.8850097060203552,1.7089842557907104,80.0,1389528.0,1.0
1168137.9694553,305059.75,324195.34375,336255.28125,317261.9375,304784.28125,308892.71875,289640.0,330855.8125,-0.071044921875,0.95166015625,-0.232177734375,-0.3051757514476776,1.0375975370407104,1.4648436307907104,80.0,1389529.0,1.0
1168137.9719561,305078.875,324061.5,336651.09375,317603.0,304996.53125,308788.03125,289568.125,330869.40625,-0.06982421875,0.949951171875,-0.228759765625,-0.3356933295726776,1.1291502714157104,1.3122557401657104,80.0,1389530.0,1.0
1168137.9744544,303628.0,324139.1875,335268.59375,315833.125,304457.40625,308929.5625,289378.75,330630.875,-0.0712890625,0.9501953125,-0.226806640625,-0.1831054538488388,1.3122557401657104,1.1901854276657104,80.0,1389531.0,1.0
1168137.9932153,302655.5,324239.25,333896.53125,314266.96875,303820.46875,309062.25,289177.125,330353.25,-0.072265625,0.9501953125,-0.22705078125,-0.3662109076976776,1.3122557401657104,0.9765624403953552,80.0,1389532.0,1.0
1168137.996862,303507.8125,324241.21875,334467.40625,315110.0,303988.9375,309021.28125,289262.875,330460.375,-0.07373046875,0.94921875,-0.224365234375,-0.3356933295726776,1.3122557401657104,0.8239745497703552,80.0,1389533.0,1.0
1168137.9969215,305024.25,324159.9375,336216.46875,317217.84375,304753.90625,308865.1875,289506.96875,330824.0625,-0.07373046875,0.9482421875,-0.2255859375,-0.3967284858226776,1.3122557401657104,0.7019042372703552,80.0,1389534.0,1.0
1168137.9969394,305074.25,324035.59375,336641.6875,317597.03125,304984.03125,308769.4375,289454.375,330850.4375,-0.071533203125,0.944580078125,-0.2275390625,-0.2441406100988388,1.3732908964157104,0.6408690810203552,80.0,1389535.0,1.0
1168138.0000573,303639.53125,324127.65625,335280.84375,315846.875,304458.84375,308924.28125,289282.09375,330624.34375,-0.072998046875,0.944091796875,-0.22802734375,-0.1220703050494194,1.4038084745407104,0.4577636420726776,80.0,1389536.0,1.0
1168138.0001056,302641.65625,324224.84375,333891.28125,314254.90625,303809.9375,309052.9375,289074.3125,330340.46875,-0.07421875,0.94482421875,-0.22802734375,0.0610351525247097,1.4343260526657104,0.2136230319738388,80.0,1389537.0,1.0
1168138.0019599,303482.15625,324239.6875,334444.4375,315076.5625,303972.46875,309018.96875,289163.71875,330446.5,-0.07373046875,0.94287109375,-0.2275390625,0.2746581733226776,1.4953612089157104,0.1220703050494194,80.0,1389538.0,1.0
1168138.0107055,305004.59375,324157.4375,336191.4375,317186.1875,304734.65625,308864.46875,289408.875,330807.8125,-0.07421875,0.942626953125,-0.22607421875,0.3662109076976776,1.4953612089157104,0.0,80.0,1389539.0,1.0
1168138.0156411,305065.90625,324018.5,336626.9375,317580.75,304962.375,308759.6875,289351.21875,330828.90625,-0.071533203125,0.9443359375,-0.228759765625,0.4577636420726776,1.4953612089157104,-0.03051757626235485,80.0,1389540.0,1.0
1168138.0156968,303626.65625,324097.71875,335269.46875,315836.25,304434.15625,308896.5625,289175.8125,330594.21875,-0.070556640625,0.94970703125,-0.23095703125,0.5798339247703552,1.5563963651657104,-0.0915527269244194,80.0,1389541.0,1.0
1168138.015716,302611.4375,324196.96875,333864.28125,314228.875,303778.46875,309022.34375,288971.78125,330306.75,-0.0693359375,0.95068359375,-0.229736328125,0.6408690810203552,1.6784666776657104,0.0,80.0,1389542.0,1.0
1168138.0182062,303435.3125,324211.625,334390.96875,315025.15625,303926.875,308987.75,289062.0625,330408.0625,-0.066650390625,0.952880859375,-0.229248046875,0.7019042372703552,1.7395018339157104,0.0915527269244194,80.0,1389543.0,1.0
1168138.0269517,304977.3125,324133.375,336145.84375,317148.65625,304697.03125,308844.625,289322.34375,330782.40625,-0.066650390625,0.9560546875,-0.22802734375,0.7019042372703552,1.8005369901657104,0.2136230319738388,80.0,1389544.0,1.0
1168138.0312842,305064.21875,323988.1875,336603.78125,317574.125,304934.59375,308735.90625,289267.53125,330804.84375,-0.066162109375,0.956298828125,-0.227294921875,0.5493163466453552,2.044677495956421,0.3356933295726776,80.0,1389545.0,1.0
1168138.0313377,303633.8125,324067.21875,335262.59375,315849.3125,304412.28125,308871.875,289093.28125,330571.5,-0.06787109375,0.955322265625,-0.23046875,0.5493163466453552,2.258300542831421,0.3356933295726776,80.0,1389546.0,1.0
1168138.0421538,302610.90625,324181.75,333857.21875,314233.90625,303766.75,309011.375,288899.8125,330292.71875,-0.06640625,0.94970703125,-0.23388671875,0.5187987685203552,2.380370855331421,0.4882812201976776,80.0,1389547.0,1.0
1168138.0475541,303412.96875,324197.59375,334361.09375,315002.0625,303911.0625,308985.25,288990.28125,330392.25,-0.070068359375,0.946533203125,-0.232421875,0.5187987685203552,2.441406011581421,0.4882812201976776,80.0,1389548.0,1.0
1168138.0476034,304940.84375,324108.4375,336102.125,317110.90625,304666.4375,308826.03125,289242.40625,330754.15625,-0.068115234375,0.947509765625,-0.236572265625,0.6713866591453552,2.502441167831421,0.5493163466453552,80.0,1389549.0,1.0
1168138.0562476,305051.4375,323971.21875,336584.75,317563.21875,304911.4375,308716.84375,289197.78125,330784.65625,-0.066162109375,0.94921875,-0.237548828125,0.9155272841453552,2.532958745956421,0.5493163466453552,80.0,1389550.0,1.0
1168138.0563009,303645.6875,324062.65625,335273.15625,315865.375,304406.09375,308861.15625,289039.90625,330564.875,-0.067138671875,0.951904296875,-0.235107421875,0.9460448622703552,2.655029058456421,0.7629393935203552,80.0,1389551.0,1.0
1168138.0650576,302603.21875,324172.71875,333851.65625,314225.84375,303750.65625,308994.03125,288841.78125,330275.21875,-0.067138671875,0.953369140625,-0.233154296875,1.0375975370407104,2.685546636581421,0.9155272841453552,80.0,1389552.0,1.0
1168138.0651057,303381.125,324180.15625,334324.90625,314959.4375,303874.65625,308963.875,288927.0625,330362.90625,-0.067138671875,0.95263671875,-0.233642578125,0.9765624403953552,2.777099370956421,1.0681151151657104,80.0,1389553.0,1.0
1168138.0712786,304911.59375,324091.0,336063.9375,317068.09375,304630.5,308805.8125,289182.59375,330727.96875,-0.068603515625,0.950439453125,-0.232666015625,1.0375975370407104,2.990722417831421,1.2207030057907104,80.0,1389554.0,1.0
1168138.0713351,305041.25,323947.78125,336573.125,317549.71875,304889.0,308695.5625,289147.90625,330766.6875,-0.069091796875,0.951171875,-0.233642578125,1.0986326932907104,2.960204839706421,1.2207030057907104,80.0,1389555.0,1.0
1168138.0825325,303638.53125,324037.09375,335268.6875,315860.46875,304389.46875,308837.46875,288990.1875,330543.59375,-0.072265625,0.952392578125,-0.232421875,1.0681151151657104,2.929687261581421,1.2817381620407104,80.0,1389556.0,1.0
1168138.0825813,302591.75,324164.0625,333850.40625,314218.78125,303744.21875,308983.90625,288808.0625,330264.5625,-0.075439453125,0.951416015625,-0.23046875,1.0986326932907104,3.021239995956421,1.2817381620407104,80.0,1389557.0,1.0
1168138.0851035,303357.0,324180.78125,334312.65625,314929.03125,303867.875,308964.96875,288898.0,330351.8125,-0.07470703125,0.95263671875,-0.231201171875,1.1901854276657104,2.838134527206421,1.1596678495407104,80.0,1389558.0,1.0
1168138.0851543,304886.46875,324080.5625,336048.9375,317034.9375,304617.71875,308805.1875,289157.125,330712.84375,-0.074951171875,0.952880859375,-0.228515625,1.1596678495407104,2.685546636581421,1.2207030057907104,80.0,1389559.0,1.0
1168138.0981596,305039.46875,323940.53125,336578.40625,317545.78125,304886.21875,308692.90625,289130.46875,330759.34375,-0.0732421875,0.952880859375,-0.231689453125,1.2817381620407104,2.563476324081421,1.2817381620407104,80.0,1389560.0,1.0
1168138.1031619,303647.3125,324032.90625,335285.65625,315870.9375,304390.09375,308831.125,288972.75,330538.15625,-0.0712890625,0.954833984375,-0.235107421875,1.3122557401657104,2.624511480331421,1.1901854276657104,80.0,1389561.0,1.0
1168138.1032162,302584.59375,324157.0,333854.4375,314217.25,303737.6875,308970.5,288784.28125,330256.875,-0.06982421875,0.955078125,-0.2333984375,1.2207030057907104,2.563476324081421,1.3122557401657104,80.0,1389562.0,1.0
1168138.1032304,303328.125,324172.8125,334291.625,314900.6875,303849.09375,308944.5625,288868.6875,330341.90625,-0.065673828125,0.955078125,-0.23291015625,1.1291502714157104,2.685546636581421,1.3122557401657104,80.0,1389563.0,1.0
1168138.1062837,304865.1875,324075.09375,336028.09375,317012.65625,304597.25,308784.34375,289131.71875,330707.9375,-0.064208984375,0.9560546875,-0.231689453125,1.1596678495407104,2.593993902206421,1.4343260526657104,80.0,1389564.0,1.0
1168138.106341,305030.25,323916.03125,336565.53125,317539.4375,304862.96875,308658.28125,289097.3125,330744.59375,-0.06396484375,0.957275390625,-0.232421875,1.0986326932907104,2.655029058456421,1.5563963651657104,80.0,1389565.0,1.0
1168138.1144729,303650.78125,324005.0,335293.71875,315888.0,304380.71875,308794.1875,288946.03125,330529.375,-0.06103515625,0.9560546875,-0.23388671875,1.0375975370407104,2.716064214706421,1.6174315214157104,80.0,1389566.0,1.0
1168138.1237755,302565.125,324127.21875,333844.78125,314207.4375,303722.75,308931.875,288751.84375,330240.4375,-0.06201171875,0.954833984375,-0.23583984375,0.9765624403953552,2.777099370956421,1.7395018339157104,80.0,1389567.0,1.0
1168138.1238255,303283.59375,324138.03125,334250.3125,314853.03125,303818.875,308904.78125,288829.96875,330312.9375,-0.062255859375,0.955078125,-0.232666015625,1.0986326932907104,2.838134527206421,1.8920897245407104,80.0,1389568.0,1.0
1168138.1375542,304823.1875,324038.875,335982.125,316961.0625,304567.03125,308749.5,289092.8125,330678.4375,-0.061279296875,0.95654296875,-0.2353515625,1.0986326932907104,2.868652105331421,1.9531248807907104,80.0,1389569.0,1.0
1168138.1376083,305010.65625,323880.28125,336544.78125,317517.53125,304846.0625,308629.6875,289061.09375,330724.65625,-0.060791015625,0.95556640625,-0.234375,1.0375975370407104,3.051757574081421,2.105712652206421,80.0,1389570.0,1.0
1168138.1394297,303647.5625,323981.65625,335293.25,315887.21875,304377.84375,308770.5,288916.34375,330516.875,-0.060302734375,0.953125,-0.2353515625,1.0375975370407104,3.265380620956421,2.044677495956421,80.0,1389571.0,1.0
1168138.1419834,302542.5,324101.125,333829.65625,314189.625,303711.3125,308902.8125,288722.59375,330217.71875,-0.058837890625,0.9521484375,-0.23388671875,0.8850097060203552,3.326415777206421,2.136230230331421,80.0,1389572.0,1.0
1168138.1444291,303238.09375,324104.25,334207.3125,314807.71875,303793.65625,308873.125,288795.90625,330278.6875,-0.058837890625,0.948486328125,-0.23291015625,0.8850097060203552,3.265380620956421,2.166747808456421,80.0,1389573.0,1.0
1168138.1550594,304784.1875,324002.84375,335942.34375,316920.125,304541.71875,308723.46875,289065.75,330644.8125,-0.0595703125,0.94970703125,-0.2333984375,0.9460448622703552,3.387450933456421,2.075195074081421,80.0,1389574.0,1.0
1168138.1551174,304993.0625,323845.9375,336525.46875,317502.875,304826.5,308601.875,289042.40625,330692.1875,-0.060546875,0.948974609375,-0.2314453125,1.0375975370407104,3.448486089706421,2.075195074081421,80.0,1389575.0,1.0
1168138.157552,303636.75,323943.9375,335289.5,315885.78125,304362.28125,308741.1875,288897.125,330479.21875,-0.060546875,0.948486328125,-0.232177734375,0.9765624403953552,3.479003667831421,1.9836424589157104,80.0,1389576.0,1.0
1168138.1576009,302532.9375,324089.5,333832.15625,314187.40625,303709.625,308894.15625,288716.5,330194.46875,-0.06005859375,0.946044921875,-0.233154296875,1.0375975370407104,3.387450933456421,1.9836424589157104,80.0,1389577.0,1.0
1168138.1594564,303206.625,324096.09375,334182.03125,314775.0625,303779.71875,308868.125,288784.09375,330250.15625,-0.058837890625,0.94482421875,-0.2333984375,1.1596678495407104,3.509521245956421,1.8615721464157104,80.0,1389578.0,1.0
1168138.1682217,304751.375,323991.3125,335909.375,316887.9375,304522.875,308718.03125,289054.90625,330618.96875,-0.060302734375,0.941650390625,-0.234619140625,1.1901854276657104,3.448486089706421,1.6784666776657104,80.0,1389579.0,1.0
1168138.1725142,304976.96875,323823.40625,336508.375,317493.5,304814.875,308592.75,289033.46875,330671.0,-0.05859375,0.940673828125,-0.232666015625,1.2817381620407104,3.417968511581421,1.5563963651657104,80.0,1389580.0,1.0
1168138.1725733,303627.71875,323914.625,335277.625,315887.46875,304349.15625,308720.15625,288879.6875,330450.875,-0.058837890625,0.9404296875,-0.23046875,1.3427733182907104,3.448486089706421,1.4343260526657104,80.0,1389581.0,1.0
1168138.1831995,302517.09375,324074.46875,333819.375,314181.9375,303702.65625,308871.96875,288702.84375,330171.40625,-0.058837890625,0.940673828125,-0.229248046875,1.3732908964157104,3.417968511581421,1.3122557401657104,80.0,1389582.0,1.0
1168138.1862767,303173.09375,324082.78125,334154.9375,314743.6875,303772.75,308848.1875,288770.15625,330227.90625,-0.06103515625,0.939697265625,-0.232177734375,1.4953612089157104,3.448486089706421,1.2207030057907104,80.0,1389583.0,1.0
1168138.1863275,304722.25,323969.59375,335879.78125,316851.09375,304515.625,308698.4375,289040.0,330598.59375,-0.059326171875,0.941162109375,-0.235595703125,1.4648436307907104,3.448486089706421,1.1291502714157104,80.0,1389584.0,1.0
1168138.1881629,304957.125,323789.0,336487.125,317464.6875,304799.21875,308555.65625,289005.21875,330642.125,-0.06005859375,0.942138671875,-0.23388671875,1.5563963651657104,3.540038824081421,0.8850097060203552,80.0,1389585.0,1.0
1168138.1969243,303616.90625,323885.28125,335276.71875,315877.71875,304340.84375,308680.28125,288852.0625,330430.59375,-0.058837890625,0.94287109375,-0.2333984375,1.6479490995407104,3.479003667831421,0.7934569716453552,80.0,1389586.0,1.0
1168138.2001001,302486.875,324038.8125,333803.03125,314155.03125,303685.84375,308830.03125,288668.78125,330148.78125,-0.061279296875,0.94189453125,-0.234619140625,1.5258787870407104,3.540038824081421,0.6408690810203552,80.0,1389587.0,1.0
1168138.2001489,303117.21875,324039.59375,334099.59375,314679.125,303734.03125,308808.40625,288727.40625,330193.75,-0.05908203125,0.9423828125,-0.233154296875,1.6479490995407104,3.692626714706421,0.4577636420726776,80.0,1389588.0,1.0
1168138.2019818,304645.15625,323911.75,335794.84375,316765.0,304450.25,308644.0625,288981.78125,330544.21875,-0.060302734375,0.943359375,-0.235107421875,1.6479490995407104,3.631591558456421,0.3967284858226776,80.0,1389589.0,1.0
1168138.2107066,304912.84375,323740.53125,336437.65625,317428.5,304755.6875,308508.96875,288963.625,330604.75,-0.06005859375,0.9462890625,-0.235595703125,1.6479490995407104,3.662109136581421,0.3356933295726776,80.0,1389590.0,1.0
1168138.2144666,303592.0625,323839.96875,335251.0625,315870.75,304312.40625,308638.1875,288818.4375,330399.75,-0.0615234375,0.947265625,-0.23828125,1.6174315214157104,3.601073980331421,0.3662109076976776,80.0,1389591.0,1.0
1168138.2182081,302453.0,324003.65625,333774.0625,314137.78125,303657.75,308792.75,288639.1875,330115.0625,-0.061279296875,0.94921875,-0.235595703125,1.5258787870407104,3.570556402206421,0.3356933295726776,80.0,1389592.0,1.0
1168138.2275509,303060.4375,324003.75,334047.0,314627.71875,303691.8125,308764.6875,288685.03125,330148.5,-0.0634765625,0.949462890625,-0.236328125,1.4953612089157104,3.570556402206421,0.3356933295726776,80.0,1389593.0,1.0
1168138.2276008,304589.84375,323867.21875,335742.96875,316710.71875,304406.375,308603.84375,288942.53125,330500.40625,-0.063232421875,0.949462890625,-0.235107421875,1.5258787870407104,3.509521245956421,0.3051757514476776,80.0,1389594.0,1.0
1168138.230075,304879.5,323698.4375,336407.375,317395.15625,304721.0,308474.5625,288934.65625,330568.71875,-0.064208984375,0.950439453125,-0.23681640625,1.3427733182907104,3.540038824081421,0.2136230319738388,80.0,1389595.0,1.0
1168138.2301293,303581.9375,323808.9375,335246.15625,315861.28125,304295.0625,308611.53125,288799.84375,330375.6875,-0.065185546875,0.951904296875,-0.237060546875,1.3732908964157104,3.540038824081421,0.2136230319738388,80.0,1389596.0,1.0
1168138.2382082,302415.0,323961.5625,333745.90625,314101.9375,303624.15625,308752.71875,288606.28125,330077.875,-0.065185546875,0.9521484375,-0.238525390625,1.3122557401657104,3.601073980331421,0.2441406100988388,80.0,1389597.0,1.0
1168138.2419294,302997.03125,323954.125,333991.5,314566.65625,303646.0625,308726.875,288652.9375,330106.9375,-0.066650390625,0.951416015625,-0.237548828125,1.1901854276657104,3.540038824081421,0.3051757514476776,80.0,1389598.0,1.0
1168138.246235,304530.03125,323814.9375,335684.6875,316650.90625,304361.75,308566.84375,288916.34375,330462.78125,-0.065185546875,0.953857421875,-0.2333984375,1.0986326932907104,3.417968511581421,0.2746581733226776,80.0,1389599.0,1.0
1168138.2462776,304830.6875,323636.28125,336355.3125,317347.5,304673.4375,308427.8125,288902.21875,330523.75,-0.06787109375,0.951904296875,-0.240234375,1.0375975370407104,3.326415777206421,0.2441406100988388,80.0,1389600.0,1.0
1168138.256863,303534.28125,323736.96875,335194.8125,315815.3125,304241.84375,308554.9375,288755.9375,330316.59375,-0.067138671875,0.951904296875,-0.236328125,0.9765624403953552,3.143310308456421,0.3967284858226776,80.0,1389601.0,1.0
1168138.2594259,302380.125,323912.375,333708.15625,314065.8125,303588.65625,308716.59375,288580.78125,330035.3125,-0.06787109375,0.953125,-0.237060546875,0.8544921278953552,3.143310308456421,0.4272460639476776,80.0,1389602.0,1.0
1168138.2618348,302952.34375,323914.625,333940.96875,314509.34375,303604.65625,308698.53125,288630.25,330064.375,-0.068603515625,0.951416015625,-0.23486328125,0.7629393935203552,3.112792730331421,0.5798339247703552,80.0,1389603.0,1.0
1168138.2655881,304490.78125,323784.53125,335633.4375,316594.25,304321.25,308543.59375,288896.75,330423.4375,-0.06982421875,0.954345703125,-0.237060546875,0.6713866591453552,2.960204839706421,0.6408690810203552,80.0,1389604.0,1.0
1168138.2801027,304813.625,323606.59375,336331.0,317329.53125,304646.875,308406.96875,288892.65625,330497.28125,-0.0712890625,0.953125,-0.2392578125,0.6103515028953552,2.746581792831421,0.5493163466453552,80.0,1389605.0,1.0
1168138.2801543,303527.75,323710.6875,335192.0625,315823.8125,304228.53125,308533.9375,288753.625,330298.09375,-0.071533203125,0.953857421875,-0.2373046875,0.3967284858226776,2.624511480331421,0.4882812201976776,80.0,1389606.0,1.0
1168138.2818993,302359.5625,323899.0625,333701.5625,314061.15625,303581.125,308701.65625,288583.125,330018.25,-0.0712890625,0.953125,-0.236328125,0.2746581733226776,2.410888433456421,0.4272460639476776,80.0,1389607.0,1.0
1168138.2844827,302920.5,323914.875,333918.71875,314481.46875,303596.6875,308693.78125,288637.75,330052.03125,-0.073486328125,0.952392578125,-0.237060546875,0.2441406100988388,2.288818120956421,0.4272460639476776,80.0,1389608.0,1.0
1168138.2869367,304443.46875,323765.21875,335591.6875,316552.21875,304290.6875,308520.6875,288891.9375,330394.84375,-0.072998046875,0.952392578125,-0.236328125,0.1220703050494194,2.166747808456421,0.4272460639476776,80.0,1389609.0,1.0
1168138.2963119,304787.5,323578.8125,336308.75,317309.75,304621.375,308375.9375,288887.1875,330468.5,-0.0751953125,0.95361328125,-0.23486328125,0.0,2.075195074081421,0.3662109076976776,80.0,1389610.0,1.0
1168138.2963628,303518.65625,323682.15625,335189.90625,315824.1875,304208.0625,308500.125,288746.03125,330271.71875,-0.07421875,0.95166015625,-0.233642578125,0.0,1.8615721464157104,0.3051757514476776,80.0,1389611.0,1.0
1168138.2987597,302330.875,323860.4375,333680.0,314043.46875,303546.0,308660.0,288567.84375,329985.0,-0.072021484375,0.94921875,-0.23388671875,-0.1220703050494194,1.6174315214157104,0.3356933295726776,80.0,1389612.0,1.0
1168138.2988102,302846.40625,323857.84375,333847.8125,314412.25,303533.21875,308637.0,288601.96875,329994.8125,-0.068603515625,0.944091796875,-0.236572265625,-0.2746581733226776,1.4953612089157104,0.5798339247703552,80.0,1389613.0,1.0
1168138.3044626,304379.28125,323714.34375,335519.90625,316477.65625,304233.09375,308476.25,288861.96875,330344.59375,-0.0654296875,0.939453125,-0.23779296875,-0.1831054538488388,1.5258787870407104,0.6408690810203552,80.0,1389614.0,1.0
1168138.3188169,304751.21875,323527.84375,336261.34375,317267.46875,304577.3125,308331.6875,288864.21875,330426.65625,-0.063232421875,0.940185546875,-0.23779296875,-0.1220703050494194,1.4953612089157104,0.7019042372703552,80.0,1389615.0,1.0
1168138.3188692,303486.90625,323625.46875,335152.96875,315795.125,304165.5,308448.09375,288722.40625,330227.71875,-0.06298828125,0.9453125,-0.239990234375,0.0915527269244194,1.5258787870407104,0.6713866591453552,80.0,1389616.0,1.0
1168138.3206557,302292.4375,323816.875,333642.8125,314003.3125,303504.875,308612.59375,288547.4375,329942.59375,-0.062744140625,0.947998046875,-0.240478515625,0.1220703050494194,1.5258787870407104,0.7629393935203552,80.0,1389617.0,1.0
1168138.3231512,302800.78125,323825.21875,333797.9375,314357.09375,303490.84375,308596.34375,288583.65625,329954.3125,-0.060302734375,0.948486328125,-0.2353515625,0.03051757626235485,1.4953612089157104,0.6713866591453552,80.0,1389618.0,1.0
1168138.3269541,304326.4375,323675.8125,335463.75,316421.40625,304187.9375,308431.46875,288841.5,330303.71875,-0.060546875,0.9462890625,-0.23486328125,-0.03051757626235485,1.6174315214157104,0.8239745497703552,80.0,1389619.0,1.0
1168138.3312589,304701.0625,323479.28125,336212.1875,317219.375,304531.0,308280.71875,288843.1875,330385.875,-0.059814453125,0.94482421875,-0.238525390625,-0.03051757626235485,1.7700194120407104,0.8544921278953552,80.0,1389620.0,1.0
1168138.3313123,303448.09375,323573.78125,335117.5625,315764.53125,304127.25,308396.6875,288710.6875,330192.15625,-0.063232421875,0.9423828125,-0.237548828125,0.0915527269244194,1.8310545682907104,0.9460448622703552,80.0,1389621.0,1.0
1168138.3445062,302250.5,323771.28125,333604.09375,313970.5,303472.40625,308568.15625,288545.75,329913.46875,-0.069091796875,0.942138671875,-0.236083984375,0.1525878757238388,1.8310545682907104,1.0070799589157104,80.0,1389622.0,1.0
1168138.3668391,302725.96875,323768.96875,333725.15625,314279.9375,303433.53125,308541.71875,288569.15625,329907.28125,-0.07275390625,0.9453125,-0.237060546875,0.3967284858226776,1.7395018339157104,0.8850097060203552,80.0,1389623.0,1.0
1168138.3668821,304253.375,323619.125,335390.71875,316342.375,304126.0,308377.5625,288835.4375,330257.78125,-0.07470703125,0.947021484375,-0.237060546875,0.3662109076976776,1.6174315214157104,0.7934569716453552,80.0,1389624.0,1.0
1168138.3668939,304661.625,323435.375,336172.84375,317178.0625,304485.3125,308235.9375,288851.15625,330350.84375,-0.077392578125,0.949951171875,-0.2333984375,0.3356933295726776,1.3122557401657104,0.5493163466453552,80.0,1389625.0,1.0
1168138.3705368,303424.5,323536.0625,335100.125,315743.53125,304090.84375,308349.5625,288719.375,330160.59375,-0.07568359375,0.95166015625,-0.234375,0.2136230319738388,1.0986326932907104,0.5187987685203552,80.0,1389626.0,1.0
1168138.3705705,302204.625,323726.5,333574.15625,313926.78125,303428.53125,308509.625,288540.5625,329870.625,-0.07470703125,0.950927734375,-0.2333984375,0.1220703050494194,0.8239745497703552,0.4272460639476776,80.0,1389627.0,1.0
1168138.3705824,302663.375,323729.09375,333674.09375,314211.8125,303386.40625,308491.09375,288560.9375,329861.53125,-0.07568359375,0.9501953125,-0.233154296875,0.0,0.6408690810203552,0.3662109076976776,80.0,1389628.0,1.0
1168138.3742712,304190.0,323581.125,335328.3125,316267.28125,304072.96875,308330.96875,288822.625,330210.125,-0.07421875,0.9501953125,-0.233642578125,-0.0915527269244194,0.3967284858226776,0.3662109076976776,80.0,1389629.0,1.0
1168138.3743045,304610.46875,323383.53125,336127.15625,317129.53125,304433.53125,308180.59375,288835.0625,330303.71875,-0.072265625,0.947998046875,-0.233642578125,0.0,0.1831054538488388,0.1831054538488388,80.0,1389630.0,1.0
1168138.374316,303380.875,323474.8125,335062.84375,315709.09375,304038.625,308287.96875,288696.03125,330108.5625,-0.0703125,0.947509765625,-0.234130859375,-0.0610351525247097,0.0915527269244194,0.1831054538488388,80.0,1389631.0,1.0
1168138.3769641,302150.28125,323668.84375,333523.90625,313882.34375,303370.0625,308452.21875,288518.125,329818.6875,-0.071533203125,0.9462890625,-0.232421875,0.0610351525247097,0.1220703050494194,0.1525878757238388,80.0,1389632.0,1.0
1168138.379482,302592.3125,323670.0,333602.5625,314141.28125,303316.6875,308433.875,288534.65625,329809.3125,-0.071533203125,0.9462890625,-0.23583984375,0.03051757626235485,0.03051757626235485,0.1525878757238388,80.0,1389633.0,1.0
1168138.3857133,304125.09375,323524.625,335258.40625,316199.9375,304006.1875,308273.125,288799.3125,330161.21875,-0.0693359375,0.94921875,-0.232666015625,0.0915527269244194,-0.0610351525247097,0.03051757626235485,80.0,1389634.0,1.0
1168138.3944593,304578.28125,323336.40625,336079.40625,317090.71875,304383.75,308131.25,288824.4375,330263.59375,-0.06884765625,0.951416015625,-0.23388671875,0.0,-0.1831054538488388,0.1220703050494194,80.0,1389635.0,1.0
1168138.4043534,303361.75,323424.65625,335032.0,315689.0,303996.96875,308237.28125,288688.09375,330071.34375,-0.0654296875,0.95166015625,-0.237548828125,0.0610351525247097,-0.1525878757238388,0.1525878757238388,80.0,1389636.0,1.0
1168138.4044036,302102.15625,323606.34375,333475.34375,313833.34375,303313.71875,308389.625,288499.15625,329771.21875,-0.064697265625,0.948486328125,-0.238037109375,0.0,-0.1220703050494194,0.2136230319738388,80.0,1389637.0,1.0
1168138.4044176,302524.0,323615.53125,333533.5625,314065.1875,303253.1875,308378.71875,288518.9375,329761.5625,-0.064453125,0.945068359375,-0.239990234375,0.0,-0.03051757626235485,0.1831054538488388,80.0,1389638.0,1.0
1168138.4075211,304055.0,323472.40625,335183.28125,316119.125,303938.78125,308219.46875,288786.15625,330113.71875,-0.062744140625,0.945556640625,-0.237060546875,0.0610351525247097,-0.03051757626235485,0.2136230319738388,80.0,1389639.0,1.0
1168138.407576,304517.3125,323271.25,336014.5,317027.5,304314.46875,308063.90625,288805.03125,330215.46875,-0.0615234375,0.9453125,-0.237060546875,0.2136230319738388,0.0915527269244194,0.2441406100988388,80.0,1389640.0,1.0
1168138.4181669,303312.5625,323360.375,334979.0,315643.84375,303935.46875,308171.375,288669.5,330023.25,-0.063232421875,0.94677734375,-0.239501953125,0.2441406100988388,0.1220703050494194,0.2746581733226776,80.0,1389641.0,1.0
1168138.422502,302054.96875,323553.6875,333425.28125,313794.28125,303264.71875,308341.0625,288492.0,329729.5625,-0.06591796875,0.95068359375,-0.239501953125,0.2746581733226776,0.3662109076976776,0.2136230319738388,80.0,1389642.0,1.0
1168138.4225473,302453.4375,323561.0,333459.6875,313999.8125,303193.75,308329.625,288504.53125,329709.34375,-0.06689453125,0.951416015625,-0.235595703125,-0.03051757626235485,0.3967284858226776,0.3051757514476776,80.0,1389643.0,1.0
1168138.4312597,303980.78125,323417.5,335102.5625,316046.34375,303875.8125,308169.6875,288769.4375,330056.25,-0.0673828125,0.950927734375,-0.238525390625,0.0,0.3662109076976776,0.3051757514476776,80.0,1389644.0,1.0
