Time,FZ,C3,CZ,C4,PZ,PO7,OZ,PO8,AccX,AccY,AccZ,Gyro1,Gyro2,Gyro3,Battery,Counter,Validation
178845.5611,306337.46875,308285.75,332106.15625,315594.5,313349.65625,287008.125,290995.84375,307401.6875,-0.084228515625,0.90625,-0.349609375,3.936767339706421,2.380370855331421,2.349853277206421,100.0,138605.0,1.0
178845.561126,306209.15625,308029.9375,331162.84375,315457.6875,312836.625,287026.90625,290984.3125,307421.875,-0.0830078125,0.90478515625,-0.353759765625,3.875732183456421,2.197265386581421,2.532958745956421,100.0,138606.0,1.0
178845.5635442,306416.0625,309587.6875,332242.4375,316082.90625,313789.375,287398.5625,291369.5625,307547.84375,-0.081787109375,0.904052734375,-0.353271484375,3.845214605331421,2.075195074081421,2.563476324081421,100.0,138607.0,1.0
178845.5635695,306632.78125,310770.96875,333854.625,316545.78125,314880.75,287577.375,291589.53125,307572.4375,-0.08251953125,0.90185546875,-0.354736328125,3.723144292831421,2.014159917831421,2.532958745956421,100.0,138608.0,1.0
178845.5722711,306545.78125,309872.875,333634.5,316171.53125,314517.75,287304.40625,291324.78125,307461.65625,-0.082763671875,0.90087890625,-0.354736328125,3.814697027206421,1.9531248807907104,2.532958745956421,100.0,138609.0,1.0
178845.5722968,306339.53125,308315.15625,332194.15625,315585.09375,313383.09375,287003.9375,290988.0,307387.375,-0.081298828125,0.901123046875,-0.351318359375,3.753661870956421,1.7089842557907104,2.563476324081421,100.0,138610.0,1.0
178845.5785189,306202.65625,308026.46875,331223.46875,315437.5625,312848.8125,287016.09375,290969.75,307404.09375,-0.08349609375,0.89990234375,-0.355712890625,3.753661870956421,1.4343260526657104,2.593993902206421,100.0,138611.0,1.0
178845.5785441,306402.90625,309553.875,332272.375,316056.625,313773.1875,287384.4375,291349.09375,307524.0625,-0.08251953125,0.900390625,-0.356201171875,3.845214605331421,1.4343260526657104,2.380370855331421,100.0,138612.0,1.0
178845.5867044,306623.5625,310735.125,333871.875,316529.25,314849.71875,287566.84375,291577.90625,307557.96875,-0.080810546875,0.899658203125,-0.35595703125,3.875732183456421,1.4953612089157104,2.319335699081421,100.0,138613.0,1.0
178845.5935508,306544.0,309862.34375,333667.65625,316170.4375,314501.40625,287300.9375,291328.53125,307462.46875,-0.078125,0.8994140625,-0.356689453125,3.967284917831421,1.3427733182907104,2.227782964706421,100.0,138614.0,1.0
178845.5935756,306334.96875,308303.25,332218.1875,315579.1875,313360.125,286994.4375,290983.96875,307376.8125,-0.076904296875,0.897705078125,-0.35888671875,4.150390148162842,1.3122557401657104,2.197265386581421,100.0,138615.0,1.0
178845.6047962,306199.78125,308007.0625,331230.25,315425.5,312817.5,287002.75,290964.90625,307394.4375,-0.076171875,0.89990234375,-0.359375,4.211425304412842,1.2512205839157104,2.105712652206421,100.0,138616.0,1.0
178845.604822,306403.90625,309531.96875,332265.21875,316045.71875,313742.59375,287370.3125,291346.15625,307520.84375,-0.07470703125,0.8994140625,-0.357177734375,4.302978038787842,1.1291502714157104,2.014159917831421,100.0,138617.0,1.0
178845.6072927,306627.0625,310726.625,333880.0,316527.90625,314838.09375,287560.75,291576.03125,307552.78125,-0.073974609375,0.900634765625,-0.3583984375,4.211425304412842,1.2207030057907104,1.8920897245407104,100.0,138618.0,1.0
178845.6073186,306542.9375,309863.9375,333683.03125,316170.1875,314497.375,287297.0,291322.09375,307450.40625,-0.070068359375,0.899169921875,-0.35888671875,4.333495616912842,1.2512205839157104,1.8920897245407104,100.0,138619.0,1.0
178845.6210966,306332.28125,308302.0,332230.96875,315582.25,313359.59375,286990.875,290981.1875,307372.34375,-0.068603515625,0.899169921875,-0.36083984375,4.364013195037842,1.2207030057907104,1.8310545682907104,100.0,138620.0,1.0
178845.621124,306191.28125,307985.59375,331227.5625,315420.59375,312805.15625,286990.4375,290953.9375,307390.5,-0.06884765625,0.898681640625,-0.361328125,4.241942882537842,1.3427733182907104,1.8310545682907104,100.0,138621.0,1.0
178845.6235457,306391.03125,309497.5625,332246.71875,316037.9375,313714.34375,287357.625,291333.1875,307515.6875,-0.0693359375,0.8974609375,-0.357177734375,4.241942882537842,1.4343260526657104,1.8310545682907104,100.0,138622.0,1.0
178845.6235712,306619.71875,310712.34375,333876.15625,316531.28125,314818.875,287555.90625,291574.40625,307557.25,-0.068359375,0.89599609375,-0.359375,4.180907726287842,1.4343260526657104,1.6784666776657104,100.0,138623.0,1.0
178845.6322464,306542.84375,309875.75,333707.28125,316180.90625,314501.84375,287299.9375,291328.28125,307464.53125,-0.0693359375,0.895751953125,-0.36181640625,4.272460460662842,1.5869139432907104,1.5563963651657104,100.0,138624.0,1.0
178845.632271,306333.71875,308308.1875,332258.53125,315588.9375,313368.625,286995.25,290988.96875,307388.28125,-0.067626953125,0.894287109375,-0.360107421875,4.425048351287842,1.7395018339157104,1.5258787870407104,100.0,138625.0,1.0
178845.6410453,306190.5625,307967.09375,331227.65625,315415.9375,312795.5,286991.59375,290952.5,307390.9375,-0.068603515625,0.89404296875,-0.36083984375,4.486083507537842,1.7395018339157104,1.3732908964157104,100.0,138626.0,1.0
178845.641069,306393.15625,309472.4375,332228.125,316031.40625,313695.40625,287358.40625,291329.4375,307514.6875,-0.06689453125,0.894775390625,-0.36328125,4.577636241912842,1.8310545682907104,1.3122557401657104,100.0,138627.0,1.0
178845.6435423,306626.15625,310706.59375,333864.0,316531.65625,314810.125,287559.0625,291573.0625,307557.59375,-0.06640625,0.897705078125,-0.364501953125,4.547118663787842,1.8310545682907104,1.2512205839157104,100.0,138628.0,1.0
178845.6435707,306542.03125,309869.03125,333692.78125,316184.65625,314494.5,287302.09375,291329.625,307464.0,-0.06396484375,0.900146484375,-0.363525390625,4.547118663787842,2.014159917831421,1.1596678495407104,100.0,138629.0,1.0
178845.6543027,306327.375,308292.875,332230.625,315586.1875,313353.6875,286996.3125,290987.1875,307385.9375,-0.063720703125,0.90087890625,-0.362548828125,4.608153820037842,2.075195074081421,1.2207030057907104,100.0,138630.0,1.0
178845.6611899,306178.5,307932.9375,331178.125,315407.4375,312761.90625,286989.4375,290949.1875,307397.3125,-0.064453125,0.900146484375,-0.364501953125,4.577636241912842,2.136230230331421,1.0986326932907104,100.0,138631.0,1.0
178845.66124,306377.4375,309429.15625,332156.3125,316019.0,313645.59375,287356.46875,291324.5,307526.59375,-0.063720703125,0.901123046875,-0.364501953125,4.486083507537842,2.197265386581421,1.1291502714157104,100.0,138632.0,1.0
178845.6636447,306617.5,310689.71875,333812.40625,316532.28125,314780.4375,287565.125,291575.65625,307572.1875,-0.063232421875,0.897216796875,-0.362060546875,4.425048351287842,2.288818120956421,1.1596678495407104,100.0,138633.0,1.0
178845.6636943,306535.0625,309867.96875,333661.84375,316185.46875,314480.21875,287308.875,291329.34375,307460.25,-0.06494140625,0.896484375,-0.36474609375,4.394530773162842,2.319335699081421,1.1291502714157104,100.0,138634.0,1.0
178845.6717946,306316.46875,308279.9375,332199.40625,315582.6875,313338.125,286996.6875,290985.65625,307377.28125,-0.064697265625,0.8974609375,-0.36376953125,4.455565929412842,2.410888433456421,1.0375975370407104,100.0,138635.0,1.0
178845.6755446,306169.84375,307906.75,331135.5625,315398.78125,312743.65625,286988.0,290949.1875,307397.3125,-0.06787109375,0.8955078125,-0.36279296875,4.486083507537842,2.410888433456421,1.1596678495407104,100.0,138636.0,1.0
178845.6792115,306368.5,309398.59375,332098.65625,316007.71875,313621.46875,287353.40625,291317.8125,307521.40625,-0.0712890625,0.895751953125,-0.36279296875,4.455565929412842,2.502441167831421,1.0986326932907104,100.0,138637.0,1.0
178845.6886423,306605.25,310670.40625,333754.3125,316518.96875,314753.0,287562.625,291565.8125,307561.09375,-0.072509765625,0.897705078125,-0.362548828125,4.425048351287842,2.441406011581421,0.9460448622703552,100.0,138638.0,1.0
178845.6886915,306520.84375,309866.375,333616.0,316177.875,314464.03125,287309.59375,291326.84375,307462.21875,-0.07470703125,0.89892578125,-0.362060546875,4.425048351287842,2.410888433456421,0.6713866591453552,100.0,138639.0,1.0
178845.6911891,306303.03125,308276.0,332149.71875,315577.40625,313323.375,286999.8125,290982.90625,307379.9375,-0.07568359375,0.899658203125,-0.36474609375,4.364013195037842,2.258300542831421,0.4577636420726776,100.0,138640.0,1.0
178845.6912431,306154.375,307887.875,331070.125,315386.25,312717.5625,286988.1875,290941.75,307398.46875,-0.07470703125,0.900634765625,-0.362060546875,4.180907726287842,2.044677495956421,0.1831054538488388,100.0,138641.0,1.0
178845.7080456,306355.78125,309373.46875,332017.03125,315990.90625,313588.09375,287352.25,291311.28125,307520.21875,-0.07275390625,0.900146484375,-0.363037109375,4.119872570037842,1.9836424589157104,0.1220703050494194,100.0,138642.0,1.0
178845.7111902,306595.6875,310650.625,333677.5,316513.78125,314729.03125,287566.375,291565.90625,307561.1875,-0.0732421875,0.900146484375,-0.36279296875,4.028319835662842,1.9226073026657104,-0.0610351525247097,100.0,138643.0,1.0
178845.7112391,306517.09375,309862.34375,333555.90625,316181.4375,314456.25,287319.53125,291331.40625,307464.625,-0.076171875,0.898193359375,-0.36279296875,3.814697027206421,1.8005369901657104,-0.2746581733226776,100.0,138644.0,1.0
178845.713003,306296.15625,308265.96875,332085.53125,315570.15625,313308.1875,287002.65625,290977.78125,307372.34375,-0.077392578125,0.8994140625,-0.36279296875,3.814697027206421,1.7089842557907104,-0.5798339247703552,100.0,138645.0,1.0
178845.7155021,306150.4375,307862.46875,330993.84375,315374.46875,312691.34375,286985.59375,290935.5,307384.4375,-0.0791015625,0.9013671875,-0.36083984375,3.723144292831421,1.5563963651657104,-0.8544921278953552,100.0,138646.0,1.0
178845.7248327,306350.625,309335.09375,331920.90625,315975.1875,313548.3125,287346.34375,291307.71875,307511.90625,-0.0771484375,0.9033203125,-0.362060546875,3.601073980331421,1.3122557401657104,-0.8850097060203552,100.0,138647.0,1.0
178845.7248843,306591.21875,310628.8125,333585.40625,316502.5,314693.0,287563.53125,291567.625,307562.34375,-0.075439453125,0.903076171875,-0.361328125,3.417968511581421,1.0986326932907104,-0.9460448622703552,100.0,138648.0,1.0
178845.7267944,306516.09375,309858.5,333478.125,316181.53125,314431.3125,287320.25,291336.6875,307470.875,-0.074951171875,0.89990234375,-0.3623046875,3.295898199081421,0.9765624403953552,-0.8850097060203552,100.0,138649.0,1.0
178845.7330424,306303.03125,308269.375,332033.3125,315582.0625,313304.15625,287005.71875,290989.875,307384.78125,-0.071044921875,0.898193359375,-0.363037109375,3.173827886581421,0.8239745497703552,-0.9765624403953552,100.0,138650.0,1.0
178845.7398453,306150.6875,307842.28125,330933.15625,315376.0625,312677.125,286980.84375,290937.5625,307390.78125,-0.071044921875,0.89599609375,-0.363525390625,3.173827886581421,0.7629393935203552,-0.9765624403953552,100.0,138651.0,1.0
178845.7398982,306341.65625,309298.1875,331839.65625,315965.0,313518.1875,287334.625,291298.0625,307506.90625,-0.06689453125,0.895263671875,-0.3603515625,3.234863042831421,0.5798339247703552,-0.8544921278953552,100.0,138652.0,1.0
178845.7417823,306587.53125,310614.96875,333520.40625,316495.53125,314673.40625,287556.09375,291557.6875,307548.84375,-0.067138671875,0.895263671875,-0.36572265625,3.021239995956421,0.5798339247703552,-0.8239745497703552,100.0,138653.0,1.0
178845.7505119,306517.34375,309868.3125,333442.53125,316178.03125,314428.625,287316.3125,291332.28125,307454.53125,-0.068603515625,0.89404296875,-0.364013671875,2.960204839706421,0.7934569716453552,-0.7019042372703552,100.0,138654.0,1.0
178845.7573883,306303.84375,308271.0625,332000.84375,315579.65625,313297.96875,287000.71875,290986.125,307379.9375,-0.067626953125,0.89404296875,-0.36474609375,2.899169683456421,0.8239745497703552,-0.6103515028953552,100.0,138655.0,1.0
178845.7574377,306151.40625,307830.75,330894.34375,315374.1875,312663.0,286977.5625,290932.90625,307396.65625,-0.068359375,0.894287109375,-0.36474609375,2.807616949081421,0.6713866591453552,-0.3662109076976776,100.0,138656.0,1.0
178845.7598902,306345.875,309285.75,331790.46875,315961.5,313496.375,287335.1875,291293.75,307508.96875,-0.068603515625,0.892822265625,-0.362548828125,2.655029058456421,0.5798339247703552,-0.1525878757238388,100.0,138657.0,1.0
178845.7599467,306594.25,310617.28125,333478.75,316500.1875,314660.8125,287563.6875,291561.875,307563.0625,-0.066162109375,0.89306640625,-0.36376953125,2.685546636581421,0.4882812201976776,-0.03051757626235485,100.0,138658.0,1.0
178845.7705474,306519.15625,309882.0,333421.78125,316189.40625,314429.25,287324.625,291338.8125,307470.0625,-0.0634765625,0.892333984375,-0.363525390625,2.685546636581421,0.5187987685203552,0.03051757626235485,100.0,138659.0,1.0
178845.7748898,306299.90625,308280.8125,331984.5625,315584.84375,313295.375,287007.3125,290991.65625,307388.90625,-0.06396484375,0.890869140625,-0.36328125,2.716064214706421,0.5798339247703552,0.1220703050494194,100.0,138660.0,1.0
178845.7749399,306139.53125,307819.5625,330856.25,315366.40625,312641.71875,286976.84375,290932.65625,307397.3125,-0.0625,0.89111328125,-0.358154296875,2.624511480331421,0.6713866591453552,0.1525878757238388,100.0,138661.0,1.0
178845.7805424,306333.4375,309268.6875,331739.0625,315946.3125,313465.25,287325.96875,291288.125,307508.59375,-0.064453125,0.893798828125,-0.36279296875,2.593993902206421,0.6103515028953552,0.2441406100988388,100.0,138662.0,1.0
178845.7873872,306587.8125,310618.28125,333446.125,316492.125,314640.25,287551.53125,291555.53125,307552.25,-0.06640625,0.896728515625,-0.36083984375,2.502441167831421,0.5798339247703552,0.3967284858226776,100.0,138663.0,1.0
178845.7874422,306517.96875,309903.1875,333414.8125,316188.96875,314420.46875,287315.40625,291332.5625,307461.21875,-0.06787109375,0.898193359375,-0.361083984375,2.410888433456421,0.4577636420726776,0.4882812201976776,100.0,138664.0,1.0
178845.7892924,306301.25,308301.46875,331982.96875,315583.9375,313285.28125,287002.125,290983.34375,307385.125,-0.069580078125,0.899658203125,-0.360107421875,2.258300542831421,0.3662109076976776,0.6103515028953552,100.0,138665.0,1.0
178845.7980477,306151.84375,307833.78125,330852.40625,315366.6875,312624.75,286980.0625,290924.34375,307395.15625,-0.068115234375,0.8984375,-0.36328125,1.9531248807907104,0.3662109076976776,0.7629393935203552,100.0,138666.0,1.0
178845.8023942,306346.40625,309272.78125,331726.1875,315948.8125,313442.375,287339.65625,291288.75,307523.90625,-0.06787109375,0.8984375,-0.36181640625,1.7700194120407104,0.3356933295726776,0.7629393935203552,100.0,138667.0,1.0
178845.8024428,306606.125,310641.96875,333448.25,316505.8125,314631.65625,287576.3125,291562.34375,307565.125,-0.066650390625,0.8955078125,-0.35986328125,1.5563963651657104,0.3356933295726776,0.8544921278953552,100.0,138668.0,1.0
178845.814279,306541.75,309952.375,333435.28125,316209.96875,314431.03125,287347.25,291349.46875,307477.75,-0.06591796875,0.894287109375,-0.361572265625,1.6479490995407104,0.3356933295726776,0.8850097060203552,100.0,138669.0,1.0
178845.8173992,306321.28125,308345.09375,332006.75,315602.09375,313301.5625,287029.40625,290997.90625,307395.59375,-0.064697265625,0.896728515625,-0.358642578125,1.5869139432907104,0.2746581733226776,0.9460448622703552,100.0,138670.0,1.0
178845.8174498,306159.5625,307849.6875,330862.875,315372.59375,312634.03125,286994.28125,290932.1875,307395.78125,-0.0634765625,0.8955078125,-0.3623046875,1.3427733182907104,0.2441406100988388,1.0070799589157104,100.0,138671.0,1.0
178845.8193174,306351.25,309275.1875,331716.90625,315947.09375,313443.34375,287349.75,291293.65625,307523.1875,-0.066650390625,0.896728515625,-0.362548828125,1.1901854276657104,0.2441406100988388,1.0375975370407104,100.0,138672.0,1.0
178845.8230431,306609.34375,310654.40625,333438.6875,316508.6875,314632.65625,287586.21875,291570.65625,307575.125,-0.066162109375,0.89697265625,-0.35986328125,1.1596678495407104,0.2746581733226776,1.0986326932907104,100.0,138673.0,1.0
178845.8298871,306548.03125,309981.0625,333452.8125,316222.46875,314450.53125,287355.46875,291358.3125,307480.28125,-0.064697265625,0.8984375,-0.360107421875,1.1596678495407104,0.1525878757238388,1.0681151151657104,100.0,138674.0,1.0
178845.8299396,306327.375,308369.25,332032.5,315613.71875,313325.96875,287034.9375,291005.6875,307398.46875,-0.066650390625,0.8984375,-0.360107421875,0.9765624403953552,0.0915527269244194,1.0986326932907104,100.0,138675.0,1.0
178845.8355484,306164.1875,307857.46875,330868.96875,315377.40625,312638.78125,286997.5625,290937.84375,307411.59375,-0.0654296875,0.900146484375,-0.3583984375,0.7629393935203552,0.1525878757238388,0.9765624403953552,100.0,138676.0,1.0
178845.8448499,306348.375,309268.6875,331698.21875,315945.6875,313427.71875,287346.34375,291292.875,307534.09375,-0.06494140625,0.900146484375,-0.358642578125,0.5493163466453552,0.0915527269244194,0.8544921278953552,100.0,138677.0,1.0
178845.8448987,306608.0,310661.90625,333434.5,316514.65625,314626.9375,287585.25,291572.25,307575.5625,-0.06494140625,0.901123046875,-0.360595703125,0.3356933295726776,0.0915527269244194,0.9460448622703552,100.0,138678.0,1.0
178845.8473903,306545.0625,309996.90625,333458.09375,316229.09375,314448.8125,287354.125,291360.1875,307478.5625,-0.064697265625,0.9013671875,-0.358154296875,0.1831054538488388,0.0610351525247097,0.9765624403953552,100.0,138679.0,1.0
178845.8474394,306325.40625,308377.375,332033.3125,315617.71875,313315.25,287030.75,291004.34375,307393.8125,-0.064697265625,0.901123046875,-0.358642578125,0.03051757626235485,0.03051757626235485,0.8850097060203552,100.0,138680.0,1.0
178845.8555669,306162.9375,307848.28125,330861.71875,315377.6875,312621.71875,286988.0,290935.59375,307405.4375,-0.065185546875,0.900146484375,-0.35693359375,-0.0915527269244194,-0.03051757626235485,0.8239745497703552,100.0,138681.0,1.0
178845.8673884,306349.90625,309249.71875,331680.3125,315943.8125,313404.65625,287334.5625,291289.03125,307525.40625,-0.066162109375,0.901611328125,-0.358642578125,-0.2441406100988388,-0.1220703050494194,0.7324218153953552,100.0,138682.0,1.0
178845.8674368,306611.3125,310654.40625,333417.59375,316516.0,314606.09375,287574.0625,291566.71875,307571.09375,-0.065185546875,0.902587890625,-0.3623046875,-0.4272460639476776,-0.2136230319738388,0.7934569716453552,100.0,138683.0,1.0
178845.8698904,306552.3125,310015.40625,333466.84375,316237.6875,314448.8125,287345.90625,291356.78125,307473.84375,-0.06591796875,0.90380859375,-0.361083984375,-0.5493163466453552,-0.2746581733226776,0.7019042372703552,100.0,138684.0,1.0
178845.8699394,306330.59375,308395.625,332050.90625,315624.71875,313325.0625,287023.9375,291001.65625,307390.40625,-0.06494140625,0.9033203125,-0.36181640625,-0.7324218153953552,-0.2441406100988388,0.7019042372703552,100.0,138685.0,1.0
178845.8717925,306163.21875,307848.625,330865.75,315374.53125,312620.53125,286979.6875,290924.6875,307398.09375,-0.064208984375,0.903076171875,-0.3603515625,-0.9460448622703552,-0.3662109076976776,0.7019042372703552,100.0,138686.0,1.0
178845.8805203,306342.21875,309232.375,331656.375,315926.90625,313381.125,287326.59375,291273.375,307506.03125,-0.063232421875,0.902587890625,-0.359375,-1.0070799589157104,-0.3356933295726776,0.6408690810203552,100.0,138687.0,1.0
178845.8836265,306608.625,310652.6875,333411.96875,316511.71875,314599.375,287581.3125,291568.5,307568.15625,-0.06494140625,0.899169921875,-0.36328125,-1.2207030057907104,-0.4272460639476776,0.5798339247703552,100.0,138688.0,1.0
178845.8836748,306549.625,310027.5625,333477.59375,316240.71875,314452.65625,287358.875,291367.4375,307478.375,-0.06396484375,0.89990234375,-0.361083984375,-1.2817381620407104,-0.3967284858226776,0.5798339247703552,100.0,138689.0,1.0
178845.8918204,306329.59375,308416.0,332073.71875,315626.84375,313335.25,287031.09375,291012.03125,307395.5,-0.064208984375,0.8984375,-0.35791015625,-1.4038084745407104,-0.3967284858226776,0.6713866591453552,100.0,138690.0,1.0
178845.8955466,306157.5,307848.8125,330881.65625,315372.9375,312624.5625,286982.46875,290931.84375,307396.84375,-0.06396484375,0.899169921875,-0.3544921875,-1.3732908964157104,-0.4272460639476776,0.7324218153953552,100.0,138691.0,1.0
178845.9048911,306329.25,309214.5,331652.4375,315922.34375,313371.375,287325.6875,291274.0,307502.8125,-0.065673828125,0.897216796875,-0.355224609375,-1.4038084745407104,-0.5187987685203552,0.7629393935203552,100.0,138692.0,1.0
178845.9049428,306594.34375,310643.5625,333397.75,316507.15625,314582.75,287578.375,291565.28125,307564.5,-0.06787109375,0.897216796875,-0.357177734375,-1.4953612089157104,-0.6103515028953552,0.7629393935203552,100.0,138693.0,1.0
178845.9067741,306541.125,310037.65625,333487.5,316244.5625,314459.65625,287362.4375,291370.5625,307478.46875,-0.0673828125,0.897705078125,-0.357177734375,-1.5563963651657104,-0.6713866591453552,0.7629393935203552,100.0,138694.0,1.0
178845.9105497,306325.40625,308421.46875,332089.4375,315630.875,313350.09375,287036.03125,291016.40625,307392.65625,-0.069091796875,0.899658203125,-0.356689453125,-1.6174315214157104,-0.7019042372703552,0.6408690810203552,100.0,138695.0,1.0
178845.9235945,306154.71875,307839.6875,330880.75,315367.9375,312627.875,286979.5,290931.40625,307398.5625,-0.072509765625,0.900146484375,-0.357421875,-1.6784666776657104,-0.9460448622703552,0.6103515028953552,100.0,138696.0,1.0
178845.9236431,306322.53125,309186.875,331628.8125,315910.09375,313361.90625,287317.65625,291272.75,307517.375,-0.07470703125,0.89990234375,-0.357177734375,-1.5563963651657104,-1.0375975370407104,0.5798339247703552,100.0,138697.0,1.0
178845.9255033,306584.21875,310618.09375,333375.125,316497.9375,314575.25,287572.71875,291566.53125,307574.9375,-0.076904296875,0.8984375,-0.357421875,-1.6784666776657104,-1.3427733182907104,0.4272460639476776,100.0,138698.0,1.0
178845.9280592,306537.125,310032.84375,333478.3125,316244.65625,314459.46875,287359.40625,291374.59375,307491.4375,-0.0771484375,0.896484375,-0.35205078125,-1.8310545682907104,-1.6174315214157104,0.2746581733226776,100.0,138699.0,1.0
178845.9317205,306317.0,308411.25,332073.53125,315628.71875,313338.75,287030.75,291016.875,307407.125,-0.07373046875,0.89404296875,-0.351806640625,-1.9226073026657104,-1.9226073026657104,0.1525878757238388,100.0,138700.0,1.0
178845.9411902,306144.625,307808.40625,330850.71875,315359.96875,312603.1875,286973.0,290926.75,307400.53125,-0.07275390625,0.89111328125,-0.3505859375,-1.8920897245407104,-2.075195074081421,0.0915527269244194,100.0,138701.0,1.0
178845.9412397,306311.28125,309138.5,331569.46875,315894.28125,313318.625,287310.59375,291260.9375,307508.4375,-0.072998046875,0.889892578125,-0.35595703125,-1.8310545682907104,-2.349853277206421,0.03051757626235485,100.0,138702.0,1.0
178845.9435986,306585.75,310599.6875,333332.375,316496.15625,314554.25,287577.03125,291567.0,307577.71875,-0.07080078125,0.88916015625,-0.353515625,-1.6784666776657104,-2.380370855331421,-0.0610351525247097,100.0,138703.0,1.0
178845.9436519,306536.75,310036.59375,333454.15625,316247.34375,314455.875,287367.90625,291376.09375,307489.21875,-0.068603515625,0.89013671875,-0.356689453125,-1.3732908964157104,-2.319335699081421,-0.3051757514476776,100.0,138704.0,1.0
178845.9542976,306318.15625,308418.15625,332055.375,315631.21875,313339.5625,287035.65625,291014.28125,307394.4375,-0.0703125,0.895263671875,-0.356689453125,-1.1596678495407104,-2.410888433456421,-0.3967284858226776,100.0,138705.0,1.0
178845.9573887,306143.0,307799.1875,330816.5625,315355.6875,312590.875,286974.25,290919.9375,307395.6875,-0.07080078125,0.902099609375,-0.357666015625,-1.1901854276657104,-2.563476324081421,-0.4272460639476776,100.0,138706.0,1.0
178845.9574381,306302.25,309110.15625,331505.96875,315878.53125,313288.3125,287308.8125,291252.0,307502.96875,-0.071044921875,0.90234375,-0.355712890625,-1.1291502714157104,-2.777099370956421,-0.3967284858226776,100.0,138707.0,1.0
178845.9592174,306573.59375,310574.375,333257.1875,316478.625,314518.46875,287573.71875,291553.40625,307557.4375,-0.07080078125,0.90234375,-0.353271484375,-1.2512205839157104,-2.990722417831421,-0.3356933295726776,100.0,138708.0,1.0
178845.9680439,306532.375,310031.3125,333403.1875,316241.875,314440.15625,287370.40625,291372.71875,307478.21875,-0.06787109375,0.89599609375,-0.353271484375,-1.4038084745407104,-3.112792730331421,-0.1220703050494194,100.0,138709.0,1.0
178845.9723937,306309.3125,308409.75,332017.84375,315626.3125,313333.125,287040.21875,291012.9375,307386.375,-0.06982421875,0.8916015625,-0.3525390625,-1.4038084745407104,-3.234863042831421,-0.03051757626235485,100.0,138710.0,1.0
178845.9724406,306128.4375,307775.9375,330769.1875,315347.09375,312576.09375,286977.375,290916.1875,307383.09375,-0.069580078125,0.887451171875,-0.3544921875,-1.1901854276657104,-3.265380620956421,-0.0915527269244194,100.0,138711.0,1.0
178845.9755515,306296.0625,309093.15625,331454.65625,315879.59375,313275.375,287317.03125,291258.0,307509.5,-0.0693359375,0.889892578125,-0.354736328125,-0.8850097060203552,-3.295898199081421,-0.1831054538488388,100.0,138712.0,1.0
178845.9842436,306566.96875,310562.9375,333209.53125,316486.9375,314511.6875,287584.625,291563.0625,307574.9375,-0.074951171875,0.89501953125,-0.3525390625,-0.5798339247703552,-3.417968511581421,-0.3356933295726776,100.0,138713.0,1.0
178845.9911436,306529.15625,310033.71875,333366.28125,316259.5,314441.75,287388.46875,291386.65625,307496.90625,-0.07861328125,0.900390625,-0.356689453125,-0.5187987685203552,-3.631591558456421,-0.3967284858226776,100.0,138714.0,1.0
178845.9911934,306314.03125,308414.125,331982.4375,315646.0625,313333.84375,287055.96875,291023.84375,307404.8125,-0.081787109375,0.901611328125,-0.356689453125,-0.4882812201976776,-3.784179449081421,-0.4577636420726776,100.0,138715.0,1.0
178845.9955666,306136.75,307769.40625,330727.25,315360.59375,312573.4375,286985.59375,290924.34375,307403.375,-0.082275390625,0.899658203125,-0.35546875,-0.4577636420726776,-3.906249761581421,-0.4577636420726776,100.0,138716.0,1.0
178845.9980618,306290.78125,309060.34375,331378.21875,315877.375,313252.46875,287319.96875,291258.96875,307522.75,-0.08251953125,0.901611328125,-0.35546875,-0.4577636420726776,-4.180907726287842,-0.6408690810203552,100.0,138717.0,1.0
178846.0042918,306558.75,310543.25,333126.65625,316486.21875,314487.625,287592.65625,291568.78125,307587.65625,-0.0830078125,0.898681640625,-0.35400390625,-0.4272460639476776,-4.394530773162842,-0.7934569716453552,100.0,138718.0,1.0
178846.0135421,306523.15625,310037.84375,333306.90625,316261.5625,314435.25,287392.84375,291387.0,307495.65625,-0.084228515625,0.897705078125,-0.352783203125,-0.2441406100988388,-4.730224132537842,-0.9765624403953552,100.0,138719.0,1.0
178846.0135863,306311.625,308421.53125,331934.6875,315648.3125,313332.84375,287063.46875,291024.46875,307404.09375,-0.08154296875,0.89599609375,-0.352783203125,0.0,-4.913329601287842,-1.2207030057907104,100.0,138720.0,1.0
178846.0246203,306133.34375,307759.9375,330667.15625,315356.65625,312560.90625,286990.0625,290918.15625,307401.6875,-0.078857421875,0.896728515625,-0.3564453125,0.1525878757238388,-5.096435070037842,-1.2512205839157104,100.0,138721.0,1.0
178846.0246544,306284.09375,309036.03125,331299.625,315864.5,313221.34375,287314.53125,291244.40625,307517.8125,-0.076171875,0.897216796875,-0.35693359375,0.2746581733226776,-5.310058116912842,-1.3732908964157104,100.0,138722.0,1.0
178846.0315933,306556.0625,310522.78125,333050.65625,316477.03125,314456.25,287587.9375,291557.96875,307584.875,-0.07568359375,0.898193359375,-0.355712890625,0.3356933295726776,-5.432128429412842,-1.4038084745407104,100.0,138723.0,1.0
178846.0316282,306524.78125,310037.9375,333250.75,316261.375,314418.4375,287396.34375,291388.34375,307503.6875,-0.074462890625,0.90185546875,-0.35302734375,0.4272460639476776,-5.584716320037842,-1.2817381620407104,100.0,138724.0,1.0
178846.03164,306316.28125,308430.65625,331898.03125,315648.5,313329.375,287064.71875,291025.625,307406.59375,-0.0732421875,0.901123046875,-0.35546875,0.4577636420726776,-5.645751476287842,-1.2512205839157104,100.0,138725.0,1.0
178846.0360713,306137.71875,307755.0,330627.90625,315350.9375,312551.6875,286988.625,290913.78125,307394.96875,-0.07275390625,0.9033203125,-0.354736328125,0.5187987685203552,-5.584716320037842,-1.2512205839157104,100.0,138726.0,1.0
178846.0361071,306285.625,309012.6875,331240.0,315854.21875,313206.96875,287313.71875,291243.4375,307515.21875,-0.07177734375,0.901611328125,-0.35595703125,0.4882812201976776,-5.493163585662842,-1.1901854276657104,100.0,138727.0,1.0
178846.0417951,306563.5,310516.53125,332997.46875,316475.3125,314453.46875,287588.65625,291560.09375,307582.0,-0.07080078125,0.900146484375,-0.356689453125,0.5187987685203552,-5.554198741912842,-1.0986326932907104,100.0,138728.0,1.0
178846.0480524,306535.6875,310051.6875,333222.40625,316265.03125,314429.4375,287397.84375,291390.21875,307495.03125,-0.0693359375,0.89892578125,-0.35791015625,0.5798339247703552,-5.615233898162842,-0.9765624403953552,100.0,138729.0,1.0
178846.0623895,306320.125,308440.0625,331870.59375,315644.71875,313329.28125,287061.21875,291021.59375,307395.15625,-0.06884765625,0.898681640625,-0.353271484375,0.6713866591453552,-5.523681163787842,-0.8850097060203552,100.0,138730.0,1.0
178846.0624396,306142.375,307751.15625,330597.6875,315345.59375,312547.84375,286982.8125,290915.75,307395.34375,-0.067626953125,0.896240234375,-0.354736328125,0.8850097060203552,-5.432128429412842,-0.7019042372703552,100.0,138731.0,1.0
178846.0648863,306280.4375,308985.96875,331179.8125,315835.34375,313182.09375,287300.21875,291233.84375,307504.0625,-0.0693359375,0.895751953125,-0.35791015625,0.9765624403953552,-5.371093273162842,-0.6103515028953552,100.0,138732.0,1.0
178846.0649371,306548.75,310488.46875,332926.65625,316454.9375,314425.84375,287577.375,291545.34375,307566.8125,-0.072509765625,0.89404296875,-0.35693359375,1.1291502714157104,-5.310058116912842,-0.7019042372703552,100.0,138733.0,1.0
178846.0736399,306525.84375,310045.09375,333163.75,316257.8125,314414.75,287393.03125,291383.15625,307487.6875,-0.072998046875,0.893310546875,-0.35888671875,1.1901854276657104,-5.371093273162842,-0.6408690810203552,100.0,138734.0,1.0
178846.0736915,306321.8125,308451.0625,331837.15625,315651.625,313338.40625,287064.53125,291028.5,307399.25,-0.074462890625,0.89208984375,-0.356689453125,1.3427733182907104,-5.371093273162842,-0.6103515028953552,100.0,138735.0,1.0
178846.0761865,306135.125,307741.875,330550.65625,315341.8125,312542.65625,286982.90625,290912.4375,307395.25,-0.0751953125,0.89208984375,-0.356689453125,1.4038084745407104,-5.340575695037842,-0.7324218153953552,100.0,138736.0,1.0
178846.0762343,306272.65625,308963.09375,331113.46875,315829.53125,313161.46875,287301.375,291230.375,307508.0625,-0.0771484375,0.8896484375,-0.356201171875,1.4343260526657104,-5.340575695037842,-0.6408690810203552,100.0,138737.0,1.0
178846.0892551,306552.125,310488.71875,332874.53125,316457.71875,314413.78125,287585.6875,291552.78125,307577.8125,-0.078369140625,0.889404296875,-0.35498046875,1.6479490995407104,-5.310058116912842,-0.7019042372703552,100.0,138738.0,1.0
178846.1179803,306535.875,310066.71875,333137.46875,316269.25,314417.25,287405.71875,291396.125,307502.4375,-0.07958984375,0.887939453125,-0.353759765625,1.7089842557907104,-5.310058116912842,-0.7629393935203552,100.0,138739.0,1.0
178846.1180285,306328.96875,308463.3125,331809.53125,315661.71875,313334.375,287070.96875,291034.21875,307412.6875,-0.08056640625,0.887451171875,-0.355224609375,1.8920897245407104,-5.340575695037842,-0.8850097060203552,100.0,138740.0,1.0
178846.1180403,306142.75,307738.90625,330508.5625,315347.625,312527.125,286983.09375,290914.125,307405.6875,-0.0810546875,0.889404296875,-0.359130859375,2.014159917831421,-5.340575695037842,-1.0375975370407104,100.0,138741.0,1.0
178846.1236414,306274.34375,308945.65625,331049.125,315827.3125,313132.9375,287298.0625,291230.09375,307519.96875,-0.080078125,0.888671875,-0.36083984375,2.105712652206421,-5.340575695037842,-1.1901854276657104,100.0,138742.0,1.0
178846.1236946,306550.0625,310476.375,332813.75,316460.65625,314389.375,287582.5625,291552.40625,307588.0,-0.080078125,0.889892578125,-0.360107421875,2.197265386581421,-5.340575695037842,-1.2817381620407104,100.0,138743.0,1.0
178846.1311917,306534.53125,310074.84375,333097.15625,316276.5625,314409.84375,287402.6875,291398.375,307505.65625,-0.08251953125,0.89111328125,-0.3583984375,2.319335699081421,-5.279540538787842,-1.3732908964157104,100.0,138744.0,1.0
178846.1312416,306325.21875,308473.9375,331769.71875,315661.28125,313326.21875,287065.0625,291035.28125,307410.1875,-0.081298828125,0.8896484375,-0.3603515625,2.349853277206421,-5.279540538787842,-1.4953612089157104,100.0,138745.0,1.0
178846.1329169,306131.5625,307727.125,330448.75,315333.5,312500.125,286972.28125,290909.5,307397.21875,-0.081787109375,0.890625,-0.35986328125,2.532958745956421,-5.310058116912842,-1.5258787870407104,100.0,138746.0,1.0
178846.1393265,306260.125,308922.5,330969.28125,315807.625,313092.96875,287286.8125,291221.875,307509.59375,-0.084228515625,0.893310546875,-0.3603515625,2.532958745956421,-5.371093273162842,-1.6479490995407104,100.0,138747.0,1.0
178846.1417742,306535.40625,310459.40625,332727.0,316444.03125,314351.65625,287579.96875,291550.34375,307582.5625,-0.08349609375,0.8916015625,-0.3603515625,2.532958745956421,-5.401610851287842,-1.7395018339157104,100.0,138748.0,1.0
178846.1443192,306521.8125,310073.15625,333022.78125,316267.71875,314386.0625,287411.8125,291402.21875,307504.21875,-0.08251953125,0.889892578125,-0.360595703125,2.502441167831421,-5.371093273162842,-1.8615721464157104,100.0,138749.0,1.0
178846.14683,306314.9375,308471.15625,331708.84375,315659.40625,313312.65625,287074.375,291036.53125,307411.25,-0.0830078125,0.889892578125,-0.363525390625,2.532958745956421,-5.310058116912842,-1.9226073026657104,100.0,138750.0,1.0
178846.1492925,306116.375,307702.09375,330376.59375,315327.78125,312478.84375,286974.875,290905.375,307399.53125,-0.083251953125,0.892578125,-0.363525390625,2.563476324081421,-5.340575695037842,-2.014159917831421,100.0,138751.0,1.0
178846.1518006,306233.5625,308867.6875,330858.5,315784.84375,313049.25,287280.46875,291210.25,307506.46875,-0.08447265625,0.889404296875,-0.36083984375,2.593993902206421,-5.401610851287842,-2.075195074081421,100.0,138752.0,1.0
178846.1543165,306509.65625,310414.59375,332613.375,316424.375,314310.875,287572.0,291543.46875,307583.25,-0.083740234375,0.8896484375,-0.361328125,2.624511480331421,-5.371093273162842,-2.166747808456421,100.0,138753.0,1.0
178846.1568233,306500.625,310049.75,332928.71875,316261.5625,314358.53125,287404.46875,291402.75,307513.71875,-0.083984375,0.890380859375,-0.365234375,2.716064214706421,-5.310058116912842,-2.227782964706421,100.0,138754.0,1.0
178846.1593183,306307.0625,308468.21875,331632.9375,315662.625,313297.34375,287072.6875,291045.46875,307423.6875,-0.081787109375,0.88916015625,-0.367919921875,2.868652105331421,-5.279540538787842,-2.349853277206421,100.0,138755.0,1.0
178846.1623595,306117.875,307700.9375,330309.8125,315334.125,312470.6875,286975.75,290913.6875,307407.84375,-0.082763671875,0.890625,-0.369384765625,2.990722417831421,-5.187987804412842,-2.349853277206421,100.0,138756.0,1.0
178846.1624139,306235.0,308849.625,330769.96875,315787.15625,313026.1875,287281.0,291216.0625,307520.0625,-0.07958984375,0.8916015625,-0.370361328125,3.082275152206421,-5.157470226287842,-2.349853277206421,100.0,138757.0,1.0
178846.1643177,306518.6875,310409.40625,332524.3125,316435.53125,314290.3125,287580.0625,291552.875,307603.125,-0.080322265625,0.8935546875,-0.36767578125,3.112792730331421,-5.065917491912842,-2.410888433456421,100.0,138758.0,1.0
178846.1736387,306512.4375,310062.15625,332856.28125,316272.46875,314347.96875,287411.625,291406.0625,307512.71875,-0.079345703125,0.890380859375,-0.36767578125,3.143310308456421,-5.004882335662842,-2.410888433456421,100.0,138759.0,1.0
178846.1736882,306312.4375,308468.40625,331560.34375,315664.84375,313281.34375,287071.6875,291037.4375,307413.21875,-0.078369140625,0.888671875,-0.36767578125,3.295898199081421,-4.974364757537842,-2.380370855331421,100.0,138760.0,1.0
178846.1761911,306119.125,307677.59375,330219.9375,315325.09375,312438.0625,286970.125,290903.125,307401.0625,-0.07763671875,0.887939453125,-0.369140625,3.265380620956421,-4.882812023162842,-2.197265386581421,100.0,138761.0,1.0
178846.1762399,306235.46875,308818.34375,330672.0,315771.25,312991.125,287275.625,291205.5,307507.71875,-0.078369140625,0.886474609375,-0.3681640625,3.295898199081421,-4.821776866912842,-2.166747808456421,100.0,138762.0,1.0
178846.1843233,306518.0625,310387.4375,332424.46875,316422.03125,314255.4375,287575.0625,291541.9375,307587.03125,-0.0791015625,0.886962890625,-0.368408203125,3.326415777206421,-4.547118663787842,-2.136230230331421,100.0,138763.0,1.0
178846.188584,306517.4375,310071.375,332789.40625,316273.90625,314336.0,287416.28125,291406.15625,307509.15625,-0.081298828125,0.886474609375,-0.3701171875,3.479003667831421,-4.394530773162842,-2.105712652206421,100.0,138764.0,1.0
178846.1886246,306317.09375,308486.375,331524.125,315672.71875,313282.59375,287079.46875,291043.40625,307410.1875,-0.078369140625,0.88671875,-0.368896484375,3.540038824081421,-4.241942882537842,-2.136230230331421,100.0,138765.0,1.0
178846.1916925,306122.1875,307689.46875,330193.5625,315330.46875,312435.46875,286974.59375,290906.625,307403.1875,-0.076171875,0.886474609375,-0.370849609375,3.631591558456421,-4.058837413787842,-2.044677495956421,100.0,138766.0,1.0
178846.2061946,306230.625,308810.09375,330620.59375,315768.28125,312965.75,287275.4375,291204.09375,307512.53125,-0.076416015625,0.88623046875,-0.37158203125,3.784179449081421,-3.784179449081421,-1.7700194120407104,100.0,138767.0,1.0
178846.2062431,306510.03125,310380.90625,332378.78125,316424.53125,314234.6875,287579.0,291543.125,307591.65625,-0.07666015625,0.887451171875,-0.37255859375,3.875732183456421,-3.662109136581421,-1.7700194120407104,100.0,138768.0,1.0
178846.2081429,306510.1875,310079.15625,332764.75,316282.84375,314331.25,287419.21875,291412.3125,307516.125,-0.075927734375,0.8876953125,-0.374267578125,3.997802495956421,-3.479003667831421,-1.6174315214157104,100.0,138769.0,1.0
178846.2105667,306319.125,308511.40625,331518.3125,315683.1875,313294.21875,287079.75,291046.90625,307417.25,-0.074951171875,0.8876953125,-0.373046875,4.119872570037842,-3.173827886581421,-1.5563963651657104,100.0,138770.0,1.0
178846.2142105,306124.6875,307697.09375,330175.59375,315334.59375,312437.53125,286968.53125,290904.5625,307404.71875,-0.07568359375,0.888427734375,-0.376220703125,4.180907726287842,-3.021239995956421,-1.4648436307907104,100.0,138771.0,1.0
178846.2286275,306229.375,308793.84375,330577.40625,315764.09375,312949.375,287265.15625,291198.53125,307514.59375,-0.076171875,0.88720703125,-0.378662109375,4.241942882537842,-2.655029058456421,-1.4038084745407104,100.0,138772.0,1.0
178846.2286765,306506.09375,310367.65625,332335.78125,316415.25,314218.59375,287568.53125,291538.90625,307583.53125,-0.07666015625,0.8896484375,-0.377197265625,4.394530773162842,-2.410888433456421,-1.2817381620407104,100.0,138773.0,1.0
178846.2311911,306512.96875,310086.9375,332739.96875,316282.125,314329.28125,287416.71875,291413.9375,307512.09375,-0.07666015625,0.887939453125,-0.376708984375,4.364013195037842,-2.166747808456421,-1.2512205839157104,100.0,138774.0,1.0
178846.231245,306324.9375,308518.71875,331499.0,315688.625,313295.125,287082.0625,291053.96875,307419.75,-0.07958984375,0.888916015625,-0.3779296875,4.425048351287842,-2.014159917831421,-1.3122557401657104,100.0,138775.0,1.0
178846.2328768,306131.375,307691.28125,330150.3125,315336.8125,312432.78125,286970.9375,290912.25,307404.90625,-0.07958984375,0.890380859375,-0.375732421875,4.455565929412842,-1.7395018339157104,-1.1901854276657104,100.0,138776.0,1.0
178846.2393416,306236.09375,308780.78125,330536.90625,315763.8125,312939.90625,287266.34375,291205.5,307516.125,-0.080078125,0.892578125,-0.376708984375,4.455565929412842,-1.5563963651657104,-1.1901854276657104,100.0,138777.0,1.0
178846.2418233,306513.34375,310364.09375,332292.5,316424.53125,314216.5625,287573.09375,291548.84375,307599.8125,-0.081787109375,0.893310546875,-0.378173828125,4.394530773162842,-1.3427733182907104,-1.0986326932907104,100.0,138778.0,1.0
178846.2505684,306514.5,310091.40625,332701.34375,316294.90625,314332.78125,287421.1875,291422.40625,307524.53125,-0.081787109375,0.894287109375,-0.373779296875,4.272460460662842,-1.1901854276657104,-1.0375975370407104,100.0,138779.0,1.0
178846.2536005,306326.1875,308524.625,331460.21875,315695.53125,313298.25,287083.59375,291058.34375,307423.03125,-0.079833984375,0.892822265625,-0.3740234375,4.089354991912842,-0.9765624403953552,-0.9460448622703552,100.0,138780.0,1.0
178846.2536468,306121.8125,307672.03125,330088.78125,315328.40625,312422.0625,286962.25,290904.9375,307399.96875,-0.08056640625,0.89111328125,-0.374267578125,4.058837413787842,-0.8544921278953552,-0.9155272841453552,100.0,138781.0,1.0
178846.2555541,306214.09375,308730.1875,330429.6875,315738.34375,312898.78125,287251.3125,291189.15625,307507.8125,-0.08203125,0.8955078125,-0.376220703125,4.058837413787842,-0.7324218153953552,-0.9155272841453552,100.0,138782.0,1.0
178846.2698893,306489.8125,310313.84375,332160.71875,316392.96875,314161.125,287561.5625,291531.21875,307589.625,-0.080322265625,0.893798828125,-0.3740234375,3.875732183456421,-0.5187987685203552,-0.7934569716453552,100.0,138783.0,1.0
178846.269939,306496.4375,310062.875,332582.875,316270.125,314291.65625,287414.84375,291408.03125,307514.40625,-0.079345703125,0.89404296875,-0.37646484375,3.814697027206421,-0.3356933295726776,-0.8239745497703552,100.0,138784.0,1.0
178846.2723407,306306.4375,308494.5,331345.21875,315673.4375,313260.875,287077.59375,291045.125,307416.15625,-0.07958984375,0.894775390625,-0.37548828125,3.662109136581421,-0.0610351525247097,-0.6408690810203552,100.0,138785.0,1.0
178846.2723819,306108.84375,307633.875,329963.34375,315306.6875,312376.8125,286959.5,290894.65625,307399.875,-0.078369140625,0.896484375,-0.375732421875,3.570556402206421,0.1220703050494194,-0.6408690810203552,100.0,138786.0,1.0
178846.2743171,306199.15625,308671.34375,330270.65625,315710.4375,312834.84375,287247.1875,291178.59375,307505.65625,-0.07861328125,0.893310546875,-0.374755859375,3.326415777206421,0.2746581733226776,-0.5798339247703552,100.0,138787.0,1.0
178846.2830821,306476.40625,310256.53125,331986.71875,316373.40625,314096.65625,287562.53125,291525.0625,307583.875,-0.077880859375,0.892822265625,-0.374755859375,3.173827886581421,0.6103515028953552,-0.3662109076976776,100.0,138788.0,1.0
178846.2861177,306482.9375,310017.71875,332413.1875,316264.9375,314236.40625,287421.46875,291410.25,307511.8125,-0.076416015625,0.89111328125,-0.375,3.204345464706421,0.9460448622703552,-0.2441406100988388,100.0,138789.0,1.0
178846.2861595,306293.46875,308452.46875,331176.5,315671.375,313205.1875,287082.34375,291048.78125,307412.75,-0.076416015625,0.892822265625,-0.37744140625,3.051757574081421,1.1596678495407104,-0.0915527269244194,100.0,138790.0,1.0
178846.2992123,306089.28125,307573.15625,329780.34375,315299.0,312307.71875,286961.375,290892.59375,307395.96875,-0.07568359375,0.89208984375,-0.378173828125,2.807616949081421,1.2817381620407104,-0.03051757626235485,100.0,138791.0,1.0
178846.3017874,306166.34375,308581.84375,330048.1875,315686.75,312740.34375,287242.09375,291167.25,307495.03125,-0.073974609375,0.890380859375,-0.3779296875,2.624511480331421,1.5258787870407104,0.0915527269244194,100.0,138792.0,1.0
178846.3042842,306439.3125,310166.3125,331747.125,316343.71875,313997.3125,287552.25,291514.0625,307571.375,-0.07080078125,0.890869140625,-0.376953125,2.532958745956421,1.8615721464157104,0.2136230319738388,100.0,138793.0,1.0
178846.3068273,306456.8125,309960.0625,332189.0625,316242.875,314158.0,287413.3125,291403.8125,307507.625,-0.069580078125,0.8896484375,-0.379150390625,2.471923589706421,2.105712652206421,0.3662109076976776,100.0,138794.0,1.0
178846.3161888,306273.53125,308408.5,330969.8125,315655.28125,313144.90625,287075.1875,291040.1875,307402.65625,-0.067626953125,0.88916015625,-0.376953125,2.258300542831421,2.380370855331421,0.5187987685203552,100.0,138795.0,1.0
178846.3162412,306067.71875,307512.90625,329564.0625,315277.90625,312240.375,286947.3125,290880.0625,307382.625,-0.066162109375,0.88916015625,-0.375,2.197265386581421,2.624511480331421,0.7629393935203552,100.0,138796.0,1.0
178846.3205671,306138.8125,308497.8125,329791.6875,315651.15625,312649.96875,287216.0,291145.0,307478.75,-0.06787109375,0.890380859375,-0.374267578125,2.044677495956421,3.021239995956421,1.1596678495407104,100.0,138797.0,1.0
178846.3230141,306407.46875,310083.8125,331467.28125,316307.25,313897.09375,287527.40625,291491.875,307565.46875,-0.06689453125,0.889404296875,-0.374755859375,1.8615721464157104,3.265380620956421,1.3732908964157104,100.0,138798.0,1.0
178846.332356,306430.1875,309907.21875,331933.53125,316217.65625,314073.40625,287401.875,291391.84375,307504.9375,-0.066650390625,0.8896484375,-0.37451171875,1.6174315214157104,3.540038824081421,1.5258787870407104,100.0,138799.0,1.0
178846.332404,306251.28125,308372.71875,330741.1875,315639.625,313074.90625,287071.78125,291036.09375,307409.625,-0.06591796875,0.886962890625,-0.374267578125,1.3732908964157104,3.814697027206421,1.7089842557907104,100.0,138800.0,1.0
178846.3342036,306053.34375,307485.4375,329367.1875,315268.875,312189.34375,286944.09375,290879.90625,307393.90625,-0.066162109375,0.8857421875,-0.376220703125,1.2512205839157104,4.089354991912842,1.8310545682907104,100.0,138801.0,1.0
178846.3448287,306131.84375,308480.28125,329617.25,315646.78125,312614.8125,287218.6875,291151.0625,307501.1875,-0.06689453125,0.8876953125,-0.375244140625,1.0375975370407104,4.272460460662842,2.075195074081421,100.0,138802.0,1.0
178846.3448681,306401.40625,310079.15625,331307.75,316307.15625,313866.78125,287534.46875,291498.5,307581.46875,-0.06884765625,0.886962890625,-0.375,1.0681151151657104,4.608153820037842,2.166747808456421,100.0,138803.0,1.0
178846.3535647,306426.875,309919.8125,331804.59375,316228.5625,314061.34375,287410.1875,291400.25,307518.25,-0.069580078125,0.88671875,-0.37451171875,0.8239745497703552,4.852294445037842,2.227782964706421,100.0,138804.0,1.0
178846.3536022,306260.5,308404.125,330650.8125,315659.75,313081.4375,287083.84375,291052.28125,307426.0,-0.071533203125,0.888916015625,-0.3740234375,0.6713866591453552,5.065917491912842,2.258300542831421,100.0,138805.0,1.0
178846.356075,306066.125,307510.9375,329286.375,315282.0,312192.09375,286952.5,290889.8125,307406.59375,-0.071533203125,0.88916015625,-0.3740234375,0.5798339247703552,5.340575695037842,2.319335699081421,100.0,138806.0,1.0
178846.3561106,306134.96875,308470.09375,329509.0625,315646.34375,312590.3125,287223.15625,291152.84375,307509.3125,-0.0712890625,0.887451171875,-0.375244140625,0.3967284858226776,5.462646007537842,2.349853277206421,100.0,138807.0,1.0
178846.3642355,306408.28125,310070.21875,331196.09375,316307.6875,313841.21875,287543.84375,291501.53125,307593.0,-0.072265625,0.88818359375,-0.37548828125,0.3662109076976776,5.584716320037842,2.441406011581421,100.0,138808.0,1.0
178846.3666955,306441.8125,309935.84375,331715.28125,316239.5625,314051.6875,287425.125,291407.65625,307530.5,-0.074462890625,0.8896484375,-0.37158203125,0.3356933295726776,5.676269054412842,2.441406011581421,100.0,138809.0,1.0
178846.3704139,306276.84375,308430.5,330586.25,315676.5625,313085.46875,287097.09375,291055.75,307429.3125,-0.076171875,0.889892578125,-0.3720703125,0.1831054538488388,5.798339366912842,2.410888433456421,100.0,138810.0,1.0
178846.3798209,306087.5625,307534.0,329234.40625,315298.71875,312197.65625,286965.375,290886.34375,307393.4375,-0.077880859375,0.891845703125,-0.371826171875,0.0,5.737304210662842,2.410888433456421,100.0,138811.0,1.0
178846.3798603,306155.78125,308480.375,329444.0625,315655.46875,312581.90625,287230.9375,291144.71875,307492.4375,-0.079833984375,0.890380859375,-0.371337890625,-0.1831054538488388,5.706786632537842,2.441406011581421,100.0,138812.0,1.0
178846.3881398,306428.65625,310084.875,331137.4375,316320.21875,313835.0625,287550.1875,291497.6875,307576.1875,-0.079833984375,0.890625,-0.36962890625,-0.3051757514476776,5.706786632537842,2.410888433456421,100.0,138813.0,1.0
178846.3911465,306464.4375,309972.21875,331689.0,316261.1875,314062.5,287434.15625,291410.78125,307513.96875,-0.080322265625,0.890625,-0.36962890625,-0.4577636420726776,5.615233898162842,2.258300542831421,100.0,138814.0,1.0
178846.3911912,306306.1875,308479.75,330590.375,315702.03125,313109.40625,287104.5,291059.5,307421.25,-0.080078125,0.8916015625,-0.370361328125,-0.5798339247703552,5.554198741912842,2.227782964706421,100.0,138815.0,1.0
178846.3930773,306111.1875,307562.625,329241.03125,315321.25,312213.46875,286966.28125,290887.6875,307394.09375,-0.082275390625,0.8916015625,-0.370849609375,-0.7324218153953552,5.554198741912842,2.105712652206421,100.0,138816.0,1.0
178846.395422,306171.0,308487.875,329430.84375,315662.53125,312580.65625,287227.53125,291140.4375,307481.96875,-0.08251953125,0.89111328125,-0.372314453125,-0.8850097060203552,5.432128429412842,1.9531248807907104,100.0,138817.0,1.0
178846.4041665,306441.8125,310103.03125,331124.03125,316326.71875,313837.5625,287551.28125,291499.3125,307579.25,-0.08251953125,0.890869140625,-0.3740234375,-0.9765624403953552,5.218505382537842,1.9226073026657104,100.0,138818.0,1.0
178846.4072585,306473.46875,310004.40625,331694.375,316271.21875,314079.03125,287437.0,291415.71875,307520.9375,-0.08251953125,0.890869140625,-0.374267578125,-1.0986326932907104,5.096435070037842,1.8005369901657104,100.0,138819.0,1.0
178846.4072778,306313.15625,308515.78125,330603.59375,315716.0,313132.21875,287110.9375,291065.5,307424.5625,-0.085205078125,0.89208984375,-0.376953125,-1.1901854276657104,4.852294445037842,1.7700194120407104,100.0,138820.0,1.0
178846.4091654,306119.125,307593.90625,329260.96875,315332.25,312238.5,286971.65625,290894.28125,307404.375,-0.0869140625,0.89013671875,-0.37060546875,-1.3427733182907104,4.577636241912842,1.6479490995407104,100.0,138821.0,1.0
178846.4229977,306170.46875,308498.34375,329431.75,315663.34375,312590.3125,287225.21875,291141.3125,307493.21875,-0.087158203125,0.889404296875,-0.369873046875,-1.3732908964157104,4.394530773162842,1.6174315214157104,100.0,138822.0,1.0
178846.426033,306436.71875,310110.0,331116.875,316330.75,313846.75,287553.59375,291500.65625,307583.34375,-0.0869140625,0.891357421875,-0.37158203125,-1.4953612089157104,4.211425304412842,1.6174315214157104,100.0,138823.0,1.0
178846.426053,306473.8125,310035.6875,331706.0625,316286.5,314105.5,287450.15625,291426.0,307533.5625,-0.084716796875,0.89013671875,-0.373046875,-1.5258787870407104,4.058837413787842,1.4953612089157104,100.0,138824.0,1.0
178846.4279919,306316.0,308554.59375,330640.25,315734.40625,313171.5625,287125.6875,291083.21875,307448.15625,-0.085205078125,0.889404296875,-0.369873046875,-1.5869139432907104,3.753661870956421,1.5258787870407104,100.0,138825.0,1.0
178846.4316752,306119.59375,307616.96875,329302.625,315343.0,312274.09375,286979.6875,290899.46875,307401.84375,-0.086181640625,0.889892578125,-0.3681640625,-1.6174315214157104,3.479003667831421,1.4953612089157104,100.0,138826.0,1.0
178846.4448277,306167.15625,308503.09375,329463.3125,315664.84375,312617.875,287228.6875,291141.9375,307486.78125,-0.086181640625,0.89306640625,-0.3701171875,-1.7395018339157104,3.295898199081421,1.2817381620407104,100.0,138827.0,1.0
178846.4448611,306435.53125,310116.0625,331146.65625,316332.375,313871.53125,287556.46875,291502.625,307582.71875,-0.08740234375,0.892822265625,-0.37109375,-1.7395018339157104,3.143310308456421,1.2207030057907104,100.0,138828.0,1.0
178846.4585778,306478.0,310060.09375,331759.09375,316298.03125,314143.59375,287451.40625,291427.875,307527.28125,-0.085205078125,0.892578125,-0.36767578125,-1.7089842557907104,2.868652105331421,1.2207030057907104,100.0,138829.0,1.0
178846.4586135,306324.5,308582.5625,330707.84375,315750.9375,313213.65625,287126.84375,291083.5625,307435.5625,-0.08544921875,0.8955078125,-0.367431640625,-1.8615721464157104,2.624511480331421,1.2817381620407104,100.0,138830.0,1.0
178846.4610434,306128.53125,307627.625,329362.09375,315356.21875,312305.28125,286979.96875,290904.65625,307405.15625,-0.08447265625,0.895751953125,-0.36767578125,-1.9226073026657104,2.380370855331421,1.2207030057907104,100.0,138831.0,1.0
178846.4610743,306177.875,308497.09375,329497.0,315671.75,312631.1875,287227.875,291146.0625,307493.6875,-0.0859375,0.89404296875,-0.36865234375,-1.9531248807907104,2.136230230331421,1.0681151151657104,100.0,138832.0,1.0
178846.4697487,306454.15625,310129.84375,331183.40625,316342.90625,313892.8125,287559.5,291509.40625,307585.5,-0.0849609375,0.89453125,-0.366455078125,-2.105712652206421,1.8615721464157104,1.0375975370407104,100.0,138833.0,1.0
178846.4697811,306500.0,310096.40625,331819.71875,316312.5,314183.46875,287455.78125,291436.8125,307522.8125,-0.085205078125,0.89404296875,-0.365478515625,-2.197265386581421,1.6174315214157104,0.9765624403953552,100.0,138834.0,1.0
178846.4878382,306346.6875,308617.34375,330778.5625,315761.21875,313256.5,287124.53125,291085.53125,307423.9375,-0.083251953125,0.892578125,-0.365478515625,-2.197265386581421,1.4953612089157104,1.0070799589157104,100.0,138835.0,1.0
178846.4878658,306151.9375,307647.0,329430.9375,315363.09375,312340.875,286973.78125,290902.4375,307391.9375,-0.08447265625,0.895263671875,-0.36865234375,-2.319335699081421,1.2512205839157104,0.9460448622703552,100.0,138836.0,1.0
178846.4878724,306194.9375,308500.65625,329550.125,315669.15625,312654.78125,287218.5,291140.4375,307481.34375,-0.082763671875,0.896240234375,-0.36767578125,-2.258300542831421,1.0375975370407104,0.9765624403953552,100.0,138837.0,1.0
178846.4911332,306466.21875,310133.96875,331227.3125,316338.71875,313909.53125,287551.90625,291505.65625,307576.5625,-0.083740234375,0.8955078125,-0.368896484375,-2.349853277206421,0.8850097060203552,0.7629393935203552,100.0,138838.0,1.0
178846.4911618,306516.46875,310118.21875,331874.96875,316322.71875,314208.6875,287459.90625,291442.09375,307524.96875,-0.08349609375,0.896240234375,-0.366455078125,-2.349853277206421,0.7629393935203552,0.7934569716453552,100.0,138839.0,1.0
178846.4955196,306371.0,308656.6875,330852.40625,315781.09375,313295.375,287132.40625,291092.9375,307429.125,-0.0849609375,0.898681640625,-0.36572265625,-2.563476324081421,0.5187987685203552,0.7629393935203552,100.0,138840.0,1.0
178846.5004314,306176.90625,307682.3125,329504.15625,315380.625,312377.53125,286984.25,290910.5625,307401.6875,-0.08447265625,0.898681640625,-0.36572265625,-2.624511480331421,0.3356933295726776,0.7019042372703552,100.0,138841.0,1.0
178846.5029918,306210.96875,308512.03125,329592.75,315674.5,312668.1875,287225.125,291144.0,307497.0625,-0.0859375,0.89501953125,-0.36474609375,-2.532958745956421,0.0915527269244194,0.7019042372703552,100.0,138842.0,1.0
178846.5054178,306467.375,310136.375,331250.90625,316336.21875,313911.75,287553.5,291502.0625,307586.9375,-0.08447265625,0.895751953125,-0.363037109375,-2.838134527206421,-0.2136230319738388,0.7019042372703552,100.0,138843.0,1.0
178846.5079916,306510.03125,310134.3125,331904.90625,316320.21875,314219.0625,287461.96875,291438.875,307532.3125,-0.080078125,0.894775390625,-0.36328125,-2.807616949081421,-0.3051757514476776,0.6713866591453552,100.0,138844.0,1.0
178846.5104159,306355.25,308671.78125,330886.84375,315776.53125,313312.28125,287138.03125,291091.625,307436.625,-0.080078125,0.8935546875,-0.36376953125,-2.960204839706421,-0.4272460639476776,0.4577636420726776,100.0,138845.0,1.0
178846.5192325,306158.65625,307684.46875,329537.96875,315374.46875,312393.0,286985.59375,290907.96875,307410.625,-0.080810546875,0.892822265625,-0.363037109375,-2.868652105331421,-0.6408690810203552,0.4577636420726776,100.0,138846.0,1.0
178846.5266701,306188.78125,308494.9375,329608.3125,315662.53125,312671.6875,287220.5625,291138.28125,307498.15625,-0.08203125,0.893310546875,-0.364990234375,-2.899169683456421,-0.8850097060203552,0.4882812201976776,100.0,138847.0,1.0
178846.5267043,306449.6875,310125.46875,331261.1875,316327.8125,313917.5625,287555.03125,291500.65625,307585.0625,-0.081787109375,0.894287109375,-0.366455078125,-2.868652105331421,-0.9765624403953552,0.3967284858226776,100.0,138848.0,1.0
178846.526716,306497.9375,310144.25,331938.53125,316320.75,314245.0625,287466.96875,291443.0625,307527.21875,-0.082763671875,0.895751953125,-0.36474609375,-2.838134527206421,-0.8850097060203552,0.3051757514476776,100.0,138849.0,1.0
178846.5310995,306347.9375,308686.375,330930.8125,315778.125,313342.0625,287141.59375,291097.59375,307429.75,-0.082275390625,0.892578125,-0.364013671875,-2.838134527206421,-1.1291502714157104,0.3662109076976776,100.0,138850.0,1.0
178846.5311333,306150.78125,307685.28125,329575.25,315373.5625,312413.5625,286988.53125,290912.0,307408.84375,-0.08349609375,0.89208984375,-0.366455078125,-2.899169683456421,-1.2817381620407104,0.3967284858226776,100.0,138851.0,1.0
178846.5390823,306180.75,308484.03125,329629.25,315657.0625,312680.71875,287222.0,291135.40625,307490.8125,-0.08251953125,0.888427734375,-0.363037109375,-2.868652105331421,-1.3122557401657104,0.3662109076976776,100.0,138852.0,1.0
178846.5472337,306440.28125,310112.6875,331275.3125,316324.84375,313921.3125,287559.0625,291499.65625,307578.71875,-0.081787109375,0.88818359375,-0.36279296875,-2.807616949081421,-1.4648436307907104,0.3662109076976776,100.0,138853.0,1.0
178846.5472475,306505.65625,310164.25,331986.71875,316336.3125,314274.40625,287482.59375,291453.625,307536.59375,-0.080078125,0.887451171875,-0.364013671875,-2.777099370956421,-1.5563963651657104,0.2441406100988388,100.0,138854.0,1.0
178846.5560105,306363.40625,308718.65625,330998.59375,315798.875,313383.375,287159.21875,291109.65625,307440.9375,-0.080322265625,0.885986328125,-0.366943359375,-2.746581792831421,-1.7089842557907104,0.1831054538488388,100.0,138855.0,1.0
178846.5560261,306167.3125,307708.0625,329642.75,315387.96875,312450.40625,287000.0625,290918.96875,307411.15625,-0.0810546875,0.887451171875,-0.365966796875,-2.655029058456421,-1.7089842557907104,0.1220703050494194,100.0,138856.0,1.0
178846.562232,306186.90625,308484.125,329672.34375,315655.09375,312700.125,287222.25,291134.53125,307490.375,-0.08349609375,0.885498046875,-0.36474609375,-2.441406011581421,-1.8005369901657104,0.03051757626235485,100.0,138857.0,1.0
178846.5622457,306447.0,310119.5625,331311.96875,316322.09375,313940.625,287562.90625,291500.8125,307584.96875,-0.0830078125,0.88525390625,-0.365234375,-2.319335699081421,-1.8920897245407104,-0.03051757626235485,100.0,138858.0,1.0
178846.5679669,306509.3125,310180.0,332026.34375,316331.8125,314289.6875,287484.21875,291454.25,307532.46875,-0.0830078125,0.88427734375,-0.3642578125,-2.105712652206421,-1.8920897245407104,-0.1220703050494194,100.0,138859.0,1.0
178846.5746928,306368.3125,308736.25,331047.6875,315797.1875,313399.8125,287157.6875,291111.71875,307438.0625,-0.083740234375,0.885498046875,-0.36572265625,-2.044677495956421,-1.9836424589157104,-0.2136230319738388,100.0,138860.0,1.0
178846.5747002,306177.53125,307716.84375,329693.53125,315383.03125,312465.0625,286993.8125,290912.4375,307399.8125,-0.082275390625,0.884521484375,-0.36962890625,-1.7700194120407104,-2.136230230331421,-0.2441406100988388,100.0,138861.0,1.0
178846.5766406,306203.1875,308477.15625,329706.9375,315651.875,312705.125,287218.6875,291130.40625,307487.6875,-0.083984375,0.883056640625,-0.368896484375,-1.7089842557907104,-2.227782964706421,-0.3967284858226776,100.0,138862.0,1.0
178846.5879439,306465.3125,310116.96875,331342.09375,316326.1875,313946.1875,287556.46875,291501.53125,307589.0,-0.08349609375,0.884033203125,-0.366455078125,-1.4648436307907104,-2.166747808456421,-0.4882812201976776,100.0,138863.0,1.0
178846.5909811,306522.71875,310190.0,332066.28125,316342.65625,314308.28125,287477.96875,291455.84375,307537.75,-0.083740234375,0.883544921875,-0.36669921875,-1.2817381620407104,-2.197265386581421,-0.5798339247703552,100.0,138864.0,1.0
178846.5909885,306373.59375,308741.8125,331086.125,315803.6875,313419.21875,287146.09375,291107.0,307435.03125,-0.0859375,0.885009765625,-0.369873046875,-1.1291502714157104,-2.166747808456421,-0.6103515028953552,100.0,138865.0,1.0
178846.5929401,306176.4375,307707.625,329713.625,315381.59375,312470.78125,286978.625,290906.09375,307398.90625,-0.0849609375,0.883056640625,-0.36767578125,-1.0375975370407104,-2.105712652206421,-0.6713866591453552,100.0,138866.0,1.0
178846.6022016,306191.90625,308455.96875,329704.4375,315638.84375,312697.625,287202.3125,291121.5625,307484.65625,-0.083984375,0.884765625,-0.36669921875,-0.9155272841453552,-2.014159917831421,-0.7324218153953552,100.0,138867.0,1.0
178846.6022105,306447.25,310101.3125,331336.65625,316309.46875,313940.90625,287544.03125,291494.125,307582.8125,-0.083251953125,0.884033203125,-0.367919921875,-0.7629393935203552,-1.9836424589157104,-0.8850097060203552,100.0,138868.0,1.0
178846.6041168,306508.875,310195.5625,332080.6875,316334.96875,314320.78125,287473.84375,291453.96875,307532.84375,-0.08447265625,0.886474609375,-0.365966796875,-0.5798339247703552,-2.014159917831421,-0.9460448622703552,100.0,138869.0,1.0
178846.6141464,306365.4375,308761.75,331115.1875,315799.21875,313439.25,287147.25,291107.6875,307433.6875,-0.0830078125,0.88623046875,-0.3681640625,-0.4272460639476776,-1.9836424589157104,-0.9460448622703552,100.0,138870.0,1.0
178846.6172103,306168.65625,307719.875,329747.96875,315377.9375,312485.90625,286981.75,290904.84375,307398.625,-0.0830078125,0.88525390625,-0.36865234375,-0.2441406100988388,-1.8920897245407104,-1.0070799589157104,100.0,138871.0,1.0
178846.6172182,306177.875,308438.0,329713.8125,315625.0625,312686.96875,287202.3125,291115.125,307483.5625,-0.084228515625,0.88720703125,-0.36767578125,-0.2441406100988388,-1.8310545682907104,-1.1596678495407104,100.0,138872.0,1.0
178846.6253511,306443.40625,310093.1875,331348.0,316307.875,313931.0625,287551.28125,291492.5,307583.1875,-0.07958984375,0.8876953125,-0.366943359375,-0.0610351525247097,-1.8005369901657104,-1.1901854276657104,100.0,138873.0,1.0
178846.6284611,306514.59375,310215.125,332119.59375,316343.71875,314327.59375,287486.625,291457.09375,307532.40625,-0.08056640625,0.8876953125,-0.36865234375,0.03051757626235485,-1.7089842557907104,-1.0681151151657104,100.0,138874.0,1.0
178846.6284686,306372.875,308784.53125,331169.0,315811.46875,313457.125,287160.375,291110.84375,307431.1875,-0.081787109375,0.889404296875,-0.367919921875,0.1525878757238388,-1.6784666776657104,-1.1291502714157104,100.0,138875.0,1.0
178846.6303654,306175.46875,307725.96875,329796.4375,315383.5,312498.6875,286990.4375,290905.5625,307394.71875,-0.081787109375,0.890380859375,-0.367431640625,0.2136230319738388,-1.5869139432907104,-1.2512205839157104,100.0,138876.0,1.0
178846.6464791,306180.8125,308431.75,329737.34375,315621.9375,312683.40625,287204.8125,291110.125,307476.78125,-0.08447265625,0.8896484375,-0.369384765625,0.2746581733226776,-1.6174315214157104,-1.1291502714157104,100.0,138877.0,1.0
178846.6547151,306435.375,310078.78125,331350.59375,316294.28125,313918.28125,287546.09375,291481.78125,307572.625,-0.08544921875,0.893310546875,-0.368896484375,0.3662109076976776,-1.4648436307907104,-1.0986326932907104,100.0,138878.0,1.0
178846.6547231,306503.3125,310212.1875,332130.3125,316331.90625,314326.78125,287485.125,291452.53125,307522.8125,-0.083984375,0.89501953125,-0.37060546875,0.3051757514476776,-1.4038084745407104,-1.1596678495407104,100.0,138879.0,1.0
178846.6591464,306356.96875,308783.8125,331181.875,315793.5,313451.84375,287156.375,291106.53125,307419.75,-0.08740234375,0.896240234375,-0.369140625,0.4272460639476776,-1.4343260526657104,-1.1291502714157104,100.0,138880.0,1.0
178846.6616208,306156.78125,307711.28125,329799.65625,315359.4375,312481.6875,286981.84375,290898.84375,307382.8125,-0.087890625,0.896240234375,-0.3671875,0.3051757514476776,-1.3427733182907104,-1.1901854276657104,100.0,138881.0,1.0
178846.6641163,306158.21875,308398.3125,329728.3125,315589.125,312659.0625,287190.875,291100.90625,307464.25,-0.087158203125,0.896240234375,-0.36962890625,0.3967284858226776,-1.3122557401657104,-1.0986326932907104,100.0,138882.0,1.0
178846.6666259,306417.5625,310052.40625,331344.34375,316270.40625,313898.0,287536.96875,291480.96875,307565.84375,-0.091064453125,0.8974609375,-0.368408203125,0.2746581733226776,-1.2512205839157104,-0.9155272841453552,100.0,138883.0,1.0
178846.6691304,306495.625,310210.65625,332142.125,316320.46875,314318.75,287478.3125,291457.65625,307522.125,-0.08935546875,0.898193359375,-0.3662109375,0.1220703050494194,-1.2817381620407104,-0.9460448622703552,100.0,138884.0,1.0
178846.6716404,306355.09375,308782.9375,331207.53125,315789.84375,313455.15625,287151.0,291111.8125,307422.25,-0.08935546875,0.900146484375,-0.36865234375,0.1525878757238388,-1.1596678495407104,-1.0070799589157104,100.0,138885.0,1.0
178846.6753698,306164.375,307708.96875,329833.8125,315362.46875,312494.03125,286977.0,290901.8125,307383.15625,-0.08740234375,0.89990234375,-0.37060546875,0.1220703050494194,-1.2512205839157104,-0.8544921278953552,100.0,138886.0,1.0
178846.6847211,306175.625,308394.0,329756.65625,315598.78125,312671.78125,287189.4375,291101.53125,307467.40625,-0.0888671875,0.89990234375,-0.372314453125,0.1831054538488388,-1.1901854276657104,-0.7629393935203552,100.0,138887.0,1.0
178846.6847299,306441.625,310058.21875,331372.75,316285.15625,313912.28125,287543.6875,291482.9375,307571.5625,-0.088623046875,0.89990234375,-0.36962890625,0.1220703050494194,-1.2207030057907104,-0.7019042372703552,100.0,138888.0,1.0
178846.6866153,306526.84375,310240.8125,332193.875,316349.4375,314351.28125,287493.96875,291464.78125,307529.25,-0.090576171875,0.900146484375,-0.369384765625,0.0915527269244194,-1.2207030057907104,-0.5187987685203552,100.0,138889.0,1.0
178846.6891392,306392.4375,308834.875,331277.1875,315822.65625,313501.65625,287169.6875,291121.21875,307428.21875,-0.0888671875,0.8994140625,-0.36962890625,-0.1831054538488388,-1.2512205839157104,-0.4272460639476776,100.0,138890.0,1.0
178846.7034689,306192.8125,307744.03125,329891.8125,315385.46875,312525.15625,286990.4375,290903.59375,307384.875,-0.09033203125,0.89794921875,-0.371337890625,-0.1525878757238388,-1.1901854276657104,-0.2441406100988388,100.0,138891.0,1.0
178846.703477,306188.96875,308398.5625,329777.03125,315603.4375,312670.78125,287194.71875,291094.75,307464.4375,-0.08837890625,0.8974609375,-0.373046875,-0.1525878757238388,-1.1291502714157104,-0.2746581733226776,100.0,138892.0,1.0
178846.7053797,306445.28125,310059.65625,331378.65625,316284.71875,313904.875,287551.1875,291475.0625,307571.46875,-0.090087890625,0.896728515625,-0.368408203125,-0.1525878757238388,-1.0375975370407104,-0.1525878757238388,100.0,138893.0,1.0
178846.7084544,306524.40625,310257.34375,332209.78125,316355.53125,314353.6875,287508.1875,291464.625,307535.6875,-0.08935546875,0.89599609375,-0.368896484375,-0.1525878757238388,-1.0375975370407104,-0.0610351525247097,100.0,138894.0,1.0
178846.7084622,306385.3125,308847.84375,331299.1875,315829.09375,313509.0625,287177.90625,291120.75,307430.03125,-0.09033203125,0.893310546875,-0.36865234375,-0.1525878757238388,-1.0681151151657104,0.0,100.0,138895.0,1.0
178846.7104127,306192.375,307748.75,329918.8125,315391.4375,312539.09375,286996.875,290906.53125,307390.6875,-0.091796875,0.892333984375,-0.37255859375,-0.3051757514476776,-1.0375975370407104,0.0,100.0,138896.0,1.0
178846.7302994,306185.65625,308384.15625,329787.03125,315603.15625,312674.53125,287198.28125,291097.34375,307466.5,-0.091552734375,0.8896484375,-0.372802734375,-0.2441406100988388,-1.0986326932907104,0.1220703050494194,100.0,138897.0,1.0
178846.7303082,306446.28125,310049.5625,331382.5,316287.40625,313906.3125,287553.0625,291483.125,307575.5625,-0.09130859375,0.888916015625,-0.373291015625,-0.1831054538488388,-1.0375975370407104,0.2136230319738388,100.0,138898.0,1.0
178846.7303107,306530.21875,310262.4375,332222.65625,316363.125,314363.0,287510.15625,291472.46875,307539.625,-0.091552734375,0.88818359375,-0.372314453125,-0.2136230319738388,-1.1291502714157104,0.3051757514476776,100.0,138899.0,1.0
178846.7329403,306400.5,308874.3125,331329.59375,315845.4375,313531.59375,287188.0,291134.0,307441.03125,-0.08984375,0.885009765625,-0.369140625,-0.2136230319738388,-1.0375975370407104,0.3967284858226776,100.0,138900.0,1.0
178846.7354584,306210.96875,307772.09375,329954.5,315412.09375,312564.125,287006.15625,290917.625,307402.03125,-0.087890625,0.88232421875,-0.3701171875,-0.2136230319738388,-1.0070799589157104,0.3662109076976776,100.0,138901.0,1.0
178846.7591472,306199.59375,308387.3125,329803.03125,315614.15625,312685.28125,287199.71875,291104.03125,307481.4375,-0.087890625,0.8798828125,-0.3720703125,0.0610351525247097,-0.8239745497703552,0.4272460639476776,100.0,138902.0,1.0
178846.7641193,306457.71875,310054.84375,331394.5,316299.0,313916.5,287553.0625,291487.6875,307588.4375,-0.088623046875,0.87841796875,-0.374267578125,0.1831054538488388,-0.8544921278953552,0.3967284858226776,100.0,138903.0,1.0
178846.7666331,306543.625,310285.21875,332257.1875,316383.5,314391.875,287513.53125,291482.59375,307551.78125,-0.087890625,0.87841796875,-0.375244140625,0.3051757514476776,-0.7934569716453552,0.4272460639476776,100.0,138904.0,1.0
178846.7691142,306416.3125,308896.90625,331376.0625,315866.71875,313565.40625,287191.21875,291144.4375,307452.28125,-0.0888671875,0.880615234375,-0.374267578125,0.3967284858226776,-0.7019042372703552,0.4577636420726776,100.0,138905.0,1.0
178846.7716274,306222.125,307780.84375,329991.59375,315421.3125,312582.375,287004.0,290922.53125,307405.96875,-0.088134765625,0.880615234375,-0.37255859375,0.5493163466453552,-0.6408690810203552,0.5493163466453552,100.0,138906.0,1.0
178846.7741417,306210.34375,308385.6875,329825.5625,315617.03125,312692.0625,287196.78125,291107.0625,307482.40625,-0.08447265625,0.882080078125,-0.37451171875,0.6713866591453552,-0.5493163466453552,0.5187987685203552,100.0,138907.0,1.0
178846.7766214,306461.65625,310051.875,331406.28125,316296.40625,313916.75,287552.34375,291490.28125,307591.3125,-0.082763671875,0.8837890625,-0.3720703125,0.8850097060203552,-0.3967284858226776,0.6103515028953552,100.0,138908.0,1.0
178846.7791151,306544.34375,310300.15625,332282.03125,316381.8125,314400.90625,287517.75,291488.125,307555.1875,-0.081787109375,0.8857421875,-0.373291015625,0.9155272841453552,-0.3051757514476776,0.7324218153953552,100.0,138909.0,1.0
178846.7816282,306406.21875,308908.375,331403.6875,315856.8125,313577.03125,287195.25,291146.6875,307445.9375,-0.080322265625,0.890625,-0.375,1.0070799589157104,-0.1220703050494194,0.7629393935203552,100.0,138910.0,1.0
178846.7866012,306204.53125,307771.71875,330009.65625,315403.96875,312584.78125,287007.15625,290922.625,307402.75,-0.08251953125,0.892822265625,-0.371826171875,1.0070799589157104,0.03051757626235485,0.9155272841453552,100.0,138911.0,1.0
178846.7897182,306186.625,308359.125,329824.5,315593.5,312678.84375,287198.125,291105.8125,307483.40625,-0.083251953125,0.894287109375,-0.3701171875,0.9155272841453552,0.1525878757238388,1.0375975370407104,100.0,138912.0,1.0
178846.7897262,306435.90625,310026.21875,331392.15625,316274.875,313893.96875,287555.90625,291488.03125,307592.125,-0.083740234375,0.89306640625,-0.371826171875,0.7019042372703552,0.2441406100988388,1.1291502714157104,100.0,138913.0,1.0
178846.791608,306523.15625,310295.96875,332280.4375,316368.40625,314388.84375,287525.53125,291488.03125,307543.75,-0.084228515625,0.892578125,-0.3720703125,0.4577636420726776,0.3967284858226776,1.2512205839157104,100.0,138914.0,1.0
178846.7941703,306395.125,308922.5,331423.28125,315859.40625,313581.65625,287203.9375,291153.75,307445.3125,-0.0849609375,0.8896484375,-0.371337890625,0.3662109076976776,0.3967284858226776,1.3732908964157104,100.0,138915.0,1.0
178846.797236,306199.0625,307781.84375,330030.21875,315410.75,312590.3125,287012.875,290926.125,307399.4375,-0.08447265625,0.889404296875,-0.372314453125,0.3356933295726776,0.5798339247703552,1.6174315214157104,100.0,138916.0,1.0
178846.7972437,306181.71875,308347.34375,329822.34375,315590.8125,312668.28125,287196.78125,291099.125,307472.3125,-0.0810546875,0.889404296875,-0.375732421875,0.3967284858226776,0.7324218153953552,1.7089842557907104,100.0,138917.0,1.0
178846.8103654,306443.875,310026.84375,331400.84375,316279.6875,313897.46875,287557.625,291490.0,307586.84375,-0.07861328125,0.888427734375,-0.37744140625,0.3356933295726776,0.7629393935203552,1.8920897245407104,100.0,138918.0,1.0
178846.8134313,306532.5625,310309.1875,332310.09375,316381.1875,314406.53125,287528.28125,291491.0,307542.9375,-0.07861328125,0.890380859375,-0.37646484375,0.2136230319738388,0.8239745497703552,2.014159917831421,100.0,138919.0,1.0
178846.8134396,306404.25,308935.1875,331456.28125,315870.21875,313596.5,287205.53125,291153.46875,307442.0,-0.077392578125,0.888427734375,-0.374755859375,0.1220703050494194,1.0375975370407104,2.105712652206421,100.0,138920.0,1.0
178846.8153671,306210.6875,307787.8125,330064.125,315420.0625,312602.75,287014.90625,290926.5625,307402.03125,-0.07763671875,0.888671875,-0.374755859375,0.2136230319738388,1.2512205839157104,2.075195074081421,100.0,138921.0,1.0
178846.82474,306191.71875,308342.34375,329843.375,315594.40625,312668.8125,287198.75,291098.75,307479.09375,-0.074462890625,0.890380859375,-0.373779296875,0.1831054538488388,1.3427733182907104,2.136230230331421,100.0,138922.0,1.0
178846.8247558,306449.21875,310017.625,331409.25,316280.40625,313886.1875,287558.6875,291489.75,307596.9375,-0.0751953125,0.891357421875,-0.3759765625,0.0,1.5563963651657104,2.319335699081421,100.0,138923.0,1.0
178846.8391298,306540.59375,310321.4375,332336.75,316392.4375,314410.03125,287534.71875,291496.53125,307553.21875,-0.07421875,0.889404296875,-0.37548828125,0.03051757626235485,1.7395018339157104,2.593993902206421,100.0,138924.0,1.0
178846.8391493,306406.03125,308951.8125,331494.71875,315878.53125,313609.21875,287213.5,291156.6875,307445.125,-0.07275390625,0.889892578125,-0.3759765625,0.1220703050494194,1.8920897245407104,2.624511480331421,100.0,138925.0,1.0
178846.8391521,306206.5625,307791.65625,330094.78125,315418.34375,312606.5,287019.46875,290925.84375,307402.9375,-0.07666015625,0.888671875,-0.37255859375,-0.03051757626235485,2.166747808456421,2.655029058456421,100.0,138926.0,1.0
178846.841634,306179.03125,308326.0625,329855.875,315580.71875,312658.53125,287195.25,291091.625,307472.84375,-0.078369140625,0.891845703125,-0.372314453125,-0.03051757626235485,2.197265386581421,2.532958745956421,100.0,138927.0,1.0
178846.844139,306428.46875,309999.40625,331407.71875,316258.4375,313865.34375,287553.25,291479.1875,307578.25,-0.079833984375,0.893310546875,-0.373046875,-0.1220703050494194,2.258300542831421,2.563476324081421,100.0,138928.0,1.0
178846.8466214,306524.5,310327.0,332347.03125,316372.15625,314398.125,287531.0625,291494.84375,307540.71875,-0.07958984375,0.896240234375,-0.370849609375,-0.1831054538488388,2.410888433456421,2.532958745956421,100.0,138929.0,1.0
178846.8503608,306398.875,308971.65625,331521.34375,315866.28125,313612.34375,287211.78125,291164.46875,307446.28125,-0.07958984375,0.89599609375,-0.37109375,-0.4272460639476776,2.380370855331421,2.563476324081421,100.0,138930.0,1.0
178846.8570375,306199.0625,307791.84375,330117.9375,315403.0625,312604.625,287010.1875,290920.03125,307384.5,-0.078369140625,0.896728515625,-0.370849609375,-0.5798339247703552,2.349853277206421,2.655029058456421,100.0,138931.0,1.0
178846.8570454,306167.9375,308303.25,329850.53125,315556.40625,312630.46875,287179.0625,291073.46875,307435.46875,-0.07763671875,0.896728515625,-0.37255859375,-0.6408690810203552,2.349853277206421,2.410888433456421,100.0,138932.0,1.0
178846.8647213,306425.96875,309984.8125,331398.78125,316245.5625,313839.34375,287543.59375,291468.5625,307554.03125,-0.077392578125,0.896484375,-0.372802734375,-0.7324218153953552,2.380370855331421,2.319335699081421,100.0,138933.0,1.0
178846.8647331,306526.5625,310336.71875,332366.15625,316375.46875,314400.53125,287530.4375,291491.0,307529.4375,-0.07861328125,0.8974609375,-0.373291015625,-0.8544921278953552,2.471923589706421,2.471923589706421,100.0,138934.0,1.0
178846.8666166,306390.21875,308978.5625,331543.875,315866.375,313616.28125,287210.09375,291157.15625,307437.34375,-0.07666015625,0.896240234375,-0.369140625,-1.0070799589157104,2.532958745956421,2.502441167831421,100.0,138935.0,1.0
178846.8753804,306190.84375,307793.8125,330143.25,315406.28125,312608.75,287013.65625,290922.8125,307393.1875,-0.07373046875,0.89697265625,-0.369140625,-1.1596678495407104,2.471923589706421,2.563476324081421,100.0,138936.0,1.0
178846.8784722,306164.28125,308298.25,329868.5,315564.34375,312637.4375,287188.375,291088.3125,307473.90625,-0.07177734375,0.896728515625,-0.3701171875,-1.4343260526657104,2.441406011581421,2.685546636581421,100.0,138937.0,1.0
178846.8784815,306419.46875,309974.8125,331408.71875,316253.59375,313845.25,287550.75,291476.40625,307582.8125,-0.070556640625,0.896240234375,-0.368896484375,-1.5563963651657104,2.716064214706421,2.655029058456421,100.0,138938.0,1.0
178846.8866044,306522.28125,310341.5625,332381.90625,316388.78125,314407.96875,287539.46875,291499.125,307547.59375,-0.068603515625,0.894775390625,-0.36767578125,-1.6174315214157104,2.838134527206421,2.655029058456421,100.0,138939.0,1.0
178846.8909834,306393.53125,308994.1875,331571.0625,315884.34375,313630.5625,287220.03125,291164.9375,307443.96875,-0.06884765625,0.895263671875,-0.369140625,-1.6174315214157104,3.021239995956421,2.563476324081421,100.0,138940.0,1.0
178846.8909918,306193.96875,307797.21875,330164.4375,315417.8125,312617.875,287018.59375,290926.21875,307394.53125,-0.0693359375,0.893310546875,-0.3681640625,-1.6784666776657104,3.051757574081421,2.624511480331421,100.0,138941.0,1.0
178846.8966412,306165.90625,308285.46875,329873.40625,315562.75,312632.875,287188.5625,291083.03125,307465.59375,-0.066650390625,0.89013671875,-0.369140625,-1.7700194120407104,3.051757574081421,2.624511480331421,100.0,138942.0,1.0
178846.9030277,306422.5,309968.28125,331406.46875,316250.90625,313836.65625,287552.0,291473.75,307578.15625,-0.066162109375,0.889892578125,-0.367919921875,-1.7395018339157104,3.021239995956421,2.746581792831421,100.0,138943.0,1.0
178846.9123031,306529.0625,310352.1875,332396.03125,316397.4375,314416.46875,287549.03125,291507.71875,307551.875,-0.070068359375,0.88916015625,-0.36767578125,-1.7700194120407104,3.051757574081421,2.777099370956421,100.0,138944.0,1.0
178846.912321,306402.71875,309011.4375,331593.0625,315896.875,313644.25,287231.90625,291177.25,307453.34375,-0.069091796875,0.888427734375,-0.367919921875,-1.6784666776657104,3.173827886581421,2.807616949081421,100.0,138945.0,1.0
178846.9147355,306207.90625,307814.1875,330191.34375,315431.0625,312633.78125,287026.0,290936.03125,307402.75,-0.0693359375,0.886962890625,-0.3662109375,-1.6479490995407104,3.204345464706421,2.807616949081421,100.0,138946.0,1.0
178846.9147521,306174.03125,308283.6875,329889.5,315570.78125,312641.5625,287189.8125,291088.65625,307470.6875,-0.068603515625,0.887451171875,-0.36328125,-1.6479490995407104,3.265380620956421,2.716064214706421,100.0,138947.0,1.0
178846.9229796,306428.84375,309967.40625,331413.875,316254.5,313840.5,287552.875,291478.375,307582.28125,-0.0712890625,0.88720703125,-0.36376953125,-1.4953612089157104,3.234863042831421,2.777099370956421,100.0,138948.0,1.0
178846.9253521,306537.46875,310372.6875,332416.78125,316405.40625,314429.0625,287553.34375,291513.96875,307558.40625,-0.072021484375,0.888916015625,-0.366455078125,-1.4343260526657104,3.143310308456421,2.716064214706421,100.0,138949.0,1.0
178846.9347193,306407.90625,309036.84375,331625.59375,315904.0,313664.0,287235.65625,291179.5,307456.125,-0.0732421875,0.887939453125,-0.366455078125,-1.4648436307907104,3.112792730331421,2.624511480331421,100.0,138950.0,1.0
178846.9347362,306210.25,307826.09375,330216.28125,315429.34375,312636.625,287026.46875,290935.9375,307408.125,-0.07373046875,0.8896484375,-0.364013671875,-1.4038084745407104,3.082275152206421,2.502441167831421,100.0,138951.0,1.0
178846.9366646,306172.0625,308280.90625,329894.15625,315559.8125,312623.5,287186.21875,291081.6875,307473.84375,-0.07373046875,0.889892578125,-0.3642578125,-1.5258787870407104,2.929687261581421,2.441406011581421,100.0,138952.0,1.0
178846.9403829,306420.15625,309963.1875,331413.1875,316238.84375,313820.125,287547.875,291465.78125,307569.6875,-0.0732421875,0.890869140625,-0.362060546875,-1.6784666776657104,2.777099370956421,2.349853277206421,100.0,138953.0,1.0
178846.9522073,306525.75,310382.15625,332433.5625,316390.5625,314418.59375,287547.6875,291503.6875,307540.25,-0.073486328125,0.892333984375,-0.360595703125,-1.6784666776657104,2.746581792831421,2.258300542831421,100.0,138954.0,1.0
178846.952226,306390.125,309048.28125,331652.78125,315885.59375,313660.34375,287226.46875,291168.5,307436.28125,-0.072021484375,0.891357421875,-0.361328125,-1.6479490995407104,2.593993902206421,2.227782964706421,100.0,138955.0,1.0
178846.9546995,306185.9375,307823.21875,330241.125,315407.8125,312632.96875,287014.21875,290919.21875,307387.375,-0.071044921875,0.891845703125,-0.359619140625,-1.5869139432907104,2.532958745956421,2.166747808456421,100.0,138956.0,1.0
178846.9547077,306146.5,308261.9375,329901.75,315531.8125,312606.6875,287170.5,291062.71875,307447.46875,-0.07080078125,0.893798828125,-0.362060546875,-1.6174315214157104,2.380370855331421,2.136230230331421,100.0,138957.0,1.0
178846.964201,306403.1875,309951.125,331418.375,316220.15625,313802.6875,287541.15625,291460.5,307565.125,-0.07177734375,0.894775390625,-0.35986328125,-1.6479490995407104,2.227782964706421,2.014159917831421,100.0,138958.0,1.0
178846.9672253,306519.40625,310394.3125,332462.46875,316388.875,314420.46875,287551.28125,291507.71875,307544.46875,-0.0712890625,0.89404296875,-0.35986328125,-1.8310545682907104,2.044677495956421,2.044677495956421,100.0,138959.0,1.0
178846.9672413,306394.6875,309072.875,331704.03125,315896.3125,313674.375,287233.875,291177.875,307440.75,-0.0703125,0.8955078125,-0.361328125,-1.7089842557907104,1.9226073026657104,1.9531248807907104,100.0,138960.0,1.0
178846.969226,306205.0625,307852.1875,330308.375,315426.40625,312652.5625,287027.78125,290934.34375,307393.625,-0.070068359375,0.89599609375,-0.362060546875,-1.7700194120407104,1.8920897245407104,1.9531248807907104,100.0,138961.0,1.0
178846.9779996,306167.25,308276.15625,329957.0,315546.21875,312618.125,287184.0,291077.9375,307465.0625,-0.070068359375,0.896484375,-0.358642578125,-1.7700194120407104,1.7395018339157104,1.9226073026657104,100.0,138962.0,1.0
178846.9816329,306418.8125,309958.375,331455.28125,316230.53125,313806.96875,287550.125,291468.5625,307582.09375,-0.068115234375,0.8955078125,-0.3603515625,-1.8615721464157104,1.6479490995407104,1.9226073026657104,100.0,138963.0,1.0
178846.990978,306536.125,310416.84375,332500.46875,316405.3125,314430.125,287565.84375,291515.3125,307561.8125,-0.069580078125,0.893310546875,-0.361083984375,-1.8920897245407104,1.4953612089157104,1.9836424589157104,100.0,138964.0,1.0
178846.9909955,306418.03125,309119.53125,331755.875,315917.59375,313696.5625,287248.8125,291184.25,307454.96875,-0.070068359375,0.8935546875,-0.359375,-1.8920897245407104,1.4038084745407104,2.014159917831421,100.0,138965.0,1.0
178846.9929387,306222.59375,307889.03125,330360.84375,315442.84375,312676.96875,287030.65625,290934.0,307405.78125,-0.068359375,0.892822265625,-0.3623046875,-1.8615721464157104,1.2817381620407104,2.014159917831421,100.0,138966.0,1.0
178846.9966532,306175.5625,308287.875,329984.0,315552.09375,312625.28125,287173.25,291067.5625,307472.21875,-0.068603515625,0.8935546875,-0.361083984375,-1.8920897245407104,1.1291502714157104,1.8920897245407104,100.0,138967.0,1.0
178847.0053981,306430.4375,309973.375,331478.0,316238.21875,313812.78125,287541.625,291459.6875,307584.4375,-0.06787109375,0.89208984375,-0.36083984375,-1.8005369901657104,1.0375975370407104,1.8615721464157104,100.0,138968.0,1.0
178847.0122304,306543.8125,310445.625,332539.34375,316414.96875,314448.5625,287559.40625,291509.21875,307556.25,-0.06591796875,0.89208984375,-0.361328125,-1.8005369901657104,0.9155272841453552,1.8615721464157104,100.0,138969.0,1.0
178847.0122468,306414.96875,309138.84375,331793.96875,315922.0625,313714.71875,287240.75,291178.4375,307445.03125,-0.064453125,0.891357421875,-0.362548828125,-1.8920897245407104,0.8239745497703552,2.014159917831421,100.0,138970.0,1.0
178847.0141327,306222.21875,307892.875,330388.40625,315443.125,312685.8125,287024.03125,290926.21875,307394.71875,-0.063720703125,0.890625,-0.362548828125,-1.8615721464157104,0.6408690810203552,1.9836424589157104,100.0,138971.0,1.0
178847.0179493,306184.125,308285.375,330010.8125,315552.1875,312633.5,287174.875,291064.6875,307464.71875,-0.063232421875,0.88916015625,-0.36328125,-1.8005369901657104,0.6103515028953552,1.9226073026657104,100.0,138972.0,1.0
178847.0322255,306434.28125,309963.53125,331493.1875,316234.1875,313812.4375,287544.21875,291458.90625,307577.1875,-0.064208984375,0.887939453125,-0.3642578125,-1.6479490995407104,0.5798339247703552,1.9226073026657104,100.0,138973.0,1.0
178847.0322407,306552.5,310450.71875,332567.96875,316419.28125,314457.15625,287564.59375,291512.90625,307551.34375,-0.06640625,0.88916015625,-0.36181640625,-1.5563963651657104,0.4882812201976776,1.8920897245407104,100.0,138974.0,1.0
178847.03471,306431.0,309158.4375,331841.0,315933.4375,313734.46875,287251.40625,291186.90625,307446.75,-0.06640625,0.886962890625,-0.36279296875,-1.3427733182907104,0.4577636420726776,1.8615721464157104,100.0,138975.0,1.0
178847.0347178,306233.84375,307902.8125,330429.25,315448.75,312698.5,287031.46875,290930.21875,307389.78125,-0.066162109375,0.885986328125,-0.36181640625,-1.1901854276657104,0.4272460639476776,1.7700194120407104,100.0,138976.0,1.0
178847.0366372,306185.375,308272.875,330021.65625,315543.4375,312624.5625,287174.59375,291058.875,307451.03125,-0.064697265625,0.888916015625,-0.362548828125,-1.0986326932907104,0.3356933295726776,1.7089842557907104,100.0,138977.0,1.0
178847.040364,306432.25,309951.84375,331492.75,316223.03125,313798.21875,287542.0625,291448.96875,307563.40625,-0.065185546875,0.8896484375,-0.36279296875,-0.9765624403953552,0.2441406100988388,1.6479490995407104,100.0,138978.0,1.0
178847.0547936,306552.65625,310459.84375,332584.6875,316416.125,314460.09375,287564.78125,291509.6875,307543.75,-0.0625,0.891357421875,-0.36181640625,-0.7629393935203552,0.1220703050494194,1.5258787870407104,100.0,138979.0,1.0
178847.0548117,306428.40625,309169.15625,331867.90625,315932.09375,313747.53125,287250.40625,291185.21875,307439.21875,-0.06298828125,0.89208984375,-0.36328125,-0.6713866591453552,0.1525878757238388,1.5258787870407104,100.0,138980.0,1.0
178847.0566542,306230.8125,307901.90625,330457.78125,315444.46875,312708.875,287027.34375,290926.65625,307382.71875,-0.06396484375,0.892578125,-0.36181640625,-0.5493163466453552,0.1525878757238388,1.4343260526657104,100.0,138981.0,1.0
178847.0592021,306177.0625,308245.59375,330030.0625,315529.5,312615.1875,287164.84375,291050.40625,307441.375,-0.063232421875,0.893310546875,-0.363525390625,-0.5493163466453552,0.03051757626235485,1.2817381620407104,100.0,138982.0,1.0
178847.0685444,306421.78125,309926.0,331489.25,316211.21875,313781.03125,287536.0625,291445.40625,307561.28125,-0.062744140625,0.8955078125,-0.365234375,-0.3967284858226776,0.0610351525247097,1.2512205839157104,100.0,138983.0,1.0
178847.0685634,306544.4375,310458.0625,332593.625,316417.03125,314454.28125,287565.75,291511.09375,307546.0625,-0.066650390625,0.895751953125,-0.36572265625,-0.4577636420726776,0.03051757626235485,1.2512205839157104,100.0,138984.0,1.0
178847.0704511,306424.375,309181.78125,331891.40625,315940.5,313752.71875,287254.34375,291191.46875,307448.53125,-0.067626953125,0.896728515625,-0.3642578125,-0.3051757514476776,0.0,1.0986326932907104,100.0,138985.0,1.0
178847.0729635,306231.59375,307909.40625,330487.90625,315457.78125,312720.40625,287032.4375,290936.65625,307400.0625,-0.066650390625,0.89599609375,-0.359619140625,-0.3662109076976776,-0.0610351525247097,1.0070799589157104,100.0,138986.0,1.0
178847.084892,306182.25,308247.90625,330055.1875,315544.25,312630.125,287172.71875,291060.75,307465.15625,-0.066650390625,0.894287109375,-0.358154296875,-0.4272460639476776,-0.1831054538488388,0.7934569716453552,100.0,138987.0,1.0
178847.0849341,306426.25,309925.8125,331506.96875,316226.40625,313799.5625,287545.1875,291456.125,307586.21875,-0.061767578125,0.893310546875,-0.35791015625,-0.3662109076976776,-0.2441406100988388,0.7629393935203552,100.0,138988.0,1.0
178847.0873952,306545.53125,310463.25,332617.9375,316432.6875,314480.75,287574.78125,291527.46875,307571.5625,-0.05810546875,0.888671875,-0.359130859375,-0.3662109076976776,-0.2441406100988388,0.7019042372703552,100.0,138989.0,1.0
178847.0874553,306426.25,309194.5625,331918.5,315951.59375,313781.3125,287260.25,291204.71875,307459.96875,-0.0576171875,0.88818359375,-0.36279296875,-0.2136230319738388,-0.1525878757238388,0.6408690810203552,100.0,138990.0,1.0
178847.0954939,306232.3125,307910.84375,330501.03125,315459.65625,312735.96875,287035.9375,290942.65625,307410.25,-0.056640625,0.888671875,-0.365966796875,0.1220703050494194,-0.0915527269244194,0.5493163466453552,100.0,138991.0,1.0
178847.0980255,306179.21875,308230.9375,330050.875,315538.34375,312630.28125,287171.65625,291060.9375,307471.40625,-0.055908203125,0.89453125,-0.364990234375,0.2746581733226776,0.0,0.5187987685203552,100.0,138992.0,1.0
178847.1017328,306420.34375,309903.46875,331493.8125,316216.40625,313790.625,287538.5,291451.03125,307576.1875,-0.059326171875,0.898193359375,-0.365478515625,0.3662109076976776,0.03051757626235485,0.4882812201976776,100.0,138993.0,1.0
178847.1111067,306547.125,310470.3125,332626.53125,316428.375,314485.46875,287574.78125,291525.21875,307561.4375,-0.059326171875,0.89794921875,-0.365966796875,0.2441406100988388,0.0610351525247097,0.4577636420726776,100.0,138994.0,1.0
178847.1111389,306424.625,309207.96875,331941.03125,315949.875,313794.625,287263.375,291204.0,307456.84375,-0.057861328125,0.896484375,-0.365478515625,0.2136230319738388,-0.03051757626235485,0.4882812201976776,100.0,138995.0,1.0
178847.1168793,306225.71875,307910.9375,330521.15625,315454.5625,312741.25,287034.21875,290936.3125,307397.84375,-0.05615234375,0.890869140625,-0.364013671875,0.1525878757238388,0.03051757626235485,0.5798339247703552,100.0,138996.0,1.0
178847.1169093,306166.0,308207.59375,330038.09375,315519.46875,312609.53125,287161.625,291046.90625,307446.375,-0.054931640625,0.888671875,-0.3642578125,0.2441406100988388,0.0915527269244194,0.5798339247703552,100.0,138997.0,1.0
178847.1285338,306413.1875,309883.625,331467.28125,316196.5625,313762.4375,287532.125,291438.875,307555.46875,-0.055419921875,0.88525390625,-0.362548828125,0.4882812201976776,0.3356933295726776,0.5493163466453552,100.0,138998.0,1.0
178847.1285855,306542.03125,310459.3125,332606.3125,316414.96875,314462.25,287570.6875,291514.875,307534.625,-0.05810546875,0.88623046875,-0.3642578125,0.6408690810203552,0.4272460639476776,0.3967284858226776,100.0,138999.0,1.0
178847.1304479,306424.8125,309208.5,331936.125,315941.375,313784.4375,287262.84375,291198.0,307429.65625,-0.06298828125,0.888427734375,-0.365234375,0.9155272841453552,0.4272460639476776,0.3356933295726776,100.0,139000.0,1.0
178847.1341781,306229.03125,307905.03125,330513.75,315444.90625,312731.75,287033.875,290929.15625,307369.21875,-0.067626953125,0.892333984375,-0.362548828125,0.9765624403953552,0.3662109076976776,0.2441406100988388,100.0,139001.0,1.0
178847.1430075,306165.90625,308185.15625,330015.75,315502.75,312586.75,287160.65625,291033.5,307420.0,-0.0712890625,0.895263671875,-0.36474609375,0.9155272841453552,0.2746581733226776,0.0610351525247097,100.0,139002.0,1.0
178847.1465714,306407.125,309860.5625,331441.53125,316178.6875,313740.09375,287536.53125,291430.28125,307530.875,-0.075439453125,0.895263671875,-0.362548828125,0.9155272841453552,0.0610351525247097,-0.2136230319738388,100.0,139003.0,1.0
178847.14659,306538.0,310462.96875,332603.90625,316409.875,314458.9375,287584.625,291515.84375,307515.84375,-0.07568359375,0.894775390625,-0.363525390625,0.8239745497703552,-0.03051757626235485,-0.3051757514476776,100.0,139004.0,1.0
178847.1465968,306421.34375,309223.78125,331945.15625,315941.3125,313789.28125,287277.34375,291202.125,307418.65625,-0.076904296875,0.89208984375,-0.36181640625,0.8850097060203552,-0.2441406100988388,-0.4272460639476776,100.0,139005.0,1.0
178847.1491461,306225.4375,307913.625,330523.75,315444.90625,312738.46875,287047.71875,290933.4375,307367.625,-0.0791015625,0.890380859375,-0.3623046875,0.8850097060203552,-0.3967284858226776,-0.6408690810203552,100.0,139006.0,1.0
178847.1629831,306162.84375,308173.71875,330012.4375,315503.28125,312593.1875,287171.375,291040.375,307426.96875,-0.078369140625,0.88671875,-0.36279296875,1.1291502714157104,-0.6103515028953552,-0.9460448622703552,100.0,139007.0,1.0
178847.1660204,306404.96875,309838.8125,331418.90625,316182.25,313741.25,287541.625,291437.53125,307549.375,-0.07373046875,0.88623046875,-0.36572265625,1.2207030057907104,-0.8239745497703552,-1.1596678495407104,100.0,139008.0,1.0
178847.1660407,306546.84375,310463.96875,332596.46875,316428.9375,314478.40625,287592.5,291530.6875,307550.53125,-0.072265625,0.888427734375,-0.36767578125,1.3732908964157104,-1.0375975370407104,-1.3427733182907104,100.0,139009.0,1.0
178847.1678665,306441.90625,309242.75,331962.75,315975.4375,313827.8125,287284.84375,291221.15625,307459.4375,-0.071044921875,0.888916015625,-0.364501953125,1.4038084745407104,-1.1596678495407104,-1.3732908964157104,100.0,139010.0,1.0
178847.1772325,306253.78125,307932.125,330555.59375,315484.4375,312784.15625,287050.40625,290953.9375,307409.8125,-0.0693359375,0.892333984375,-0.3623046875,1.3732908964157104,-1.3122557401657104,-1.2512205839157104,100.0,139011.0,1.0
178847.1772397,306190.40625,308180.78125,330032.65625,315534.6875,312622.25,287166.8125,291056.28125,307469.1875,-0.068115234375,0.893310546875,-0.362060546875,1.4038084745407104,-1.3732908964157104,-1.2817381620407104,100.0,139012.0,1.0
178847.1791196,306431.4375,309846.15625,331428.28125,316210.78125,313758.0625,287536.6875,291452.09375,307593.0,-0.067138671875,0.89453125,-0.362060546875,1.3122557401657104,-1.4648436307907104,-1.2817381620407104,100.0,139013.0,1.0
178847.192942,306574.5,310488.1875,332619.8125,316460.84375,314504.25,287588.71875,291544.46875,307588.8125,-0.06689453125,0.894775390625,-0.361328125,1.1596678495407104,-1.4038084745407104,-1.1901854276657104,100.0,139014.0,1.0
178847.1960002,306466.40625,309274.125,331995.21875,316004.40625,313857.75,287282.6875,291232.34375,307492.59375,-0.066650390625,0.89501953125,-0.362548828125,1.0986326932907104,-1.4343260526657104,-1.0681151151657104,100.0,139015.0,1.0
178847.1960145,306270.6875,307945.625,330580.25,315505.0,312801.40625,287044.0625,290958.84375,307433.78125,-0.06591796875,0.8955078125,-0.366943359375,1.0375975370407104,-1.4648436307907104,-0.8850097060203552,100.0,139016.0,1.0
178847.2022066,306195.40625,308164.21875,330023.6875,315536.1875,312609.8125,287151.53125,291050.46875,307479.09375,-0.065673828125,0.894287109375,-0.369384765625,1.1291502714157104,-1.4953612089157104,-0.7934569716453552,100.0,139017.0,1.0
178847.2022174,306439.21875,309834.1875,331410.125,316210.21875,313743.3125,287521.78125,291445.5625,307595.34375,-0.066650390625,0.8955078125,-0.369384765625,1.1901854276657104,-1.4648436307907104,-0.6713866591453552,100.0,139018.0,1.0
178847.2109841,306583.59375,310497.5,332620.0,316466.75,314502.5625,287580.6875,291540.875,307584.6875,-0.068359375,0.895263671875,-0.370361328125,1.2207030057907104,-1.4648436307907104,-0.5798339247703552,100.0,139019.0,1.0
178847.2109915,306469.34375,309286.03125,332000.65625,316007.46875,313859.0,287270.71875,291226.0,307478.46875,-0.069580078125,0.89453125,-0.3681640625,1.2512205839157104,-1.4953612089157104,-0.3967284858226776,100.0,139020.0,1.0
178847.2134566,306271.65625,307952.96875,330580.875,315500.0625,312795.5,287032.875,290947.125,307415.625,-0.067626953125,0.89404296875,-0.367919921875,1.1901854276657104,-1.4038084745407104,-0.3051757514476776,100.0,139021.0,1.0
178847.2134635,306197.8125,308161.625,330018.59375,315529.5625,312600.25,287144.90625,291038.15625,307462.65625,-0.068359375,0.89501953125,-0.36572265625,1.0681151151657104,-1.5563963651657104,-0.0915527269244194,100.0,139022.0,1.0
178847.226627,306439.21875,309825.0625,331391.8125,316202.375,313722.3125,287518.90625,291432.53125,307578.09375,-0.0693359375,0.8955078125,-0.365478515625,0.9765624403953552,-1.4953612089157104,-0.03051757626235485,100.0,139023.0,1.0
178847.234042,306578.15625,310494.625,332600.5,316462.8125,314481.71875,287582.125,291532.03125,307569.5,-0.07177734375,0.89501953125,-0.36279296875,0.7934569716453552,-1.5563963651657104,0.0915527269244194,100.0,139024.0,1.0
178847.2340611,306458.0625,309289.6875,331986.09375,316000.125,313841.84375,287279.21875,291218.3125,307459.0625,-0.073974609375,0.89501953125,-0.36328125,0.7629393935203552,-1.5869139432907104,0.1220703050494194,100.0,139025.0,1.0
178847.2340657,306263.4375,307961.1875,330579.625,315492.03125,312789.78125,287046.9375,290945.78125,307399.1875,-0.072509765625,0.895263671875,-0.365234375,0.6713866591453552,-1.7089842557907104,0.1220703050494194,100.0,139026.0,1.0
178847.2384606,306187.625,308151.1875,330008.21875,315513.5625,312589.0625,287157.625,291035.375,307447.28125,-0.07470703125,0.896240234375,-0.365478515625,0.6408690810203552,-1.7089842557907104,0.0915527269244194,100.0,139027.0,1.0
178847.2384759,306426.6875,309808.15625,331370.25,316182.6875,313706.125,287533.03125,291429.75,307559.84375,-0.0751953125,0.89501953125,-0.368408203125,0.5798339247703552,-1.7395018339157104,0.0915527269244194,100.0,139028.0,1.0
178847.2466497,306573.21875,310501.40625,332600.3125,316450.8125,314482.25,287602.78125,291535.96875,307552.78125,-0.072998046875,0.89404296875,-0.3671875,0.4272460639476776,-1.7395018339157104,0.03051757626235485,100.0,139029.0,1.0
178847.2509733,306458.0,309308.625,332006.65625,315994.9375,313856.15625,287300.125,291229.03125,307452.90625,-0.072509765625,0.895751953125,-0.368408203125,0.3356933295726776,-1.8310545682907104,0.0610351525247097,100.0,139030.0,1.0
178847.2509885,306263.78125,307963.0625,330587.40625,315488.28125,312789.78125,287057.3125,290950.09375,307398.90625,-0.072265625,0.8955078125,-0.36767578125,0.2746581733226776,-1.8615721464157104,0.0610351525247097,100.0,139031.0,1.0
178847.2566047,306186.1875,308138.125,329993.46875,315506.15625,312572.53125,287159.5,291032.6875,307440.5625,-0.0693359375,0.89453125,-0.36865234375,0.1525878757238388,-1.8615721464157104,0.0,100.0,139032.0,1.0
178847.2629415,306424.625,309797.15625,331347.0,316174.8125,313690.75,287535.8125,291428.40625,307561.09375,-0.069091796875,0.89501953125,-0.368408203125,0.1220703050494194,-1.9226073026657104,0.0,100.0,139033.0,1.0
178847.2697179,306571.4375,310511.6875,332597.375,316449.84375,314486.5625,287606.0,291536.40625,307553.84375,-0.069580078125,0.89404296875,-0.3681640625,0.0610351525247097,-1.9226073026657104,-0.0915527269244194,100.0,139034.0,1.0
178847.2697456,306459.96875,309329.46875,332016.125,315999.6875,313870.0,287300.5625,291230.09375,307451.46875,-0.068603515625,0.893798828125,-0.36767578125,0.03051757626235485,-1.7700194120407104,-0.0915527269244194,100.0,139035.0,1.0
178847.2721769,306268.8125,307977.8125,330605.65625,315494.875,312810.09375,287058.09375,290953.5625,307400.0625,-0.068603515625,0.8935546875,-0.367919921875,-0.1220703050494194,-1.7700194120407104,-0.0915527269244194,100.0,139036.0,1.0
178847.272193,306189.21875,308137.21875,330005.28125,315511.96875,312587.1875,287161.5625,291036.96875,307454.4375,-0.06689453125,0.89306640625,-0.368896484375,-0.1525878757238388,-1.6784666776657104,-0.1831054538488388,100.0,139037.0,1.0
178847.289153,306422.75,309789.125,331348.1875,316181.90625,313695.03125,287535.34375,291433.15625,307578.78125,-0.068115234375,0.893310546875,-0.368408203125,-0.1525878757238388,-1.7089842557907104,-0.1831054538488388,100.0,139038.0,1.0
178847.2940787,306575.03125,310517.0625,332607.46875,316473.28125,314500.15625,287613.40625,291551.6875,307586.21875,-0.0703125,0.891357421875,-0.36767578125,-0.1220703050494194,-1.5563963651657104,-0.1220703050494194,100.0,139039.0,1.0
178847.2940927,306471.125,309350.3125,332043.5,316033.21875,313897.0,287314.4375,291250.5625,307493.3125,-0.068603515625,0.890869140625,-0.368408203125,-0.1220703050494194,-1.6479490995407104,-0.1525878757238388,100.0,139040.0,1.0
178847.2940964,306277.375,307993.46875,330627.09375,315521.09375,312827.0625,287065.78125,290966.625,307431.625,-0.06689453125,0.890869140625,-0.369873046875,-0.1525878757238388,-1.4953612089157104,-0.2441406100988388,100.0,139041.0,1.0
178847.2972097,306197.53125,308134.5625,330006.625,315526.09375,312588.53125,287160.75,291042.78125,307477.21875,-0.068603515625,0.892578125,-0.369873046875,-0.1220703050494194,-1.4953612089157104,-0.3967284858226776,100.0,139042.0,1.0
178847.2972197,306426.875,309777.21875,331328.5,316186.1875,313685.375,287531.4375,291431.90625,307591.21875,-0.069580078125,0.890869140625,-0.36865234375,-0.1525878757238388,-1.4038084745407104,-0.3967284858226776,100.0,139043.0,1.0
178847.3104138,306584.6875,310524.65625,332601.21875,316478.375,314498.96875,287614.46875,291549.5625,307589.34375,-0.068603515625,0.891357421875,-0.367431640625,-0.1525878757238388,-1.3122557401657104,-0.3662109076976776,100.0,139044.0,1.0
178847.3228261,306480.34375,309365.6875,332049.03125,316037.84375,313903.90625,287314.78125,291248.6875,307491.4375,-0.0703125,0.891845703125,-0.366943359375,-0.1220703050494194,-1.2207030057907104,-0.4272460639476776,100.0,139045.0,1.0
178847.3228427,306285.15625,307999.8125,330634.875,315522.0625,312834.21875,287064.4375,290960.375,307422.59375,-0.0732421875,0.891845703125,-0.3662109375,-0.1525878757238388,-1.1596678495407104,-0.3967284858226776,100.0,139046.0,1.0
178847.3228466,306194.875,308122.03125,329997.6875,315516.4375,312577.8125,287156.71875,291032.5,307463.1875,-0.07373046875,0.8916015625,-0.365966796875,-0.0915527269244194,-1.1901854276657104,-0.3662109076976776,100.0,139047.0,1.0
178847.32597,306421.25,309761.40625,331310.28125,316174.5625,313665.25,287529.375,291425.53125,307578.96875,-0.07275390625,0.89111328125,-0.3662109375,-0.1525878757238388,-1.1596678495407104,-0.3967284858226776,100.0,139048.0,1.0
178847.3259825,306575.46875,310527.78125,332594.6875,316471.03125,314488.0,287613.59375,291549.5625,307573.25,-0.072021484375,0.8935546875,-0.36865234375,-0.2746581733226776,-1.0681151151657104,-0.3356933295726776,100.0,139049.0,1.0
178847.3279187,306465.125,309377.5625,332055.28125,316028.75,313900.6875,287313.71875,291248.15625,307476.0625,-0.073486328125,0.8935546875,-0.36669921875,-0.2441406100988388,-1.0681151151657104,-0.5187987685203552,100.0,139050.0,1.0
178847.3303668,306266.46875,308000.15625,330641.59375,315507.21875,312829.9375,287061.84375,290956.875,307409.625,-0.07421875,0.890869140625,-0.36669921875,-0.2746581733226776,-1.2207030057907104,-0.4882812201976776,100.0,139051.0,1.0
178847.3416426,306168.5625,308094.6875,329983.375,315492.75,312560.46875,287149.21875,291021.59375,307452.0,-0.075439453125,0.891845703125,-0.36376953125,-0.1525878757238388,-1.1291502714157104,-0.4577636420726776,100.0,139052.0,1.0
178847.3447098,306394.5,309728.9375,331284.53125,316154.625,313645.25,287522.65625,291415.1875,307573.875,-0.075927734375,0.889404296875,-0.36767578125,-0.1831054538488388,-1.0986326932907104,-0.4577636420726776,100.0,139053.0,1.0
178847.344721,306555.53125,310514.28125,332588.15625,316464.875,314483.6875,287611.96875,291543.75,307575.5,-0.07666015625,0.891845703125,-0.367919921875,-0.1831054538488388,-1.1291502714157104,-0.4882812201976776,100.0,139054.0,1.0
178847.3466226,306449.6875,309377.5625,332064.78125,316025.15625,313905.21875,287314.78125,291243.0625,307475.15625,-0.07666015625,0.8896484375,-0.365478515625,-0.2441406100988388,-1.1596678495407104,-0.5187987685203552,100.0,139055.0,1.0
178847.3553906,306260.03125,308003.3125,330659.21875,315507.5,312837.8125,287064.1875,290957.0625,307412.125,-0.0771484375,0.890625,-0.365478515625,-0.1525878757238388,-1.1596678495407104,-0.5187987685203552,100.0,139056.0,1.0
178847.3597106,306167.5,308086.0,329992.15625,315489.53125,312561.8125,287147.34375,291023.03125,307456.84375,-0.075927734375,0.889892578125,-0.3623046875,-0.1525878757238388,-1.1596678495407104,-0.3662109076976776,100.0,139057.0,1.0
178847.3597216,306393.09375,309711.34375,331273.0,316144.96875,313633.875,287521.78125,291416.15625,307580.5,-0.0771484375,0.88818359375,-0.365234375,-0.1220703050494194,-1.3122557401657104,-0.3967284858226776,100.0,139058.0,1.0
178847.3629127,306560.8125,310516.34375,332581.09375,316459.59375,314478.6875,287618.78125,291550.96875,307585.40625,-0.078857421875,0.88916015625,-0.3671875,-0.1220703050494194,-1.3122557401657104,-0.3662109076976776,100.0,139059.0,1.0
178847.3972747,306460.65625,309398.0625,332077.75,316031.34375,313918.1875,287324.8125,291251.8125,307476.5,-0.078125,0.890625,-0.366455078125,-0.03051757626235485,-1.3427733182907104,-0.3356933295726776,100.0,139060.0,1.0
178847.397287,306270.3125,308015.1875,330675.84375,315514.90625,312854.6875,287072.78125,290962.40625,307410.09375,-0.079345703125,0.89013671875,-0.367431640625,0.0,-1.4343260526657104,-0.4577636420726776,100.0,139061.0,1.0
178847.400989,306174.65625,308080.53125,329986.96875,315489.875,312563.3125,287157.625,291024.71875,307455.9375,-0.07763671875,0.88671875,-0.3681640625,0.0,-1.4038084745407104,-0.3051757514476776,100.0,139062.0,1.0
178847.4010083,306401.5625,309709.8125,331259.84375,316144.875,313633.6875,287533.75,291419.5625,307580.21875,-0.077392578125,0.888427734375,-0.369384765625,0.1525878757238388,-1.4038084745407104,-0.3051757514476776,100.0,139063.0,1.0
178847.4029512,306570.09375,310533.25,332586.65625,316472.46875,314496.3125,287635.75,291563.59375,307591.21875,-0.077392578125,0.891357421875,-0.36865234375,0.2441406100988388,-1.4038084745407104,-0.1525878757238388,100.0,139064.0,1.0
178847.4053912,306472.21875,309424.0625,332098.46875,316050.09375,313947.15625,287343.125,291270.6875,307493.59375,-0.075439453125,0.892333984375,-0.36767578125,0.2136230319738388,-1.5258787870407104,-0.03051757626235485,100.0,139065.0,1.0
178847.4079503,306280.25,308027.4375,330689.59375,315527.0,312873.28125,287086.53125,290974.3125,307428.0625,-0.07568359375,0.89306640625,-0.364501953125,0.1831054538488388,-1.5258787870407104,0.03051757626235485,100.0,139066.0,1.0
178847.4104004,306185.46875,308079.28125,329992.5,315497.65625,312570.21875,287160.46875,291030.09375,307469.1875,-0.075927734375,0.89111328125,-0.368408203125,0.2136230319738388,-1.5563963651657104,0.1525878757238388,100.0,139067.0,1.0
178847.4129443,306412.3125,309705.15625,331259.03125,316152.84375,313634.59375,287533.03125,291422.15625,307590.5,-0.0751953125,0.89111328125,-0.3681640625,0.2136230319738388,-1.4953612089157104,0.1525878757238388,100.0,139068.0,1.0
178847.4153926,306577.4375,310536.09375,332588.6875,316478.625,314494.6875,287635.59375,291561.8125,307597.9375,-0.073974609375,0.890625,-0.3681640625,0.2441406100988388,-1.4648436307907104,0.2136230319738388,100.0,139069.0,1.0
178847.4203912,306485.25,309443.375,332120.46875,316058.15625,313956.0,287349.65625,291269.09375,307495.8125,-0.073974609375,0.89111328125,-0.37060546875,0.3662109076976776,-1.4953612089157104,0.2136230319738388,100.0,139070.0,1.0
178847.4229351,306289.53125,308042.90625,330714.5625,315529.84375,312878.21875,287090.46875,290968.9375,307421.25,-0.0751953125,0.892822265625,-0.371337890625,0.3051757514476776,-1.4648436307907104,0.3356933295726776,100.0,139071.0,1.0
178847.4253677,306191.03125,308078.3125,329999.75,315491.59375,312562.4375,287161.5625,291021.0625,307461.75,-0.07373046875,0.894287109375,-0.36962890625,0.2746581733226776,-1.4038084745407104,0.3356933295726776,100.0,139072.0,1.0
178847.42848,306415.4375,309694.34375,331245.4375,316140.75,313614.5625,287530.875,291409.1875,307581.375,-0.0732421875,0.89453125,-0.36962890625,0.2746581733226776,-1.4343260526657104,0.4882812201976776,100.0,139073.0,1.0
178847.4284892,306584.84375,310545.5,332590.21875,316474.875,314490.03125,287636.375,291556.25,307588.09375,-0.073486328125,0.893310546875,-0.36767578125,0.1831054538488388,-1.4343260526657104,0.5493163466453552,100.0,139074.0,1.0
178847.4303611,306488.375,309460.09375,332132.53125,316058.875,313960.9375,287346.53125,291269.09375,307489.46875,-0.07470703125,0.893310546875,-0.36669921875,0.2136230319738388,-1.4038084745407104,0.5798339247703552,100.0,139075.0,1.0
178847.4329303,306294.28125,308055.5,330734.125,315537.1875,312889.21875,287087.4375,290976.1875,307425.5625,-0.075439453125,0.893798828125,-0.36669921875,0.2746581733226776,-1.4343260526657104,0.6103515028953552,100.0,139076.0,1.0
178847.4447131,306183.6875,308062.9375,329998.125,315486.65625,312553.03125,287150.71875,291019.375,307458.28125,-0.073974609375,0.89501953125,-0.3720703125,0.2441406100988388,-1.3732908964157104,0.5798339247703552,100.0,139077.0,1.0
178847.4447316,306398.25,309667.875,331221.5625,316130.65625,313589.90625,287521.78125,291404.28125,307576.5625,-0.072998046875,0.892822265625,-0.368408203125,0.2136230319738388,-1.3427733182907104,0.6713866591453552,100.0,139078.0,1.0
178847.4471995,306574.21875,310537.4375,332582.53125,316477.375,314479.5,287636.125,291556.4375,307586.65625,-0.072998046875,0.892578125,-0.3701171875,0.1220703050494194,-1.3427733182907104,0.5798339247703552,100.0,139079.0,1.0
178847.4472096,306481.0625,309466.53125,332141.65625,316067.375,313960.5625,287347.4375,291272.40625,307488.84375,-0.074462890625,0.892822265625,-0.37158203125,0.1220703050494194,-1.3122557401657104,0.6713866591453552,100.0,139080.0,1.0
178847.4491365,306295.28125,308062.40625,330748.625,315546.75,312892.34375,287089.5,290981.1875,307432.96875,-0.072998046875,0.890380859375,-0.370849609375,0.2441406100988388,-1.2207030057907104,0.6408690810203552,100.0,139081.0,1.0
178847.4579544,306193.96875,308060.78125,330007.6875,315499.0,312556.875,287158.25,291027.78125,307471.875,-0.071533203125,0.88916015625,-0.369384765625,0.3051757514476776,-1.3122557401657104,0.7019042372703552,100.0,139082.0,1.0
178847.4622569,306408.8125,309657.25,331222.8125,316140.6875,313592.9375,287528.75,291415.0,307589.78125,-0.06982421875,0.890625,-0.366943359375,0.3051757514476776,-1.2512205839157104,0.6408690810203552,100.0,139083.0,1.0
178847.4622751,306583.59375,310539.40625,332590.9375,316491.59375,314488.4375,287642.375,291569.40625,307600.53125,-0.070556640625,0.89111328125,-0.367431640625,0.3662109076976776,-1.1901854276657104,0.7324218153953552,100.0,139084.0,1.0
178847.4641476,306495.4375,309487.53125,332168.03125,316083.0,313980.6875,287360.03125,291285.625,307504.40625,-0.072998046875,0.89208984375,-0.36865234375,0.3662109076976776,-1.0070799589157104,0.7019042372703552,100.0,139085.0,1.0
178847.4784769,306301.96875,308069.375,330771.78125,315553.53125,312900.5625,287096.71875,290984.9375,307436.0,-0.07373046875,0.89306640625,-0.36669921875,0.3356933295726776,-1.0070799589157104,0.7629393935203552,100.0,139086.0,1.0
178847.4784913,306188.4375,308040.65625,330004.84375,315490.875,312540.34375,287154.9375,291022.0625,307470.53125,-0.072021484375,0.89013671875,-0.368896484375,0.3051757514476776,-1.0070799589157104,0.7324218153953552,100.0,139087.0,1.0
178847.4803809,306405.59375,309637.46875,331210.9375,316130.03125,313570.21875,287523.03125,291407.21875,307592.03125,-0.072998046875,0.890625,-0.365234375,0.3356933295726776,-0.9155272841453552,0.8239745497703552,100.0,139088.0,1.0
178847.4852555,306583.25,310541.21875,332593.78125,316483.625,314479.9375,287639.0625,291563.15625,307597.375,-0.07275390625,0.88916015625,-0.36572265625,0.3356933295726776,-0.9155272841453552,0.7324218153953552,100.0,139089.0,1.0
178847.492974,306493.21875,309490.6875,332176.96875,316080.78125,313982.03125,287357.25,291281.0625,307498.96875,-0.071533203125,0.89013671875,-0.369873046875,0.4272460639476776,-0.8239745497703552,0.6103515028953552,100.0,139090.0,1.0
178847.4954013,306303.65625,308067.5,330780.875,315553.09375,312908.96875,287093.15625,290982.53125,307432.96875,-0.0703125,0.8896484375,-0.3701171875,0.4577636420726776,-0.7629393935203552,0.6713866591453552,100.0,139091.0,1.0
178847.4979495,306190.65625,308025.84375,330003.21875,315486.03125,312543.90625,287147.875,291016.59375,307463.09375,-0.072265625,0.8916015625,-0.3720703125,0.4272460639476776,-0.6713866591453552,0.5798339247703552,100.0,139092.0,1.0
178847.5022362,306400.5,309612.71875,331188.75,316118.40625,313555.84375,287514.78125,291401.3125,307583.09375,-0.0712890625,0.889892578125,-0.36865234375,0.4577636420726776,-0.7019042372703552,0.6103515028953552,100.0,139093.0,1.0
178847.5022504,306580.28125,310534.40625,332578.0625,316478.375,314469.75,287634.5,291561.4375,307596.0625,-0.07275390625,0.890625,-0.3662109375,0.4882812201976776,-0.6408690810203552,0.6713866591453552,100.0,139094.0,1.0
178847.5053973,306490.34375,309498.1875,332177.5,316074.0625,313982.03125,287354.125,291281.6875,307496.1875,-0.072265625,0.889892578125,-0.366943359375,0.4882812201976776,-0.5493163466453552,0.6408690810203552,100.0,139095.0,1.0
178847.5191465,306299.65625,308071.875,330782.40625,315539.5,312903.34375,287090.1875,290979.84375,307425.90625,-0.071533203125,0.890380859375,-0.370361328125,0.5187987685203552,-0.4882812201976776,0.6408690810203552,100.0,139096.0,1.0
178847.5222287,306185.5625,308020.71875,329990.71875,315466.71875,312525.15625,287145.1875,291015.0,307463.0,-0.06982421875,0.8916015625,-0.369873046875,0.5798339247703552,-0.4272460639476776,0.5798339247703552,100.0,139097.0,1.0
178847.5222457,306394.0625,309602.4375,331162.84375,316094.28125,313530.78125,287508.625,291392.8125,307568.15625,-0.071044921875,0.8896484375,-0.370361328125,0.5187987685203552,-0.5187987685203552,0.6408690810203552,100.0,139098.0,1.0
178847.5241485,306577.0625,310539.15625,332561.53125,316462.0,314453.125,287638.25,291557.6875,307577.53125,-0.072265625,0.888671875,-0.368896484375,0.6103515028953552,-0.3662109076976776,0.5798339247703552,100.0,139099.0,1.0
178847.5280167,306491.6875,309519.28125,332177.4375,316068.0625,313976.75,287363.15625,291279.375,307474.46875,-0.073974609375,0.890625,-0.373291015625,0.7019042372703552,-0.3662109076976776,0.5798339247703552,100.0,139100.0,1.0
178847.5416747,306302.40625,308087.6875,330782.5,315537.625,312898.34375,287100.03125,290978.0625,307407.21875,-0.0751953125,0.89013671875,-0.374267578125,0.6713866591453552,-0.3967284858226776,0.7324218153953552,100.0,139101.0,1.0
178847.5465945,306187.875,308014.125,329976.6875,315460.5625,312511.75,287150.71875,291008.1875,307439.3125,-0.07470703125,0.887451171875,-0.371337890625,0.7019042372703552,-0.2746581733226776,0.6713866591453552,100.0,139102.0,1.0
178847.5466071,306401.125,309594.5625,331143.34375,316094.4375,313518.8125,287519.1875,291390.40625,307556.8125,-0.073486328125,0.890380859375,-0.37158203125,0.7324218153953552,-0.2746581733226776,0.5798339247703552,100.0,139103.0,1.0
178847.5466096,306583.5,310543.0,332552.21875,316469.96875,314453.9375,287654.0,291557.40625,307568.59375,-0.0732421875,0.890380859375,-0.372314453125,0.7629393935203552,-0.3356933295726776,0.5493163466453552,100.0,139104.0,1.0
178847.5522854,306496.875,309532.5,332182.875,316079.53125,313989.53125,287376.5625,291281.40625,307472.3125,-0.072021484375,0.891845703125,-0.369873046875,0.7934569716453552,-0.3356933295726776,0.5187987685203552,100.0,139105.0,1.0
178847.5523025,306304.5625,308094.125,330794.375,315547.625,312912.28125,287108.71875,290978.40625,307410.4375,-0.073974609375,0.891357421875,-0.370849609375,0.8239745497703552,-0.3356933295726776,0.6103515028953552,100.0,139106.0,1.0
178847.554134,306186.1875,308006.59375,329979.53125,315467.4375,312517.375,287156.375,291006.0625,307451.65625,-0.073974609375,0.8916015625,-0.36962890625,0.8239745497703552,-0.3662109076976776,0.6713866591453552,100.0,139107.0,1.0
178847.5629602,306395.59375,309578.28125,331132.78125,316102.6875,313517.46875,287524.09375,291391.84375,307581.46875,-0.074951171875,0.8896484375,-0.3681640625,0.7629393935203552,-0.3356933295726776,0.7019042372703552,100.0,139108.0,1.0
178847.5722194,306582.96875,310542.71875,332559.0,316495.875,314466.09375,287660.0,291572.34375,307609.625,-0.074951171875,0.890869140625,-0.367431640625,0.6713866591453552,-0.4577636420726776,0.7324218153953552,100.0,139109.0,1.0
178847.5722338,306499.84375,309548.96875,332212.03125,316114.9375,314018.96875,287384.15625,291303.0625,307518.09375,-0.075439453125,0.890625,-0.3662109375,0.6103515028953552,-0.4577636420726776,0.6713866591453552,100.0,139110.0,1.0
178847.5747349,306311.53125,308109.34375,330828.0,315579.1875,312943.03125,287111.65625,290998.625,307458.1875,-0.07666015625,0.891357421875,-0.369384765625,0.6408690810203552,-0.4577636420726776,0.6713866591453552,100.0,139111.0,1.0
178847.5747428,306192.0,308002.40625,330004.03125,315489.25,312537.125,287150.71875,291018.9375,307488.75,-0.074462890625,0.890625,-0.369384765625,0.7019042372703552,-0.4272460639476776,0.6103515028953552,100.0,139112.0,1.0
178847.5879646,306393.4375,309556.84375,331136.28125,316108.75,313519.0,287509.4375,291394.0625,307597.9375,-0.072265625,0.89013671875,-0.3720703125,0.5493163466453552,-0.4272460639476776,0.7934569716453552,100.0,139113.0,1.0
178847.5978442,306582.1875,310534.40625,332564.5625,316497.0625,314469.03125,287646.5,291572.53125,307614.28125,-0.07177734375,0.891357421875,-0.369384765625,0.5493163466453552,-0.4272460639476776,0.7324218153953552,100.0,139114.0,1.0
178847.5978699,306494.375,309542.25,332219.4375,316110.53125,314023.78125,287369.78125,291297.59375,307513.34375,-0.07373046875,0.89013671875,-0.371337890625,0.6103515028953552,-0.5798339247703552,0.8239745497703552,100.0,139115.0,1.0
178847.5978724,306306.625,308097.25,330838.5625,315570.875,312948.84375,287097.1875,290988.34375,307438.34375,-0.073486328125,0.890869140625,-0.36669921875,0.5187987685203552,-0.5493163466453552,0.9155272841453552,100.0,139116.0,1.0
178847.6010707,306186.375,307976.75,329994.5625,315471.03125,312525.6875,287132.5,291004.34375,307465.34375,-0.072265625,0.889892578125,-0.36865234375,0.5187987685203552,-0.4272460639476776,1.0070799589157104,100.0,139117.0,1.0
178847.601091,306391.5625,309533.59375,331113.3125,316090.53125,313499.875,287495.84375,291380.75,307581.21875,-0.07177734375,0.888916015625,-0.37158203125,0.5187987685203552,-0.4272460639476776,0.8850097060203552,100.0,139118.0,1.0
178847.6029521,306580.75,310530.375,332552.75,316482.03125,314460.71875,287637.09375,291557.6875,307589.96875,-0.072021484375,0.8916015625,-0.369384765625,0.4577636420726776,-0.5493163466453552,0.8850097060203552,100.0,139119.0,1.0
178847.6116669,306495.28125,309557.90625,332220.53125,316098.65625,314020.375,287364.9375,291289.125,307488.125,-0.073974609375,0.89111328125,-0.36865234375,0.3356933295726776,-0.5187987685203552,0.9155272841453552,100.0,139120.0,1.0
178847.6210149,306302.40625,308105.9375,330833.8125,315553.71875,312937.65625,287090.75,290976.90625,307408.03125,-0.073974609375,0.892822265625,-0.37109375,0.3662109076976776,-0.5493163466453552,0.9460448622703552,100.0,139121.0,1.0
