Time,FZ,C3,CZ,C4,PZ,PO7,OZ,PO8,AccX,AccY,AccZ,Gyro1,Gyro2,Gyro3,Battery,Counter,Validation
473873.9263809,266881.0,268416.75,283422.46875,275789.15625,280668.28125,266798.84375,245375.140625,252496.578125,0.07666015625,0.935546875,-0.444580078125,-13.488768577575684,-0.3662109076976776,7.934569835662842,80.0,1097122.0,1.0
473873.9304962,267769.34375,268682.1875,283997.34375,276402.5,281237.875,266827.53125,245610.640625,252579.46875,0.076416015625,0.94287109375,-0.447998046875,-15.289305686950684,-0.3051757514476776,7.812499523162842,80.0,1097123.0,1.0
473873.9375212,268877.5625,268871.21875,284018.09375,275725.59375,280699.21875,266844.875,244990.515625,252369.0,0.078857421875,0.95068359375,-0.4482421875,-17.303464889526367,-0.0915527269244194,7.873534679412842,80.0,1097124.0,1.0
473873.9399495,268621.75,268701.34375,283425.21875,274670.5,279791.1875,266807.40625,244362.515625,252145.390625,0.082275390625,0.958251953125,-0.45361328125,-19.866941452026367,0.3356933295726776,7.812499523162842,80.0,1097125.0,1.0
473873.9426791,267460.28125,268438.46875,283091.65625,274711.28125,279798.53125,266770.40625,244598.546875,252219.421875,0.084716796875,0.9619140625,-0.45166015625,-22.338865280151367,1.2512205839157104,7.781981945037842,80.0,1097126.0,1.0
473873.9551319,266902.5625,268407.0,283446.78125,275807.65625,280728.625,266772.65625,245411.078125,252499.265625,0.085205078125,0.95654296875,-0.453369140625,-24.841306686401367,1.8005369901657104,8.087157249450684,80.0,1097127.0,1.0
473873.9576823,267781.15625,268677.1875,284028.375,276441.375,281317.09375,266817.71875,245682.875,252594.9375,0.0859375,0.94384765625,-0.452880859375,-26.153562545776367,2.166747808456421,8.819579124450684,80.0,1097128.0,1.0
473873.9599453,268874.875,268865.40625,284050.0,275763.40625,280782.28125,266841.21875,245063.46875,252376.0625,0.08154296875,0.928955078125,-0.450927734375,-26.336668014526367,1.8920897245407104,9.460448265075684,80.0,1097129.0,1.0
473873.962674,268630.53125,268704.0,283461.53125,274706.25,279878.625,266812.6875,244432.34375,252150.3125,0.08203125,0.917236328125,-0.455810546875,-25.848386764526367,1.2207030057907104,9.796141624450684,80.0,1097130.0,1.0
473873.9651484,267484.78125,268453.9375,283137.875,274760.0,279897.40625,266790.78125,244678.75,252244.71875,0.0810546875,0.9189453125,-0.463623046875,-25.268552780151367,1.4038084745407104,9.307860374450684,80.0,1097131.0,1.0
473873.9701734,266931.875,268431.9375,283500.40625,275875.78125,280838.78125,266799.65625,245502.8125,252537.078125,0.072265625,0.924560546875,-0.459228515625,-25.512693405151367,1.6479490995407104,8.422850608825684,80.0,1097132.0,1.0
473873.9725538,267793.84375,268695.25,284075.40625,276504.59375,281421.96875,266836.84375,245758.15625,252626.40625,0.069580078125,0.9267578125,-0.457763671875,-26.336668014526367,1.7395018339157104,7.598876476287842,80.0,1097133.0,1.0
473873.9764474,268886.3125,268881.3125,284091.84375,275811.875,280872.75,266850.78125,245108.265625,252399.125,0.068359375,0.923583984375,-0.45068359375,-27.221677780151367,2.166747808456421,6.713866710662842,80.0,1097134.0,1.0
473873.9764668,268653.84375,268727.25,283501.21875,274736.5625,279957.65625,266821.625,244455.859375,252173.5625,0.064697265625,0.92236328125,-0.44921875,-28.167722702026367,2.258300542831421,5.828856945037842,80.0,1097135.0,1.0
473873.9764706,267520.8125,268476.125,283170.59375,274785.03125,279971.09375,266793.375,244702.890625,252275.125,0.060546875,0.916015625,-0.447021484375,-29.052732467651367,2.075195074081421,4.852294445037842,80.0,1097136.0,1.0
473873.9787164,266960.125,268450.09375,283526.96875,275902.53125,280916.75,266796.96875,245530.890625,252568.375,0.063720703125,0.911376953125,-0.4482421875,-29.998777389526367,2.197265386581421,3.875732183456421,80.0,1097137.0,1.0
473873.9812302,267808.15625,268706.78125,284101.59375,276539.375,281508.25,266830.3125,245794.8125,252648.21875,0.06787109375,0.912109375,-0.4501953125,-31.036375045776367,2.746581792831421,2.899169683456421,80.0,1097138.0,1.0
473873.9838825,268895.0625,268892.3125,284127.0,275853.34375,280972.4375,266851.78125,245142.671875,252422.734375,0.06201171875,0.909912109375,-0.448486328125,-31.860349655151367,3.051757574081421,2.044677495956421,80.0,1097139.0,1.0
473873.9839037,268663.96875,268737.1875,283539.84375,274775.8125,280058.96875,266827.09375,244498.59375,252192.859375,0.062744140625,0.90771484375,-0.44482421875,-32.653804779052734,3.204345464706421,1.1901854276657104,80.0,1097140.0,1.0
473873.9901776,267533.0625,268485.78125,283206.8125,274823.46875,280072.125,266794.375,244776.296875,252282.359375,0.068359375,0.908447265625,-0.447265625,-33.233638763427734,4.028319835662842,0.4577636420726776,80.0,1097141.0,1.0
473874.0050519,266983.90625,268466.1875,283577.75,275965.75,281038.875,266805.28125,245649.078125,252583.3125,0.06396484375,0.898193359375,-0.440673828125,-32.501216888427734,4.119872570037842,0.4272460639476776,80.0,1097142.0,1.0
473874.007647,267831.9375,268729.125,284166.40625,276626.46875,281651.03125,266846.84375,245951.453125,252678.4375,0.05810546875,0.886474609375,-0.438232421875,-31.127927780151367,3.448486089706421,0.2136230319738388,80.0,1097143.0,1.0
473874.0102212,268914.21875,268909.90625,284189.3125,275932.84375,281109.21875,266856.59375,245296.453125,252447.046875,0.056884765625,0.88916015625,-0.44189453125,-31.097410202026367,3.448486089706421,-0.7324218153953552,80.0,1097144.0,1.0
473874.010262,268687.46875,268750.59375,283598.40625,274842.15625,280191.46875,266825.21875,244654.25,252215.046875,0.052734375,0.891357421875,-0.436767578125,-31.219480514526367,3.326415777206421,-1.6174315214157104,80.0,1097145.0,1.0
473874.0164039,267565.5,268502.84375,283272.15625,274899.90625,280226.78125,266797.21875,244963.78125,252309.625,0.053466796875,0.884521484375,-0.43212890625,-31.372068405151367,3.387450933456421,-2.532958745956421,80.0,1097146.0,1.0
473874.0188229,267016.625,268486.5625,283649.09375,276065.15625,281223.65625,266806.71875,245894.59375,252616.203125,0.058349609375,0.882080078125,-0.427490234375,-31.280515670776367,3.570556402206421,-3.631591558456421,80.0,1097147.0,1.0
473874.0212875,267872.875,268760.4375,284260.375,276759.21875,281880.09375,266858.125,246263.578125,252735.75,0.057861328125,0.887451171875,-0.425537109375,-31.249998092651367,3.662109136581421,-4.577636241912842,80.0,1097148.0,1.0
473874.0239486,268954.34375,268947.03125,284293.90625,276075.15625,281356.4375,266877.0625,245660.875,252508.390625,0.054931640625,0.89208984375,-0.41943359375,-31.280515670776367,3.784179449081421,-5.554198741912842,80.0,1097149.0,1.0
473874.0264207,268734.15625,268793.40625,283704.34375,274977.0625,280438.21875,266846.5,245033.6875,252260.90625,0.05029296875,0.894775390625,-0.41259765625,-31.402585983276367,3.753661870956421,-6.286620616912842,80.0,1097150.0,1.0
473874.0289906,267618.15625,268550.84375,283374.1875,275023.46875,280466.84375,266822.4375,245339.109375,252351.75,0.04736328125,0.897216796875,-0.4052734375,-31.768796920776367,3.906249761581421,-7.141112804412842,80.0,1097151.0,1.0
473874.0290318,267060.4375,268530.125,283742.71875,276179.78125,281457.28125,266829.25,246258.84375,252656.4375,0.044189453125,0.901611328125,-0.39892578125,-32.226558685302734,4.058837413787842,-7.873534679412842,80.0,1097152.0,1.0
473874.0401652,267883.78125,268772.125,284327.96875,276853.46875,282082.875,266862.0625,246580.25,252754.609375,0.037109375,0.9111328125,-0.396728515625,-32.806392669677734,3.967284917831421,-8.697508811950684,80.0,1097153.0,1.0
473874.0427313,268950.59375,268941.84375,284341.28125,276142.3125,281523.46875,266874.03125,245902.375,252512.9375,0.0322265625,0.91845703125,-0.396240234375,-33.477779388427734,4.058837413787842,-9.460448265075684,80.0,1097154.0,1.0
473874.0450588,268723.6875,268771.15625,283728.84375,275006.125,280562.15625,266834.59375,245200.703125,252258.3125,0.029541015625,0.925048828125,-0.3984375,-34.149166107177734,3.997802495956421,-10.345458030700684,80.0,1097155.0,1.0
473874.0477446,267609.84375,268527.53125,283384.625,275029.1875,280561.875,266806.4375,245473.390625,252343.515625,0.029296875,0.931396484375,-0.40185546875,-34.820552825927734,3.906249761581421,-11.260985374450684,80.0,1097156.0,1.0
473874.0500277,267057.59375,268519.46875,283760.15625,276194.875,281557.78125,266828.0625,246395.265625,252658.59375,0.030029296875,0.93359375,-0.40771484375,-35.186763763427734,3.723144292831421,-12.176512718200684,80.0,1097157.0,1.0
473874.0550533,267876.09375,268768.03125,284350.5,276877.875,282184.4375,266869.1875,246691.5625,252761.5,0.02880859375,0.931640625,-0.4111328125,-35.766597747802734,3.540038824081421,-13.061522483825684,80.0,1097158.0,1.0
473874.0578085,268941.5625,268933.78125,284364.09375,276163.25,281603.90625,266871.96875,245977.390625,252518.21875,0.033203125,0.932861328125,-0.40869140625,-36.712642669677734,3.601073980331421,-14.434813499450684,80.0,1097159.0,1.0
473874.057851,268734.3125,268778.9375,283760.3125,275018.90625,280627.78125,266842.5625,245266.953125,252274.140625,0.03369140625,0.94384765625,-0.404052734375,-38.696285247802734,4.425048351287842,-16.113279342651367,80.0,1097160.0,1.0
473874.0602366,267631.5625,268543.96875,283415.9375,275033.40625,280612.40625,266820.75,245547.875,252360.140625,0.0390625,0.9580078125,-0.40234375,-41.534420013427734,5.523681163787842,-18.005369186401367,80.0,1097161.0,1.0
473874.0602816,267069.84375,268523.15625,283780.34375,276193.46875,281591.75,266831.90625,246474.03125,252658.234375,0.05126953125,0.970458984375,-0.4033203125,-44.830318450927734,6.835937023162842,-19.622800827026367,80.0,1097162.0,1.0
473874.0651784,267860.625,268748.53125,284353.4375,276871.78125,282204.90625,266856.25,246804.75,252751.65625,0.050048828125,0.9755859375,-0.39501953125,-47.851558685302734,7.934569835662842,-20.935056686401367,80.0,1097163.0,1.0
473874.0667174,268918.21875,268912.78125,284360.25,276151.71875,281616.0,266861.34375,246124.8125,252510.984375,0.04345703125,0.96630859375,-0.395751953125,-48.187252044677734,7.904052257537842,-21.118162155151367,80.0,1097164.0,1.0
473874.0804902,268721.09375,268763.5625,283750.75,275006.3125,280626.4375,266831.90625,245416.71875,252263.59375,0.045166015625,0.96533203125,-0.39794921875,-48.431392669677734,7.995604991912842,-21.423337936401367,80.0,1097165.0,1.0
473874.1097678,267635.40625,268530.65625,283407.34375,275034.90625,280610.78125,266807.25,245699.5,252352.8125,0.051025390625,0.96630859375,-0.411376953125,-48.248287200927734,7.629394054412842,-21.820066452026367,80.0,1097166.0,1.0
473874.1098103,267085.75,268523.5,283781.34375,276219.375,281600.96875,266823.34375,246652.9375,252666.453125,0.052490234375,0.9638671875,-0.41748046875,-46.539302825927734,7.110595226287842,-21.270750045776367,80.0,1097167.0,1.0
473874.1189224,267874.84375,268757.5625,284355.5,276909.53125,282208.125,266850.53125,246969.53125,252762.125,0.0576171875,0.959228515625,-0.423828125,-44.525142669677734,6.530761241912842,-20.874021530151367,80.0,1097168.0,1.0
473874.1213435,268925.84375,268916.0,284349.34375,276176.28125,281593.28125,266854.53125,246240.15625,252505.703125,0.056884765625,0.947509765625,-0.431640625,-41.412349700927734,5.279540538787842,-19.897459030151367,80.0,1097169.0,1.0
473874.1239496,268732.0,268763.46875,283727.875,275013.5625,280580.84375,266831.375,245491.453125,252250.09375,0.05322265625,0.92724609375,-0.429931640625,-37.231441497802734,3.753661870956421,-18.951414108276367,80.0,1097170.0,1.0
473874.126435,267666.0,268553.90625,283397.59375,275050.65625,280577.25,266824.5,245758.25,252352.8125,0.053955078125,0.911865234375,-0.4296875,-34.820552825927734,3.143310308456421,-19.042966842651367,80.0,1097171.0,1.0
473874.1287897,267114.4375,268550.6875,283783.21875,276253.34375,281594.71875,266836.84375,246737.875,252669.859375,0.055419921875,0.9052734375,-0.42138671875,-33.447261810302734,3.082275152206421,-19.317625045776367,80.0,1097172.0,1.0
473874.1364478,267894.6875,268778.65625,284368.5625,276958.5,282229.3125,266857.3125,247099.0,252767.671875,0.056884765625,0.891845703125,-0.4150390625,-31.921384811401367,2.960204839706421,-19.561765670776367,80.0,1097173.0,1.0
473874.1388078,268942.0,268925.90625,284362.5625,276221.53125,281617.34375,266854.71875,246377.296875,252512.046875,0.07080078125,0.882080078125,-0.41845703125,-30.212400436401367,3.204345464706421,-19.805906295776367,80.0,1097174.0,1.0
473874.141453,268753.625,268780.0,283743.25,275048.875,280600.5,266824.5,245617.78125,252252.765625,0.057373046875,0.882568359375,-0.415771484375,-28.503416061401367,3.509521245956421,-20.019529342651367,80.0,1097175.0,1.0
473874.1429997,267693.1875,268573.03125,283418.0625,275079.90625,280600.0625,266809.65625,245873.140625,252349.234375,0.05224609375,0.8974609375,-0.414794921875,-26.824949264526367,3.814697027206421,-19.989011764526367,80.0,1097176.0,1.0
473874.1502194,267146.09375,268562.21875,283811.5625,276286.34375,281632.0,266824.0625,246851.25,252669.140625,0.051025390625,0.9013671875,-0.417236328125,-25.604246139526367,3.997802495956421,-19.775388717651367,80.0,1097177.0,1.0
473874.1525978,267909.625,268783.0625,284390.1875,276988.8125,282268.84375,266848.1875,247195.203125,252766.328125,0.05029296875,0.896240234375,-0.41259765625,-24.505613327026367,3.936767339706421,-19.866941452026367,80.0,1097178.0,1.0
473874.15507,268938.09375,268918.5,284363.65625,276232.0,281634.0625,266849.875,246439.34375,252511.25,0.056396484375,0.892333984375,-0.4150390625,-23.162839889526367,3.936767339706421,-19.683835983276367,80.0,1097179.0,1.0
473874.161433,268755.6875,268772.125,283731.09375,275040.5625,280593.8125,266824.9375,245664.28125,252250.0,0.064208984375,0.900146484375,-0.41845703125,-21.575925827026367,4.119872570037842,-19.287107467651367,80.0,1097180.0,1.0
473874.1678258,267710.34375,268568.375,283409.9375,275067.09375,280592.0,266820.125,245953.6875,252345.65625,0.062255859375,0.904296875,-0.416259765625,-20.050046920776367,4.241942882537842,-18.676755905151367,80.0,1097181.0,1.0
473874.1678659,267159.3125,268555.78125,283807.625,276275.09375,281633.6875,266832.09375,246945.921875,252664.578125,0.062255859375,0.901611328125,-0.421630859375,-19.134519577026367,4.425048351287842,-18.402097702026367,80.0,1097182.0,1.0
473874.1739463,267894.15625,268761.40625,284359.875,276956.375,282242.46875,266841.125,247258.671875,252750.40625,0.060791015625,0.894775390625,-0.430908203125,-17.486570358276367,4.760741710662842,-17.761228561401367,80.0,1097183.0,1.0
473874.1764889,268880.59375,268874.25,284277.625,276140.625,281532.21875,266818.34375,246423.96875,252461.53125,0.046875,0.885986328125,-0.4267578125,-15.838622093200684,5.065917491912842,-17.700193405151367,80.0,1097184.0,1.0
473874.1839275,268688.53125,268722.15625,283616.65625,274910.71875,280441.0,266793.03125,245599.546875,252193.3125,0.037841796875,0.882080078125,-0.426513671875,-14.190672874450684,5.462646007537842,-17.608640670776367,80.0,1097185.0,1.0
473874.1839678,267662.25,268531.53125,283297.90625,274938.625,280429.46875,266785.59375,245882.4375,252294.96875,0.0390625,0.88623046875,-0.421630859375,-12.420653343200684,5.218505382537842,-17.211912155151367,80.0,1097186.0,1.0
473874.1839779,267124.90625,268539.3125,283707.40625,276163.3125,281473.5625,266800.8125,246889.0625,252622.46875,0.04443359375,0.88916015625,-0.418701171875,-10.528563499450684,4.791259288787842,-16.723630905151367,80.0,1097187.0,1.0
473874.1914366,267838.8125,268732.875,284243.3125,276843.71875,282068.125,266816.09375,247200.203125,252708.921875,0.05322265625,0.893310546875,-0.417724609375,-8.789061546325684,4.669188976287842,-16.235349655151367,80.0,1097188.0,1.0
473874.2014664,268805.59375,268832.84375,284132.96875,276016.15625,281331.40625,266805.53125,246357.453125,252426.125,0.053955078125,0.89697265625,-0.421142578125,-7.446288585662842,4.547118663787842,-15.624999046325684,80.0,1097189.0,1.0
473874.2015084,268609.5,268679.0625,283446.875,274759.28125,280198.4375,266777.8125,245509.96875,252153.53125,0.0537109375,0.8896484375,-0.41845703125,-6.378173351287842,4.791259288787842,-14.953612327575684,80.0,1097190.0,1.0
473874.2039786,267605.125,268497.125,283130.8125,274782.625,280171.09375,266773.28125,245798.75,252263.140625,0.05029296875,0.876220703125,-0.414794921875,-5.371093273162842,5.340575695037842,-14.495848655700684,80.0,1097191.0,1.0
473874.2115038,267073.59375,268501.875,283542.53125,276018.75,281217.5,266790.78125,246822.09375,252596.546875,0.0498046875,0.86376953125,-0.4091796875,-4.150390148162842,5.706786632537842,-14.038084983825684,80.0,1097192.0,1.0
473874.2115451,267763.0,268684.25,284062.6875,276691.71875,281802.5,266801.96875,247132.609375,252682.109375,0.05615234375,0.86181640625,-0.414794921875,-2.563476324081421,6.042479991912842,-13.427733421325684,80.0,1097193.0,1.0
473874.2115555,268711.875,268788.59375,283939.21875,275853.0,281049.40625,266797.0625,246276.890625,252401.28125,0.051513671875,0.869140625,-0.413330078125,-0.7019042372703552,6.286620616912842,-12.756346702575684,80.0,1097194.0,1.0
473874.2139253,268532.96875,268645.71875,283266.4375,274606.75,279917.875,266778.28125,245423.859375,252131.71875,0.052490234375,0.88330078125,-0.412841796875,0.7324218153953552,6.591796398162842,-12.115477561950684,80.0,1097195.0,1.0
473874.2163214,267550.75,268466.0,282973.71875,274644.125,279907.875,266773.0,245716.578125,252238.734375,0.05078125,0.886474609375,-0.406982421875,1.6784666776657104,6.835937023162842,-11.383055686950684,80.0,1097196.0,1.0
473874.2189087,267053.5625,268482.625,283436.9375,275927.90625,281011.96875,266792.5,246770.328125,252583.9375,0.05029296875,0.87548828125,-0.40234375,2.105712652206421,7.202147960662842,-10.711668968200684,80.0,1097197.0,1.0
473874.2262729,267764.25,268684.4375,284003.59375,276652.84375,281657.125,266818.40625,247109.8125,252685.328125,0.05224609375,0.868408203125,-0.393310546875,2.746581792831421,7.934569835662842,-9.979247093200684,80.0,1097198.0,1.0
473874.2286717,268716.8125,268789.84375,283894.53125,275828.3125,280923.71875,266814.125,246253.921875,252402.890625,0.048828125,0.87060546875,-0.387451171875,3.784179449081421,8.178709983825684,-8.758543968200684,80.0,1097199.0,1.0
473874.2313179,268534.84375,268640.1875,283221.5625,274563.46875,279798.625,266789.1875,245385.6875,252120.453125,0.037353515625,0.855224609375,-0.38232421875,4.058837413787842,8.331297874450684,-7.904052257537842,80.0,1097200.0,1.0
473874.2361744,267580.15625,268483.28125,282957.375,274610.59375,279816.3125,266792.59375,245674.921875,252233.71875,0.033203125,0.8388671875,-0.392822265625,4.913329601287842,8.514403343200684,-7.385253429412842,80.0,1097201.0,1.0
473874.2388435,267093.875,268503.75,283437.375,275899.84375,280939.34375,266819.5,246721.421875,252577.234375,0.0322265625,0.830322265625,-0.40673828125,6.195067882537842,8.239745140075684,-6.805419445037842,80.0,1097202.0,1.0
473874.241173,267778.84375,268694.4375,283990.8125,276609.375,281578.78125,266844.0,247045.4375,252670.75,0.029052734375,0.825927734375,-0.422119140625,7.720946788787842,8.422850608825684,-6.774901866912842,80.0,1097203.0,1.0
473874.2429414,268695.59375,268788.15625,283844.46875,275751.59375,280806.9375,266831.375,246148.515625,252377.5,0.027099609375,0.82568359375,-0.430419921875,9.460448265075684,8.544920921325684,-6.591796398162842,80.0,1097204.0,1.0
473874.2513571,268511.34375,268636.875,283158.0,274476.75,279653.96875,266801.6875,245244.609375,252099.609375,0.032470703125,0.82373046875,-0.43505859375,11.291502952575684,8.422850608825684,-6.713866710662842,80.0,1097205.0,1.0
473874.2538793,267573.1875,268488.375,282913.03125,274529.59375,279679.0,266817.78125,245528.65625,252218.53125,0.038330078125,0.824462890625,-0.429443359375,13.305663108825684,8.483885765075684,-6.774901866912842,80.0,1097206.0,1.0
473874.2636753,267101.84375,268528.5,283419.6875,275837.09375,280828.40625,266847.46875,246587.765625,252572.3125,0.049072265625,0.83056640625,-0.421630859375,14.831542015075684,8.697508811950684,-6.866454601287842,80.0,1097207.0,1.0
473874.2663797,267769.71875,268702.9375,283960.875,276555.90625,281468.46875,266855.625,246904.171875,252671.1875,0.05859375,0.836669921875,-0.419921875,16.204832077026367,9.216307640075684,-6.835937023162842,80.0,1097208.0,1.0
473874.2663998,268663.0625,268770.625,283792.6875,275694.84375,280687.84375,266832.1875,246006.078125,252380.265625,0.062255859375,0.841552734375,-0.411376953125,17.028806686401367,9.948729515075684,-6.744384288787842,80.0,1097209.0,1.0
473874.2689196,268485.0625,268621.9375,283102.75,274412.46875,279530.125,266801.875,245109.15625,252097.828125,0.06396484375,0.8505859375,-0.405029296875,17.761228561401367,10.650633811950684,-6.805419445037842,80.0,1097210.0,1.0
473874.2776884,267567.125,268477.46875,282867.0625,274463.96875,279562.75,266800.4375,245398.109375,252204.484375,0.060546875,0.852783203125,-0.40185546875,18.035886764526367,11.444090843200684,-6.927489757537842,80.0,1097211.0,1.0
473874.280175,267113.71875,268521.25,283400.8125,275799.8125,280748.28125,266835.6875,246489.78125,252567.390625,0.060546875,0.853515625,-0.403564453125,18.249509811401367,12.329100608825684,-7.141112804412842,80.0,1097212.0,1.0
473874.280205,267765.5,268688.09375,283942.8125,276529.4375,281404.53125,266844.34375,246832.375,252664.484375,0.05810546875,0.851318359375,-0.4130859375,18.585203170776367,13.092040061950684,-7.537841320037842,80.0,1097213.0,1.0
473874.2826909,268633.1875,268756.84375,283750.59375,275655.0625,280609.28125,266824.3125,245932.59375,252367.484375,0.0556640625,0.84765625,-0.4228515625,18.981931686401367,13.824461936950684,-7.873534679412842,80.0,1097214.0,1.0
473874.2850953,268444.46875,268593.59375,283040.5,274353.0,279427.125,266789.71875,245020.546875,252075.203125,0.05029296875,0.8447265625,-0.427490234375,19.775388717651367,14.343260765075684,-8.361815452575684,80.0,1097215.0,1.0
473874.2851209,267555.65625,268460.1875,282832.09375,274418.0,279478.0,266807.6875,245328.109375,252190.984375,0.04638671875,0.84130859375,-0.43408203125,20.690916061401367,14.892577171325684,-9.033202171325684,80.0,1097216.0,1.0
473874.2877261,267115.6875,268507.59375,283382.40625,275758.5,280677.125,266824.6875,246426.296875,252550.671875,0.041015625,0.837890625,-0.435546875,21.759031295776367,15.380858421325684,-9.918211936950684,80.0,1097217.0,1.0
473874.2877581,267742.0,268663.96875,283908.5625,276481.34375,281330.34375,266824.5,246768.640625,252646.515625,0.0361328125,0.8408203125,-0.43603515625,22.979734420776367,15.777586936950684,-10.925292015075684,80.0,1097218.0,1.0
473874.2901519,268578.65625,268716.09375,283685.6875,275594.15625,280513.96875,266809.46875,245864.640625,252348.53125,0.031005859375,0.844970703125,-0.4306640625,24.169919967651367,16.174314498901367,-12.023924827575684,80.0,1097219.0,1.0
473874.2927168,268398.59375,268564.625,282974.09375,274287.125,279324.40625,266784.625,244950.71875,252060.640625,0.026123046875,0.849853515625,-0.430419921875,25.207517623901367,16.357419967651367,-12.908934593200684,80.0,1097220.0,1.0
473874.2951422,267534.75,268443.21875,282779.25,274345.0625,279373.40625,266799.65625,245245.3125,252176.78125,0.022705078125,0.853759765625,-0.427734375,26.092527389526367,16.601560592651367,-13.916014671325684,80.0,1097221.0,1.0
473874.2951801,267114.96875,268500.875,283356.5625,275702.0,280597.65625,266834.0625,246352.53125,252546.296875,0.021240234375,0.8583984375,-0.4248046875,26.794431686401367,16.815183639526367,-14.862059593200684,80.0,1097222.0,1.0
473874.2976762,267738.40625,268661.8125,283892.8125,276447.625,281268.03125,266842.5625,246709.359375,252652.421875,0.015869140625,0.862060546875,-0.422607421875,27.343748092651367,17.089841842651367,-15.747069358825684,80.0,1097223.0,1.0
473874.3026354,268558.0,268709.28125,283655.90625,275565.8125,280448.96875,266817.53125,245801.609375,252350.578125,0.0087890625,0.8681640625,-0.4228515625,27.801511764526367,17.272947311401367,-16.693113327026367,80.0,1097224.0,1.0
473874.3051043,268370.625,268554.0,282930.53125,274250.375,279247.875,266781.03125,244871.59375,252048.296875,0.002685546875,0.874267578125,-0.42626953125,28.411863327026367,17.333982467651367,-17.639158248901367,80.0,1097225.0,1.0
473874.3051469,267538.875,268449.65625,282769.6875,274332.09375,279326.375,266798.84375,245179.34375,252172.21875,-0.006103515625,0.876708984375,-0.428955078125,28.778074264526367,17.303464889526367,-18.615720748901367,80.0,1097226.0,1.0
473874.3077612,267140.375,268513.40625,283375.59375,275702.34375,280575.28125,266827.4375,246283.6875,252541.109375,-0.01318359375,0.878173828125,-0.43017578125,29.205320358276367,17.303464889526367,-19.714353561401367,80.0,1097227.0,1.0
473874.3101072,267742.53125,268661.09375,283898.8125,276442.09375,281243.625,266824.9375,246622.984375,252639.453125,-0.0205078125,0.875732421875,-0.429443359375,29.754636764526367,17.089841842651367,-20.751951217651367,80.0,1097228.0,1.0
473874.3101468,268527.4375,268692.375,283625.84375,275548.125,280399.78125,266805.1875,245709.4375,252339.578125,-0.025390625,0.876953125,-0.430908203125,30.273435592651367,16.845701217651367,-21.911619186401367,80.0,1097229.0,1.0
473874.3401843,268352.90625,268550.84375,282904.34375,274237.40625,279199.59375,266789.375,244802.84375,252055.359375,-0.031005859375,0.877685546875,-0.4326171875,30.853269577026367,16.662595748901367,-22.857664108276367,80.0,1097230.0,1.0
473874.3450941,267558.25,268468.4375,282777.375,274326.09375,279303.75,266814.03125,245138.484375,252184.828125,-0.03759765625,0.88232421875,-0.430419921875,31.524656295776367,16.204832077026367,-23.803709030151367,80.0,1097231.0,1.0
473874.3451355,267191.34375,268550.6875,283425.78125,275725.78125,280603.71875,266847.75,246287.984375,252561.40625,-0.046142578125,0.885498046875,-0.428955078125,32.043453216552734,15.808104515075684,-24.871824264526367,80.0,1097232.0,1.0
473874.347345,267778.84375,268693.5625,283949.5,276476.78125,281292.78125,266849.875,246660.90625,252663.6875,-0.0498046875,0.89013671875,-0.426025390625,32.745357513427734,15.441893577575684,-26.031492233276367,80.0,1097233.0,1.0
473874.3473874,268507.6875,268688.375,283619.59375,275542.5625,280402.65625,266806.875,245725.53125,252341.28125,-0.052734375,0.89501953125,-0.423828125,33.203121185302734,14.953612327575684,-26.947019577026367,80.0,1097234.0,1.0
473874.3537423,268309.28125,268517.875,282861.59375,274197.71875,279158.8125,266767.8125,244783.625,252038.109375,-0.055908203125,0.902099609375,-0.427001953125,33.660884857177734,14.556883811950684,-28.015134811401367,80.0,1097235.0,1.0
473874.3652665,267533.21875,268444.375,282750.5625,274281.40625,279261.90625,266793.65625,245104.40625,252170.515625,-0.05810546875,0.908447265625,-0.428955078125,33.843990325927734,14.129637718200684,-28.778074264526367,80.0,1097236.0,1.0
473874.3653071,267190.875,268547.09375,283439.28125,275695.71875,280592.71875,266841.75,246263.03125,252560.78125,-0.05810546875,0.916015625,-0.43017578125,33.721920013427734,13.519286155700684,-29.205320358276367,80.0,1097237.0,1.0
473874.3653171,267768.8125,268682.8125,283971.3125,276460.0625,281303.59375,266842.65625,246642.03125,252660.90625,-0.060302734375,0.921142578125,-0.431640625,33.142086029052734,12.878417015075684,-29.602048873901367,80.0,1097238.0,1.0
473874.3676863,268488.4375,268676.28125,283633.46875,275539.25,280423.5625,266804.65625,245715.15625,252338.953125,-0.059814453125,0.92333984375,-0.432373046875,32.745357513427734,12.298583030700684,-30.273435592651367,80.0,1097239.0,1.0
473874.3700516,268300.15625,268518.75,282880.46875,274196.71875,279186.53125,266779.96875,244782.640625,252038.109375,-0.0576171875,0.92578125,-0.435546875,32.226558685302734,11.901854515075684,-30.548093795776367,80.0,1097240.0,1.0
473874.372509,267557.90625,268460.125,282798.5625,274285.96875,279310.1875,266811.96875,245110.9375,252172.75,-0.059326171875,0.931640625,-0.442626953125,31.616209030151367,11.474608421325684,-30.487058639526367,80.0,1097241.0,1.0
473874.3752168,267246.84375,268576.59375,283521.6875,275712.90625,280675.25,266867.78125,246282.53125,252569.890625,-0.064697265625,0.930908203125,-0.446044921875,31.311033248901367,10.986327171325684,-30.303953170776367,80.0,1097242.0,1.0
473874.3752568,267813.78125,268711.6875,284053.40625,276485.1875,281398.5625,266864.1875,246671.53125,252677.0,-0.07080078125,0.927490234375,-0.451171875,31.036375045776367,10.498045921325684,-30.120847702026367,80.0,1097243.0,1.0
473874.3801495,268492.84375,268678.0,283671.0,275547.125,280486.5,266797.6875,245730.984375,252344.046875,-0.077880859375,0.922119140625,-0.451416015625,30.822751998901367,9.796141624450684,-30.151365280151367,80.0,1097244.0,1.0
473874.3827356,268305.78125,268527.78125,282906.75,274210.3125,279242.5,266776.5,244809.546875,252049.8125,-0.085205078125,0.920166015625,-0.448486328125,30.517576217651367,9.338377952575684,-30.181882858276367,80.0,1097245.0,1.0
473874.3851463,267580.0,268479.0625,282833.4375,274301.4375,279366.78125,266815.375,245141.703125,252183.5625,-0.09130859375,0.91796875,-0.447998046875,30.364988327026367,8.697508811950684,-30.395505905151367,80.0,1097246.0,1.0
473874.3874987,267273.84375,268592.25,283565.96875,275722.09375,280729.875,266858.46875,246302.640625,252568.203125,-0.091552734375,0.920654296875,-0.451904296875,30.364988327026367,8.178709983825684,-30.670164108276367,80.0,1097247.0,1.0
473874.3901732,267823.625,268715.46875,284089.25,276496.53125,281452.8125,266851.59375,246693.4375,252670.390625,-0.09228515625,0.9189453125,-0.456298828125,30.303953170776367,7.568358898162842,-30.761716842651367,80.0,1097248.0,1.0
473874.3950063,268491.125,268686.21875,283694.875,275576.8125,280548.1875,266809.9375,245784.625,252354.6875,-0.0908203125,0.920654296875,-0.4599609375,30.395505905151367,7.141112804412842,-30.914304733276367,80.0,1097249.0,1.0
473874.3977126,268296.3125,268534.40625,282909.96875,274231.15625,279286.03125,266788.8125,244867.75,252060.984375,-0.08935546875,0.920166015625,-0.462890625,30.578611373901367,6.683349132537842,-31.066892623901367,80.0,1097250.0,1.0
473874.3977543,267581.0625,268486.5,282842.65625,274314.03125,279406.9375,266825.125,245201.234375,252192.0625,-0.090087890625,0.924072265625,-0.459228515625,30.731199264526367,6.439208507537842,-30.944822311401367,80.0,1097251.0,1.0
473874.4075277,267294.59375,268604.9375,283599.84375,275743.65625,280784.15625,266868.3125,246369.25,252580.359375,-0.08984375,0.9228515625,-0.456787109375,30.364988327026367,6.011962413787842,-30.426023483276367,80.0,1097252.0,1.0
473874.4101432,267834.15625,268720.375,284119.46875,276521.125,281508.6875,266852.40625,246753.96875,252676.203125,-0.0908203125,0.923828125,-0.452392578125,29.907224655151367,5.493163585662842,-29.968259811401367,80.0,1097253.0,1.0
473874.4127807,268494.09375,268694.1875,283718.03125,275616.5,280612.21875,266818.15625,245858.46875,252363.8125,-0.090576171875,0.922607421875,-0.4501953125,29.479978561401367,5.157470226287842,-29.602048873901367,80.0,1097254.0,1.0
473874.412821,268300.875,268535.5625,282923.84375,274270.59375,279343.71875,266790.25,244941.515625,252062.953125,-0.086181640625,0.918701171875,-0.451171875,28.930662155151367,4.882812023162842,-29.205320358276367,80.0,1097255.0,1.0
473874.4175316,267608.78125,268489.25,282869.03125,274352.3125,279463.34375,266817.875,245266.234375,252190.1875,-0.07958984375,0.91845703125,-0.455322265625,28.350828170776367,4.638671398162842,-28.594968795776367,80.0,1097256.0,1.0
473874.4239181,267340.375,268621.3125,283655.71875,275797.46875,280867.65625,266867.40625,246446.234375,252587.953125,-0.075927734375,0.91796875,-0.4580078125,27.923582077026367,4.638671398162842,-27.862546920776367,80.0,1097257.0,1.0
473874.4239595,267876.8125,268735.03125,284186.625,276592.65625,281613.9375,266860.71875,246856.4375,252696.671875,-0.076904296875,0.9208984375,-0.462158203125,27.557371139526367,4.608153820037842,-27.221677780151367,80.0,1097258.0,1.0
473874.4263961,268501.59375,268681.65625,283747.28125,275670.15625,280689.03125,266806.625,245945.90625,252371.234375,-0.0791015625,0.925537109375,-0.463134765625,26.977537155151367,4.638671398162842,-26.306150436401367,80.0,1097259.0,1.0
473874.5026467,268302.5,268524.75,282941.1875,274319.5,279409.25,266781.84375,245022.78125,252074.40625,-0.0830078125,0.926513671875,-0.462646484375,26.367185592651367,4.455565929412842,-25.451658248901367,80.0,1097260.0,1.0
473874.5054319,267622.71875,268494.4375,282896.03125,274391.625,279524.9375,266819.21875,245338.484375,252206.71875,-0.087646484375,0.924072265625,-0.46484375,25.604246139526367,4.333495616912842,-24.780271530151367,80.0,1097261.0,1.0
473874.5054713,267379.4375,268644.5625,283705.15625,275841.5625,280934.96875,266881.53125,246514.625,252611.921875,-0.091552734375,0.923828125,-0.46240234375,24.719236373901367,4.119872570037842,-23.864744186401367,80.0,1097262.0,1.0
473874.5076323,267915.4375,268766.875,284243.46875,276644.5,281689.125,266879.75,246926.796875,252726.53125,-0.091552734375,0.9208984375,-0.461669921875,23.590085983276367,3.814697027206421,-22.674558639526367,80.0,1097263.0,1.0
473874.5100234,268525.09375,268709.8125,283786.78125,275725.59375,280757.40625,266826.09375,246017.796875,252403.234375,-0.0947265625,0.916259765625,-0.45849609375,22.674558639526367,3.509521245956421,-21.667478561401367,80.0,1097264.0,1.0
473874.5176462,268317.15625,268540.5,282953.53125,274362.5,279450.5625,266789.375,245081.796875,252095.59375,-0.100341796875,0.909423828125,-0.45703125,21.667478561401367,3.265380620956421,-20.782468795776367,80.0,1097265.0,1.0
473874.5201424,267652.0625,268516.34375,282914.53125,274433.3125,279561.78125,266828.78125,245396.140625,252226.21875,-0.10693359375,0.90625,-0.4560546875,20.782468795776367,2.838134527206421,-19.897459030151367,80.0,1097266.0,1.0
473874.5225343,267412.53125,268665.75,283735.90625,275875.96875,280969.21875,266894.6875,246563.453125,252626.484375,-0.11669921875,0.90380859375,-0.4560546875,20.050046920776367,2.471923589706421,-19.287107467651367,80.0,1097267.0,1.0
473874.525042,267929.3125,268775.1875,284263.59375,276669.625,281710.3125,266885.375,246955.765625,252729.21875,-0.12109375,0.9013671875,-0.45849609375,19.042966842651367,1.8920897245407104,-18.524168014526367,80.0,1097268.0,1.0
473874.5314235,268534.59375,268718.59375,283800.65625,275761.875,280780.3125,266834.0625,246044.703125,252407.4375,-0.12548828125,0.898681640625,-0.457275390625,18.280027389526367,1.2207030057907104,-18.035886764526367,80.0,1097269.0,1.0
473874.533943,268323.21875,268545.21875,282960.40625,274398.34375,279467.71875,266793.90625,245101.28125,252096.671875,-0.129150390625,0.896484375,-0.460693359375,17.639158248901367,0.3356933295726776,-17.669675827026367,80.0,1097270.0,1.0
473874.5362814,267663.3125,268515.8125,282921.5,274460.75,279574.5625,266827.90625,245406.875,252222.546875,-0.131103515625,0.896484375,-0.460693359375,17.028806686401367,-0.4272460639476776,-17.242429733276367,80.0,1097271.0,1.0
473874.5387869,267420.5625,268661.8125,283741.90625,275889.75,280979.40625,266882.15625,246567.921875,252615.140625,-0.1298828125,0.896728515625,-0.461669921875,16.418455123901367,-1.2817381620407104,-16.845701217651367,80.0,1097272.0,1.0
473874.5437597,267944.84375,268787.78125,284288.1875,276705.40625,281747.96875,266884.59375,246991.96875,252731.90625,-0.126708984375,0.89794921875,-0.46435546875,15.563963890075684,-2.197265386581421,-16.418455123901367,80.0,1097273.0,1.0
473874.5462424,268540.03125,268728.15625,283822.28125,275803.65625,280825.375,266835.84375,246101.390625,252415.9375,-0.1201171875,0.90185546875,-0.4609375,14.892577171325684,-3.082275152206421,-15.869139671325684,80.0,1097274.0,1.0
473874.5600483,268324.46875,268548.96875,282972.03125,274423.8125,279504.28125,266793.28125,245155.734375,252101.046875,-0.11376953125,0.906494140625,-0.455322265625,13.977049827575684,-3.997802495956421,-15.411375999450684,80.0,1097275.0,1.0
473874.5625199,267670.90625,268520.46875,282926.15625,274456.90625,279590.28125,266827.0,245438.4375,252221.203125,-0.111083984375,0.91162109375,-0.455078125,12.878417015075684,-4.821776866912842,-14.556883811950684,80.0,1097276.0,1.0
473874.5652323,267429.0625,268667.625,283742.09375,275862.75,280978.0625,266887.0,246577.84375,252615.21875,-0.11083984375,0.915283203125,-0.44580078125,11.474608421325684,-5.676269054412842,-13.580321311950684,80.0,1097277.0,1.0
473874.5701552,267946.75,268790.125,284286.40625,276670.1875,281742.21875,266890.46875,246994.203125,252735.390625,-0.11083984375,0.915771484375,-0.443359375,9.948729515075684,-6.469726085662842,-12.664793968200684,80.0,1097278.0,1.0
473874.5725297,268526.8125,268713.125,283808.875,275763.21875,280813.5625,266823.15625,246096.390625,252405.125,-0.11376953125,0.91552734375,-0.439208984375,8.361815452575684,-7.171630382537842,-11.749266624450684,80.0,1097279.0,1.0
473874.5750407,268321.96875,268537.71875,282965.15625,274401.75,279500.09375,266785.875,245169.140625,252092.828125,-0.119384765625,0.9111328125,-0.439453125,6.958007335662842,-7.995604991912842,-10.955809593200684,80.0,1097280.0,1.0
473874.5777381,267677.71875,268518.75,282923.75,274441.53125,279587.15625,266828.25,245470.71875,252218.96875,-0.122802734375,0.906982421875,-0.446533203125,5.462646007537842,-8.911131858825684,-10.345458030700684,80.0,1097281.0,1.0
473874.5827745,267434.875,268662.4375,283737.53125,275842.53125,280965.90625,266881.8125,246615.21875,252606.546875,-0.124755859375,0.90380859375,-0.454345703125,4.150390148162842,-9.857176780700684,-9.704588890075684,80.0,1097282.0,1.0
473874.5828134,267943.59375,268782.78125,284279.15625,276659.1875,281733.46875,266885.46875,247045.34375,252725.109375,-0.12548828125,0.901611328125,-0.457275390625,3.021239995956421,-10.925292015075684,-9.124754905700684,80.0,1097283.0,1.0
473874.5851244,268539.25,268723.78125,283818.53125,275783.78125,280831.53125,266837.90625,246180.6875,252417.28125,-0.125244140625,0.89892578125,-0.462646484375,2.197265386581421,-12.145995140075684,-8.666991233825684,80.0,1097284.0,1.0
473874.5851662,268328.875,268543.15625,282963.8125,274417.21875,279512.0625,266789.90625,245252.296875,252103.546875,-0.124267578125,0.900634765625,-0.46484375,1.4953612089157104,-13.183592796325684,-8.361815452575684,80.0,1097285.0,1.0
473874.5875388,267666.53125,268507.6875,282900.59375,274437.6875,279578.6875,266818.34375,245535.265625,252215.671875,-0.12255859375,0.901123046875,-0.460693359375,0.8544921278953552,-14.221190452575684,-7.995604991912842,80.0,1097286.0,1.0
473874.5902133,267427.8125,268662.875,283720.375,275851.03125,280969.65625,266889.5,246698.359375,252616.203125,-0.11865234375,0.905029296875,-0.454833984375,0.1525878757238388,-15.258788108825684,-7.659911632537842,80.0,1097287.0,1.0
473874.5902548,267940.375,268785.375,284275.21875,276690.125,281759.5,266895.84375,247160.59375,252746.921875,-0.115478515625,0.9111328125,-0.454833984375,-0.8850097060203552,-16.235349655151367,-7.263183116912842,80.0,1097288.0,1.0
473874.5940972,268527.78125,268712.875,283818.96875,275829.40625,280870.875,266831.90625,246319.71875,252434.171875,-0.11474609375,0.91357421875,-0.447509765625,-2.075195074081421,-17.059324264526367,-6.866454601287842,80.0,1097289.0,1.0
473874.5941379,268319.125,268528.78125,282969.0,274471.65625,279557.65625,266781.59375,245405.71875,252118.296875,-0.115478515625,0.91357421875,-0.439208984375,-3.387450933456421,-17.944334030151367,-6.469726085662842,80.0,1097290.0,1.0
473874.5941467,267668.3125,268502.3125,282906.65625,274495.4375,279628.84375,266825.75,245703.4375,252240.96875,-0.114013671875,0.9130859375,-0.438720703125,-4.669188976287842,-18.768308639526367,-6.195067882537842,80.0,1097291.0,1.0
473874.5941559,267413.25,268646.25,283708.46875,275887.3125,280998.90625,266889.5,246850.265625,252631.671875,-0.107421875,0.914306640625,-0.438720703125,-6.011962413787842,-19.622800827026367,-5.859374523162842,80.0,1097292.0,1.0
473874.5989109,267923.21875,268772.40625,284274.25,276727.21875,281795.34375,266892.28125,247312.40625,252759.171875,-0.102294921875,0.9130859375,-0.439697265625,-7.293700695037842,-20.355222702026367,-5.279540538787842,80.0,1097293.0,1.0
473874.6014487,268531.53125,268718.3125,283844.90625,275883.40625,280939.8125,266835.84375,246496.03125,252454.375,-0.0966796875,0.912109375,-0.4404296875,-8.666991233825684,-20.996091842651367,-4.760741710662842,80.0,1097294.0,1.0
473874.6014912,268346.65625,268554.96875,283016.28125,274544.78125,279657.25,266802.15625,245609.296875,252152.015625,-0.0908203125,0.909912109375,-0.44189453125,-10.040282249450684,-21.606443405151367,-4.211425304412842,80.0,1097295.0,1.0
473874.6038501,267685.3125,268515.0,282936.34375,274549.53125,279706.4375,266836.125,245894.140625,252262.609375,-0.08642578125,0.908203125,-0.439208984375,-11.260985374450684,-22.094724655151367,-3.753661870956421,80.0,1097296.0,1.0
473874.6089618,267417.71875,268651.09375,283721.15625,275920.5,281057.03125,266893.34375,247026.578125,252644.734375,-0.080322265625,0.90869140625,-0.44140625,-12.451170921325684,-22.430418014526367,-3.387450933456421,80.0,1097297.0,1.0
473874.6090035,267929.5625,268785.28125,284288.625,276758.78125,281855.875,266906.03125,247489.515625,252775.265625,-0.07666015625,0.910888671875,-0.4375,-13.610838890075684,-22.796628952026367,-2.868652105331421,80.0,1097298.0,1.0
473874.6112672,268543.09375,268736.28125,283868.78125,275914.3125,281004.71875,266850.875,246662.0625,252468.953125,-0.072265625,0.913818359375,-0.439453125,-14.739989280700684,-23.010251998901367,-2.532958745956421,80.0,1097299.0,1.0
473874.6177575,268354.4375,268562.65625,283030.125,274558.90625,279711.625,266803.5625,245741.53125,252154.0625,-0.0654296875,0.917724609375,-0.435302734375,-15.747069358825684,-23.162839889526367,-2.105712652206421,80.0,1097300.0,1.0
473874.6178009,267684.25,268522.34375,282933.125,274539.6875,279733.78125,266836.65625,245984.53125,252258.40625,-0.05908203125,0.923583984375,-0.429931640625,-16.906736373901367,-23.040769577026367,-1.6174315214157104,80.0,1097301.0,1.0
473874.6202443,267398.3125,268652.4375,283693.4375,275875.34375,281033.9375,266889.9375,247033.640625,252626.9375,-0.051513671875,0.931396484375,-0.423583984375,-18.310544967651367,-23.040769577026367,-1.0986326932907104,80.0,1097302.0,1.0
473874.6225172,267901.6875,268780.1875,284252.875,276691.625,281802.125,266892.28125,247406.203125,252745.140625,-0.040283203125,0.93994140625,-0.412353515625,-19.805906295776367,-22.735593795776367,-0.4577636420726776,80.0,1097303.0,1.0
473874.630112,268539.15625,268745.125,283858.3125,275857.65625,280961.34375,266846.125,246529.109375,252442.3125,-0.02685546875,0.951416015625,-0.407470703125,-21.545408248901367,-22.308347702026367,0.2136230319738388,80.0,1097304.0,1.0
473874.6375398,268368.1875,268579.5625,283031.03125,274506.78125,279665.40625,266805.71875,245561.46875,252130.1875,-0.013427734375,0.962646484375,-0.404052734375,-23.559568405151367,-21.453855514526367,0.9460448622703552,80.0,1097305.0,1.0
473874.6476428,267682.53125,268521.0,282909.25,274469.15625,279660.65625,266827.0,245742.78125,252220.9375,-0.005859375,0.97265625,-0.40380859375,-25.756834030151367,-20.477293014526367,1.8920897245407104,80.0,1097306.0,1.0
473874.6476823,267385.09375,268642.15625,283655.71875,275804.0,280955.1875,266875.90625,246785.71875,252590.453125,0.00390625,0.9814453125,-0.402587890625,-28.076169967651367,-19.287107467651367,2.868652105331421,80.0,1097307.0,1.0
473874.6566243,267893.8125,268775.90625,284230.4375,276640.03125,281744.75,266883.78125,247201.71875,252726.265625,0.01025390625,0.993408203125,-0.40576171875,-30.395505905151367,-17.974851608276367,3.784179449081421,80.0,1097308.0,1.0
473874.671391,268548.71875,268746.65625,283861.90625,275837.78125,280933.8125,266839.875,246377.03125,252438.640625,0.014404296875,1.003173828125,-0.41259765625,-32.623287200927734,-16.387937545776367,4.730224132537842,80.0,1097309.0,1.0
473874.6739139,268388.6875,268578.125,283048.125,274507.78125,279659.9375,266799.65625,245472.0625,252129.5625,0.012939453125,1.010986328125,-0.42041015625,-34.790035247802734,-14.770506858825684,5.615233898162842,80.0,1097310.0,1.0
473874.680106,267697.46875,268514.5625,282918.03125,274477.28125,279662.34375,266820.21875,245719.796875,252225.59375,0.01513671875,1.016845703125,-0.423583984375,-36.834712982177734,-13.244627952575684,6.469726085662842,80.0,1097311.0,1.0
473874.6826382,267380.78125,268624.8125,283645.25,275813.3125,280960.625,266866.34375,246815.65625,252600.65625,0.01953125,1.021484375,-0.4267578125,-38.879390716552734,-11.749266624450684,7.141112804412842,80.0,1097312.0,1.0
473874.6826747,267879.9375,268752.5625,284219.6875,276659.90625,281762.875,266867.15625,247267.34375,252726.890625,0.020263671875,1.028564453125,-0.433837890625,-40.313716888427734,-10.040282249450684,7.843017101287842,80.0,1097313.0,1.0
473874.689162,268549.15625,268728.34375,283874.84375,275876.96875,280979.59375,266822.4375,246484.140625,252441.859375,0.017578125,1.037109375,-0.4365234375,-41.870113372802734,-8.453368186950684,8.514403343200684,80.0,1097314.0,1.0
473874.6912757,268401.375,268565.53125,283071.8125,274554.625,279719.65625,266789.90625,245599.546875,252143.421875,0.01806640625,1.0419921875,-0.433349609375,-43.548580169677734,-6.866454601287842,9.124754905700684,80.0,1097315.0,1.0
473874.6939446,267691.03125,268492.28125,282917.5,274498.5625,279699.28125,266813.21875,245816.71875,252229.796875,0.0205078125,1.037109375,-0.429931640625,-45.440670013427734,-5.279540538787842,9.796141624450684,80.0,1097316.0,1.0
473874.7000263,267349.0625,268599.9375,283618.09375,275810.0,280967.78125,266862.6875,246884.421875,252593.328125,0.023681640625,1.02685546875,-0.4267578125,-47.088619232177734,-3.540038824081421,10.528563499450684,80.0,1097317.0,1.0
473874.7026228,267852.40625,268742.8125,284200.5625,276668.5625,281773.53125,266876.34375,247342.0,252731.546875,0.023193359375,1.0185546875,-0.423095703125,-48.583980560302734,-1.8005369901657104,11.108397483825684,80.0,1097318.0,1.0
473874.7076765,268549.875,268736.28125,283886.75,275906.0,281007.3125,266839.96875,246556.203125,252451.25,0.024658203125,1.01123046875,-0.420654296875,-49.987789154052734,0.0,11.779784202575684,80.0,1097319.0,1.0
473874.7101763,268425.15625,268588.3125,283101.75,274592.4375,279752.75,266812.59375,245659.453125,252151.46875,0.0234375,1.002197265625,-0.424072265625,-51.269527435302734,1.8005369901657104,12.512206077575684,80.0,1097320.0,1.0
473874.712644,267712.75,268516.53125,282930.8125,274530.3125,279717.625,266833.53125,245879.21875,252238.734375,0.02587890625,0.98779296875,-0.43212890625,-52.093502044677734,3.631591558456421,13.244627952575684,80.0,1097321.0,1.0
473874.7150261,267355.75,268620.40625,283615.40625,275844.15625,280976.90625,266881.90625,246961.84375,252613.703125,0.02001953125,0.973876953125,-0.435302734375,-52.581783294677734,5.371093273162842,13.732909202575684,80.0,1097322.0,1.0
473874.7175306,267855.09375,268762.46875,284203.875,276713.8125,281787.90625,266890.21875,247418.53125,252755.234375,0.014404296875,0.963623046875,-0.439453125,-52.581783294677734,6.988524913787842,14.190672874450684,80.0,1097323.0,1.0
473874.7226746,268569.375,268758.625,283909.1875,275965.1875,281030.03125,266851.5,246612.984375,252475.21875,0.006103515625,0.95703125,-0.442138671875,-52.215572357177734,8.636473655700684,14.923094749450684,80.0,1097324.0,1.0
473874.7227152,268454.125,268605.40625,283127.6875,274644.65625,279771.34375,266824.84375,245693.875,252171.40625,0.00146484375,0.946044921875,-0.447998046875,-51.757808685302734,9.796141624450684,15.350340843200684,80.0,1097325.0,1.0
473874.7251898,267726.96875,268527.625,282938.6875,274561.78125,279719.5,266846.03125,245901.65625,252258.578125,-0.002685546875,0.939453125,-0.448486328125,-51.391597747802734,10.986327171325684,15.533446311950684,80.0,1097326.0,1.0
473874.7275313,267345.03125,268627.65625,283599.03125,275859.15625,280970.1875,266895.5625,246988.484375,252631.140625,-0.001220703125,0.9267578125,-0.44970703125,-50.567623138427734,12.237547874450684,15.716551780700684,80.0,1097327.0,1.0
473874.7351841,267840.53125,268773.3125,284192.34375,276737.3125,281795.6875,266909.53125,247462.25,252775.4375,-0.003662109375,0.91064453125,-0.44775390625,-49.407955169677734,13.153075218200684,15.991209983825684,80.0,1097328.0,1.0
473874.7352261,268578.5625,268779.125,283925.625,276006.15625,281055.6875,266871.53125,246651.25,252495.6875,-0.0029296875,0.897705078125,-0.448486328125,-48.034664154052734,14.129637718200684,15.991209983825684,80.0,1097329.0,1.0
473874.7377497,268475.21875,268623.71875,283147.71875,274675.9375,279788.34375,266836.46875,245697.453125,252185.265625,-0.00537109375,0.885986328125,-0.44580078125,-46.234127044677734,15.136717796325684,16.265867233276367,80.0,1097330.0,1.0
473874.7400175,267745.21875,268542.625,282945.03125,274573.9375,279723.4375,266859.0,245892.265625,252269.75,-0.009033203125,0.875244140625,-0.4443359375,-44.342037200927734,16.082761764526367,16.357419967651367,80.0,1097331.0,1.0
473874.7426003,267345.75,268636.0625,283588.5625,275859.15625,280959.5625,266905.78125,246985.71875,252639.90625,-0.010498046875,0.86474609375,-0.4404296875,-42.297359466552734,16.845701217651367,16.479490280151367,80.0,1097332.0,1.0
473874.74505,267829.625,268771.15625,284176.59375,276738.65625,281775.3125,266906.21875,247453.40625,252777.765625,-0.013916015625,0.8603515625,-0.438720703125,-40.161128997802734,17.486570358276367,16.571043014526367,80.0,1097333.0,1.0
473874.7501957,268579.8125,268776.625,283924.75,276013.65625,281039.03125,266865.625,246622.90625,252496.84375,-0.016357421875,0.85546875,-0.438720703125,-38.177486419677734,18.188474655151367,16.510007858276367,80.0,1097334.0,1.0
473874.7502378,268493.8125,268622.46875,283156.21875,274679.71875,279769.90625,266831.375,245644.515625,252180.171875,-0.0224609375,0.846435546875,-0.435302734375,-36.010738372802734,18.646238327026367,16.632078170776367,80.0,1097335.0,1.0
473874.7526746,267753.53125,268532.4375,282934.5625,274556.40625,279685.34375,266849.1875,245824.40625,252252.5,-0.029296875,0.83203125,-0.4296875,-33.721920013427734,19.134519577026367,16.754148483276367,80.0,1097336.0,1.0
473874.7550265,267337.875,268622.46875,283561.5,275834.125,280915.9375,266893.78125,246932.703125,252623.984375,-0.0361328125,0.8291015625,-0.4287109375,-31.585691452026367,19.561765670776367,16.296384811401367,80.0,1097337.0,1.0
473874.7576614,267824.6875,268765.25,284160.0625,276733.65625,281749.65625,266899.875,247420.140625,252773.921875,-0.04052734375,0.83349609375,-0.43115234375,-29.113767623901367,19.744871139526367,15.930174827575684,80.0,1097338.0,1.0
473874.7602005,268583.125,268768.28125,283923.40625,276022.0625,281020.28125,266854.625,246571.578125,252486.03125,-0.039794921875,0.83837890625,-0.430419921875,-26.885984420776367,19.989011764526367,15.655516624450684,80.0,1097339.0,1.0
473874.76024,268504.46875,268614.4375,283158.875,274680.0625,279739.78125,266817.625,245562.09375,252163.984375,-0.031005859375,0.84228515625,-0.441162109375,-24.322507858276367,19.927976608276367,15.380858421325684,80.0,1097340.0,1.0
473874.7617428,267759.4375,268527.25,282926.96875,274533.78125,279639.03125,266836.375,245724.265625,252233.015625,-0.04443359375,0.848876953125,-0.43798828125,-21.728513717651367,19.927976608276367,14.862059593200684,80.0,1097341.0,1.0
473874.7712842,267333.03125,268621.21875,283544.84375,275803.65625,280867.03125,266885.28125,246833.90625,252604.046875,-0.047607421875,0.861572265625,-0.442626953125,-19.012449264526367,19.897459030151367,14.465331077575684,80.0,1097342.0,1.0
473874.7737688,267812.1875,268765.0,284146.9375,276711.65625,281708.34375,266893.53125,247329.578125,252754.703125,-0.052734375,0.8740234375,-0.43359375,-16.357419967651367,19.653318405151367,14.160155296325684,80.0,1097343.0,1.0
473874.7787849,268588.3125,268783.59375,283932.78125,276025.1875,280997.375,266860.0,246494.0625,252482.015625,-0.04736328125,0.87841796875,-0.427734375,-14.282225608825684,19.409177780151367,13.580321311950684,80.0,1097344.0,1.0
473874.7788245,268521.8125,268638.03125,283177.9375,274690.78125,279722.625,266828.96875,245483.765625,252162.46875,-0.0478515625,0.8818359375,-0.42041015625,-12.023924827575684,19.165037155151367,13.244627952575684,80.0,1097345.0,1.0
473874.7813886,267777.125,268549.25,282937.25,274533.71875,279615.5,266851.3125,245650.953125,252230.859375,-0.0400390625,0.886474609375,-0.42138671875,-10.162352561950684,18.890378952026367,12.817381858825684,80.0,1097346.0,1.0
473874.7839057,267336.8125,268632.84375,283539.59375,275790.84375,280833.3125,266898.25,246771.765625,252601.1875,-0.03515625,0.888427734375,-0.422607421875,-8.361815452575684,18.707273483276367,12.695311546325684,80.0,1097347.0,1.0
473874.7890165,267803.3125,268769.46875,284137.0,276703.25,281678.5625,266902.0,247280.40625,252750.953125,-0.031982421875,0.887451171875,-0.42578125,-6.500243663787842,18.402097702026367,12.573241233825684,80.0,1097348.0,1.0
473874.7912918,268579.8125,268778.75,283923.125,276023.59375,280969.21875,266860.09375,246446.140625,252475.84375,-0.02880859375,0.8857421875,-0.425048828125,-4.516601085662842,18.035886764526367,12.634276390075684,80.0,1097349.0,1.0
473874.7951891,268526.4375,268628.71875,283170.15625,274686.9375,279686.40625,266825.9375,245433.515625,252161.578125,-0.02685546875,0.88525390625,-0.427001953125,-2.624511480331421,17.852781295776367,12.695311546325684,80.0,1097350.0,1.0
473874.8005181,267790.90625,268540.5,282925.4375,274517.625,279565.875,266845.78125,245590.78125,252232.828125,-0.026123046875,0.88232421875,-0.424560546875,-0.5798339247703552,17.669675827026367,12.420653343200684,80.0,1097351.0,1.0
473874.8186064,267342.4375,268624.09375,283520.71875,275765.5625,280779.6875,266891.5625,246711.328125,252605.390625,-0.02392578125,0.881103515625,-0.429443359375,1.3732908964157104,17.517087936401367,12.054442405700684,80.0,1097352.0,1.0
473874.8186502,267799.03125,268759.53125,284117.78125,276688.78125,281634.3125,266895.9375,247233.1875,252762.75,-0.021728515625,0.87841796875,-0.429931640625,3.082275152206421,17.578123092651367,11.718749046325684,80.0,1097353.0,1.0
473874.845149,268568.1875,268762.40625,283900.15625,276012.84375,280926.03125,266848.46875,246400.28125,252479.140625,-0.021728515625,0.87939453125,-0.432861328125,5.310058116912842,17.456052780151367,11.474608421325684,80.0,1097354.0,1.0
473874.847679,268510.53125,268605.5,283137.15625,274663.4375,279630.09375,266804.65625,245373.890625,252145.75,-0.019775390625,0.876953125,-0.432861328125,7.385253429412842,17.272947311401367,11.138915061950684,80.0,1097355.0,1.0
473874.8551454,267768.1875,268516.09375,282884.84375,274480.34375,279501.25,266820.84375,245525.703125,252211.109375,-0.01513671875,0.87548828125,-0.435302734375,9.582518577575684,17.303464889526367,10.864256858825684,80.0,1097356.0,1.0
473874.8576251,267323.9375,268605.65625,283484.15625,275730.875,280721.03125,266871.4375,246653.296875,252592.515625,-0.01318359375,0.873291015625,-0.433349609375,11.566161155700684,17.181394577026367,10.620116233825684,80.0,1097357.0,1.0
473874.8601735,267775.875,268743.1875,284084.53125,276661.9375,281581.46875,266878.59375,247180.625,252752.109375,-0.01318359375,0.87060546875,-0.434814453125,13.671874046325684,16.937253952026367,10.375975608825684,80.0,1097358.0,1.0
473874.8626614,268541.5625,268748.90625,283868.59375,275994.71875,280877.9375,266836.3125,246350.484375,252468.859375,-0.010498046875,0.86962890625,-0.433349609375,16.082761764526367,16.784666061401367,10.223387718200684,80.0,1097359.0,1.0
473874.8651779,268486.65625,268595.03125,283102.375,274640.0,279573.75,266797.40625,245313.265625,252143.15625,-0.010009765625,0.869140625,-0.435791015625,18.310544967651367,16.540525436401367,10.192870140075684,80.0,1097360.0,1.0
473874.8666388,267755.9375,268511.4375,282850.6875,274446.1875,279432.03125,266817.34375,245442.109375,252199.84375,-0.0107421875,0.86962890625,-0.4345703125,20.568845748901367,16.235349655151367,10.009764671325684,80.0,1097361.0,1.0
473874.8737733,267313.375,268602.1875,283451.78125,275688.3125,280645.21875,266867.5,246555.578125,252562.46875,-0.011474609375,0.869873046875,-0.43359375,22.155759811401367,16.113279342651367,9.552000999450684,80.0,1097362.0,1.0
473874.87642,267759.4375,268739.3125,284054.28125,276625.03125,281513.09375,266877.875,247087.546875,252720.640625,-0.0078125,0.872314453125,-0.43310546875,23.376462936401367,16.204832077026367,9.094237327575684,80.0,1097363.0,1.0
473874.8787413,268518.9375,268745.0625,283835.4375,275960.0,280813.28125,266837.375,246257.046875,252447.40625,-0.003662109375,0.873291015625,-0.429931640625,24.688718795776367,16.418455123901367,8.972167015075684,80.0,1097364.0,1.0
473874.8813485,268476.375,268599.40625,283077.4375,274605.15625,279510.90625,266805.71875,245211.4375,252121.703125,-0.002197265625,0.873779296875,-0.4267578125,25.726316452026367,16.723630905151367,8.544920921325684,80.0,1097365.0,1.0
473874.8813907,267753.625,268516.53125,282830.40625,274398.25,279364.71875,266826.1875,245333.5625,252180.53125,-0.002685546875,0.875732421875,-0.426025390625,26.763914108276367,16.815183639526367,8.270262718200684,80.0,1097366.0,1.0
473874.8864156,267310.59375,268603.96875,283437.84375,275636.90625,280583.15625,266876.96875,246453.125,252553.625,-0.0048828125,0.879150390625,-0.429931640625,27.832029342651367,16.967771530151367,8.026122093200684,80.0,1097367.0,1.0
473874.888739,267749.875,268739.5,284042.5,276579.96875,281462.03125,266887.53125,246991.609375,252716.875,-0.00439453125,0.876953125,-0.428955078125,28.900144577026367,16.906736373901367,7.904052257537842,80.0,1097368.0,1.0
473874.8939611,268492.84375,268732.875,283808.96875,275914.5,280756.96875,266842.125,246161.296875,252439.625,-0.005859375,0.87353515625,-0.43310546875,29.968259811401367,16.876218795776367,7.537841320037842,80.0,1097369.0,1.0
473874.8940073,268443.03125,268578.03125,283034.25,274548.1875,279440.90625,266806.78125,245110.84375,252110.796875,-0.005126953125,0.870361328125,-0.436767578125,31.036375045776367,16.784666061401367,7.293700695037842,80.0,1097370.0,1.0
473874.8964452,267735.75,268501.875,282794.71875,274340.6875,279298.5625,266832.71875,245233.96875,252171.3125,-0.007080078125,0.869140625,-0.4375,32.318111419677734,16.632078170776367,6.896972179412842,80.0,1097371.0,1.0
473874.898774,267308.46875,268599.59375,283418.96875,275587.46875,280531.125,266883.25,246356.46875,252546.203125,-0.006103515625,0.869384765625,-0.441162109375,33.569332122802734,16.448972702026367,6.591796398162842,80.0,1097372.0,1.0
473874.9014316,267731.1875,268722.96875,284015.125,276531.59375,281409.5625,266882.34375,246898.28125,252706.0625,-0.002197265625,0.86865234375,-0.4404296875,34.790035247802734,16.326902389526367,6.134032726287842,80.0,1097373.0,1.0
473874.9064379,268464.75,268713.5,283774.71875,275873.46875,280703.59375,266837.09375,246075.28125,252436.234375,-0.001708984375,0.86962890625,-0.439453125,35.980220794677734,16.204832077026367,5.920409679412842,80.0,1097374.0,1.0
473874.9064767,268416.375,268559.53125,282997.78125,274505.71875,279382.5,266795.71875,245021.625,252106.140625,-0.00048828125,0.87060546875,-0.43408203125,36.956783294677734,15.991209983825684,5.615233898162842,80.0,1097375.0,1.0
473874.908791,267720.71875,268486.125,282764.15625,274290.25,279232.21875,266816.1875,245134.984375,252166.3125,0.000732421875,0.872314453125,-0.434326171875,37.902828216552734,15.930174827575684,5.340575695037842,80.0,1097376.0,1.0
473874.9113017,267303.4375,268586.71875,283395.09375,275530.78125,280461.9375,266864.90625,246247.296875,252531.1875,0.0029296875,0.875244140625,-0.436767578125,38.696285247802734,15.686034202575684,5.126952648162842,80.0,1097377.0,1.0
473874.9164239,267730.0,268721.34375,284000.65625,276487.96875,281353.3125,266870.8125,246800.734375,252697.921875,0.00390625,0.8759765625,-0.4365234375,39.337154388427734,15.594481468200684,4.943847179412842,80.0,1097378.0,1.0
473874.9164653,268451.09375,268711.4375,283746.125,275831.0,280643.5,266822.25,245983.28125,252424.4375,0.005126953125,0.8759765625,-0.436767578125,39.825435638427734,15.502928733825684,4.791259288787842,80.0,1097379.0,1.0
473874.9264327,268403.15625,268560.34375,282963.1875,274462.4375,279314.75,266785.34375,244931.234375,252090.671875,0.005859375,0.87744140625,-0.4375,40.344234466552734,15.502928733825684,4.608153820037842,80.0,1097380.0,1.0
473874.9288717,267726.875,268495.5,282744.03125,274248.125,279165.875,266810.1875,245041.203125,252150.3125,0.00439453125,0.87744140625,-0.438232421875,40.832515716552734,15.380858421325684,4.455565929412842,80.0,1097381.0,1.0
473874.9289131,267330.09375,268608.78125,283400.28125,275501.0,280411.9375,266864.03125,246154.671875,252521.53125,0.002685546875,0.878173828125,-0.438232421875,41.412349700927734,15.258788108825684,4.211425304412842,80.0,1097382.0,1.0
473874.9314388,267750.75,268741.46875,284013.25,276469.46875,281318.25,266871.78125,246715.078125,252688.0,0.00048828125,0.87744140625,-0.439697265625,41.595455169677734,15.136717796325684,3.997802495956421,80.0,1097383.0,1.0
473874.9337688,268445.1875,268721.53125,283742.28125,275816.53125,280610.78125,266829.25,245913.90625,252416.828125,-0.001708984375,0.87841796875,-0.4423828125,41.992183685302734,15.075682640075684,3.814697027206421,80.0,1097384.0,1.0
473874.9362624,268394.9375,268569.28125,282949.5,274446.625,279282.1875,266801.0,244869.453125,252085.9375,-0.001708984375,0.88232421875,-0.44287109375,42.297359466552734,14.831542015075684,3.479003667831421,80.0,1097385.0,1.0
473874.9389276,267736.90625,268516.25,282743.6875,274232.84375,279140.75,266839.0625,244976.734375,252147.359375,-0.00390625,0.883544921875,-0.4453125,42.663570404052734,14.617918968200684,3.265380620956421,80.0,1097386.0,1.0
473874.9451848,267346.375,268628.09375,283415.46875,275486.4375,280394.875,266892.90625,246085.921875,252520.1875,-0.00439453125,0.886962890625,-0.4453125,42.846675872802734,14.434813499450684,3.021239995956421,80.0,1097387.0,1.0
473874.9452256,267755.03125,268751.75,284023.53125,276457.03125,281304.84375,266898.0,246648.921875,252689.171875,-0.0068359375,0.889892578125,-0.447021484375,42.938228607177734,14.190672874450684,2.593993902206421,80.0,1097388.0,1.0
473874.9763326,268428.90625,268721.71875,283735.21875,275799.625,280591.65625,266848.71875,245849.171875,252417.28125,-0.009521484375,0.894287109375,-0.450927734375,42.907711029052734,13.885497093200684,2.258300542831421,80.0,1097389.0,1.0
473874.9763722,268371.40625,268560.6875,282930.90625,274419.875,279252.6875,266807.5,244798.015625,252080.75,-0.0078125,0.898193359375,-0.452880859375,42.999263763427734,13.641356468200684,1.8920897245407104,80.0,1097390.0,1.0
473874.9840528,267728.40625,268507.21875,282730.53125,274199.40625,279106.96875,266836.75,244897.25,252138.953125,-0.009521484375,0.9013671875,-0.450439453125,42.846675872802734,13.305663108825684,1.5563963651657104,80.0,1097391.0,1.0
473874.9840924,267356.46875,268626.84375,283419.25,275462.09375,280372.96875,266896.1875,246010.734375,252520.71875,-0.014892578125,0.90673828125,-0.454345703125,42.663570404052734,12.939452171325684,1.2207030057907104,80.0,1097392.0,1.0
473874.9841009,267767.90625,268751.03125,284035.78125,276450.9375,281297.25,266901.21875,246587.046875,252700.609375,-0.012939453125,0.90869140625,-0.455810546875,42.327877044677734,12.542723655700684,0.8239745497703552,80.0,1097393.0,1.0
473874.9841101,268430.25,268711.78125,283734.9375,275800.15625,280582.90625,266844.53125,245797.578125,252429.96875,-0.0107421875,0.91064453125,-0.457763671875,42.114253997802734,12.084959983825684,0.3967284858226776,80.0,1097394.0,1.0
473874.9877942,268368.5625,268548.09375,282917.5625,274418.28125,279233.5625,266801.4375,244752.6875,252094.78125,-0.01025390625,0.910400390625,-0.46044921875,41.748043060302734,11.779784202575684,0.0610351525247097,80.0,1097395.0,1.0
473874.9878358,267739.9375,268499.8125,282726.78125,274196.90625,279086.21875,266831.375,244854.78125,252154.328125,-0.010498046875,0.910400390625,-0.46240234375,41.503902435302734,11.444090843200684,-0.2136230319738388,80.0,1097396.0,1.0
473874.9878466,267388.21875,268629.71875,283439.8125,275468.09375,280368.75,266892.28125,245976.125,252535.5625,-0.010009765625,0.9111328125,-0.459228515625,41.076656341552734,10.925292015075684,-0.6103515028953552,80.0,1097397.0,1.0
473874.9900089,267794.28125,268756.75,284064.84375,276464.90625,281311.03125,266899.875,246567.109375,252712.328125,-0.0087890625,0.9111328125,-0.4580078125,40.557857513427734,10.559081077575684,-0.8544921278953552,80.0,1097398.0,1.0
473874.992529,268434.71875,268715.71875,283748.25,275811.6875,280597.375,266842.28125,245792.9375,252434.4375,-0.005126953125,0.907470703125,-0.46337890625,40.130611419677734,10.437010765075684,-1.1901854276657104,80.0,1097399.0,1.0
473874.9976556,268366.0625,268554.0625,282922.3125,274426.6875,279243.21875,266801.78125,244759.75,252095.140625,-0.0048828125,0.900146484375,-0.4609375,39.489742279052734,10.223387718200684,-1.3427733182907104,80.0,1097400.0,1.0
473875.0000073,267749.6875,268512.875,282738.75,274206.5625,279100.78125,266836.3125,244867.21875,252153.96875,-0.006103515625,0.8896484375,-0.46142578125,38.848873138427734,9.918211936950684,-1.5258787870407104,80.0,1097401.0,1.0
473875.0027359,267407.625,268644.125,283459.84375,275476.6875,280384.84375,266889.59375,245979.703125,252530.109375,-0.0078125,0.882568359375,-0.46044921875,38.391109466552734,9.674071311950684,-1.7395018339157104,80.0,1097402.0,1.0
473875.0064992,267797.6875,268759.71875,284075.40625,276470.78125,281322.46875,266884.3125,246567.375,252699.71875,-0.008056640625,0.878173828125,-0.464111328125,38.085933685302734,9.399413108825684,-1.9836424589157104,80.0,1097403.0,1.0
473875.006538,268420.9375,268709.09375,283741.71875,275814.8125,280601.5625,266828.34375,245802.140625,252425.59375,-0.012939453125,0.879638671875,-0.4638671875,37.750240325927734,8.972167015075684,-2.197265386581421,80.0,1097404.0,1.0
473875.0262817,268349.25,268540.9375,282903.90625,274421.15625,279235.625,266784.53125,244767.53125,252087.546875,-0.018310546875,0.87939453125,-0.465576171875,37.414546966552734,8.575438499450684,-2.563476324081421,80.0,1097405.0,1.0
473875.0302388,267742.15625,268499.53125,282725.96875,274194.21875,279086.40625,266814.21875,244860.78125,252141.640625,-0.021484375,0.88232421875,-0.46435546875,37.017818450927734,8.026122093200684,-2.990722417831421,80.0,1097406.0,1.0
473875.0302809,267419.15625,268644.75,283473.875,275479.375,280387.8125,266879.03125,245977.296875,252527.515625,-0.02294921875,0.88427734375,-0.46337890625,36.437984466552734,7.537841320037842,-3.326415777206421,80.0,1097407.0,1.0
473875.0302911,267815.5625,268770.71875,284110.0,276494.3125,281349.1875,266883.5,246581.59375,252706.875,-0.0263671875,0.885986328125,-0.462158203125,36.041255950927734,7.080077648162842,-3.692626714706421,80.0,1097408.0,1.0
473875.0327375,268433.65625,268720.65625,283777.125,275854.78125,280648.78125,266831.03125,245836.828125,252435.609375,-0.029296875,0.8896484375,-0.459716796875,35.308834075927734,6.469726085662842,-4.089354991912842,80.0,1097409.0,1.0
473875.035151,268370.96875,268560.15625,282944.75,274471.03125,279298.75,266792.125,244819.46875,252097.828125,-0.033447265625,0.8935546875,-0.459716796875,34.515377044677734,5.798339366912842,-4.486083507537842,80.0,1097410.0,1.0
473875.0374943,267781.0625,268526.8125,282778.09375,274243.65625,279157.46875,266826.5625,244917.375,252155.046875,-0.038818359375,0.898193359375,-0.45361328125,33.599849700927734,5.096435070037842,-4.760741710662842,80.0,1097411.0,1.0
473875.0413944,267468.0625,268675.65625,283539.84375,275528.28125,280469.78125,266895.125,246034.78125,252539.9375,-0.043701171875,0.90283203125,-0.4541015625,32.623287200927734,4.486083507537842,-5.249022960662842,80.0,1097412.0,1.0
473875.047747,267852.9375,268791.71875,284174.46875,276546.875,281443.4375,266903.09375,246647.84375,252723.5,-0.048828125,0.911376953125,-0.4560546875,31.433103561401367,3.601073980331421,-5.767821788787842,80.0,1097413.0,1.0
473875.047788,268442.125,268725.375,283816.84375,275897.34375,280733.71875,266841.21875,245904.421875,252452.0625,-0.05322265625,0.91650390625,-0.45361328125,30.059812545776367,2.685546636581421,-6.317138195037842,80.0,1097414.0,1.0
473875.073776,268360.78125,268550.9375,282959.15625,274493.375,279357.75,266793.375,244872.21875,252107.84375,-0.0595703125,0.924072265625,-0.453857421875,28.625486373901367,1.7395018339157104,-6.866454601287842,80.0,1097415.0,1.0
473875.0789267,267773.03125,268513.3125,282784.53125,274253.9375,279201.09375,266825.9375,244956.625,252160.140625,-0.0625,0.9326171875,-0.45458984375,27.160642623901367,0.6103515028953552,-7.385253429412842,80.0,1097416.0,1.0
473875.0789673,267468.0625,268661.0,283547.53125,275533.53125,280506.0,266894.3125,246061.6875,252543.96875,-0.0673828125,0.94189453125,-0.451171875,25.451658248901367,-0.4577636420726776,-7.965087413787842,80.0,1097417.0,1.0
473875.1101504,267861.34375,268793.875,284196.28125,276567.53125,281492.0625,266909.71875,246686.296875,252737.09375,-0.06884765625,0.949462890625,-0.44970703125,23.590085983276367,-1.5563963651657104,-8.514403343200684,80.0,1097418.0,1.0
473875.1127341,268444.09375,268723.875,283832.84375,275919.875,280783.0,266849.09375,245949.9375,252460.640625,-0.065673828125,0.95654296875,-0.44970703125,21.728513717651367,-2.777099370956421,-9.033202171325684,80.0,1097419.0,1.0
473875.1151539,268370.78125,268556.65625,282974.0,274514.5625,279404.78125,266807.15625,244926.578125,252116.78125,-0.062744140625,0.9609375,-0.447509765625,19.714353561401367,-3.967284917831421,-9.582518577575684,80.0,1097420.0,1.0
473875.1176333,267793.21875,268524.84375,282802.40625,274266.46875,279235.875,266838.53125,245002.671875,252162.015625,-0.062744140625,0.966064453125,-0.4462890625,17.364500045776367,-4.974364757537842,-9.826659202575684,80.0,1097421.0,1.0
473875.1201439,267496.21875,268680.3125,283577.21875,275547.21875,280542.03125,266904.59375,246104.4375,252544.59375,-0.058837890625,0.96875,-0.446044921875,15.075682640075684,-5.950927257537842,-10.223387718200684,80.0,1097422.0,1.0
473875.1227465,267880.84375,268808.96875,284226.5,276584.53125,281531.5,266911.65625,246729.5625,252732.609375,-0.057373046875,0.97119140625,-0.447998046875,12.664793968200684,-6.958007335662842,-10.650633811950684,80.0,1097423.0,1.0
473875.1251783,268459.03125,268742.625,283865.90625,275944.8125,280829.375,266852.46875,246008.046875,252461.359375,-0.05615234375,0.973876953125,-0.448974609375,10.101317405700684,-7.781981945037842,-10.833739280700684,80.0,1097424.0,1.0
473875.1252191,268386.78125,268565.875,282999.125,274537.0,279445.71875,266811.0,244991.5,252116.6875,-0.05615234375,0.976318359375,-0.451171875,7.598876476287842,-8.605956077575684,-11.108397483825684,80.0,1097425.0,1.0
473875.1276684,267804.65625,268524.75,282810.65625,274271.65625,279261.375,266835.6875,245059.265625,252155.765625,-0.0537109375,0.976806640625,-0.452880859375,5.065917491912842,-9.460448265075684,-11.352538108825684,80.0,1097426.0,1.0
473875.1300793,267501.3125,268670.3125,283575.625,275546.15625,280561.4375,266896.65625,246159.421875,252536.90625,-0.0517578125,0.97705078125,-0.454833984375,2.655029058456421,-10.192870140075684,-11.505125999450684,80.0,1097427.0,1.0
473875.1326163,267879.6875,268791.4375,284224.0,276589.53125,281560.5625,266903.625,246795.546875,252727.4375,-0.049072265625,0.974853515625,-0.458740234375,0.2746581733226776,-10.925292015075684,-11.688231468200684,80.0,1097428.0,1.0
473875.1349818,268463.96875,268732.71875,283871.0,275965.125,280872.21875,266847.21875,246094.59375,252463.859375,-0.04296875,0.9716796875,-0.458984375,-1.8310545682907104,-11.566161155700684,-11.749266624450684,80.0,1097429.0,1.0
473875.1375363,268388.40625,268559.8125,282999.125,274551.9375,279482.5625,266800.09375,245080.0,252121.34375,-0.03857421875,0.96826171875,-0.458984375,-4.089354991912842,-12.145995140075684,-11.596678733825684,80.0,1097430.0,1.0
473875.1401428,267809.3125,268526.625,282810.65625,274284.78125,279293.1875,266831.03125,245147.953125,252166.21875,-0.035400390625,0.965087890625,-0.454833984375,-6.103515148162842,-12.542723655700684,-11.718749046325684,80.0,1097431.0,1.0
473875.1440483,267499.25,268674.59375,283573.375,275556.25,280587.625,266894.25,246241.484375,252546.921875,-0.0302734375,0.96142578125,-0.44921875,-8.209227561950684,-12.817381858825684,-11.566161155700684,80.0,1097432.0,1.0
473875.1440863,267875.75,268800.84375,284232.75,276609.03125,281597.40625,266904.34375,246885.40625,252743.96875,-0.027587890625,0.958984375,-0.451416015625,-10.253905296325684,-13.000487327575684,-11.505125999450684,80.0,1097433.0,1.0
473875.1440964,268461.09375,268738.25,283882.53125,275984.4375,280917.28125,266843.4375,246185.515625,252480.40625,-0.02490234375,0.95751953125,-0.45166015625,-12.237547874450684,-13.061522483825684,-11.291502952575684,80.0,1097434.0,1.0
473875.1463541,268396.28125,268566.5,283009.3125,274568.65625,279525.5625,266799.28125,245163.25,252136.0,-0.02392578125,0.95849609375,-0.453369140625,-14.404295921325684,-13.153075218200684,-11.108397483825684,80.0,1097435.0,1.0
473875.1463915,267811.09375,268523.40625,282804.3125,274284.09375,279313.3125,266830.3125,245215.71875,252175.4375,-0.02294921875,0.9541015625,-0.453369140625,-16.418455123901367,-13.153075218200684,-10.894774436950684,80.0,1097436.0,1.0
473875.1487883,267485.40625,268662.25,283551.84375,275543.125,280590.59375,266891.46875,246302.28125,252549.328125,-0.01953125,0.9501953125,-0.45458984375,-18.371580123901367,-13.061522483825684,-10.589598655700684,80.0,1097437.0,1.0
473875.151426,267857.3125,268787.34375,284213.4375,276602.6875,281602.3125,266902.71875,246952.90625,252745.3125,-0.021240234375,0.9462890625,-0.45654296875,-20.050046920776367,-13.000487327575684,-10.314940452575684,80.0,1097438.0,1.0
473875.1514678,268454.21875,268736.5625,283882.71875,275996.75,280937.40625,266851.5,246260.71875,252486.296875,-0.022216796875,0.945556640625,-0.45556640625,-21.667478561401367,-12.878417015075684,-10.040282249450684,80.0,1097439.0,1.0
473875.1539336,268387.0625,268558.625,283004.40625,274571.625,279542.8125,266803.03125,245225.828125,252132.96875,-0.02294921875,0.94091796875,-0.4580078125,-22.979734420776367,-12.756346702575684,-9.826659202575684,80.0,1097440.0,1.0
473875.1564219,267799.03125,268515.0,282788.65625,274273.1875,279318.15625,266829.5,245264.1875,252165.59375,-0.0244140625,0.93994140625,-0.455810546875,-24.353025436401367,-12.664793968200684,-9.674071311950684,80.0,1097441.0,1.0
473875.213901,267472.0625,268658.25,283536.09375,275534.71875,280592.09375,266892.71875,246353.15625,252545.671875,-0.0263671875,0.937744140625,-0.456298828125,-25.604246139526367,-12.512206077575684,-9.490965843200684,80.0,1097442.0,1.0
473875.2164471,267838.65625,268788.3125,284206.65625,276605.4375,281616.625,266901.21875,247015.671875,252748.4375,-0.02783203125,0.93408203125,-0.455078125,-26.824949264526367,-12.359618186950684,-9.246825218200684,80.0,1097443.0,1.0
473875.2164897,268450.09375,268742.53125,283888.625,276009.28125,280969.125,266854.53125,246330.265625,252496.40625,-0.025146484375,0.9267578125,-0.451171875,-28.137205123901367,-12.207030296325684,-9.002684593200684,80.0,1097444.0,1.0
473875.2189526,268401.46875,268573.03125,283016.28125,274583.15625,279570.96875,266817.25,245286.890625,252146.375,-0.0234375,0.92041015625,-0.451904296875,-28.991697311401367,-11.871336936950684,-8.575438499450684,80.0,1097445.0,1.0
473875.2213538,267803.59375,268520.375,282779.53125,274264.3125,279320.03125,266843.09375,245307.453125,252174.265625,-0.023681640625,0.909912109375,-0.453369140625,-29.449460983276367,-11.749266624450684,-8.087157249450684,80.0,1097446.0,1.0
473875.2213952,267452.59375,268652.34375,283502.65625,275509.03125,280573.9375,266898.15625,246390.71875,252546.921875,-0.0302734375,0.904296875,-0.45849609375,-29.510496139526367,-11.749266624450684,-7.751464366912842,80.0,1097447.0,1.0
473875.2237689,267814.78125,268782.34375,284175.1875,276587.75,281603.375,266903.90625,247056.53125,252748.0,-0.03369140625,0.903564453125,-0.45849609375,-29.449460983276367,-11.840819358825684,-7.598876476287842,80.0,1097448.0,1.0
473875.2338915,268435.15625,268732.0,283872.0,276000.34375,280962.6875,266844.625,246363.0,252489.34375,-0.037353515625,0.9033203125,-0.458251953125,-29.174802780151367,-12.023924827575684,-7.385253429412842,80.0,1097449.0,1.0
473875.2364299,268395.375,268559.0,283007.25,274575.46875,279562.03125,266795.4375,245305.578125,252133.328125,-0.037353515625,0.90283203125,-0.450927734375,-29.113767623901367,-11.993407249450684,-7.110595226287842,80.0,1097450.0,1.0
473875.2386946,267788.75,268493.5625,282757.625,274247.25,279298.5625,266813.6875,245317.46875,252158.265625,-0.035400390625,0.901611328125,-0.451904296875,-29.296873092651367,-11.749266624450684,-6.958007335662842,80.0,1097451.0,1.0
473875.2412759,267429.15625,268625.6875,283475.84375,275495.0,280551.15625,266871.53125,246408.859375,252534.671875,-0.036865234375,0.903564453125,-0.44873046875,-29.907224655151367,-11.413573265075684,-6.927489757537842,80.0,1097452.0,1.0
473875.2439148,267795.0,268760.875,284165.6875,276593.65625,281599.625,266881.90625,247095.953125,252741.203125,-0.03857421875,0.90576171875,-0.445556640625,-30.548093795776367,-11.016844749450684,-6.958007335662842,80.0,1097453.0,1.0
473875.2464432,268437.21875,268729.9375,283891.9375,276028.6875,280985.9375,266832.09375,246414.671875,252491.390625,-0.0419921875,0.906494140625,-0.4375,-31.433103561401367,-10.589598655700684,-7.080077648162842,80.0,1097454.0,1.0
473875.2487911,268420.875,268569.90625,283040.5,274604.5,279590.90625,266795.625,245351.359375,252141.015625,-0.041015625,0.9091796875,-0.437255859375,-32.196041107177734,-9.948729515075684,-7.171630382537842,80.0,1097455.0,1.0
473875.2514,267811.5625,268507.125,282776.5,274257.25,279309.1875,266818.96875,245349.65625,252163.1875,-0.040771484375,0.9091796875,-0.436767578125,-32.897945404052734,-9.582518577575684,-7.171630382537842,80.0,1097456.0,1.0
473875.2587798,267429.96875,268624.875,283468.21875,275486.96875,280540.25,266869.65625,246433.1875,252535.109375,-0.039794921875,0.906005859375,-0.43994140625,-33.142086029052734,-9.368895530700684,-7.019042491912842,80.0,1097457.0,1.0
473875.2614124,267795.71875,268762.65625,284164.53125,276598.1875,281600.0625,266883.40625,247128.40625,252748.171875,-0.041259765625,0.90478515625,-0.43994140625,-33.599849700927734,-8.972167015075684,-7.019042491912842,80.0,1097458.0,1.0
473875.2652578,268452.25,268733.78125,283909.625,276044.0625,281002.03125,266834.875,246446.234375,252499.265625,-0.041015625,0.902587890625,-0.43994140625,-33.813472747802734,-8.697508811950684,-6.958007335662842,80.0,1097459.0,1.0
473875.2652992,268437.40625,268566.15625,283054.5625,274607.90625,279598.875,266791.96875,245363.515625,252140.03125,-0.040771484375,0.90283203125,-0.441162109375,-34.057613372802734,-8.239745140075684,-6.896972179412842,80.0,1097460.0,1.0
473875.2653092,267816.75,268499.09375,282770.5,274246.8125,279298.90625,266817.625,245348.21875,252157.015625,-0.0419921875,0.902099609375,-0.442138671875,-33.905025482177734,-7.629394054412842,-6.744384288787842,80.0,1097461.0,1.0
473875.267663,267418.78125,268620.9375,283449.28125,275471.9375,280524.15625,266878.59375,246438.359375,252530.5625,-0.042236328125,0.900634765625,-0.440673828125,-33.782955169677734,-7.263183116912842,-6.652831554412842,80.0,1097462.0,1.0
473875.2700874,267777.75,268764.625,284149.0625,276589.8125,281592.75,266892.4375,247145.3125,252746.203125,-0.04296875,0.900146484375,-0.4365234375,-33.721920013427734,-6.866454601287842,-6.561278820037842,80.0,1097463.0,1.0
473875.2701289,268449.28125,268738.34375,283914.1875,276051.9375,281011.78125,266846.21875,246465.1875,252499.4375,-0.043701171875,0.897216796875,-0.433837890625,-33.813472747802734,-6.256103038787842,-6.500243663787842,80.0,1097464.0,1.0
473875.2749135,268455.90625,268583.40625,283073.3125,274623.65625,279614.53125,266802.875,245373.171875,252144.5,-0.04345703125,0.896240234375,-0.431396484375,-33.813472747802734,-5.828856945037842,-6.530761241912842,80.0,1097465.0,1.0
473875.2776538,267820.03125,268499.375,282764.15625,274232.84375,279282.5625,266813.3125,245331.5,252139.3125,-0.04296875,0.892822265625,-0.433837890625,-33.538814544677734,-5.249022960662842,-6.408690929412842,80.0,1097466.0,1.0
473875.2776685,267407.6875,268614.6875,283429.0,275452.4375,280496.96875,266873.6875,246422.1875,252512.5,-0.04052734375,0.894287109375,-0.431396484375,-33.020015716552734,-4.638671398162842,-6.286620616912842,80.0,1097467.0,1.0
473875.2824218,267760.59375,268759.96875,284133.0625,276584.34375,281576.03125,266892.625,247140.75,252735.75,-0.0439453125,0.890625,-0.4326171875,-32.470699310302734,-4.150390148162842,-6.103515148162842,80.0,1097468.0,1.0
473875.2842313,268446.34375,268741.21875,283917.15625,276064.4375,281013.125,266845.40625,246467.25,252495.6875,-0.046630859375,0.887451171875,-0.435302734375,-31.890867233276367,-3.540038824081421,-6.195067882537842,80.0,1097469.0,1.0
473875.2913557,268464.40625,268579.8125,283078.96875,274632.59375,279612.8125,266802.6875,245365.390625,252141.640625,-0.0439453125,0.885498046875,-0.43359375,-31.127927780151367,-3.143310308456421,-6.072997570037842,80.0,1097470.0,1.0
473875.2938608,267832.28125,268504.28125,282766.3125,274234.71875,279274.59375,266826.09375,245326.59375,252151.921875,-0.032958984375,0.880859375,-0.4453125,-30.212400436401367,-2.655029058456421,-5.920409679412842,80.0,1097471.0,1.0
473875.2963696,267395.28125,268609.875,283409.03125,275431.96875,280469.78125,266879.40625,246412.53125,252512.5,-0.044677734375,0.87548828125,-0.44091796875,-29.113767623901367,-1.9836424589157104,-5.828856945037842,80.0,1097472.0,1.0
473875.2987622,267740.75,268749.0625,284116.4375,276570.03125,281556.53125,266890.03125,247142.0,252733.25,-0.04736328125,0.87353515625,-0.429931640625,-27.770994186401367,-1.5563963651657104,-5.371093273162842,80.0,1097473.0,1.0
473875.2987796,268452.15625,268740.75,283925.0,276070.15625,281014.1875,266841.21875,246473.328125,252497.65625,-0.05419921875,0.87548828125,-0.42041015625,-26.794431686401367,-0.9460448622703552,-5.249022960662842,80.0,1097474.0,1.0
473875.3014064,268478.4375,268578.03125,283089.59375,274632.84375,279609.59375,266793.03125,245351.171875,252132.15625,-0.05126953125,0.87451171875,-0.423583984375,-25.695798873901367,-0.5187987685203552,-5.218505382537842,80.0,1097475.0,1.0
473875.3063548,267828.4375,268488.1875,282753.15625,274209.15625,279247.34375,266804.5625,245284.75,252128.5,-0.05419921875,0.879638671875,-0.417724609375,-24.597166061401367,-0.1220703050494194,-4.943847179412842,80.0,1097476.0,1.0
473875.3088661,267382.21875,268594.5625,283388.03125,275408.28125,280438.5,266863.75,246379.359375,252498.453125,-0.04736328125,0.87890625,-0.420654296875,-23.956296920776367,0.3662109076976776,-4.913329601287842,80.0,1097477.0,1.0
473875.311287,267725.8125,268740.5,284102.65625,276558.5,281534.1875,266881.375,247123.484375,252725.46875,-0.046142578125,0.876708984375,-0.421142578125,-22.827146530151367,0.8544921278953552,-4.577636241912842,80.0,1097478.0,1.0
473875.3113095,268439.09375,268727.78125,283923.40625,276067.75,281000.4375,266832.90625,246455.4375,252488.359375,-0.046630859375,0.871826171875,-0.4169921875,-21.911619186401367,1.5258787870407104,-4.455565929412842,80.0,1097479.0,1.0
473875.3137419,268477.53125,268565.4375,283091.90625,274631.59375,279595.40625,266787.5625,245326.5,252125.640625,-0.044921875,0.869384765625,-0.417236328125,-20.690916061401367,2.166747808456421,-4.302978038787842,80.0,1097480.0,1.0
473875.3251624,267831.5,268477.71875,282743.59375,274194.75,279220.96875,266804.5625,245255.25,252125.71875,-0.0458984375,0.86865234375,-0.4208984375,-19.439695358276367,2.746581792831421,-3.906249761581421,80.0,1097481.0,1.0
473875.3275482,267373.71875,268584.46875,283363.625,275381.65625,280401.5,266860.4375,246350.03125,252501.59375,-0.048583984375,0.869384765625,-0.42041015625,-18.218992233276367,3.387450933456421,-3.784179449081421,80.0,1097482.0,1.0
473875.3301932,267710.53125,268729.75,284079.59375,276542.15625,281506.65625,266875.0,247105.15625,252734.140625,-0.048828125,0.87255859375,-0.42041015625,-16.723630905151367,3.906249761581421,-3.448486089706421,80.0,1097483.0,1.0
473875.3302414,268435.15625,268727.625,283916.0625,276067.125,280987.5625,266835.0625,246442.5625,252501.046875,-0.0458984375,0.870849609375,-0.422119140625,-15.502928733825684,4.516601085662842,-3.173827886581421,80.0,1097484.0,1.0
473875.3327324,268478.15625,268568.125,283085.65625,274623.28125,279576.34375,266790.625,245298.34375,252130.46875,-0.0419921875,0.8681640625,-0.41845703125,-14.099120140075684,4.974364757537842,-2.960204839706421,80.0,1097485.0,1.0
473875.3351254,267830.78125,268483.1875,282729.5625,274171.4375,279187.53125,266808.3125,245214.828125,252122.421875,-0.045166015625,0.86669921875,-0.417236328125,-12.542723655700684,5.615233898162842,-2.563476324081421,80.0,1097486.0,1.0
473875.3489552,267363.90625,268585.375,283340.84375,275344.28125,280356.5,266864.375,246302.5625,252489.96875,-0.044189453125,0.866943359375,-0.41845703125,-11.199950218200684,6.164550304412842,-2.258300542831421,80.0,1097487.0,1.0
473875.3490001,267701.125,268733.34375,284064.40625,276515.21875,281469.53125,266880.03125,247063.5,252722.78125,-0.04638671875,0.870849609375,-0.419921875,-9.643553733825684,6.774901866912842,-1.8920897245407104,80.0,1097488.0,1.0
473875.3537914,268435.625,268734.84375,283909.09375,276054.34375,280961.8125,266836.9375,246405.203125,252492.296875,-0.04638671875,0.870849609375,-0.416748046875,-8.514403343200684,7.354735851287842,-1.6479490995407104,80.0,1097489.0,1.0
473875.3587511,268490.15625,268575.09375,283077.875,274613.0,279547.75,266792.125,245253.0,252121.96875,-0.04443359375,0.869384765625,-0.414306640625,-7.354735851287842,7.873534679412842,-1.4648436307907104,80.0,1097490.0,1.0
473875.3638625,267842.40625,268481.75,282712.46875,274151.3125,279145.6875,266812.6875,245159.578125,252115.53125,-0.0478515625,0.86962890625,-0.4130859375,-5.981444835662842,8.514403343200684,-1.0681151151657104,80.0,1097491.0,1.0
473875.3662692,267364.0625,268578.65625,283315.0,275317.0,280308.15625,266866.0625,246246.859375,252482.09375,-0.0478515625,0.86962890625,-0.415771484375,-4.852294445037842,9.033202171325684,-0.8850097060203552,80.0,1097492.0,1.0
473875.3689152,267690.21875,268726.0,284044.28125,276498.5,281430.90625,266881.4375,247018.890625,252719.390625,-0.047607421875,0.86865234375,-0.416259765625,-3.631591558456421,9.704588890075684,-0.5798339247703552,80.0,1097493.0,1.0
473875.3714527,268421.40625,268725.375,283893.71875,276045.9375,280929.0,266835.0625,246358.34375,252484.0625,-0.04833984375,0.866943359375,-0.414306640625,-2.319335699081421,10.253905296325684,-0.3051757514476776,80.0,1097494.0,1.0
473875.3714946,268480.3125,268564.96875,283058.3125,274592.90625,279506.625,266789.8125,245195.515625,252102.921875,-0.04931640625,0.865966796875,-0.41455078125,-1.0681151151657104,10.772704124450684,-0.1831054538488388,80.0,1097495.0,1.0
473875.3739609,267831.40625,268474.3125,282682.53125,274114.5625,279088.53125,266807.6875,245088.953125,252093.453125,-0.050048828125,0.863525390625,-0.418701171875,0.2136230319738388,11.260985374450684,0.03051757626235485,80.0,1097496.0,1.0
473875.4001747,267355.84375,268578.65625,283285.65625,275277.21875,280249.03125,266868.5625,246176.40625,252460.546875,-0.050048828125,0.86279296875,-0.42041015625,1.5563963651657104,11.779784202575684,0.1220703050494194,80.0,1097497.0,1.0
473875.4026348,267680.125,268723.5,284016.75,276461.40625,281378.0,266885.28125,246957.1875,252698.90625,-0.050048828125,0.862060546875,-0.418701171875,3.082275152206421,12.207030296325684,0.3051757514476776,80.0,1097498.0,1.0
473875.4026769,268417.09375,268727.34375,283877.4375,276026.71875,280890.71875,266842.8125,246317.390625,252477.890625,-0.0498046875,0.864501953125,-0.4169921875,4.425048351287842,12.725829124450684,0.3356933295726776,80.0,1097499.0,1.0
473875.4051621,268484.59375,268565.96875,283046.3125,274582.53125,279472.90625,266794.625,245156.890625,252108.28125,-0.04931640625,0.86767578125,-0.417724609375,5.737304210662842,13.092040061950684,0.3967284858226776,80.0,1097500.0,1.0
473875.4075369,267839.09375,268468.6875,282664.09375,274089.4375,279041.875,266802.15625,245035.21875,252087.09375,-0.04931640625,0.86962890625,-0.4140625,6.927489757537842,13.610838890075684,0.4272460639476776,80.0,1097501.0,1.0
473875.4101892,267364.34375,268570.0,283267.59375,275246.625,280199.4375,266857.75,246121.421875,252454.46875,-0.04931640625,0.86962890625,-0.415283203125,7.965087413787842,14.038084983825684,0.4882812201976776,80.0,1097502.0,1.0
473875.4126406,267688.34375,268718.59375,284009.875,276451.40625,281348.3125,266879.3125,246916.96875,252703.921875,-0.049560546875,0.8701171875,-0.418701171875,8.972167015075684,14.495848655700684,0.4577636420726776,80.0,1097503.0,1.0
473875.418935,268417.09375,268718.5,283872.0,276032.34375,280872.75,266833.71875,246282.078125,252482.015625,-0.04931640625,0.87109375,-0.417236328125,9.979247093200684,15.045165061950684,0.5187987685203552,80.0,1097504.0,1.0
473875.4314639,268489.0625,268564.34375,283044.28125,274591.8125,279455.1875,266793.75,245126.140625,252119.828125,-0.048828125,0.871826171875,-0.420166015625,10.864256858825684,15.380858421325684,0.6103515028953552,80.0,1097505.0,1.0
473875.4315041,267855.09375,268481.5625,282669.03125,274097.5625,279029.28125,266820.65625,245013.125,252117.046875,-0.04931640625,0.87158203125,-0.420166015625,11.779784202575684,15.838622093200684,0.7629393935203552,80.0,1097506.0,1.0
473875.431513,267379.8125,268585.625,283273.3125,275247.53125,280186.46875,266880.125,246091.015625,252474.765625,-0.049560546875,0.87255859375,-0.42041015625,12.725829124450684,16.174314498901367,0.7934569716453552,80.0,1097507.0,1.0
473875.4315222,267689.40625,268730.03125,284009.6875,276445.9375,281332.21875,266891.09375,246881.734375,252706.875,-0.049072265625,0.8720703125,-0.42236328125,13.641356468200684,16.571043014526367,0.7629393935203552,80.0,1097508.0,1.0
473875.4338841,268408.15625,268721.90625,283863.875,276025.625,280853.625,266838.8125,246244.703125,252471.375,-0.050537109375,0.8681640625,-0.423828125,14.465331077575684,16.845701217651367,0.7629393935203552,80.0,1097509.0,1.0
473875.438926,268478.4375,268558.71875,283025.5,274577.5,279424.8125,266789.28125,245080.546875,252096.046875,-0.048583984375,0.864501953125,-0.420654296875,15.350340843200684,17.150876998901367,0.8544921278953552,80.0,1097510.0,1.0
473875.4413052,267847.59375,268470.3125,282642.125,274063.5,278977.40625,266805.53125,244947.765625,252077.171875,-0.046875,0.86376953125,-0.422119140625,16.174314498901367,17.517087936401367,0.8239745497703552,80.0,1097511.0,1.0
473875.4437363,267373.625,268574.46875,283249.71875,275204.625,280131.03125,266866.34375,246029.59375,252441.15625,-0.04541015625,0.864501953125,-0.423583984375,16.906736373901367,17.669675827026367,1.0375975370407104,80.0,1097512.0,1.0
473875.446393,267689.25,268727.875,284004.6875,276427.0625,281302.875,266887.96875,246845.171875,252693.71875,-0.045166015625,0.8642578125,-0.422119140625,17.791746139526367,18.005369186401367,1.0986326932907104,80.0,1097513.0,1.0
473875.4488377,268412.625,268731.625,283870.21875,276031.53125,280846.65625,266843.375,246235.953125,252488.71875,-0.047119140625,0.87060546875,-0.429443359375,18.554685592651367,18.249509811401367,1.0986326932907104,80.0,1097514.0,1.0
473875.4526645,268476.75,268563.71875,283021.65625,274580.5625,279410.5,266791.15625,245061.234375,252109.1875,-0.048095703125,0.874267578125,-0.4326171875,19.165037155151367,18.463132858276367,0.9460448622703552,80.0,1097515.0,1.0
473875.4738373,267843.1875,268467.34375,282631.5625,274055.75,278955.3125,266810.375,244916.84375,252069.84375,-0.049072265625,0.873046875,-0.432373046875,19.683835983276367,18.798826217651367,0.9765624403953552,80.0,1097516.0,1.0
473875.4741227,267375.6875,268578.21875,283244.71875,275193.25,280112.625,266877.78125,245999.015625,252441.78125,-0.051025390625,0.868896484375,-0.431640625,20.202634811401367,18.920896530151367,0.8544921278953552,80.0,1097517.0,1.0
473875.4815126,267677.4375,268724.65625,283992.875,276412.59375,281286.625,266895.9375,246818.078125,252699.09375,-0.052001953125,0.865478515625,-0.42919921875,20.812986373901367,19.073484420776367,0.7934569716453552,80.0,1097518.0,1.0
473875.4815531,268376.59375,268707.59375,283841.875,276017.0625,280826.25,266835.75,246203.046875,252476.640625,-0.052978515625,0.86376953125,-0.4306640625,21.545408248901367,19.256589889526367,0.6408690810203552,80.0,1097519.0,1.0
473875.4815634,268445.96875,268543.09375,282993.9375,274571.625,279393.34375,266788.46875,245036.90625,252100.234375,-0.054931640625,0.861572265625,-0.43310546875,22.186277389526367,19.287107467651367,0.6103515028953552,80.0,1097520.0,1.0
473875.4839713,267826.75,268453.9375,282607.78125,274039.03125,278931.28125,266806.09375,244886.96875,252071.28125,-0.057861328125,0.85791015625,-0.436279296875,22.888181686401367,19.470212936401367,0.5187987685203552,80.0,1097521.0,1.0
473875.4840114,267367.125,268563.1875,283229.25,275175.375,280087.75,266863.9375,245958.078125,252437.390625,-0.060791015625,0.85595703125,-0.438720703125,23.742673873901367,19.531248092651367,0.3662109076976776,80.0,1097522.0,1.0
473875.4862987,267674.125,268714.28125,283996.625,276414.75,281279.46875,266882.625,246787.40625,252696.671875,-0.06103515625,0.856201171875,-0.439453125,24.566648483276367,19.470212936401367,0.1220703050494194,80.0,1097523.0,1.0
473875.4887539,268375.53125,268702.65625,283852.78125,276035.90625,280833.0625,266833.34375,246189.640625,252481.203125,-0.060546875,0.854248046875,-0.4384765625,25.421140670776367,19.409177780151367,-0.1525878757238388,80.0,1097524.0,1.0
473875.4926496,268446.78125,268537.53125,282998.5,274587.09375,279395.5625,266784.1875,245022.96875,252095.765625,-0.0625,0.858154296875,-0.43798828125,26.000974655151367,19.226072311401367,-0.3662109076976776,80.0,1097525.0,1.0
473875.5239479,267840.6875,268460.03125,282618.96875,274045.46875,278931.53125,266806.53125,244873.03125,252068.953125,-0.06396484375,0.86083984375,-0.4384765625,26.580808639526367,19.195554733276367,-0.7019042372703552,80.0,1097526.0,1.0
473875.5242448,267395.1875,268584.125,283255.34375,275179.40625,280094.46875,266870.46875,245944.75,252436.328125,-0.064453125,0.86328125,-0.43994140625,27.130125045776367,19.073484420776367,-1.1596678495407104,80.0,1097527.0,1.0
473875.5264937,267697.8125,268738.6875,284027.28125,276425.375,281297.15625,266893.53125,246781.234375,252699.984375,-0.06396484375,0.865966796875,-0.441650390625,27.557371139526367,18.981931686401367,-1.4343260526657104,80.0,1097528.0,1.0
473875.5265358,268380.28125,268718.59375,283871.375,276051.75,280854.15625,266841.75,246190.796875,252488.71875,-0.06298828125,0.869384765625,-0.44091796875,28.045652389526367,18.890378952026367,-1.7089842557907104,80.0,1097529.0,1.0
473875.5303305,268436.96875,268541.8125,282999.125,274593.34375,279400.9375,266785.34375,245016.171875,252094.515625,-0.063232421875,0.873779296875,-0.438720703125,28.350828170776367,18.676755905151367,-2.014159917831421,80.0,1097530.0,1.0
473875.5303724,267834.09375,268461.09375,282614.03125,274036.59375,278924.3125,266804.28125,244852.546875,252058.3125,-0.06298828125,0.87548828125,-0.439697265625,28.656003952026367,18.707273483276367,-2.166747808456421,80.0,1097531.0,1.0
473875.5303812,267401.09375,268592.6875,283262.15625,275165.09375,280090.71875,266874.125,245919.53125,252433.28125,-0.062744140625,0.879638671875,-0.439208984375,28.839109420776367,18.524168014526367,-2.441406011581421,80.0,1097532.0,1.0
473875.5303904,267697.75,268738.53125,284036.3125,276414.5625,281296.375,266887.53125,246750.578125,252692.828125,-0.064208984375,0.880859375,-0.444580078125,28.961179733276367,18.310544967651367,-2.655029058456421,80.0,1097533.0,1.0
473875.5351593,268371.875,268715.0,283876.09375,276053.8125,280854.25,266834.5,246174.703125,252484.25,-0.065673828125,0.883056640625,-0.44677734375,28.930662155151367,18.249509811401367,-2.960204839706421,80.0,1097534.0,1.0
473875.5367283,268436.0625,268544.40625,283003.125,274605.59375,279404.25,266786.15625,245015.625,252104.625,-0.067626953125,0.884521484375,-0.44287109375,29.052732467651367,18.096921920776367,-3.265380620956421,80.0,1097535.0,1.0
473875.5800267,267840.15625,268463.25,282614.9375,274039.375,278915.90625,266804.375,244840.21875,252071.625,-0.066162109375,0.886962890625,-0.4462890625,29.083250045776367,17.913816452026367,-3.601073980331421,80.0,1097536.0,1.0
473875.5826492,267414.40625,268591.28125,283267.15625,275158.125,280075.15625,266873.5,245891.46875,252436.234375,-0.065673828125,0.891357421875,-0.4443359375,28.839109420776367,17.822263717651367,-3.784179449081421,80.0,1097537.0,1.0
473875.5851498,267713.65625,268746.84375,284050.8125,276416.71875,281293.59375,266898.15625,246735.203125,252700.15625,-0.067138671875,0.897705078125,-0.442626953125,28.717039108276367,17.608640670776367,-3.997802495956421,80.0,1097538.0,1.0
473875.5874901,268368.28125,268720.65625,283879.96875,276063.5625,280858.53125,266847.375,246170.5,252491.578125,-0.068115234375,0.90478515625,-0.440673828125,28.350828170776367,17.608640670776367,-4.455565929412842,80.0,1097539.0,1.0
473875.5900614,268411.21875,268531.8125,282981.0625,274598.71875,279389.03125,266787.9375,245004.71875,252104.71875,-0.068603515625,0.91064453125,-0.44580078125,27.832029342651367,17.395017623901367,-4.821776866912842,80.0,1097540.0,1.0
473875.5925103,267827.8125,268455.28125,282592.40625,274021.65625,278892.90625,266808.84375,244824.21875,252070.828125,-0.068115234375,0.91552734375,-0.4521484375,27.374265670776367,17.272947311401367,-5.065917491912842,80.0,1097541.0,1.0
473875.5951448,267413.6875,268588.9375,283251.15625,275131.46875,280049.3125,266878.0625,245867.6875,252435.78125,-0.0703125,0.919189453125,-0.451416015625,27.191160202026367,17.150876998901367,-5.004882335662842,80.0,1097542.0,1.0
473875.5976515,267710.25,268740.125,284039.625,276396.15625,281275.78125,266899.78125,246709.984375,252700.078125,-0.07470703125,0.92041015625,-0.4521484375,26.794431686401367,16.754148483276367,-5.157470226287842,80.0,1097543.0,1.0
473875.5992422,268354.0625,268705.875,283863.0625,276054.875,280848.53125,266845.25,246155.65625,252491.046875,-0.078125,0.9248046875,-0.450439453125,26.306150436401367,16.296384811401367,-5.462646007537842,80.0,1097544.0,1.0
473875.6064256,268399.59375,268522.78125,282962.90625,274603.4375,279382.0625,266787.3125,245002.9375,252105.609375,-0.078125,0.928955078125,-0.449951171875,25.665281295776367,15.960692405700684,-5.645751476287842,80.0,1097545.0,1.0
473875.6087796,267824.34375,268450.375,282574.875,274018.90625,278872.71875,266806.34375,244815.0,252065.015625,-0.080322265625,0.932373046875,-0.448486328125,24.993894577026367,15.686034202575684,-5.889892101287842,80.0,1097546.0,1.0
473875.6112775,267419.15625,268587.875,283247.84375,275125.5,280030.34375,266874.3125,245851.234375,252431.5,-0.0810546875,0.938232421875,-0.447998046875,24.139402389526367,15.319823265075684,-6.103515148162842,80.0,1097547.0,1.0
473875.6164398,267709.90625,268740.65625,284043.5625,276392.65625,281267.03125,266890.9375,246693.359375,252697.03125,-0.083251953125,0.945556640625,-0.445068359375,23.193357467651367,14.923094749450684,-6.134032726287842,80.0,1097548.0,1.0
473875.6187373,268345.9375,268707.6875,283868.875,276065.875,280851.03125,266835.0625,246155.84375,252491.390625,-0.086669921875,0.94873046875,-0.446044921875,22.094724655151367,14.465331077575684,-6.225585460662842,80.0,1097549.0,1.0
473875.6214173,268387.59375,268522.34375,282960.40625,274611.75,279377.6875,266779.53125,245008.21875,252100.515625,-0.0908203125,0.9501953125,-0.445556640625,20.935056686401367,13.916014671325684,-6.347655773162842,80.0,1097550.0,1.0
473875.6239641,267814.9375,268449.1875,282566.375,274012.0,278860.90625,266801.4375,244812.859375,252051.609375,-0.08984375,0.955078125,-0.444580078125,19.500730514526367,13.488768577575684,-6.561278820037842,80.0,1097551.0,1.0
473875.6240051,267423.53125,268600.3125,283250.09375,275113.25,280025.625,266879.46875,245848.09375,252417.640625,-0.0927734375,0.95556640625,-0.44775390625,18.005369186401367,13.214110374450684,-6.591796398162842,80.0,1097552.0,1.0
473875.6264645,267714.53125,268755.5,284058.78125,276396.40625,281277.84375,266903.96875,246702.390625,252690.421875,-0.096923828125,0.95458984375,-0.453125,16.845701217651367,12.664793968200684,-6.530761241912842,80.0,1097553.0,1.0
473875.626507,268342.1875,268714.03125,283882.625,276083.75,280871.125,266850.96875,246178.1875,252490.953125,-0.09912109375,0.95556640625,-0.455322265625,15.869139671325684,12.084959983825684,-6.561278820037842,80.0,1097554.0,1.0
473875.6287729,268387.4375,268529.03125,282971.5,274634.46875,279400.125,266796.34375,245039.59375,252106.765625,-0.1015625,0.95458984375,-0.45751953125,14.831542015075684,11.413573265075684,-6.591796398162842,80.0,1097555.0,1.0
473875.6339283,267823.71875,268458.84375,282577.5625,274027.125,278878.96875,266814.9375,244842.625,252062.953125,-0.103271484375,0.952392578125,-0.457275390625,13.641356468200684,10.620116233825684,-6.622313976287842,80.0,1097556.0,1.0
473875.6364412,267429.6875,268599.84375,283259.5625,275117.25,280036.4375,266881.28125,245869.5625,252424.875,-0.10498046875,0.952392578125,-0.455322265625,12.420653343200684,9.918211936950684,-6.774901866912842,80.0,1097557.0,1.0
473875.6389586,267714.90625,268752.28125,284069.21875,276403.125,281294.21875,266900.0625,246731.796875,252699.09375,-0.10400390625,0.953125,-0.455078125,11.352538108825684,9.277342796325684,-7.080077648162842,80.0,1097558.0,1.0
473875.6390005,268330.8125,268708.5625,283887.90625,276097.78125,280891.0625,266840.40625,246215.828125,252499.4375,-0.102294921875,0.95263671875,-0.453369140625,10.162352561950684,8.300780296325684,-7.019042491912842,80.0,1097559.0,1.0
473875.6415293,268371.25,268517.0625,282965.84375,274647.15625,279411.46875,266780.875,245071.78125,252108.28125,-0.1025390625,0.951171875,-0.453369140625,8.758543968200684,7.537841320037842,-6.896972179412842,80.0,1097560.0,1.0
473875.6415712,267810.46875,268440.8125,282565.65625,274032.125,278875.65625,266798.84375,244861.3125,252057.765625,-0.1015625,0.949951171875,-0.45703125,7.537841320037842,6.744384288787842,-6.866454601287842,80.0,1097561.0,1.0
473875.6437422,267423.96875,268589.46875,283255.53125,275122.90625,280035.71875,266873.40625,245884.484375,252421.296875,-0.100830078125,0.94873046875,-0.457275390625,6.225585460662842,6.103515148162842,-6.744384288787842,80.0,1097562.0,1.0
473875.6476432,267712.125,268748.8125,284078.96875,276418.125,281308.34375,266896.84375,246749.328125,252696.140625,-0.099365234375,0.94384765625,-0.455810546875,4.913329601287842,5.340575695037842,-6.561278820037842,80.0,1097563.0,1.0
473875.6737987,268329.9375,268711.0625,283906.0625,276129.25,280920.75,266838.09375,246243.015625,252501.328125,-0.096923828125,0.939697265625,-0.457763671875,3.753661870956421,4.669188976287842,-6.408690929412842,80.0,1097564.0,1.0
473875.6738385,268375.0,268520.375,282983.90625,274684.4375,279441.96875,266777.28125,245100.65625,252115.703125,-0.099609375,0.934326171875,-0.457275390625,2.624511480331421,4.150390148162842,-6.195067882537842,80.0,1097565.0,1.0
473875.6764324,267814.9375,268447.0625,282576.5,274055.75,278895.15625,266795.875,244884.375,252064.84375,-0.10107421875,0.929443359375,-0.458251953125,1.5563963651657104,3.448486089706421,-6.072997570037842,80.0,1097566.0,1.0
473875.6764737,267429.4375,268601.28125,283263.75,275134.34375,280049.75,266872.0625,245906.84375,252429.171875,-0.098876953125,0.925537109375,-0.462158203125,0.5493163466453552,2.777099370956421,-5.798339366912842,80.0,1097567.0,1.0
473875.6814213,267714.09375,268759.0,284090.59375,276433.6875,281334.34375,266901.125,246783.828125,252706.0625,-0.098876953125,0.922119140625,-0.460205078125,-0.3662109076976776,2.197265386581421,-5.493163585662842,80.0,1097568.0,1.0
473875.6839327,268328.0625,268716.625,283918.3125,276153.75,280956.96875,266844.625,246288.609375,252513.21875,-0.097412109375,0.919189453125,-0.462890625,-1.2817381620407104,1.6174315214157104,-5.340575695037842,80.0,1097569.0,1.0
473875.6864321,268370.78125,268521.4375,282985.625,274699.46875,279473.1875,266780.15625,245144.28125,252121.609375,-0.09814453125,0.9150390625,-0.463623046875,-2.044677495956421,0.9765624403953552,-5.157470226287842,80.0,1097570.0,1.0
473875.6887285,267810.9375,268443.9375,282570.0625,274056.1875,278915.0,266799.03125,244919.96875,252065.015625,-0.09814453125,0.91162109375,-0.462646484375,-2.655029058456421,0.3662109076976776,-4.943847179412842,80.0,1097571.0,1.0
473875.6916221,267420.3125,268591.8125,283253.46875,275125.65625,280058.34375,266872.0625,245934.640625,252425.5,-0.100341796875,0.90771484375,-0.467041015625,-3.204345464706421,-0.3356933295726776,-4.760741710662842,80.0,1097572.0,1.0
473875.6963673,267706.6875,268754.71875,284090.3125,276440.5,281350.90625,266896.46875,246818.53125,252711.421875,-0.100830078125,0.90380859375,-0.46533203125,-3.784179449081421,-0.9765624403953552,-4.608153820037842,80.0,1097573.0,1.0
473875.6989494,268320.46875,268712.25,283924.5625,276173.4375,280986.84375,266834.4375,246328.75,252518.578125,-0.10400390625,0.90185546875,-0.466064453125,-4.364013195037842,-1.4343260526657104,-4.425048351287842,80.0,1097574.0,1.0
473875.7014332,268372.21875,268522.59375,282998.84375,274728.25,279507.59375,266770.40625,245184.875,252131.359375,-0.101318359375,0.897705078125,-0.4658203125,-4.882812023162842,-2.014159917831421,-4.089354991912842,80.0,1097575.0,1.0
473875.7151825,267825.84375,268453.21875,282583.09375,274081.84375,278942.625,266789.28125,244954.390625,252078.421875,-0.101318359375,0.89501953125,-0.46142578125,-5.340575695037842,-2.593993902206421,-3.784179449081421,80.0,1097576.0,1.0
473875.7152246,267433.625,268598.5,283257.5,275140.34375,280074.625,266860.25,245958.078125,252427.921875,-0.10302734375,0.89501953125,-0.4638671875,-5.798339366912842,-3.112792730331421,-3.662109136581421,80.0,1097577.0,1.0
473875.7176496,267706.9375,268756.75,284090.15625,276450.15625,281362.78125,266884.84375,246838.109375,252699.71875,-0.103515625,0.89404296875,-0.465576171875,-6.225585460662842,-3.723144292831421,-3.356933355331421,80.0,1097578.0,1.0
473875.7201168,268320.09375,268719.84375,283934.84375,276190.59375,281005.25,266830.59375,246353.875,252505.875,-0.103515625,0.891357421875,-0.4658203125,-6.561278820037842,-4.241942882537842,-3.021239995956421,80.0,1097579.0,1.0
473875.7201535,268378.40625,268530.5625,283011.1875,274741.9375,279527.625,266775.9375,245206.0625,252118.65625,-0.103271484375,0.88916015625,-0.46826171875,-6.988524913787842,-4.791259288787842,-2.807616949081421,80.0,1097580.0,1.0
473875.7219337,267827.8125,268449.28125,282583.375,274077.8125,278947.8125,266797.9375,244961.546875,252059.5625,-0.10205078125,0.884765625,-0.468017578125,-7.263183116912842,-5.279540538787842,-2.532958745956421,80.0,1097581.0,1.0
473875.747543,267434.875,268599.84375,283256.4375,275133.34375,280078.46875,266872.40625,245969.34375,252418.984375,-0.10107421875,0.8837890625,-0.4716796875,-7.659911632537842,-5.859374523162842,-2.258300542831421,80.0,1097582.0,1.0
473875.7526577,267707.84375,268763.125,284097.75,276453.8125,281378.0625,266895.125,246865.109375,252707.765625,-0.101318359375,0.88037109375,-0.474365234375,-7.873534679412842,-6.286620616912842,-2.197265386581421,80.0,1097583.0,1.0
473875.7577836,268321.71875,268722.6875,283948.0,276205.0,281032.25,266838.09375,246385.796875,252526.625,-0.101318359375,0.87744140625,-0.473388671875,-7.843017101287842,-6.683349132537842,-2.075195074081421,80.0,1097584.0,1.0
473875.7578254,268389.5625,268533.78125,283028.0,274762.9375,279557.84375,266783.1875,245231.640625,252135.015625,-0.099609375,0.872802734375,-0.474609375,-7.781981945037842,-7.110595226287842,-1.8310545682907104,80.0,1097585.0,1.0
473875.7600247,267838.03125,268452.59375,282589.1875,274089.96875,278962.75,266795.8125,244972.265625,252065.375,-0.096923828125,0.871337890625,-0.476806640625,-7.568358898162842,-7.537841320037842,-1.7395018339157104,80.0,1097586.0,1.0
473875.7626432,267434.6875,268598.0625,283248.84375,275137.125,280080.4375,266869.5625,245978.640625,252424.703125,-0.09375,0.867431640625,-0.48095703125,-7.202147960662842,-7.995604991912842,-1.6479490995407104,80.0,1097587.0,1.0
473875.7651619,267700.25,268758.71875,284089.6875,276462.75,281388.71875,266899.25,246884.953125,252712.59375,-0.0888671875,0.864501953125,-0.48291015625,-7.019042491912842,-8.270262718200684,-1.5563963651657104,80.0,1097588.0,1.0
473875.7676807,268320.46875,268726.0,283954.59375,276221.53125,281057.8125,266847.3125,246414.84375,252523.40625,-0.08447265625,0.864990234375,-0.4814453125,-6.561278820037842,-8.605956077575684,-1.6174315214157104,80.0,1097589.0,1.0
473875.7750276,268389.3125,268537.09375,283034.96875,274769.84375,279579.46875,266787.65625,245252.46875,252125.71875,-0.08056640625,0.86474609375,-0.479736328125,-6.164550304412842,-8.728026390075684,-1.6479490995407104,80.0,1097590.0,1.0
473875.7777479,267837.5625,268452.875,282587.84375,274081.03125,278974.71875,266800.53125,244984.515625,252057.234375,-0.074951171875,0.8662109375,-0.482177734375,-5.767821788787842,-8.911131858825684,-1.6784666776657104,80.0,1097591.0,1.0
473875.777789,267428.875,268589.65625,283236.65625,275116.09375,280078.375,266869.46875,245977.734375,252410.9375,-0.06982421875,0.86865234375,-0.479736328125,-5.523681163787842,-8.880614280700684,-1.7700194120407104,80.0,1097592.0,1.0
473875.780142,267689.6875,268751.84375,284077.1875,276446.46875,281384.78125,266895.3125,246881.90625,252702.125,-0.06396484375,0.87353515625,-0.47900390625,-5.310058116912842,-8.728026390075684,-1.7700194120407104,80.0,1097593.0,1.0
473875.7826141,268317.15625,268727.15625,283954.53125,276222.0625,281069.53125,266846.125,246423.875,252526.53125,-0.0595703125,0.875,-0.4775390625,-5.340575695037842,-8.514403343200684,-1.8310545682907104,80.0,1097594.0,1.0
473875.7850751,268394.03125,268533.34375,283036.9375,274773.84375,279591.625,266783.1875,245263.734375,252133.140625,-0.056884765625,0.879150390625,-0.476318359375,-5.401610851287842,-8.300780296325684,-1.9836424589157104,80.0,1097595.0,1.0
473875.7877456,267843.03125,268451.4375,282579.09375,274076.3125,278973.375,266794.28125,244988.28125,252059.828125,-0.0546875,0.880126953125,-0.4755859375,-5.523681163787842,-7.843017101287842,-1.9531248807907104,80.0,1097596.0,1.0
473875.7877919,267433.625,268593.6875,283222.46875,275106.1875,280070.59375,266864.46875,245978.546875,252414.59375,-0.05224609375,0.880615234375,-0.478759765625,-5.615233898162842,-7.598876476287842,-1.9531248807907104,80.0,1097597.0,1.0
473875.7901081,267698.1875,268758.0,284074.25,276445.84375,281388.4375,266893.15625,246892.546875,252712.234375,-0.051025390625,0.881591796875,-0.48388671875,-5.462646007537842,-7.110595226287842,-2.044677495956421,80.0,1097598.0,1.0
473875.792769,268326.8125,268728.6875,283957.90625,276224.75,281079.09375,266841.21875,246437.03125,252534.765625,-0.048095703125,0.879638671875,-0.48583984375,-5.249022960662842,-6.805419445037842,-2.105712652206421,80.0,1097599.0,1.0
473875.7928095,268409.9375,268542.09375,283046.15625,274775.90625,279604.4375,266784.0,245275.625,252142.265625,-0.047119140625,0.88037109375,-0.494140625,-5.065917491912842,-6.347655773162842,-2.227782964706421,80.0,1097600.0,1.0
473875.7950519,267855.1875,268456.96875,282582.21875,274068.0625,278975.625,266798.65625,244989.078125,252058.3125,-0.046875,0.881103515625,-0.494873046875,-4.852294445037842,-5.920409679412842,-2.471923589706421,80.0,1097601.0,1.0
473875.8239099,267434.53125,268596.8125,283218.78125,275095.0,280064.5,266870.53125,245972.828125,252405.125,-0.046630859375,0.88427734375,-0.492919921875,-4.608153820037842,-5.493163585662842,-2.746581792831421,80.0,1097602.0,1.0
473875.8277658,267687.1875,268760.34375,284069.9375,276437.96875,281385.0625,266898.4375,246885.125,252700.34375,-0.044921875,0.8837890625,-0.49072265625,-4.364013195037842,-5.096435070037842,-2.929687261581421,80.0,1097603.0,1.0
473875.8278064,268314.90625,268730.5625,283958.0,276226.0,281087.15625,266842.90625,246433.984375,252523.578125,-0.04248046875,0.8837890625,-0.488525390625,-4.486083507537842,-4.486083507537842,-3.234863042831421,80.0,1097604.0,1.0
473875.8278159,268407.1875,268545.59375,283046.9375,274778.84375,279608.53125,266780.34375,245270.359375,252127.515625,-0.0390625,0.88525390625,-0.485595703125,-4.516601085662842,-3.967284917831421,-3.448486089706421,80.0,1097605.0,1.0
473875.8278253,267863.84375,268463.40625,282587.125,274071.65625,278976.25,266795.625,244983.984375,252055.359375,-0.039794921875,0.88671875,-0.48779296875,-4.486083507537842,-3.417968511581421,-3.540038824081421,80.0,1097606.0,1.0
473875.8313733,267438.28125,268595.75,283216.28125,275088.21875,280052.96875,266860.4375,245961.828125,252403.59375,-0.04052734375,0.885498046875,-0.489990234375,-4.425048351287842,-2.899169683456421,-3.784179449081421,80.0,1097607.0,1.0
473875.8314084,267690.125,268765.53125,284072.53125,276438.96875,281381.5625,266890.65625,246885.40625,252703.921875,-0.04248046875,0.88720703125,-0.4931640625,-4.425048351287842,-2.288818120956421,-3.814697027206421,80.0,1097608.0,1.0
473875.8314183,268321.25,268740.9375,283973.375,276240.84375,281096.09375,266843.71875,246446.046875,252533.421875,-0.04345703125,0.885498046875,-0.493896484375,-4.364013195037842,-1.8005369901657104,-3.997802495956421,80.0,1097609.0,1.0
473875.8362479,268415.40625,268548.25,283062.9375,274794.875,279623.375,266784.625,245281.4375,252141.640625,-0.043701171875,0.884521484375,-0.493896484375,-4.333495616912842,-1.2512205839157104,-4.180907726287842,80.0,1097610.0,1.0
473875.838743,267869.21875,268458.84375,282588.5625,274073.875,278976.0625,266800.71875,244982.46875,252066.53125,-0.044189453125,0.88232421875,-0.49462890625,-4.180907726287842,-0.7019042372703552,-4.180907726287842,80.0,1097611.0,1.0
473875.841242,267445.96875,268595.46875,283216.03125,275087.3125,280049.5,266877.875,245962.09375,252416.203125,-0.044921875,0.879638671875,-0.49658203125,-3.906249761581421,-0.1831054538488388,-4.333495616912842,80.0,1097612.0,1.0
473875.8449976,267693.96875,268763.125,284079.0625,276443.15625,281387.46875,266908.8125,246895.953125,252719.390625,-0.04345703125,0.87841796875,-0.496337890625,-3.662109136581421,0.3051757514476776,-4.486083507537842,80.0,1097613.0,1.0
473875.8762617,268326.09375,268742.28125,283988.6875,276254.25,281119.78125,266853.375,246466.078125,252550.046875,-0.042724609375,0.878662109375,-0.4951171875,-3.509521245956421,0.7629393935203552,-4.608153820037842,80.0,1097614.0,1.0
473875.8800295,268423.53125,268551.5625,283077.15625,274806.03125,279644.21875,266788.65625,245293.515625,252150.40625,-0.04345703125,0.877197265625,-0.491943359375,-3.265380620956421,1.2817381620407104,-4.699706554412842,80.0,1097615.0,1.0
473875.8800355,267877.09375,268457.0625,282593.84375,274072.375,278984.28125,266801.4375,244983.453125,252064.921875,-0.047607421875,0.877685546875,-0.496337890625,-3.051757574081421,1.8615721464157104,-4.699706554412842,80.0,1097616.0,1.0
473875.8800373,267447.5,268589.21875,283214.125,275076.75,280050.03125,266872.59375,245962.453125,252414.59375,-0.051513671875,0.878173828125,-0.495361328125,-2.777099370956421,2.258300542831421,-4.760741710662842,80.0,1097617.0,1.0
473875.8851621,267693.0,268759.4375,284080.125,276438.34375,281393.8125,266906.5,246905.96875,252720.09375,-0.0537109375,0.876708984375,-0.494384765625,-2.593993902206421,2.716064214706421,-4.730224132537842,80.0,1097618.0,1.0
473875.8851744,268325.1875,268740.75,283996.53125,276263.1875,281133.46875,266860.0,246482.4375,252551.75,-0.055908203125,0.876708984375,-0.491943359375,-2.349853277206421,3.021239995956421,-4.821776866912842,80.0,1097619.0,1.0
473875.8900684,268427.21875,268552.03125,283086.46875,274818.28125,279657.53125,266797.21875,245305.765625,252151.921875,-0.05908203125,0.875244140625,-0.497802734375,-2.136230230331421,3.448486089706421,-5.035399913787842,80.0,1097620.0,1.0
473875.8976898,267882.4375,268463.0625,282595.8125,274072.375,278982.40625,266806.96875,244983.53125,252067.34375,-0.060546875,0.875244140625,-0.498779296875,-1.9226073026657104,3.753661870956421,-5.004882335662842,80.0,1097621.0,1.0
473875.8977041,267450.0,268600.125,283209.65625,275065.5,280039.3125,266874.9375,245953.953125,252413.703125,-0.0615234375,0.874267578125,-0.496826171875,-1.8005369901657104,4.119872570037842,-5.187987804412842,80.0,1097622.0,1.0
473875.9001154,267687.46875,268765.96875,284078.15625,276432.09375,281388.90625,266903.4375,246898.8125,252720.71875,-0.06396484375,0.875,-0.49609375,-1.6479490995407104,4.333495616912842,-5.157470226287842,80.0,1097623.0,1.0
473875.9026116,268319.65625,268745.75,284001.28125,276266.59375,281139.90625,266850.4375,246480.390625,252557.375,-0.064453125,0.873779296875,-0.494140625,-1.5869139432907104,4.577636241912842,-5.218505382537842,80.0,1097624.0,1.0
473875.9041554,268430.15625,268560.4375,283093.96875,274827.0625,279667.53125,266788.5625,245302.71875,252160.6875,-0.065185546875,0.871826171875,-0.492431640625,-1.2817381620407104,4.699706554412842,-5.310058116912842,80.0,1097625.0,1.0
473875.9486345,267889.78125,268469.125,282598.40625,274074.0625,278984.46875,266800.09375,244972.53125,252070.109375,-0.066162109375,0.873779296875,-0.49462890625,-1.1291502714157104,5.187987804412842,-5.279540538787842,80.0,1097626.0,1.0
473875.9513512,267457.59375,268606.375,283208.78125,275056.5625,280033.65625,266873.40625,245937.6875,252410.9375,-0.065673828125,0.87353515625,-0.494384765625,-0.9765624403953552,5.401610851287842,-5.218505382537842,80.0,1097627.0,1.0
473875.9529471,267689.25,268774.90625,284081.375,276427.625,281390.78125,266903.34375,246892.28125,252713.390625,-0.066162109375,0.873046875,-0.494873046875,-0.7629393935203552,5.523681163787842,-5.096435070037842,80.0,1097628.0,1.0
473875.9586724,268319.65625,268754.09375,284011.375,276274.625,281151.875,266850.25,246480.75,252547.71875,-0.0654296875,0.872802734375,-0.49462890625,-0.6103515028953552,5.767821788787842,-5.035399913787842,80.0,1097629.0,1.0
473875.9612475,268436.25,268564.96875,283104.4375,274839.375,279676.03125,266785.34375,245301.203125,252148.703125,-0.06591796875,0.872802734375,-0.492919921875,-0.4577636420726776,6.011962413787842,-4.974364757537842,80.0,1097630.0,1.0
473875.9636865,267896.65625,268468.25,282600.71875,274074.40625,278978.03125,266795.71875,244960.203125,252057.328125,-0.068115234375,0.87451171875,-0.49365234375,-0.3051757514476776,6.195067882537842,-4.852294445037842,80.0,1097631.0,1.0
473875.9636981,267457.78125,268598.5,283202.6875,275045.46875,280015.25,266866.53125,245918.203125,252399.390625,-0.0703125,0.876708984375,-0.494140625,-0.1525878757238388,6.378173351287842,-4.638671398162842,80.0,1097632.0,1.0
473875.9663714,267686.03125,268766.25,284076.65625,276422.78125,281376.1875,266896.125,246878.6875,252711.703125,-0.072265625,0.876708984375,-0.4892578125,0.0915527269244194,6.561278820037842,-4.516601085662842,80.0,1097633.0,1.0
473875.9688999,268312.9375,268745.21875,284011.84375,276288.40625,281153.21875,266845.40625,246483.421875,252561.140625,-0.07373046875,0.876953125,-0.488037109375,0.1831054538488388,6.622313976287842,-4.211425304412842,80.0,1097634.0,1.0
